Dividing Wavelength (nm)	Counts (n)	Blue Motor Position (mm): 11.000000	Red Motor Position (mm): 0.000000	
326.493990	2163.549805
326.888308	2163.549805
327.282561	2163.549805
327.676750	2121.378032
328.070874	2116.253699
328.464933	2120.153032
328.858929	2122.136726
329.252859	2127.059413
329.646726	2136.695578
330.040528	2147.019861
330.434265	2160.257931
330.827938	2179.290808
331.221547	2196.380319
331.615091	2212.242310
332.008571	2231.038252
332.401986	2251.076838
332.795338	2267.962183
333.188625	2288.603188
333.581847	2306.584983
333.975006	2323.485452
334.368100	2345.255675
334.761129	2362.244363
335.154095	2376.551158
335.546996	2399.576628
335.939833	2418.964906
336.332606	2436.765220
336.725315	2452.002107
337.117960	2462.475104
337.510540	2471.040025
337.903056	2483.239617
338.295508	2491.396204
338.687896	2503.376506
339.080220	2509.241889
339.472480	2516.279339
339.864676	2523.755371
340.256807	2530.049251
340.648875	2529.141843
341.040879	2529.555218
341.432818	2534.631660
341.824694	2537.963863
342.216506	2536.985879
342.608253	2539.788760
342.999937	2542.016950
343.391557	2540.353370
343.783113	2540.239944
344.174605	2538.415046
344.566033	2538.878832
344.957397	2537.079140
345.348697	2535.465971
345.739934	2534.722401
346.131106	2533.008408
346.522215	2531.770805
346.913260	2529.126720
347.304241	2530.087060
347.695159	2523.541122
348.086012	2524.856863
348.476802	2522.560617
348.867528	2517.453928
349.258191	2515.790348
349.648789	2513.622651
350.039324	2510.822290
350.429796	2514.270440
350.820203	2510.308093
351.210548	2508.422701
351.600828	2512.551406
351.991045	2508.654594
352.381198	2506.121414
352.771288	2510.224914
353.161314	2506.857423
353.551276	2507.429594
353.941175	2505.145951
354.331010	2506.262567
354.720782	2502.738800
355.110490	2505.256857
355.500135	2504.314161
355.889717	2505.531599
356.279235	2507.845489
356.668689	2505.478667
357.058080	2503.149654
357.447408	2507.880777
357.836672	2506.323061
358.225873	2507.656446
358.615010	2507.175016
359.004084	2510.164420
359.393095	2507.739625
359.782043	2509.859430
360.170927	2506.290293
360.559748	2508.175685
360.948505	2507.754748
361.337199	2509.655263
361.725830	2512.427898
362.114398	2508.636950
362.502903	2510.698782
362.891344	2513.761283
363.279722	2512.684997
363.668037	2512.102743
364.056289	2512.997548
364.444478	2513.095851
364.832603	2517.232117
365.220665	2515.591222
365.608665	2518.033661
365.996601	2516.049967
366.384474	2514.666170
366.772284	2518.656243
367.160031	2516.866634
367.547715	2519.069618
367.935336	2516.465862
368.322893	2517.464011
368.710388	2515.744977
369.097820	2515.800430
369.485189	2512.997548
369.872495	2519.077180
370.259738	2520.357633
370.646918	2521.307890
371.034035	2519.064577
371.421090	2521.607839
371.808081	2522.517767
372.195010	2523.387366
372.581875	2523.589012
372.968678	2520.902078
373.355418	2523.110103
373.742096	2520.796213
374.128710	2520.720596
374.515262	2521.058353
374.901751	2521.985926
375.288177	2524.078004
375.674540	2523.460463
376.060841	2522.853004
376.447079	2525.539939
376.833254	2524.098169
377.219367	2524.440968
377.605417	2523.561286
377.991404	2526.686802
378.377329	2525.280320
378.763191	2527.634538
379.148991	2525.645803
379.534727	2525.817203
379.920402	2528.229395
380.306013	2527.246370
380.691563	2527.218643
381.077049	2523.596574
381.462474	2525.323169
381.847835	2526.046575
382.233134	2524.892151
382.618371	2527.180835
383.003545	2526.338962
383.388657	2525.537418
383.773706	2527.553880
384.158693	2529.235105
384.543618	2526.938859
384.928480	2529.494724
385.313280	2529.174611
385.698017	2528.113448
386.082692	2528.978006
386.467305	2530.923891
386.851856	2529.885414
387.236344	2531.410363
387.620770	2526.099507
388.005133	2527.022038
388.389435	2526.338962
388.773674	2525.605474
389.157851	2531.339787
389.541965	2529.630835
389.926018	2527.511030
390.310008	2532.098480
390.693936	2531.743079
391.077802	2531.513706
391.461606	2531.173428
391.845348	2530.810465
392.229027	2529.782070
392.612645	2532.244674
392.996200	2529.877852
393.379694	2530.598737
393.763125	2533.623429
394.146494	2534.319108
394.529801	2530.238294
394.913047	2535.523944
395.296230	2534.291382
395.679351	2536.353214
396.062410	2533.814993
396.445408	2535.281969
396.828343	2538.745242
397.211217	2534.798018
397.594028	2535.924716
397.976778	2533.714170
398.359466	2536.970755
398.742092	2537.578214
399.124656	2534.888759
399.507158	2535.130734
399.889598	2536.428831
400.271977	2537.081661
400.654294	2537.069058
401.036549	2535.682741
401.418742	2537.091743
401.800874	2534.782895
402.182944	2536.524613
402.564952	2538.110056
402.946898	2538.404964
403.328783	2538.341949
403.710606	2538.687268
404.092367	2540.146682
404.474067	2538.336908
404.855705	2537.915972
405.237282	2538.646939
405.618797	2539.647608
406.000250	2539.095602
406.381642	2537.686599
406.762972	2536.663245
407.144240	2533.194931
407.525447	2539.738349
407.906593	2534.339273
408.287677	2538.548637
408.668700	2539.259439
409.049661	2539.750952
409.430560	2538.664583
409.811399	2539.844213
410.192176	2538.949408
410.572891	2538.861188
410.953545	2541.855633
411.334138	2540.547454
411.714669	2541.565767
412.095139	2542.901673
412.475547	2539.161137
412.855894	2543.468803
413.236180	2544.466951
413.616405	2541.676673
413.996568	2542.979811
414.376670	2542.304296
414.756711	2542.256405
415.136691	2541.815304
415.516609	2545.865871
415.896466	2539.602238
416.276262	2542.334543
416.655997	2540.726415
417.035670	2543.055428
417.415283	2543.516694
417.794834	2543.292362
418.174324	2542.490819
418.553753	2544.098947
418.933121	2544.053577
419.312428	2543.317568
419.691674	2543.524255
420.070859	2543.274718
420.449983	2543.617517
420.829045	2543.478885
421.208047	2542.805891
421.586988	2541.101981
421.965867	2544.955943
422.344686	2543.998124
422.723444	2544.114070
423.102141	2546.876623
423.480777	2543.499050
423.859352	2545.770089
424.237866	2548.512477
424.616319	2543.983000
424.994712	2547.625234
425.373044	2543.892260
425.751314	2544.661036
426.129524	2542.878988
426.507673	2539.950077
426.885762	2537.805066
427.263789	2544.850079
427.641756	2547.647919
428.019662	2546.649771
428.397508	2544.766900
428.775292	2547.690769
429.153016	2547.975594
429.530679	2546.821170
429.908282	2546.664894
430.285824	2545.530635
430.663305	2546.228834
431.040726	2549.319062
431.418086	2546.649771
431.795385	2547.627755
432.172624	2547.942827
432.549802	2543.824204
432.926920	2547.053063
433.303977	2547.683207
433.680974	2545.744884
434.057910	2547.146324
434.434786	2547.408464
434.811601	2547.647919
435.188355	2549.835780
435.565050	2550.546583
435.941683	2548.444422
436.318257	2550.055070
436.694770	2548.215049
437.071222	2549.379556
437.447614	2547.834442
437.823946	2548.401572
438.200218	2547.423588
438.576429	2546.811088
438.952580	2548.154555
439.328670	2547.448794
439.704700	2550.637323
440.080670	2549.213197
440.456580	2548.802343
440.832429	2549.278732
441.208218	2548.333516
441.583947	2548.996428
441.959616	2547.395862
442.335224	2552.847869
442.710773	2550.528939
443.086261	2547.937786
443.461689	2550.549103
443.837057	2549.596325
444.212365	2548.908208
444.587612	2547.332847
444.962800	2546.208670
445.337927	2547.680687
445.712995	2546.853938
446.088002	2548.464586
446.462949	2551.640513
446.837837	2550.385266
447.212664	2550.536500
447.587431	2549.492982
447.962139	2549.044319
448.336786	2552.356357
448.711374	2552.253013
449.085901	2552.983981
449.460369	2550.523897
449.834776	2550.599515
450.209124	2548.588094
450.583412	2551.128836
450.957640	2551.595143
451.331808	2551.073383
451.705917	2551.675801
452.079965	2553.147818
452.453954	2551.572458
452.827883	2550.208825
453.201752	2551.927859
453.575562	2550.982643
453.949311	2554.962633
454.323001	2552.197561
454.696632	2552.187478
455.070202	2553.225956
455.443713	2552.497509
455.817164	2553.868703
456.190556	2553.893909
456.563888	2555.320555
456.937160	2552.706717
457.310373	2556.235525
457.683526	2554.425751
458.056619	2553.500699
458.429653	2555.023127
458.802628	2552.421892
459.175542	2553.084804
459.548398	2553.863662
459.921194	2552.671429
460.293930	2553.455328
460.666607	2554.392983
461.039224	2555.784342
461.411782	2555.063457
461.784280	2554.221584
462.156719	2555.028168
462.529099	2554.667726
462.901419	2556.560679
463.273680	2550.125646
463.645882	2549.470296
464.018024	2551.481717
464.390106	2548.779658
464.762130	2556.389280
465.134094	2553.503219
465.505999	2556.548076
465.877845	2555.423899
466.249631	2554.879454
466.621358	2556.739640
466.993026	2557.692418
467.364634	2562.814231
467.736184	2556.439692
468.107674	2559.527398
468.479105	2555.736451
468.850477	2555.784342
469.221790	2556.689229
469.593043	2555.880123
469.964238	2557.407593
470.335373	2553.949362
470.706449	2557.077397
471.077467	2556.842984
471.448425	2558.080587
471.819324	2558.446071
472.190164	2559.179559
472.560945	2556.495144
472.931667	2558.872048
473.302330	2554.196378
473.672934	2556.989177
474.043479	2558.851884
474.413965	2558.178890
474.784393	2557.563869
475.154761	2560.447409
475.525070	2558.677964
475.895321	2558.660320
476.265513	2557.175700
476.635645	2560.044117
477.005719	2558.299877
477.375734	2560.119734
477.745691	2559.597974
478.115588	2562.514282
478.485427	2559.799621
478.855207	2560.565876
479.224928	2559.373643
479.594591	2561.085115
479.964194	2563.111659
480.333739	2563.076371
480.703226	2562.597461
481.072653	2561.624518
481.442022	2560.974209
481.811333	2560.638973
482.180584	2556.802655
482.549777	2561.364899
482.918912	2560.220557
483.287988	2560.288612
483.657005	2560.613767
484.025964	2559.310629
484.394864	2563.285578
484.763706	2562.967986
485.132489	2561.765671
485.501213	2564.772719
485.869879	2565.712894
486.238487	2563.381360
486.607036	2560.923798
486.975527	2564.954200
487.343959	2564.273645
487.712333	2563.204920
488.080648	2566.143913
488.448905	2565.284396
488.817104	2561.521175
489.185244	2563.814900
489.553326	2565.564180
489.921350	2566.801783
490.289315	2566.353121
490.657222	2566.811866
491.025070	2567.716753
491.392861	2567.215158
491.760593	2565.286917
492.128267	2566.312791
492.495883	2562.799107
492.863440	2565.866649
493.230939	2564.313974
493.598380	2565.271793
493.965763	2566.070816
494.333088	2564.845816
494.700354	2566.020404
495.067563	2565.349931
495.434713	2564.127451
495.801805	2565.324725
496.168839	2564.818089
496.535815	2567.381516
496.902733	2565.251628
497.269593	2567.000909
497.636395	2563.812379
498.003139	2565.168449
498.369825	2564.366906
498.736453	2565.980075
499.103023	2565.717935
499.469535	2565.609550
499.835989	2565.607030
500.202385	2564.765157
500.568723	2563.981258
500.935003	2561.435475
501.301226	2561.720300
501.667390	2564.992009
502.033497	2568.939233
502.399546	2568.520817
502.765537	2563.973696
503.131470	2565.150805
503.497345	2565.082750
503.863163	2566.093501
504.228923	2569.594582
504.594625	2569.413101
504.960269	2567.008471
505.325856	2567.328584
505.691385	2565.821279
506.056856	2568.470405
506.422270	2566.695919
506.787625	2566.239695
507.152924	2567.787329
507.518164	2570.093657
507.883347	2567.827658
508.248472	2567.852864
508.613540	2567.565518
508.978550	2568.369582
509.343503	2567.515107
509.708398	2564.442523
510.073236	2567.689026
510.438016	2568.498132
510.802738	2565.841443
511.167403	2568.546022
511.532010	2569.203893
511.896561	2569.196331
512.261053	2571.837896
512.625488	2568.326732
512.989866	2570.501990
513.354186	2568.611557
513.718449	2569.846640
514.082655	2570.131465
514.446803	2571.374110
514.810894	2572.677248
515.174927	2571.822772
515.538904	2573.146075
515.902822	2569.501321
516.266684	2574.829821
516.630488	2571.358986
516.994235	2573.481312
517.357925	2574.139183
517.721558	2575.447362
518.085133	2575.772517
518.448651	2571.245560
518.812112	2571.525344
519.175516	2572.173133
519.538863	2571.013667
519.902152	2577.796540
520.265385	2575.122208
520.628560	2578.318299
520.991678	2578.903073
521.354739	2578.610686
521.717743	2576.475758
522.080690	2580.428022
522.443580	2581.675708
522.806413	2581.607652
523.169189	2580.115471
523.531908	2582.726788
523.894569	2583.848445
524.257174	2584.208887
524.619722	2584.037488
524.982213	2584.758373
525.344647	2584.276943
525.707025	2587.069742
526.069345	2585.176789
526.431608	2584.902046
526.793815	2587.407500
527.155964	2589.237438
527.518057	2589.081163
527.880093	2591.500917
528.242072	2590.265834
528.603995	2593.658530
528.965860	2588.892119
529.327669	2589.398755
529.689421	2595.228850
530.051117	2592.874631
530.412755	2596.229519
530.774337	2596.441247
531.135862	2595.523757
531.497331	2595.833788
531.858743	2599.397884
532.220098	2597.948552
532.581396	2599.102977
532.942638	2600.406115
533.303824	2600.108687
533.664953	2599.765888
534.026025	2601.230343
534.387040	2602.021805
534.747999	2604.295365
535.108902	2604.418873
535.469748	2603.881990
535.830537	2603.781167
536.191270	2610.586725
536.551947	2602.379727
536.912567	2605.568256
537.273131	2610.102774
537.633638	2604.323091
537.994089	2608.015737
538.354483	2610.269132
538.714821	2613.155193
539.075103	2610.906838
539.435328	2610.911879
539.795497	2612.555296
540.155609	2612.567898
540.515665	2611.587394
540.875665	2612.935903
541.235609	2613.014041
541.595496	2615.978239
541.955328	2614.385234
542.315102	2620.066615
542.674821	2616.653754
543.034483	2618.594598
543.394090	2616.051336
543.753640	2620.502675
544.113134	2623.096348
544.472571	2619.227263
544.831953	2624.286061
545.191278	2621.294136
545.550548	2624.553242
545.909761	2622.667850
546.268918	2624.883437
546.628019	2625.160701
546.987064	2625.788324
547.346053	2625.440485
547.704986	2625.755557
548.063863	2625.984929
548.422684	2627.862759
548.781449	2626.645321
549.140158	2627.431741
549.498811	2626.723458
549.857408	2626.151287
550.215949	2626.300002
550.574434	2625.906792
550.932864	2630.791670
551.291237	2629.135651
551.649555	2630.895013
552.007817	2631.754530
552.366022	2630.968110
552.724173	2630.436268
553.082267	2630.118676
553.440305	2631.152112
553.798288	2631.184880
554.156215	2633.886938
554.514086	2629.619601
554.871902	2629.803603
555.229661	2630.557256
555.587365	2627.247738
555.945014	2629.722945
556.302606	2630.950466
556.660143	2631.958697
557.017625	2636.785602
557.375050	2634.436424
557.732421	2634.653193
558.089735	2634.600261
558.446994	2635.318626
558.804197	2636.435241
559.161345	2637.226702
559.518437	2636.097484
559.875474	2634.965745
560.232455	2633.990282
560.589381	2635.611013
560.946251	2636.374747
561.303065	2639.182670
561.659825	2637.236785
562.016528	2637.740900
562.373177	2636.533544
562.729770	2637.012453
563.086307	2640.226189
563.442789	2636.026908
563.799216	2639.502783
564.155587	2638.187042
564.511904	2641.708288
564.868164	2641.453710
565.224370	2638.451703
565.580520	2636.672176
565.936615	2639.580921
566.292654	2638.988586
566.648638	2640.296765
567.004567	2640.304327
567.360441	2642.474544
567.716260	2639.394399
568.072023	2639.280973
568.427732	2639.530510
568.783385	2639.379275
569.138982	2642.421612
569.494525	2643.200470
569.850013	2642.159472
570.205445	2640.926909
570.560823	2636.233595
570.916145	2640.430356
571.271412	2642.318268
571.626625	2644.664925
571.981782	2642.756848
572.336884	2642.865233
572.691931	2638.923051
573.046923	2640.034625
573.401860	2639.442290
573.756743	2643.921355
574.111570	2647.223311
574.466342	2644.654843
574.821059	2645.463948
575.175722	2645.610141
575.530330	2647.876140
575.884882	2647.432518
576.239380	2650.558034
576.593823	2647.064514
576.948211	2647.099802
577.302544	2646.580563
577.656823	2646.547796
578.011047	2648.140801
578.365216	2648.682725
578.719330	2650.326141
579.073389	2651.369660
579.427394	2655.148004
579.781344	2650.610966
580.135239	2650.469814
580.489080	2652.690442
580.842866	2651.571306
581.196597	2659.581699
581.550273	2654.931235
581.903895	2658.729744
582.257463	2658.391987
582.610975	2662.520692
582.964434	2663.367606
583.317837	2661.835095
583.671186	2665.275682
584.024481	2666.087308
584.377721	2662.445075
584.730906	2665.701660
585.084037	2670.122752
585.437113	2670.841116
585.790135	2672.595438
586.143103	2674.826148
586.496016	2673.336487
586.848874	2677.142559
587.201679	2676.023422
587.554428	2676.683814
587.907124	2678.705316
588.259765	2680.419309
588.612352	2686.125895
588.964884	2684.588343
589.317362	2684.573219
589.669786	2686.501461
590.022155	2686.446008
590.374470	2691.872810
590.726731	2692.994467
591.078937	2692.697039
591.431090	2698.592668
591.783188	2698.854808
592.135232	2701.277083
592.487222	2704.929399
592.839157	2709.405943
593.191038	2709.602548
593.542866	2707.308823
593.894639	2710.598176
594.246358	2719.894064
594.598022	2720.700648
594.949633	2719.745350
595.301190	2720.650237
595.652692	2725.172152
596.004141	2726.140053
596.355535	2727.849005
596.706876	2732.058368
597.058162	2732.517113
597.409395	2734.042062
597.760573	2739.305027
598.111698	2739.005078
598.462768	2744.847775
598.813785	2748.699217
599.164748	2747.857344
599.515657	2751.524784
599.866511	2753.221132
600.217312	2761.216402
600.568060	2756.986874
600.918753	2768.306785
601.269392	2771.792743
601.619978	2770.792074
601.970510	2780.808846
602.320988	2783.621810
602.671412	2793.099179
603.021783	2796.449026
603.372100	2795.733182
603.722363	2804.764409
604.072572	2809.697178
604.422728	2813.593990
604.772830	2816.628765
605.122878	2819.222439
605.472872	2829.239211
605.822813	2834.736590
606.172701	2840.314626
606.522534	2849.983559
606.872314	2855.596884
607.222041	2854.858355
607.571714	2864.358410
607.921333	2872.686396
608.270899	2878.329968
608.620411	2891.315980
608.969870	2893.834036
609.319276	2906.373906
609.668627	2914.603590
610.017926	2937.452620
610.367171	2942.324895
610.716362	2956.977009
611.065500	2958.595219
611.414585	2970.605768
611.763616	2976.357725
612.112594	2986.636637
612.461518	2991.377843
612.810389	3009.495749
613.159207	3012.480113
613.507971	3022.338089
613.856682	3043.455482
614.205340	3049.232645
614.553945	3077.261460
614.902496	3073.893969
615.250994	3094.192175
615.599439	3106.147272
615.947830	3120.519601
616.296169	3127.524284
616.644454	3148.966832
616.992686	3157.798934
617.340864	3179.569157
617.688990	3198.629759
618.037063	3225.862072
618.385082	3239.382447
618.733048	3266.158536
619.080961	3276.427366
619.428821	3305.058599
619.776628	3324.366219
620.124382	3330.541632
620.472083	3352.828573
620.819731	3370.074361
621.167326	3367.891541
621.514868	3382.480640
621.862357	3386.014489
622.209793	3396.351375
622.557176	3401.085018
622.904506	3397.276427
623.251783	3409.070206
623.599007	3417.660332
623.946179	3425.272475
624.293297	3437.658590
624.640363	3445.663942
624.987376	3450.947071
625.334336	3454.322124
625.681243	3464.676654
626.028097	3474.574959
626.374899	3504.945391
626.721647	3504.935308
627.068343	3518.740508
627.414987	3530.332641
627.761577	3556.652506
628.108115	3580.106474
628.454600	3571.627253
628.801032	3594.635079
629.147412	3615.470168
629.493739	3637.353817
629.840014	3654.193791
630.186236	3677.559539
630.532405	3680.919468
630.878521	3726.521746
631.224585	3736.815782
631.570597	3755.652054
631.916556	3772.355917
632.262462	3793.609422
632.608316	3824.163855
632.954117	3836.285309
633.299866	3866.083570
633.645562	3882.036301
633.991206	3874.338459
634.336797	3868.349568
634.682336	3898.072212
635.027823	3898.299063
635.373257	3916.679110
635.718639	3912.318512
636.063968	3926.199329
636.409245	3925.836366
636.754470	3941.244653
637.099642	3949.386117
637.444762	3935.681740
637.789829	3968.227429
638.134845	3971.814210
638.479808	3996.462932
638.824719	4006.414169
639.169577	4011.077237
639.514383	4038.811145
639.859137	4038.982544
640.203839	4070.396494
640.548489	4063.575813
640.893086	4098.939507
641.237632	4085.260336
641.582125	4137.882421
641.926566	4134.398983
642.270955	4154.248527
642.615292	4174.932381
642.959576	4198.716545
643.303809	4234.327255
643.647990	4236.764653
643.992118	4281.651087
644.336195	4262.104013
644.680219	4310.940191
645.024192	4349.542827
645.368112	4400.269437
645.711981	4448.465388
646.055797	4496.215198
646.399562	4529.753994
646.743274	4598.895940
647.086935	4698.836815
647.430544	4719.969332
647.774101	4756.873098
648.117606	4836.344368
648.461059	4830.466383
648.804460	4877.223085
649.147810	4847.200493
649.491108	4831.618287
649.834354	4873.656468
650.177548	4836.757743
650.520690	4821.669569
650.863781	4827.106454
651.206820	4856.665259
651.549807	4840.074822
651.892742	4834.632897
652.235626	4836.851004
652.578458	4860.773800
652.921238	4818.297037
653.263967	4886.942429
653.606644	4873.520357
653.949269	4889.473089
654.291843	4884.668869
654.634365	4928.083286
654.976836	4930.709727
655.319255	4957.165702
655.661622	4983.175536
656.003938	4980.680165
656.346203	4991.369931
656.688416	5031.200088
657.030577	5041.534453
657.372687	5054.898552
657.714746	5070.884051
658.056753	5132.552486
658.398708	5134.027023
658.740612	5144.673940
659.082465	5206.503692
659.424266	5205.737437
659.766016	5243.689764
660.107715	5248.405763
660.449362	5282.355414
660.790958	5313.771884
661.132503	5320.189273
661.473996	5361.801478
661.815438	5398.702724
662.156829	5418.784160
662.498168	5445.091422
662.839456	5465.124967
663.180693	5493.262167
663.521879	5548.624119
663.863013	5569.527263
664.204097	5599.968271
664.545129	5657.966746
664.886110	5667.048384
665.227040	5725.813115
665.567918	5758.933495
665.908746	5803.459487
666.249522	5810.133974
666.590248	5854.914544
666.930922	5922.982724
667.271545	5950.393998
667.612118	6003.691597
667.952639	6000.679508
668.293109	6025.343353
668.633528	6044.663575
668.973896	6055.234874
669.314213	6136.165558
669.654480	6054.526592
669.994695	6091.256439
670.334859	6139.177648
670.674973	6147.198123
671.015035	6189.445513
671.355047	6202.257606
671.695008	6205.741043
672.034918	6240.126753
672.374777	6278.273165
672.714585	6276.864162
673.054342	6321.291851
673.394049	6330.708726
673.733705	6385.435492
674.073310	6388.666872
674.412864	6422.669455
674.752368	6403.591208
675.091820	6406.341157
675.431223	6458.088602
675.770574	6417.376243
676.109875	6416.171407
676.449125	6419.042345
676.788324	6423.289517
677.127473	6381.301746
677.466571	6398.386217
677.805619	6400.251444
678.144616	6386.723507
678.483562	6401.839407
678.822458	6364.431525
679.161303	6379.030707
679.500098	6407.944244
679.838842	6407.508185
680.177535	6440.716786
680.516179	6476.196426
680.854771	6481.066181
681.193314	6611.357323
681.531805	6671.765469
681.870247	6886.710187
682.208638	7075.539207
682.546978	7253.323059
682.885268	7324.403328
683.223508	7201.492436
683.561697	7166.710995
683.899836	7138.634289
684.237925	7065.792136
684.575963	7068.716005
684.913951	7068.174081
685.251889	7031.295520
685.589776	7134.132538
685.927614	7124.748430
686.265401	7102.595080
686.603137	7162.930130
686.940824	7262.402177
687.278460	7323.536250
687.616046	7389.532516
687.953582	7493.518917
688.291068	7452.919984
688.628504	7589.847805
688.965889	7611.625589
689.303224	7649.484655
689.640510	7621.249152
689.977745	7487.419120
690.314930	7399.088023
690.652065	7401.245637
690.989150	7270.251254
691.326185	7176.906729
691.663170	7097.861436
692.000105	6993.960735
692.336990	6989.837071
692.673825	6860.284458
693.010610	6819.635114
693.347345	6727.094653
693.684030	6631.721064
694.020665	6628.041021
694.357251	6540.740840
694.693786	6557.520320
695.030272	6450.068126
695.366707	6417.449340
695.703093	6393.314816
696.039429	6418.739875
696.375716	6412.566982
696.711952	6325.881822
697.048139	6371.479058
697.384276	6367.262133
697.720363	6377.062136
698.056400	6360.693509
698.392388	6356.496749
698.728326	6341.143915
699.064214	6318.433517
699.400053	6374.317228
699.735842	6267.285970
700.071581	6269.483913
700.407270	6246.264358
700.742910	6214.358896
701.078501	6186.814031
701.414042	6128.560978
701.749533	6096.461431
702.084974	6027.173292
702.420366	6103.274550
702.755709	6060.707047
703.091002	5996.921327
703.426246	6019.024266
703.761440	6006.764180
704.096584	5991.625595
704.431679	5964.143745
704.766725	5969.507533
705.101721	5956.226613
705.436668	5996.021481
705.771565	5942.575168
706.106413	5997.430484
706.441212	6054.753444
706.775961	6026.316295
707.110661	6048.603237
707.445311	6169.197719
707.779913	6106.553821
708.114465	6206.441763
708.448967	6243.010293
708.783421	6321.720349
709.117825	6458.212110
709.452180	6488.648076
709.786485	6547.511109
710.120742	6733.204532
710.454949	6735.334419
710.789107	6794.510004
711.123216	6921.582369
711.457275	7039.736933
711.791286	7154.801269
712.125247	7143.887171
712.459159	7166.453896
712.793023	7345.866041
713.126837	7069.106695
713.460602	7190.754778
713.794318	7071.445790
714.127985	7135.821325
714.461602	6965.332022
714.795171	6942.551048
715.128691	6809.855276
715.462162	6654.111348
715.795584	6649.266800
716.128957	6571.259985
716.462281	6447.343382
716.795556	6529.526793
717.128782	6399.187760
717.461960	6206.025868
717.795088	6269.609942
718.128167	6232.557461
718.461198	6125.400174
718.794180	6097.000834
719.127113	6111.158915
719.459997	6017.882445
719.792833	5845.043965
720.125619	5910.183234
720.458357	5811.316125
720.791046	5812.951979
721.123686	5843.519016
721.456278	5729.256223
721.788821	5740.354323
722.121315	5668.477551
722.453761	5721.558381
722.786158	5704.247058
723.118506	5714.541095
723.450805	5703.649682
723.783056	5763.652015
724.115259	5679.926012
724.447412	5682.612947
724.779518	5726.813784
725.111574	5736.535649
725.443582	5801.677439
725.775542	5786.122959
726.107453	5931.068735
726.439315	5872.659406
726.771129	5901.633437
727.102895	6029.774527
727.434612	6126.655422
727.766281	6137.065404
728.097901	6207.772628
728.429473	6197.221493
728.760996	6183.393608
729.092471	6179.017887
729.423897	6172.441701
729.755276	6198.885074
730.086606	6153.834803
730.417887	6232.925465
730.749120	6360.138982
731.080305	6525.324991
731.411442	6631.101002
731.742530	6630.488502
732.073570	6742.036633
732.404562	6817.830381
732.735506	6683.090421
733.066401	6807.538866
733.397249	6771.333299
733.728048	6621.890814
734.058798	6374.556682
734.389501	6229.757100
734.720156	6110.727896
735.050762	5918.818731
735.381320	5838.094734
735.711831	5823.011602
736.042293	5735.567747
736.372707	5769.494713
736.703073	5655.365510
737.033391	5684.188307
737.363661	5695.477971
737.693883	5711.017328
738.024056	5779.695488
738.354182	5826.890770
738.684260	5851.216858
739.014290	5926.776192
739.344272	6018.908320
739.674207	6029.053642
740.004093	6080.662454
740.333931	6106.558862
740.663722	6114.685202
740.993464	6189.881573
741.323159	6209.216919
741.652806	5997.909393
741.982405	5996.492829
742.311956	6093.492191
742.641460	5981.530685
742.970915	5814.403832
743.300323	5835.579198
743.629683	5792.371469
743.958996	5697.348239
744.288260	5628.428105
744.617477	5590.868988
744.946647	5616.956959
745.275768	5476.676771
745.604842	5448.605106
745.933869	5433.849648
746.262847	5399.141304
746.591778	5400.774638
746.920662	5365.587384
747.249498	5353.009705
747.578286	5404.605915
747.907027	5474.453622
748.235720	5522.642012
748.564365	5489.428370
748.892963	5500.929762
749.221514	5660.691489
749.550017	5539.048447
749.878473	5418.171660
750.206881	5471.161749
750.535242	5424.470582
750.863555	5373.386049
751.191821	5398.279267
751.520039	5406.219084
751.848210	5327.201518
752.176334	5341.415052
752.504411	5402.052571
752.832440	5331.345347
753.160421	5257.310961
753.488356	5307.888858
753.816243	5357.854254
754.144082	5219.252770
754.471875	5185.799673
754.799620	5233.292384
755.127318	5245.015587
755.454969	5204.252817
755.782572	5172.556562
756.110129	5218.874684
756.437638	5224.331733
756.765100	5168.987425
757.092515	5155.036032
757.419882	5196.454152
757.747203	5188.216907
758.074477	5251.380044
758.401703	5244.360237
758.728882	5191.826373
759.056014	5228.631837
759.383099	5364.014544
759.710138	5369.481676
760.037129	5349.798490
760.364073	5353.813769
760.690970	5436.975164
761.017820	5434.512560
761.344623	5381.988778
761.671379	5471.827181
761.998088	5574.860804
762.324751	5777.477380
762.651366	6282.757271
762.977935	7362.751386
763.304456	8752.080783
763.630931	9578.671217
763.957359	9333.449330
764.283740	8569.515396
764.610074	7885.317393
764.936362	7019.622729
765.262602	6480.430996
765.588796	5991.355893
765.914943	5677.513820
766.241044	5545.130599
766.567097	5377.618098
766.893104	5141.190503
767.219064	4979.392150
767.544978	4929.993883
767.870845	4873.457343
768.196665	4769.211322
768.522438	4701.732958
768.848165	4683.330226
769.173846	4633.029592
769.499479	4597.688583
769.825066	4542.513155
770.150607	4490.296883
770.476101	4465.116320
770.801548	4470.769974
771.126949	4410.087084
771.452303	4365.992112
771.777611	4321.019978
772.102872	4333.504396
772.428087	4304.520282
772.753256	4273.703708
773.078378	4237.430086
773.403453	4176.343904
773.728482	4168.169673
774.053465	4122.322899
774.378401	4111.605406
774.703291	4119.731746
775.028135	4054.103485
775.352932	4007.868542
775.677683	3996.352026
776.002388	4014.759800
776.327046	4034.364847
776.651658	3958.737457
776.976224	3898.200761
777.300743	3906.816093
777.625216	3926.539607
777.949643	3931.411882
778.274024	3888.161303
778.598359	3838.238757
778.922647	3856.747353
779.246889	3855.058566
779.571086	3856.628886
779.895236	3842.276721
780.219339	3822.107064
780.543397	3811.283707
780.867409	3861.969988
781.191374	3879.104870
781.515294	3827.047395
781.839167	3820.708144
782.162995	3836.733972
782.486776	3826.593691
782.810511	3836.875124
783.134201	3839.057944
783.457844	3807.402018
783.781441	3744.879108
784.104993	3753.151641
784.428498	3770.190741
784.751958	3768.181842
785.075372	3753.723812
785.398739	3713.029098
785.722061	3721.641909
786.045337	3760.902415
786.368568	3803.880773
786.691752	3719.569995
787.014891	3758.863269
787.337983	3869.375443
787.661030	4013.071013
787.984031	4159.075431
788.306987	4325.947706
788.629897	4399.868665
788.952760	4363.955485
789.275579	4306.698060
789.598351	4259.654012
789.921078	4138.126917
790.243759	3950.268318
790.566395	3918.282197
790.888984	3922.572219
791.211529	3820.998010
791.534027	3765.694032
791.856480	3763.546501
792.178888	3703.390412
792.501249	3646.140548
792.823566	3657.639420
793.145836	3691.354657
793.468062	3645.621309
793.790241	3599.020883
794.112375	3623.256230
794.434464	3680.148172
794.756507	3705.984085
795.078505	3693.895398
795.400457	3715.027915
795.722364	3835.612315
796.044226	3932.253755
796.366042	4007.412318
796.687812	4002.676154
797.009538	4013.116383
797.331218	3969.076863
797.652852	3937.952780
797.974442	3922.168927
798.295986	3926.736212
798.617484	3852.739636
798.938938	3766.283847
799.260346	3806.366061
799.581709	3804.863798
799.903026	3737.130854
800.224299	3698.944114
800.545526	3694.611242
800.866708	3659.161848
801.187845	3598.408383
801.508936	3632.715955
801.829983	3639.329949
802.150984	3561.169379
802.471940	3542.076009
802.792851	3560.198957
803.113717	3557.353226
803.434538	3566.518044
803.755314	3512.610465
804.076045	3481.151144
804.396731	3495.180676
804.717372	3522.798637
805.037967	3511.899662
805.358518	3504.247191
805.679024	3527.217208
805.999485	3532.787683
806.319901	3537.969989
806.640272	3555.072104
806.960598	3569.893096
807.280879	3543.840413
807.601115	3551.752504
807.921306	3568.564752
808.241453	3610.691154
808.561554	3591.509564
808.881611	3528.540511
809.201623	3557.365829
809.521590	3572.282603
809.841513	3547.374262
810.161390	3572.590113
810.481223	3560.529153
810.801011	3507.816328
811.120755	3490.232783
811.440453	3528.333824
811.760107	3536.016542
812.079716	3499.339627
812.399281	3460.885706
812.718801	3488.274295
813.038276	3456.832618
813.357707	3455.642906
813.677093	3477.597131
813.996434	3427.835901
814.315731	3427.296498
814.634983	3431.954524
814.954191	3445.711833
815.273354	3476.682162
815.592473	3477.612254
815.911547	3477.012357
816.230577	3510.064682
816.549562	3557.814492
816.868502	3602.776543
817.187399	3628.441057
817.506250	3626.043988
817.825058	3593.011828
818.143821	3680.838810
818.462539	3785.188174
818.781213	3827.727951
819.099843	3878.716701
819.418429	4095.188889
819.736970	4326.703879
820.055466	4557.026637
820.373919	4904.674688
820.692327	5302.966171
821.010691	5684.374830
821.329011	6902.257105
821.647286	9362.572075
821.965517	13472.846617
822.283704	17203.620576
822.601847	19478.554675
822.919945	17957.260473
823.237999	15680.125911
823.556010	13359.700439
823.873976	11417.822772
824.191897	9425.959544
824.509775	8100.667924
824.827609	7015.168869
825.145398	6468.344829
825.463144	6359.395412
825.780845	6474.182485
826.098502	6621.951308
826.416116	7376.201184
826.733685	8603.023946
827.051210	9706.068737
827.368692	9865.268375
827.686129	8725.715548
828.003522	7261.237671
828.320872	6279.382218
828.638177	5614.504438
828.955439	5083.827213
829.272656	4605.025983
829.589830	4310.872135
829.906960	4146.359121
830.224046	3968.882779
830.541088	3844.951053
830.858086	3799.373981
831.175041	3733.201275
831.491952	3707.027604
831.808819	3716.734346
832.125642	3780.114253
832.442421	3915.804470
832.759157	4166.070032
833.075849	4669.245242
833.392497	5479.472091
833.709101	6215.271344
834.025662	6578.539411
834.342179	6289.446882
834.658653	5659.204349
834.975083	5037.743506
835.291469	4485.112056
835.607811	4079.697423
835.924110	3947.793112
836.240366	3758.318824
836.556578	3553.201836
836.872746	3443.309723
837.188871	3412.362080
837.504952	3353.680528
837.820990	3273.949639
838.136984	3220.094992
838.452935	3241.101481
838.768842	3241.708940
839.084706	3262.821292
839.400526	3403.532499
839.716303	3708.638253
840.032037	4186.348074
840.347727	4477.545284
840.663373	4246.095829
840.978977	3881.837176
841.294537	3584.777103
841.610054	3360.390304
841.925527	3252.217225
842.240957	3186.755322
842.556344	3133.931591
842.871687	3080.676842
843.186987	3030.545087
843.502244	2994.216012
843.817458	2962.292905
844.132629	2929.205292
844.447756	2939.222065
844.762840	2928.318049
845.077881	2897.748492
845.392879	2876.356356
845.707833	2873.747559
846.022745	2871.232023
846.337613	2873.331663
846.652438	2860.186855
846.967221	2860.761546
847.281960	2847.571367
847.596656	2843.321675
847.911309	2841.532065
848.225919	2834.852536
848.540485	2828.117555
848.855009	2831.893379
849.169490	2824.429951
849.483928	2813.447797
849.798323	2808.250367
850.112675	2804.479584
850.426984	2816.774958
850.741251	2817.780669
851.055474	2806.523772
851.369654	2799.488842
851.683792	2805.787764
851.997887	2813.967036
852.311938	2812.825214
852.625947	2804.545119
852.939914	2808.462096
853.253837	2815.998621
853.567718	2799.846764
853.881555	2794.442647
854.195350	2810.549133
854.509103	2810.042497
854.822812	2800.328194
855.136479	2799.100673
855.450103	2802.977320
855.763685	2794.815692
856.077224	2786.893519
856.390720	2799.992957
856.704173	2812.716830
857.017584	2805.409677
857.330953	2799.882052
857.644278	2810.118115
857.957561	2816.369146
858.270802	2819.164465
858.584000	2821.972388
858.897155	2809.906386
859.210268	2807.557209
859.523339	2807.562250
859.836367	2806.133083
860.149352	2800.418935
860.462295	2797.477422
860.775195	2803.869605
861.088054	2803.597382
861.400869	2788.365536
861.713642	2785.431584
862.026373	2798.904068
862.339062	2799.496404
862.651708	2805.883546
862.964312	2809.971921
863.276873	2803.945222
863.589392	2811.360759
863.901869	2822.254693
864.214303	2840.110460
864.526696	2857.963706
864.839045	2854.674353
865.151353	2853.741740
865.463619	2851.571523
865.775842	2852.783920
866.088023	2867.395705
866.400162	2879.675956
866.712258	2854.439939
867.024313	2838.391426
867.336325	2846.580781
867.648296	2868.935777
867.960224	2858.941690
868.272110	2844.725636
868.583954	2854.414734
868.895755	2869.061806
869.207515	2853.494723
869.519233	2854.815505
869.830909	2863.871938
870.142542	2876.474823
870.454134	2874.402909
870.765684	2880.134701
871.077191	2880.414485
871.388657	2885.427912
871.700081	2898.023235
872.011463	2906.018505
872.322803	2911.165523
872.634101	2908.972621
872.945357	2924.229673
873.256571	2951.272943
873.567744	2945.891511
873.878874	2935.189142
874.189963	2957.150928
874.501010	2959.225363
874.812015	2948.583488
875.122979	2949.422840
875.433900	2944.565688
875.744780	2949.072479
876.055618	2957.294601
876.366415	2956.936679
876.677169	2967.553349
876.987882	2967.835654
877.298554	2956.447688
877.609183	2972.879328
877.919771	2995.118379
878.230317	3019.983870
878.540822	3070.261818
878.851285	3108.778754
879.161707	3148.682007
879.472087	3236.829103
879.782425	3434.344031
880.092722	3833.419413
880.402977	4326.219928
880.713191	4909.927570
881.023363	5965.167099
881.333494	7169.065214
881.643583	7728.325780
881.953631	7465.500183
882.263637	6923.636639
882.573602	6396.155506
882.883526	5844.731413
883.193408	5286.542092
883.503248	4828.396989
883.813048	4544.418711
884.122806	4273.905354
884.432522	3979.126404
884.742197	3753.154162
885.051831	3559.919173
885.361424	3423.752567
885.670975	3358.373843
885.980485	3281.713016
886.289954	3208.399516
886.599382	3164.763288
886.908768	3132.162146
887.218113	3087.522729
887.527417	3034.600696
887.836680	2983.475834
888.145901	2980.947695
888.455082	2974.744555
888.764221	2927.776125
889.073319	2896.294119
889.382376	2897.952659
889.691392	2899.533061
890.000366	2897.680437
890.309300	2886.363046
890.618193	2900.193452
890.927044	2915.112747
891.235855	2917.167017
891.544625	2903.281158
891.853353	2909.706109
892.162041	2925.431988
892.470687	2964.276599
892.779293	3012.432222
893.087858	3057.197668
893.396381	3122.324334
893.704864	3229.211919
894.013306	3445.679065
894.321707	3725.624421
894.630068	3933.226698
894.938387	3942.051238
895.246665	3896.980802
895.554903	3786.955098
895.863100	3599.925770
896.171256	3438.293775
896.479371	3309.192346
896.787446	3197.755119
897.095480	3098.162084
897.403473	3035.687064
897.711425	2998.579131
898.019336	2990.072184
898.327207	2964.236270
898.635038	2929.401897
898.942827	2918.427305
899.250576	2903.853329
899.558284	2877.402395
899.865952	2856.196782
900.173579	2841.564833
900.481165	2834.197186
900.788711	2821.629590
901.096216	2797.366516
901.403681	2783.631892
901.711105	2789.255300
902.018489	2789.565331
902.325832	2791.244035
902.633135	2795.599592
902.940397	2824.455156
903.247619	2897.299829
903.554800	3069.424986
903.861941	3376.267418
904.169041	3778.251546
904.476101	4077.859922
904.783121	4067.759971
905.090100	3839.879652
905.397039	3577.800146
905.703938	3340.031604
906.010796	3160.828667
906.317614	3055.513922
906.624391	2965.990592
906.931129	2899.959038
907.237826	2842.245388
907.544483	2797.658903
907.851099	2768.493307
908.157675	2747.375914
908.464211	2729.668861
908.770707	2713.050697
909.077163	2704.044676
909.383578	2690.587316
909.689954	2680.245389
909.996289	2677.674400
910.302584	2678.269257
910.608839	2681.220852
910.915054	2675.743638
911.221229	2670.871363
911.527363	2673.538134
911.833458	2675.577280
912.139513	2677.087106
912.445527	2681.926614
912.751502	2692.392049
913.057436	2697.952442
913.363331	2710.762014
913.669186	2729.124417
913.975000	2758.547111
914.280775	2811.378403
914.586510	2877.987169
914.892205	2950.864610
915.197859	3065.979358
915.503475	3240.070565
915.809050	3435.911830
916.114585	3575.541709
916.420081	3609.105711
916.725536	3558.792475
917.030952	3450.228707
917.336328	3332.306036
917.641665	3204.631253
917.946961	3110.999382
918.252218	3047.901780
918.557435	2975.823362
918.862612	2918.500402
919.167750	2872.953577
919.472848	2838.323371
919.777906	2809.258598
920.082925	2787.369908
920.387904	2760.185486
920.692843	2740.295613
920.997743	2732.244891
921.302603	2718.979094
921.607423	2710.842672
921.912204	2701.486291
922.216946	2688.500278
922.521647	2682.597087
922.826310	2673.069306
923.130932	2666.450271
923.435516	2657.779487
923.740059	2650.588281
924.044564	2645.224493
924.349028	2640.470685
924.653454	2634.471712
924.957840	2627.502317
925.262186	2620.069135
925.566493	2619.577623
925.870761	2613.974380
926.174989	2610.564040
926.479178	2605.560695
926.783328	2602.243615
927.087438	2599.521392
927.391509	2601.411825
927.695541	2597.348655
927.999533	2595.750609
928.303486	2590.056626
928.607400	2589.749116
928.911275	2588.209043
929.215110	2589.529825
929.518906	2589.797007
929.822663	2586.298446
930.126381	2587.382294
930.430060	2588.594691
930.733699	2588.231728
931.037299	2586.769794
931.340861	2591.294229
931.644383	2590.464959
931.947866	2593.275403
932.251309	2588.614856
932.554714	2588.932449
932.858080	2589.623087
933.161407	2582.449525
933.464694	2583.551017
933.767943	2577.519276
934.071153	2581.942889
934.374323	2581.131263
934.677455	2583.097313
934.980548	2580.624627
935.283602	2578.235120
935.586617	2581.055646
935.889593	2579.061869
936.192530	2580.917014
936.495428	2579.709658
936.798287	2581.227045
937.101108	2585.685946
937.403890	2590.545618
937.706632	2591.624425
938.009336	2598.480394
938.312002	2605.817793
938.614628	2614.470934
938.917216	2622.113323
939.219765	2621.848663
939.522275	2621.589043
939.824747	2621.949486
940.127179	2620.031327
940.429573	2615.395986
940.731929	2612.182250
941.034246	2609.094543
941.336524	2607.191508
941.638763	2601.983996
941.940964	2601.066506
942.243126	2602.132710
942.545250	2601.381578
942.847335	2598.654314
943.149381	2594.424786
943.451389	2588.836667
943.753359	2589.630648
944.055290	2588.619897
944.357182	2588.609815
944.659036	2583.893815
944.960851	2586.810123
945.262628	2582.094123
945.564367	2583.898857
945.866067	2585.275092
946.167729	2586.066553
946.469352	2582.343661
946.770937	2585.126377
947.072484	2583.165369
947.373992	2581.622776
947.675462	2580.750656
947.976893	2576.586663
948.278286	2576.306879
948.579641	2573.929975
948.880958	2571.646332
949.182236	2578.436766
949.483476	2574.746642
949.784678	2576.231262
950.085841	2574.786971
950.386967	2572.732701
950.688054	2575.165058
950.989103	2576.609348
951.290114	2580.047415
951.591087	2577.859554
951.892021	2580.690162
952.192917	2582.205029
952.493776	2586.946234
952.794596	2586.842890
953.095378	2587.984712
953.396122	2582.605801
953.696828	2583.150245
953.997496	2583.404823
954.298126	2580.536407
954.598718	2579.684452
954.899272	2578.235120
955.199788	2574.280335
955.500266	2572.626837
955.800706	2571.732032
956.101108	2568.603996
956.401472	2566.731207
956.701798	2565.458316
957.002087	2562.214333
957.302337	2565.738100
957.602550	2560.979251
957.902724	2562.720969
958.202861	2558.262069
958.502960	2556.638817
958.803022	2558.592264
959.103045	2557.107644
959.403031	2556.099414
959.702979	2554.466080
960.002889	2553.339382
960.302762	2553.160421
960.602596	2558.867007
960.902393	2555.716286
961.202153	2555.590257
961.501875	2551.068342
961.801559	2555.517160
962.101205	2552.305945
962.400814	2551.645554
962.700385	2548.772097
962.999918	2551.426264
963.299414	2545.689431
963.598873	2548.416695
963.898293	2548.378887
964.197677	2549.591284
964.497022	2552.762170
964.796331	2551.433826
965.095601	2551.277550
965.394835	2551.953065
965.694030	2549.235883
965.993189	2549.734957
966.292309	2549.692107
966.591393	2551.325441
966.890439	2550.934752
967.189447	2551.418702
967.488419	2549.500543
967.787353	2549.165307
968.086249	2548.489792
968.385108	2551.728733
968.683930	2551.486758
968.982714	2551.345606
969.281462	2550.234031
969.580172	2551.058260
969.878844	2550.044988
970.177480	2549.455173
970.476078	2552.535318
970.774639	2548.908208
971.073162	2551.146480
971.371649	2551.075904
971.670098	2551.915256
971.968510	2548.265461
972.266885	2552.089176
972.565223	2550.420554
972.863524	2552.005997
973.161788	2553.321738
973.460014	2548.993907
973.758204	2548.578012
974.056356	2551.574978
974.354471	2554.035061
974.652550	2551.645554
974.950591	2551.459032
975.248595	2550.901984
975.546563	2550.221428
975.844493	2550.851572
976.142386	2554.151008
976.440243	2549.306459
976.738062	2549.712272
977.035845	2549.024154
977.333590	2552.424413
977.631299	2549.193033
977.928971	2545.729760
978.226606	2546.375028
978.524204	2547.932744
978.821765	2544.945861
979.119290	2551.093548
979.416777	2549.568599
979.714228	2548.935934
980.011642	2551.771583
980.309020	2547.073228
980.606360	2548.578012
980.903664	2548.807385
981.200931	2548.784699
981.498162	2549.619010
981.795356	2553.044474
982.092513	2552.182437
982.389633	2553.941800
982.686717	2558.630073
982.983764	2559.103941
983.280775	2563.426731
983.577749	2566.174160
983.874686	2568.107442
984.171587	2562.423541
984.468451	2562.814231
984.765279	2557.619322
985.062070	2559.272820
985.358824	2554.818961
985.655543	2555.123950
985.952224	2552.742005
986.248869	2551.108671
986.545478	2550.246634
986.842050	2548.686397
987.138586	2547.975594
987.435086	2545.848227
987.731549	2549.934083
988.027975	2547.625234
988.324366	2544.434184
988.620719	2548.893084
988.917037	2545.069369
989.213318	2546.296890
989.509563	2546.856458
989.805772	2545.830583
990.101944	2548.905687
990.398080	2548.630944
990.694180	2544.875285
990.990244	2545.114739
991.286271	2547.594987
991.582262	2548.777138
991.878217	2546.286808
992.174136	2546.790923
992.470019	2548.562889
992.765865	2546.851417
993.061676	2543.244471
993.357450	2543.486447
993.653188	2543.320089
993.948890	2547.226983
994.244556	2545.951571
994.540186	2547.524411
994.835780	2548.179761
995.131337	2549.424926
995.426859	2549.392158
995.722345	2553.351985
996.017795	2550.072714
996.313208	2550.057591
996.608586	2551.401058
996.903928	2552.598332
997.199234	2552.172355
997.494504	2550.556665
997.789738	2553.326779
998.084936	2550.884340
998.380099	2548.467107
998.675225	2549.944165
998.970316	2549.203115
999.265371	2547.385779
999.560390	2547.887374
999.855373	2547.189174
1000.150320	2547.514329
1000.445232	2547.743701
1000.740108	2547.103475
1001.034948	2549.800492
1001.329752	2546.498536
1001.624521	2546.725388
1001.919254	2547.584905
1002.213951	2546.992569
1002.508613	2547.166489
1002.803239	2545.540717
1003.097829	2547.360573
1003.392384	2545.707075
1003.686903	2543.783875
1003.981386	2545.200439
1004.275834	2545.830583
1004.570246	2546.808567
1004.864623	2545.976777
1005.158964	2543.312527
1005.453270	2546.501057
1005.747540	2547.690769
1006.041775	2544.320758
1006.335974	2545.598690
1006.630138	2545.472661
1006.924266	2545.023999
1007.218359	2545.641540
1007.512416	2544.963505
1007.806438	2542.027033
1008.100425	2544.098947
1008.394376	2541.555685
1008.688292	2548.172199
1008.982172	2544.237579
1009.276017	2545.855789
1009.569827	2546.634647
1009.863602	2542.034594
1010.157341	2542.866385
1010.451045	2546.420398
1010.744714	2543.753628
1011.038347	2545.485264
1011.331945	2546.937117
1011.625508	2543.607434
1011.919036	2545.485264
1012.212528	2546.085162
1012.505986	2545.449976
1012.799408	2545.616334
1013.092795	2544.058618
1013.386147	2543.441076
1013.679464	2545.719678
1013.972745	2548.454504
1014.265992	2542.921837
1014.559204	2546.695141
1014.852380	2544.134235
1015.145521	2544.451828
1015.438628	2546.001982
1015.731699	2547.143804
1016.024736	2544.149358
1016.317737	2543.458720
1016.610703	2544.209852
1016.903635	2543.536858
1017.196531	2544.749256
1017.489393	2543.859492
1017.782219	2544.373690
1018.075011	2544.245140
1018.367768	2546.130532
1018.660490	2547.380738
1018.953177	2547.380738
1019.245829	2547.380738
