Dividing Wavelength (nm)	Counts (n)	Blue Motor Position (mm): 28.700000	Red Motor Position (mm): 0.000000	
326.493990	2209.051259
326.888308	2209.051259
327.282561	2209.051259
327.676750	2170.604900
328.070874	2165.188180
328.464933	2166.186328
328.858929	2169.531134
329.252859	2172.770075
329.646726	2184.705007
330.040528	2196.740762
330.434265	2209.305838
330.827938	2227.736296
331.221547	2245.065263
331.615091	2259.732500
332.008571	2280.549944
332.401986	2297.100053
332.795338	2317.294915
333.188625	2337.187308
333.581847	2355.300174
333.975006	2373.690303
334.368100	2392.574465
334.761129	2408.557443
335.154095	2427.265165
335.546996	2455.258693
335.939833	2490.196409
336.332606	2507.790036
336.725315	2520.007273
337.117960	2531.579241
337.510540	2543.609955
337.903056	2553.364588
338.295508	2563.595609
338.687896	2574.514749
339.080220	2578.129256
339.472480	2586.928590
339.864676	2590.482603
340.256807	2597.580548
340.648875	2598.571135
341.040879	2601.381578
341.432818	2607.231837
341.824694	2610.858947
342.216506	2609.991869
342.608253	2609.235696
342.999937	2612.416664
343.391557	2610.246447
343.783113	2611.557147
344.174605	2613.795419
344.566033	2609.712085
344.957397	2608.194697
345.348697	2608.464399
345.739934	2603.231682
346.131106	2605.280911
346.522215	2599.748244
346.913260	2602.052052
347.304241	2600.506938
347.695159	2596.211875
348.086012	2595.314549
348.476802	2593.121647
348.867528	2589.315576
349.258191	2585.943044
349.648789	2585.033116
350.039324	2580.009606
350.429796	2584.652509
350.820203	2582.840214
351.210548	2579.933989
351.600828	2580.995152
351.991045	2578.351067
352.381198	2577.196642
352.771288	2579.611355
353.161314	2577.330233
353.551276	2578.716550
353.941175	2577.604976
354.331010	2576.526169
354.720782	2578.106571
355.110490	2576.014492
355.500135	2574.860068
355.889717	2576.271591
356.279235	2578.557754
356.668689	2575.865778
357.058080	2575.419636
357.447408	2577.652867
357.836672	2576.362332
358.225873	2576.838721
358.615010	2577.562126
359.004084	2579.099678
359.393095	2578.449369
359.782043	2582.346181
360.170927	2581.098496
360.559748	2578.714030
360.948505	2581.705955
361.337199	2584.400451
361.725830	2582.031109
362.114398	2580.826273
362.502903	2582.018506
362.891344	2582.721747
363.279722	2583.908939
363.668037	2583.931624
364.056289	2581.088413
364.444478	2586.686615
364.832603	2586.023703
365.220665	2584.642427
365.608665	2585.189392
365.996601	2589.749116
366.384474	2588.080494
366.772284	2588.277099
367.160031	2589.660895
367.547715	2589.353385
367.935336	2588.927407
368.322893	2583.379618
368.710388	2588.408169
369.097820	2587.001687
369.485189	2586.399269
369.872495	2591.818509
370.259738	2590.240628
370.646918	2589.003025
371.034035	2592.587285
371.421090	2590.840525
371.808081	2592.461256
372.195010	2591.558890
372.581875	2595.080136
372.968678	2592.448653
373.355418	2591.601740
373.742096	2593.058633
374.128710	2595.826227
374.515262	2594.490321
374.901751	2595.795980
375.288177	2595.743047
375.674540	2593.313211
376.060841	2595.617019
376.447079	2597.721700
376.833254	2598.175404
377.219367	2594.714652
377.605417	2597.217585
377.991404	2594.520568
378.377329	2596.474015
378.763191	2598.500559
379.148991	2596.494179
379.534727	2597.951073
379.920402	2598.951742
380.306013	2597.908223
380.691563	2601.643718
381.077049	2598.442585
381.462474	2600.340580
381.847835	2596.030393
382.233134	2600.448965
382.618371	2598.659355
383.003545	2600.136413
383.388657	2598.568614
383.773706	2602.508276
384.158693	2601.575662
384.543618	2601.701691
384.928480	2601.389140
385.313280	2604.922989
385.698017	2601.684047
386.082692	2603.231682
386.467305	2603.962649
386.851856	2604.915427
387.236344	2605.028853
387.620770	2601.434510
388.005133	2599.591968
388.389435	2603.466095
388.773674	2598.782863
389.157851	2604.635643
389.541965	2604.744028
389.926018	2604.615478
390.310008	2605.522886
390.693936	2606.594131
391.077802	2606.137907
391.461606	2608.522372
391.845348	2607.138576
392.229027	2608.567743
392.612645	2607.347784
392.996200	2607.004985
393.379694	2608.580346
393.763125	2609.497836
394.146494	2609.243257
394.529801	2608.930706
394.913047	2610.306941
395.296230	2612.033536
395.679351	2610.372476
396.062410	2609.979266
396.445408	2610.193515
396.828343	2611.176540
397.211217	2612.673763
397.594028	2612.005810
397.976778	2616.068980
398.359466	2612.976232
398.742092	2612.532610
399.124656	2611.332816
399.507158	2614.654936
399.889598	2614.140738
400.271977	2614.659977
400.654294	2614.579319
401.036549	2614.801130
401.418742	2614.975049
401.800874	2615.766511
402.182944	2616.830194
402.564952	2617.402365
402.946898	2616.043774
403.328783	2617.863631
403.710606	2615.786675
404.092367	2618.410596
404.474067	2617.755246
404.855705	2619.242386
405.237282	2621.911677
405.618797	2619.481841
406.000250	2619.673405
406.381642	2619.905298
406.762972	2618.949999
407.144240	2617.752725
407.525447	2618.367746
407.906593	2615.743825
408.287677	2623.134157
408.668700	2621.117695
409.049661	2622.443519
409.430560	2624.086935
409.811399	2622.496451
410.192176	2622.980402
410.572891	2623.212295
410.953545	2625.117851
411.334138	2627.283027
411.714669	2624.374281
412.095139	2626.680609
412.475547	2626.317646
412.855894	2625.576596
413.236180	2626.257152
413.616405	2626.428551
413.996568	2628.162708
414.376670	2630.592544
414.756711	2627.615743
415.136691	2630.239663
415.516609	2631.200003
415.896466	2629.980044
416.276262	2629.299488
416.655997	2630.814355
417.035670	2631.736886
417.415283	2634.522123
417.794834	2635.278297
418.174324	2632.104890
418.553753	2633.234109
418.933121	2637.307361
419.312428	2634.940539
419.691674	2635.820221
420.070859	2636.909110
420.449983	2637.541775
420.829045	2639.424646
421.208047	2639.530510
421.586988	2639.432207
421.965867	2642.708957
422.344686	2641.317599
422.723444	2642.824904
423.102141	2640.599234
423.480777	2645.290028
423.859352	2642.272897
424.237866	2645.209370
424.616319	2645.942857
424.994712	2646.865389
425.373044	2648.629792
425.751314	2645.642909
426.129524	2646.280615
426.507673	2649.580050
426.885762	2646.935965
427.263789	2652.546769
427.641756	2653.928045
428.019662	2655.417706
428.397508	2659.778304
428.775292	2658.286123
429.153016	2665.217709
429.530679	2667.526558
429.908282	2668.887669
430.285824	2672.650891
430.663305	2682.087931
431.040726	2685.946934
431.418086	2692.649148
431.795385	2701.297247
432.172624	2709.521890
432.549802	2718.253168
432.926920	2735.408215
433.303977	2744.817528
433.680974	2767.727052
434.057910	2784.176337
434.434786	2811.103660
434.811601	2827.530260
435.188355	2867.909903
435.565050	2890.794220
435.941683	2919.022161
436.318257	2973.950574
436.694770	3015.585463
437.071222	3063.864594
437.447614	3107.261367
437.823946	3150.353150
438.200218	3217.526525
438.576429	3255.287287
438.952580	3338.299968
439.328670	3412.528438
439.704700	3458.458390
440.080670	3530.700646
440.456580	3670.315401
440.832429	3723.870099
441.208218	3744.153182
441.583947	3871.810321
441.959616	3983.514728
442.335224	4035.216802
442.710773	4151.334740
443.086261	4287.093013
443.461689	4240.270776
443.837057	4463.573727
444.212365	4633.490858
444.587612	4653.020288
444.962800	4823.418850
445.337927	4874.100090
445.712995	4858.464951
446.088002	5281.936998
446.462949	5295.386796
446.837837	5401.896295
447.212664	5528.146952
447.587431	5814.487011
447.962139	6198.650660
448.336786	7144.776935
448.711374	7583.143070
449.085901	6892.820065
449.460369	6854.819848
449.834776	6776.923938
450.209124	7288.454860
450.583412	7619.464584
450.957640	8226.873211
451.331808	8004.969180
451.705917	7655.561766
452.079965	7432.425173
452.453954	8060.542860
452.827883	7992.426789
453.201752	8295.130434
453.575562	8154.494844
453.949311	8525.843881
454.323001	8637.170202
454.696632	8909.405112
455.070202	9219.060508
455.443713	9500.941666
455.817164	9949.783319
456.190556	10090.368497
456.563888	10472.556014
456.937160	10739.444781
457.310373	10412.672148
457.683526	10600.422361
458.056619	10412.450337
458.429653	10623.591504
458.802628	10363.445281
459.175542	10731.348688
459.548398	11552.046014
459.921194	11936.174375
460.293930	12063.670197
460.666607	12901.850244
461.039224	13815.241786
461.411782	14504.879194
461.784280	14589.704169
462.156719	14774.611172
462.529099	14654.727492
462.901419	13869.668604
463.273680	13805.489674
463.645882	13785.413279
464.018024	13626.087612
464.390106	13922.341100
464.762130	14654.848480
465.134094	15352.808833
465.505999	17097.353053
465.877845	20107.415932
466.249631	22831.773938
466.621358	22788.750211
466.993026	21619.595728
467.364634	21226.373125
467.736184	19968.156578
468.107674	19276.585888
468.479105	19443.453121
468.850477	18997.311006
469.221790	18654.993974
469.593043	18060.825938
469.964238	17572.171772
470.335373	17293.317827
470.706449	17713.520685
471.077467	17298.933672
471.448425	19094.988403
471.819324	22982.955621
472.190164	25131.681913
472.560945	21772.171291
472.931667	19424.692467
473.302330	18807.153642
473.672934	18284.917829
474.043479	18694.428400
474.413965	18540.073311
474.784393	18186.824537
475.154761	18846.671247
475.525070	18899.336181
475.895321	18543.029947
476.265513	19131.241861
476.635645	19700.819148
477.005719	19516.701087
477.375734	19711.332475
477.745691	20199.999243
478.115588	20708.606296
478.485427	21217.147814
478.855207	22261.811002
479.224928	23998.410364
479.594591	26206.899535
479.964194	26320.144015
480.333739	26531.900203
480.703226	26098.736538
481.072653	25768.866115
481.442022	26317.255434
481.811333	27220.456283
482.180584	27167.733376
482.549777	26218.678191
482.918912	25865.406732
483.287988	25975.654246
483.657005	25689.407448
484.025964	25386.340841
484.394864	25342.266033
484.763706	25050.244593
485.132489	24473.503826
485.501213	24626.575942
485.869879	24560.844337
486.238487	24333.735315
486.607036	24507.934907
486.975527	24183.735782
487.343959	24522.140878
487.712333	24493.325643
488.080648	24151.782429
488.448905	24618.482369
488.817104	24365.403843
489.185244	25028.262642
489.553326	25003.868499
489.921350	25953.032068
490.289315	28206.200986
490.657222	30022.427893
491.025070	30521.764264
491.392861	30324.251856
491.760593	29486.979217
492.128267	28603.864845
492.495883	27567.839674
492.863440	26685.877206
493.230939	25812.381355
493.598380	25651.772714
493.965763	25252.687250
494.333088	24818.233049
494.700354	24734.197015
495.067563	24616.952379
495.434713	24387.189190
495.801805	24521.286403
496.168839	24354.638459
496.535815	24173.043495
496.902733	24374.898857
497.269593	24052.317943
497.636395	24230.069027
498.003139	24234.865685
498.369825	23963.961639
498.736453	24154.406349
499.103023	24045.608167
499.469535	24074.932559
499.835989	24267.174440
500.202385	24292.677638
500.568723	23798.369818
500.935003	24079.646038
501.301226	23646.494976
501.667390	24480.982378
502.033497	24729.763320
502.399546	24446.856287
502.765537	24032.869171
503.131470	24423.135137
503.497345	24554.043820
503.863163	23765.468727
504.228923	24386.407811
504.594625	24581.737399
504.960269	24094.066258
505.325856	24594.521765
505.691385	23996.593028
506.056856	24608.442912
506.422270	24574.858745
506.787625	24171.233721
507.152924	24566.008999
507.518164	24589.977165
507.883347	24396.595983
508.248472	24107.783238
508.613540	24871.737336
508.978550	24649.152749
509.343503	24630.586180
509.708398	24915.096300
510.073236	25058.628032
510.438016	25273.519818
510.802738	24957.164729
511.167403	25208.930034
511.532010	24887.085129
511.896561	25686.622211
512.261053	25657.655741
512.625488	25493.455278
512.989866	25389.902416
513.354186	25229.613888
513.718449	25329.738766
514.082655	25728.912451
514.446803	25454.663599
514.810894	25913.063280
515.174927	25394.315946
515.538904	25436.155003
515.902822	25918.404383
516.266684	25669.091598
516.630488	25569.831279
516.994235	25570.789098
517.357925	25859.087646
517.721558	26034.943257
518.085133	26121.134384
518.448651	26044.027416
518.812112	25774.350891
519.175516	25966.227288
519.538863	26131.849357
519.902152	25906.567753
520.265385	26205.140172
520.628560	25989.734189
520.991678	26003.529306
521.354739	26081.526039
521.717743	26139.733722
522.080690	25931.133296
522.443580	26262.800890
522.806413	26254.271258
523.169189	26342.307448
523.531908	26410.945278
523.894569	26008.096592
524.257174	26074.720481
524.619722	26273.636850
524.982213	25962.827030
525.344647	26033.572063
525.707025	26137.077033
526.069345	26143.547354
526.431608	26096.369716
526.793815	26286.627903
527.155964	25737.008544
527.518057	25913.542190
527.880093	25831.530178
528.242072	26059.380250
528.603995	25775.046570
528.965860	25579.152373
529.327669	25614.833660
529.689421	25608.930468
530.051117	25440.404695
530.412755	25612.650840
530.774337	25426.165956
531.135862	25294.990092
531.497331	25491.098538
531.858743	25043.091196
532.220098	25520.838826
532.581396	25204.420722
532.942638	25141.539890
533.303824	25234.319806
533.664953	25259.558342
534.026025	24926.454020
534.387040	25155.458515
534.747999	25227.289917
535.108902	25380.929162
535.469748	24860.435069
535.830537	25064.735390
536.191270	25176.838049
536.551947	25053.879265
536.912567	24726.927671
537.273131	25045.861310
537.633638	24756.879687
537.994089	24967.660411
538.354483	24515.599981
538.714821	25010.336299
539.075103	25040.421905
539.435328	24849.672205
539.795497	24390.778491
540.155609	24798.363342
540.515665	25094.982313
540.875665	24327.413708
541.235609	24617.118737
541.595496	24580.582975
541.955328	24942.444560
542.315102	24859.313412
542.674821	24412.846142
543.034483	24280.334372
543.394090	24451.577327
543.753640	24240.078238
544.113134	24872.584250
544.472571	24461.982269
544.831953	24768.655822
545.191278	24376.587643
545.550548	24311.282016
545.909761	24517.976885
546.268918	24739.767490
546.628019	24711.526946
546.987064	24417.819241
547.346053	24172.907384
547.704986	24299.576457
548.063863	24446.200937
548.422684	24449.916267
548.781449	23997.044211
549.140158	24401.639657
549.498811	23970.500016
549.857408	23710.668864
550.215949	24151.747141
550.574434	23835.873482
550.932864	24049.610843
551.291237	24188.098901
551.649555	24060.799684
552.007817	24119.561894
552.366022	23994.858871
552.724173	24032.463358
553.082267	23965.612617
553.440305	24454.531443
553.798288	23701.471279
554.156215	24232.221600
554.514086	24319.758716
554.871902	23689.496018
555.229661	23963.979283
555.587365	23844.755995
555.945014	23682.186345
556.302606	23941.974647
556.660143	23889.738211
557.017625	24144.886130
557.375050	23671.209233
557.732421	24069.137753
558.089735	23877.347054
558.446994	23939.136477
558.804197	23951.167191
559.161345	23905.660695
559.518437	23662.752697
559.875474	23856.620350
560.232455	24038.059039
560.589381	23861.989179
560.946251	23845.214740
561.303065	24163.752648
561.659825	24255.526854
562.016528	23852.126162
562.373177	23604.746660
562.729770	23946.335245
563.086307	23821.233971
563.442789	23987.609692
563.799216	23814.289782
564.155587	23824.961904
564.511904	23805.316528
564.868164	23739.274892
565.224370	23715.997364
565.580520	23629.355053
565.936615	23766.620631
566.292654	23448.337300
566.648638	23755.366255
567.004567	23575.558379
567.360441	23523.125338
567.716260	23246.353389
568.072023	23573.904881
568.427732	23330.218025
568.783385	23116.067289
569.138982	23348.782074
569.494525	23384.027301
569.850013	23133.396255
570.205445	23222.037384
570.560823	23039.088869
570.916145	22798.230100
571.271412	22981.730621
571.626625	22734.063774
571.981782	22846.254652
572.336884	22649.606803
572.691931	22779.691257
573.046923	22514.831555
573.401860	22391.817318
573.756743	22402.149163
574.111570	22318.629847
574.466342	22238.679668
574.821059	22328.059325
575.175722	22038.298843
575.530330	22016.606758
575.884882	22048.237478
576.239380	21953.748611
576.593823	21846.689627
576.948211	21823.679280
577.302544	21658.127788
577.656823	21539.799304
578.011047	21642.505252
578.365216	21514.553206
578.719330	21389.701469
579.073389	21293.652365
579.427394	21435.218047
579.781344	21210.470806
580.135239	21093.198444
580.489080	21057.076056
580.842866	20825.084676
581.196597	21017.840755
581.550273	20994.621201
581.903895	20894.771067
582.257463	21206.165660
582.610975	20727.833257
582.964434	21041.687934
583.317837	20743.163406
583.671186	20838.710915
584.024481	20805.230092
584.377721	20583.076524
584.730906	20633.180552
585.084037	20656.614356
585.437113	20558.747916
585.790135	20766.372878
586.143103	20230.722556
586.496016	20246.637478
586.848874	20486.563634
587.201679	20420.824467
587.554428	20098.180539
587.907124	20431.461302
588.259765	20214.013651
588.612352	20288.466452
588.964884	19846.057311
589.317362	20022.354023
589.669786	20071.291024
590.022155	20106.901735
590.374470	20304.860285
590.726731	20097.429407
591.078937	19868.117401
591.431090	19963.990064
591.783188	19710.016734
592.135232	19673.259160
592.487222	19779.156159
592.839157	19802.244643
593.191038	19685.993115
593.542866	19567.868798
593.894639	19289.294637
594.246358	19499.331791
594.598022	19408.911135
594.949633	19164.954577
595.301190	19131.410739
595.652692	19292.730183
596.004141	19542.232010
596.355535	18872.277787
596.706876	18880.063850
597.058162	18770.917828
597.409395	18990.225664
597.760573	19078.967616
598.111698	18844.039764
598.462768	18786.641187
598.813785	18755.007946
599.164748	18569.919462
599.515657	18603.939689
599.866511	18399.856137
600.217312	18759.509697
600.568060	18278.255945
600.918753	18588.211289
601.269392	18497.165530
601.619978	18270.424512
601.970510	18488.661103
602.320988	18430.589532
602.671412	18636.934041
603.021783	18549.003715
603.372100	18274.270913
603.722363	18418.362213
604.072572	18346.818157
604.422728	18505.790944
604.772830	18255.885824
605.122878	18198.837607
605.472872	18197.753759
605.822813	18184.223302
606.172701	18152.259866
606.522534	18350.525926
606.872314	18371.388741
607.222041	18206.585860
607.571714	18430.597093
607.921333	18252.921626
608.270899	18325.647832
608.620411	18509.692797
608.969870	18266.426877
609.319276	18273.005583
609.668627	18300.827711
610.017926	18443.189896
610.367171	18556.227688
610.716362	18607.115616
611.065500	18415.110669
611.414585	18556.368841
611.763616	18535.047280
612.112594	18476.484196
612.461518	18439.330892
612.810389	18638.090986
613.159207	18487.587338
613.507971	18403.097599
613.856682	18682.594292
614.205340	18611.133415
614.553945	18765.596890
614.902496	18486.992481
615.250994	18734.104802
615.599439	18674.964505
615.947830	18658.429521
616.296169	18712.485813
616.644454	18671.712961
616.992686	18636.487899
617.340864	18854.928657
617.688990	18613.235577
618.037063	18793.124110
618.385082	18635.121746
618.733048	18913.108613
619.080961	18784.942318
619.428821	18823.935643
619.776628	18709.917346
620.124382	18634.536972
620.472083	18673.686573
620.819731	18698.312609
621.167326	18391.719715
621.514868	18429.672042
621.862357	18194.096402
622.209793	18211.737920
622.557176	18041.704842
622.904506	17872.596815
623.251783	17783.096170
623.599007	17528.467489
623.946179	17496.597314
624.293297	17429.058456
624.640363	17183.092998
624.987376	17202.367850
625.334336	16996.693814
625.681243	16834.507292
626.028097	16845.693612
626.374899	16772.538908
626.721647	16638.539998
627.068343	16477.528064
627.414987	16397.156949
627.761577	16380.899227
628.108115	16422.534117
628.454600	16145.913403
628.801032	16237.551497
629.147412	16169.594223
629.493739	16189.781523
629.840014	16000.665158
630.186236	16109.193638
630.532405	15864.052409
630.878521	16058.461986
631.224585	15947.062569
631.570597	15770.801145
631.916556	15799.518078
632.262462	15792.462983
632.608316	15699.431009
632.954117	15649.238761
633.299866	15637.094622
633.645562	15565.648869
633.991206	15318.589480
634.336797	15185.213152
634.682336	15161.723896
635.027823	15041.963725
635.373257	14925.775211
635.718639	14815.850331
636.063968	14772.776192
636.409245	14526.934242
636.754470	14551.214960
637.099642	14399.002360
637.444762	14170.741435
637.789829	14220.054002
638.134845	14060.982913
638.479808	14083.274895
638.824719	14030.194066
639.169577	13881.800140
639.514383	13932.257049
639.859137	13746.735026
640.203839	13828.568076
640.548489	13667.654446
640.893086	13655.991736
641.237632	13525.844267
641.582125	13673.560157
641.926566	13506.362728
642.270955	13520.558618
642.615292	13484.539573
642.959576	13492.693640
643.303809	13524.609185
643.647990	13461.332622
643.992118	13518.121220
644.336195	13289.686374
644.680219	13489.353875
645.024192	13414.858224
645.368112	13660.188497
645.711981	13708.344119
646.055797	13885.034041
646.399562	13857.249721
646.743274	14126.175114
647.086935	14414.524073
647.430544	14370.363565
647.774101	14405.573504
648.117606	14545.808322
648.461059	14517.139280
648.804460	14513.958312
649.147810	14234.703595
649.491108	14139.657680
649.834354	14149.674453
650.177548	13847.427033
650.520690	13656.326973
650.863781	13579.404006
651.206820	13632.391574
651.549807	13453.952372
651.892742	13257.962393
652.235626	13195.252960
652.578458	13203.598590
652.921238	12890.863049
653.263967	13077.829363
653.606644	12909.328796
653.949269	12891.573852
654.291843	12693.801825
654.634365	12849.868386
654.976836	12695.611599
655.319255	12709.038712
655.661622	12666.153617
656.003938	12585.318715
656.346203	12508.972960
656.688416	12582.740165
657.030577	12535.479347
657.372687	12455.541771
657.714746	12435.513267
658.056753	12626.925878
658.398708	12439.566354
658.740612	12443.579113
659.082465	12547.137016
659.424266	12511.359947
659.766016	12533.437680
660.107715	12444.320162
660.449362	12514.445133
660.790958	12474.027682
661.132503	12419.227819
661.473996	12484.699805
661.815438	12499.709840
662.156829	12516.348168
662.498168	12491.951504
662.839456	12491.800270
663.180693	12518.435206
663.521879	12604.772527
663.863013	12584.129003
664.204097	12552.641956
664.545129	12679.558045
664.886110	12646.566213
665.227040	12739.504926
665.567918	12740.790420
665.908746	12775.327365
666.249522	12752.979930
666.590248	12804.165286
666.930922	12922.057709
667.271545	12894.807752
667.612118	12982.808654
667.952639	12896.844378
668.293109	12904.738825
668.633528	12852.852749
668.973896	12829.113956
669.314213	12914.430444
669.654480	12648.958241
669.994695	12719.967934
670.334859	12740.971902
670.674973	12685.630115
671.015035	12733.279101
671.355047	12661.235971
671.695008	12634.374183
672.034918	12636.483906
672.374777	12685.299919
672.714585	12608.084566
673.054342	12636.536838
673.394049	12585.170001
673.733705	12676.747602
674.073310	12586.210999
674.412864	12610.499278
674.752368	12476.639000
675.091820	12488.067295
675.431223	12481.793579
675.770574	12344.066736
676.109875	12270.213832
676.449125	12231.384344
676.788324	12171.127433
677.127473	12003.375477
677.466571	11993.953560
677.805619	11890.506562
678.144616	11816.779688
678.483562	11783.271138
678.822458	11658.842858
679.161303	11630.226748
679.500098	11619.148813
679.838842	11580.268914
680.177535	11595.853641
680.516179	11665.106492
680.854771	11607.576844
681.193314	11817.944194
681.531805	11978.089049
681.870247	12386.041903
682.208638	12800.775110
682.546978	13114.312194
682.885268	13161.908248
683.223508	12854.599509
683.561697	12699.705016
683.899836	12593.926485
684.237925	12404.154769
684.575963	12318.215699
684.913951	12237.912639
685.251889	12191.970083
685.589776	12291.469857
685.927614	12206.778473
686.265401	12171.671877
686.603137	12229.163716
686.940824	12380.753733
687.278460	12492.889159
687.616046	12554.366030
687.953582	12723.774005
688.291068	12648.577634
688.628504	12874.176830
688.965889	12885.368192
689.303224	12850.188500
689.640510	12745.279568
689.977745	12438.464862
690.314930	12207.615304
690.652065	12123.894342
690.989150	11828.702016
691.326185	11609.011052
691.663170	11405.416492
692.000105	11157.686631
692.336990	11046.698067
692.673825	10795.094079
693.010610	10674.968424
693.347345	10471.101642
693.684030	10267.517164
694.020665	10212.407270
694.357251	10013.596765
694.693786	9958.980905
695.030272	9791.717941
695.366707	9674.412811
695.703093	9602.760371
696.039429	9609.457544
696.375716	9525.028299
696.711952	9395.253876
697.048139	9438.033107
697.384276	9386.875478
697.720363	9409.699302
698.056400	9343.972738
698.392388	9297.536150
698.728326	9258.157176
699.064214	9195.782980
699.400053	9238.975586
699.735842	9058.890447
700.071581	9009.681224
700.407270	8938.427035
700.742910	8854.885033
701.078501	8767.388247
701.414042	8645.084813
701.749533	8579.943023
702.084974	8440.703833
702.420366	8553.608035
702.755709	8438.952032
703.091002	8299.475908
703.426246	8329.032193
703.761440	8283.210625
704.096584	8235.291938
704.431679	8170.782812
704.766725	8159.238570
705.101721	8107.735622
705.436668	8150.217425
705.771565	8044.849748
706.106413	8125.649362
706.441212	8165.887852
706.775961	8126.145916
707.110661	8156.057602
707.445311	8304.804408
707.779913	8203.807411
708.114465	8327.587903
708.448967	8365.774643
708.783421	8511.436263
709.117825	8693.366464
709.452180	8728.442812
709.786485	8818.172830
710.120742	9098.874359
710.454949	9097.175490
710.789107	9200.153660
711.123216	9409.737111
711.457275	9583.152803
711.791286	9741.346731
712.125247	9738.460671
712.459159	9727.072704
712.793023	9973.174273
713.126837	9540.943222
713.460602	9702.791987
713.794318	9532.043065
714.127985	9553.805726
714.461602	9232.369154
714.795171	9183.311165
715.128691	8935.483001
715.462162	8691.493675
715.795584	8630.251218
716.128957	8488.408272
716.462281	8317.992066
716.795556	8363.755661
717.128782	8162.840474
717.461960	7894.222592
717.795088	7963.412428
718.128167	7868.991617
718.461198	7707.495733
718.794180	7647.102710
719.127113	7640.740773
719.459997	7489.894327
719.792833	7252.319870
720.125619	7316.917215
720.458357	7180.306987
720.791046	7165.881725
721.123686	7161.740417
721.456278	7002.165213
721.788821	7021.366968
722.121315	6915.716986
722.453761	6985.718448
722.786158	6928.113183
723.118506	6941.694052
723.450805	6905.664925
723.783056	6977.231666
724.115259	6881.613580
724.447412	6876.532097
724.779518	6923.460198
725.111574	6921.988182
725.443582	7008.605287
725.775542	6992.506362
726.107453	7179.487799
726.439315	7084.361226
726.771129	7149.888665
727.102895	7321.817217
727.434612	7429.098012
727.766281	7461.699153
728.097901	7540.852831
728.429473	7530.188270
728.760996	7510.187492
729.092471	7484.459963
729.423897	7431.598424
729.755276	7446.331196
730.086606	7377.317800
730.417887	7471.156358
730.749120	7662.180801
731.080305	7863.088426
731.411442	7980.479255
731.742530	7979.531518
732.073570	8081.713186
732.404562	8167.596803
732.735506	8015.600973
733.066401	8162.442223
733.397249	8092.702901
733.728048	7849.275664
734.058798	7519.896754
734.389501	7292.933926
734.720156	7113.972964
735.050762	6877.439505
735.381320	6789.584796
735.711831	6736.357773
736.042293	6628.661083
736.372707	6647.570451
736.703073	6507.106261
737.033391	6544.269647
737.363661	6558.740279
737.693883	6584.034269
738.024056	6674.792682
738.354182	6709.286777
738.684260	6753.205310
739.014290	6862.618513
739.344272	6974.905173
739.674207	6999.657239
740.004093	7073.182468
740.333931	7086.869200
740.663722	7100.886129
740.993464	7174.723909
741.323159	7161.649677
741.652806	6912.873775
741.982405	6920.087667
742.311956	6980.896585
742.641460	6819.340207
742.970915	6625.747296
743.300323	6619.077850
743.629683	6563.567184
743.958996	6432.416526
744.288260	6338.043605
744.617477	6291.062572
744.946647	6294.127593
745.275768	6127.943436
745.604842	6085.380974
745.933869	6068.677111
746.262847	6024.004926
746.591778	6012.150653
746.920662	5969.890660
747.249498	5963.558971
747.578286	6011.530591
747.907027	6084.029945
748.235720	6149.998484
748.564365	6119.991016
748.892963	6146.026055
749.221514	6294.845958
749.550017	6127.807325
749.878473	6010.103945
750.206881	6064.561009
750.535242	6004.689745
750.863555	5938.383449
751.191821	5955.288958
751.520039	5960.272139
751.848210	5866.380648
752.176334	5884.221292
752.504411	5929.884063
752.832440	5857.218351
753.160421	5789.407270
753.488356	5834.419733
753.816243	5866.282346
754.144082	5718.730293
754.471875	5691.475295
754.799620	5734.952727
755.127318	5747.200210
755.454969	5698.164906
755.782572	5662.355070
756.110129	5710.997163
756.437638	5693.242220
756.765100	5634.046471
757.092515	5634.485051
757.419882	5681.395508
757.747203	5660.462117
758.074477	5728.807560
758.401703	5713.099325
758.728882	5661.614020
759.056014	5723.766406
759.383099	5848.567731
759.710138	5862.998034
760.037129	5848.320715
760.364073	5850.168298
760.690970	5931.159475
761.017820	5911.519140
761.344623	5867.197315
761.671379	5968.239683
761.998088	6086.540440
762.324751	6327.290824
762.651366	6931.198370
762.977935	8235.460816
763.304456	9872.013439
763.630931	10775.423496
763.957359	10381.537982
764.283740	9444.306823
764.610074	8606.948484
764.936362	7613.014427
765.262602	7020.479725
765.588796	6478.074256
765.914943	6139.699407
766.241044	5979.811651
766.567097	5780.169356
766.893104	5520.728894
767.219064	5343.252552
767.544978	5275.161687
767.870845	5198.911715
768.196665	5092.898770
768.522438	5019.981000
768.848165	4987.538654
769.173846	4922.134724
769.499479	4879.244587
769.825066	4827.527390
770.150607	4765.697638
770.476101	4737.625973
770.801548	4738.777877
771.126949	4665.287936
771.452303	4608.774081
771.777611	4562.967636
772.102872	4585.849434
772.428087	4549.091860
772.753256	4506.302547
773.078378	4460.591884
773.403453	4391.497829
773.728482	4376.061816
774.053465	4332.234025
774.378401	4320.135256
774.703291	4322.607942
775.028135	4246.022732
775.352932	4200.238973
775.677683	4186.605173
776.002388	4205.731310
776.327046	4217.000810
776.651658	4143.730159
776.976224	4079.659614
777.300743	4087.407868
777.625216	4103.884879
777.949643	4100.378757
778.274024	4058.078435
778.598359	4013.706198
778.922647	4035.776370
779.246889	4029.721944
779.571086	4023.894370
779.895236	4008.808717
780.219339	3991.378928
780.543397	3985.896673
780.867409	4036.782080
781.191374	4054.700862
781.515294	3991.741891
781.839167	3984.434739
782.162995	4003.424765
782.486776	3991.396572
782.810511	4003.787728
783.134201	3997.375381
783.457844	3952.914924
783.781441	3897.633631
784.104993	3904.572779
784.428498	3922.400820
784.751958	3921.367383
785.075372	3897.058940
785.398739	3863.439485
785.722061	3870.918036
786.045337	3911.975714
786.368568	3947.253708
786.691752	3859.764483
787.014891	3910.637287
787.337983	4035.494065
787.661030	4192.306718
787.984031	4360.295608
788.306987	4527.213253
788.629897	4611.977734
788.952760	4565.137853
789.275579	4501.062267
789.598351	4432.936114
789.921078	4296.358653
790.243759	4094.062191
790.566395	4075.583841
790.888984	4072.841454
791.211529	3964.716265
791.534027	3902.740320
791.856480	3893.983836
792.178888	3831.985205
792.501249	3781.303965
792.823566	3789.498361
793.145836	3823.009431
793.468062	3768.968262
793.790241	3723.242476
794.112375	3751.992176
794.434464	3818.522804
794.756507	3840.242615
795.078505	3821.686128
795.400457	3855.671067
795.722364	3992.382118
796.044226	4099.738530
796.366042	4171.789221
796.687812	4153.099143
797.009538	4157.711799
797.331218	4116.518011
797.652852	4090.266202
797.974442	4067.074374
798.295986	4069.284920
798.617484	3988.765090
798.938938	3900.096235
799.260346	3940.435548
799.581709	3937.640228
799.903026	3862.615256
800.224299	3828.547138
800.545526	3823.190912
800.866708	3785.372176
801.187845	3722.244327
801.508936	3754.767331
801.829983	3753.880088
802.150984	3675.409487
802.471940	3667.641069
802.792851	3676.223634
803.113717	3677.050383
803.434538	3678.729087
803.755314	3620.975108
804.076045	3594.609873
804.396731	3613.211731
804.717372	3643.453613
805.037967	3626.991725
805.358518	3614.086371
805.679024	3645.391937
805.999485	3658.032630
806.319901	3660.147394
806.640272	3673.970238
806.960598	3688.022454
807.280879	3661.632014
807.601115	3676.483253
807.921306	3693.121581
808.241453	3733.992736
808.561554	3708.071123
808.881611	3640.000423
809.201623	3679.001309
809.521590	3689.353319
809.841513	3662.441119
810.161390	3694.497816
810.481223	3669.448323
810.801011	3615.215590
811.120755	3607.069085
811.440453	3643.133500
811.760107	3642.904127
812.079716	3605.642439
812.399281	3571.770926
812.718801	3598.564659
813.038276	3564.793969
813.357707	3565.058630
813.677093	3584.527566
813.996434	3531.197199
814.315731	3540.208262
814.634983	3541.065258
814.954191	3558.946231
815.273354	3586.231476
815.592473	3580.988676
815.911547	3586.672577
816.230577	3628.332672
816.549562	3680.017102
816.868502	3722.834142
817.187399	3746.187287
817.506250	3744.400198
817.825058	3715.335426
818.143821	3809.549550
818.462539	3910.135693
818.781213	3957.237714
819.099843	4011.972042
819.418429	4258.197119
819.736970	4499.418851
820.055466	4746.281634
820.373919	5112.634887
820.692327	5521.185118
821.010691	5964.100895
821.329011	7343.577357
821.647286	10079.330891
821.965517	14642.008661
822.283704	18678.848714
822.601847	20847.628716
822.919945	19043.694662
823.237999	16466.704707
823.556010	13978.086179
823.873976	11876.010725
824.191897	9777.900138
824.509775	8432.355683
824.827609	7296.104811
825.145398	6746.404793
825.463144	6637.533514
825.780845	6747.097952
826.098502	6930.825324
826.416116	7815.164697
826.733685	9132.362744
827.051210	10244.506817
827.368692	10296.150918
827.686129	9038.199031
828.003522	7526.193155
828.320872	6509.173134
828.638177	5803.799765
828.955439	5239.709773
829.272656	4743.544288
829.589830	4458.119198
829.906960	4286.838434
830.224046	4099.693160
830.541088	3972.895537
830.858086	3924.321500
831.175041	3849.112525
831.491952	3833.406811
831.808819	3842.480887
832.125642	3915.648194
832.442421	4063.850556
832.759157	4337.292823
833.075849	4889.092482
833.392497	5754.177167
833.709101	6532.213728
834.025662	6870.477672
834.342179	6511.887796
834.658653	5846.155539
834.975083	5197.139749
835.291469	4617.512921
835.607811	4209.393708
835.924110	4065.955237
836.240366	3870.371071
836.556578	3661.173269
836.872746	3553.970612
837.188871	3514.616844
837.504952	3448.151751
837.820990	3364.871890
838.136984	3321.913697
838.452935	3341.468333
838.768842	3338.693178
839.084706	3362.885675
839.400526	3520.643544
839.716303	3860.578630
840.032037	4379.998957
840.347727	4651.288652
840.663373	4369.634345
840.978977	3988.419771
841.294537	3685.143955
841.610054	3453.369346
841.925527	3345.619723
842.240957	3275.761934
842.556344	3222.325703
842.871687	3163.278668
843.186987	3111.775720
843.502244	3075.330698
843.817458	3042.341387
844.132629	3007.325533
844.447756	3017.929600
844.762840	3003.020387
845.077881	2972.486118
845.392879	2952.545834
845.707833	2947.532407
846.022745	2947.928138
846.337613	2951.260340
846.652438	2938.786005
846.967221	2934.450613
847.281960	2920.068201
847.596656	2917.598035
847.911309	2918.074424
848.225919	2911.253743
848.540485	2905.156468
848.855009	2903.888618
849.169490	2894.040723
849.483928	2887.313304
849.798323	2886.753736
850.112675	2885.513612
850.426984	2895.306053
850.741251	2893.571896
851.055474	2882.912376
851.369654	2874.221427
851.683792	2878.418188
851.997887	2889.286915
852.311938	2892.674571
852.625947	2879.078579
852.939914	2881.914228
853.253837	2885.274157
853.567718	2873.593803
853.881555	2871.529451
854.195350	2886.415978
854.509103	2882.335164
854.822812	2875.411139
855.136479	2871.388299
855.450103	2872.267980
855.763685	2869.213041
856.077224	2864.275231
856.390720	2878.546737
856.704173	2886.947820
857.017584	2877.679659
857.330953	2874.206304
857.644278	2887.066287
857.957561	2896.198337
858.270802	2896.780591
858.584000	2897.619943
858.897155	2885.286760
859.210268	2884.041595
859.523339	2882.093189
859.836367	2880.527911
860.149352	2872.419215
860.462295	2869.984337
860.775195	2875.655635
861.088054	2880.633775
861.400869	2859.841536
861.713642	2858.470342
862.026373	2873.901314
862.339062	2877.213352
862.651708	2880.986656
862.964312	2883.489588
863.276873	2880.144783
863.589392	2886.957902
863.901869	2897.897206
864.214303	2921.706576
864.526696	2939.499328
864.839045	2934.448092
865.151353	2932.751744
865.463619	2933.344079
865.775842	2930.853749
866.088023	2952.140022
866.400162	2960.856177
866.712258	2928.809562
867.024313	2919.304466
867.336325	2926.213367
867.648296	2946.677931
867.960224	2940.689041
868.272110	2924.761515
868.583954	2931.572114
868.895755	2947.222376
869.207515	2934.485901
869.519233	2935.582352
869.830909	2948.263374
870.142542	2956.402317
870.454134	2956.104889
870.765684	2959.515230
871.077191	2960.102524
871.388657	2964.246353
871.700081	2981.860144
872.011463	2991.390445
872.322803	2991.879437
872.634101	2989.051350
872.945357	3009.019360
873.256571	3035.009029
873.567744	3029.967875
873.878874	3021.034951
874.189963	3045.275339
874.501010	3045.076213
874.812015	3036.226468
875.122979	3036.433155
875.433900	3031.742361
875.744780	3038.721839
876.055618	3044.675442
876.366415	3041.285266
876.677169	3053.666339
876.987882	3051.725495
877.298554	3043.263918
877.609183	3064.910633
877.919771	3087.883171
878.230317	3118.624127
878.540822	3163.407217
878.851285	3207.829865
879.161707	3248.930392
879.472087	3348.886391
879.782425	3579.153696
880.092722	4018.003782
880.402977	4548.096233
880.713191	5176.929763
881.023363	6333.355332
881.333494	7618.917618
881.643583	8177.328751
881.953631	7871.444138
882.263637	7244.571616
882.573602	6663.956722
882.883526	6077.972999
883.193408	5507.122820
883.503248	5045.648035
883.813048	4740.123865
884.122806	4434.755971
884.432522	4115.696303
884.742197	3881.297772
885.051831	3682.673790
885.361424	3549.715878
885.670975	3479.462358
885.980485	3391.438771
886.289954	3315.587049
886.599382	3270.284720
886.908768	3229.312742
887.218113	3186.508305
887.527417	3130.271713
887.836680	3079.812284
888.145901	3072.968918
888.455082	3063.569686
888.764221	3009.329391
889.073319	2985.386431
889.382376	2983.180926
889.691392	2984.907522
890.000366	2984.494147
890.309300	2970.794811
890.618193	2983.589260
890.927044	2998.964779
891.235855	3002.944770
891.544625	2989.515136
891.853353	2997.104593
892.162041	3017.160824
892.470687	3059.017524
892.779293	3108.534258
893.087858	3156.747853
893.396381	3227.336610
893.704864	3351.265816
894.013306	3589.049481
894.321707	3890.157600
894.630068	4094.909105
894.938387	4096.791976
895.246665	4050.534348
895.554903	3929.345009
895.863100	3729.266654
896.171256	3561.557548
896.479371	3420.304418
896.787446	3296.929739
897.095480	3195.400900
897.403473	3129.520581
897.711425	3093.975406
898.019336	3082.511822
898.327207	3055.919735
898.635038	3018.088396
898.942827	3003.932836
899.250576	2992.776763
899.558284	2959.565641
899.865952	2942.045111
900.173579	2920.889909
900.481165	2914.346491
900.788711	2902.043555
901.096216	2874.324771
901.403681	2864.547453
901.711105	2870.032228
902.018489	2870.420397
902.325832	2869.447454
902.633135	2876.648743
902.940397	2912.834145
903.247619	2992.509582
903.554800	3188.960826
903.861941	3532.626366
904.169041	3960.693425
904.476101	4261.214249
904.783121	4220.643043
905.090100	3971.814210
905.397039	3698.485369
905.703938	3446.503294
906.010796	3261.150149
906.317614	3150.897594
906.624391	3054.513253
906.931129	2986.288798
907.237826	2924.549787
907.544483	2872.353680
907.851099	2845.544823
908.157675	2823.840136
908.464211	2803.249543
908.770707	2788.945269
909.077163	2775.135028
909.383578	2762.232194
909.689954	2748.066552
909.996289	2749.478075
910.302584	2747.406161
910.608839	2748.676532
910.915054	2742.796026
911.221229	2736.686147
911.527363	2740.663618
911.833458	2747.449011
912.139513	2750.503950
912.445527	2754.415885
912.751502	2763.240425
913.057436	2772.753082
913.363331	2788.110958
913.669186	2807.284986
913.975000	2840.317147
914.280775	2901.216806
914.586510	2971.160295
914.892205	3052.491751
915.197859	3179.586801
915.503475	3375.266749
915.809050	3587.685849
916.114585	3735.386615
916.420081	3757.182044
916.725536	3695.248948
917.030952	3579.304930
917.336328	3446.576391
917.641665	3317.081751
917.946961	3213.284394
918.252218	3145.450627
918.557435	3068.394070
918.862612	3007.723784
919.167750	2957.937348
919.472848	2920.141298
919.777906	2892.107441
920.082925	2867.176415
920.387904	2834.413956
920.692843	2816.182623
920.997743	2806.806077
921.302603	2793.764612
921.607423	2785.124074
921.912204	2770.252670
922.216946	2760.009046
922.521647	2751.789444
922.826310	2741.366859
923.130932	2733.860581
923.435516	2724.421020
923.740059	2721.570247
924.044564	2712.584391
924.349028	2706.414018
924.653454	2697.907071
924.957840	2693.223839
925.262186	2688.611184
925.566493	2685.757891
925.870761	2680.363856
926.174989	2676.003258
926.479178	2669.197700
926.783328	2665.958759
927.087438	2668.547391
927.391509	2662.777791
927.695541	2663.465908
927.999533	2657.159425
928.303486	2657.716472
928.607400	2655.669764
928.911275	2654.974085
929.215110	2653.585247
929.518906	2650.653816
929.822663	2651.450318
930.126381	2652.619866
930.430060	2651.147849
930.733699	2653.222284
931.037299	2651.989722
931.340861	2656.189003
931.644383	2656.801503
931.947866	2653.428971
932.251309	2652.791265
932.554714	2652.241779
932.858080	2651.314207
933.161407	2646.893115
933.464694	2649.627941
933.767943	2644.417908
934.071153	2645.211890
934.374323	2646.018475
934.677455	2644.145686
934.980548	2643.182826
935.283602	2645.191726
935.586617	2645.983187
935.889593	2642.817342
936.192530	2642.537558
936.495428	2643.918834
936.798287	2646.633496
937.101108	2647.619041
937.403890	2655.450474
937.706632	2656.078097
938.009336	2665.414314
938.312002	2673.732218
938.614628	2679.718588
938.917216	2690.226873
939.219765	2688.631348
939.522275	2686.186389
939.824747	2684.353929
940.127179	2681.856037
940.429573	2680.557940
940.731929	2676.517456
941.034246	2673.646518
941.336524	2671.559481
941.638763	2667.735766
941.940964	2665.323573
942.243126	2664.816937
942.545250	2664.776608
942.847335	2657.240083
943.149381	2656.388128
943.451389	2652.594660
943.753359	2649.443939
944.055290	2652.198929
944.357182	2647.843372
944.659036	2646.736839
944.960851	2647.349339
945.262628	2645.791623
945.564367	2646.429329
945.866067	2644.969915
946.167729	2645.980666
946.469352	2645.849596
946.770937	2645.501757
947.072484	2645.680717
947.373992	2646.855306
947.675462	2642.368679
947.976893	2639.759882
948.278286	2635.807618
948.579641	2635.847947
948.880958	2635.739562
949.182236	2638.363483
949.483476	2634.817031
949.784678	2637.496404
950.085841	2635.719397
950.386967	2637.544295
950.688054	2639.437248
950.989103	2638.502114
951.290114	2638.877680
951.591087	2642.119142
951.892021	2645.088382
952.192917	2647.019144
952.493776	2649.524597
952.794596	2649.799340
953.095378	2649.690955
953.396122	2649.466624
953.696828	2646.089051
953.997496	2646.946047
954.298126	2641.970428
954.598718	2639.364152
954.899272	2639.127217
955.199788	2636.137813
955.500266	2632.190590
955.800706	2631.315950
956.101108	2629.518778
956.401472	2626.347892
956.701798	2625.798407
957.002087	2623.602984
957.302337	2621.440329
957.602550	2620.064094
957.902724	2618.619804
958.202861	2618.829012
958.502960	2616.487396
958.803022	2615.179216
959.103045	2616.711727
959.403031	2616.129474
959.702979	2613.676952
960.002889	2615.040584
960.302762	2614.715430
960.602596	2616.164762
960.902393	2613.868516
961.202153	2610.929523
961.501875	2611.952878
961.801559	2613.258537
962.101205	2610.490943
962.400814	2611.254678
962.700385	2611.292487
962.999918	2608.630757
963.299414	2605.013729
963.598873	2607.287290
963.898293	2604.933071
964.197677	2607.715788
964.497022	2608.033381
964.796331	2609.336519
965.095601	2610.780809
965.394835	2607.982969
965.694030	2609.523042
965.993189	2608.514811
966.292309	2607.627568
966.591393	2609.641509
966.890439	2608.794595
967.189447	2608.804677
967.488419	2608.713936
967.787353	2607.219234
968.086249	2608.315685
968.385108	2607.859461
968.683930	2610.783330
968.982714	2609.152517
969.281462	2605.520365
969.580172	2607.889708
969.878844	2610.319544
970.177480	2608.592949
970.476078	2609.530603
970.774639	2609.220572
971.073162	2609.376848
971.371649	2608.749224
971.670098	2606.831065
971.968510	2608.978597
972.266885	2607.869543
972.565223	2611.542024
972.863524	2608.537496
973.161788	2604.479367
973.460014	2608.487084
973.758204	2608.930706
974.056356	2610.627054
974.354471	2607.967846
974.652550	2607.461210
974.950591	2608.441714
975.248595	2608.726539
975.546563	2607.315016
975.844493	2606.216045
976.142386	2609.749893
976.440243	2608.073710
976.738062	2608.537496
977.035845	2607.912393
977.333590	2607.330140
977.631299	2607.388113
977.928971	2603.634974
978.226606	2602.188163
978.524204	2602.893924
978.821765	2603.123297
979.119290	2605.497680
979.416777	2606.626899
979.714228	2606.677310
980.011642	2602.898965
980.309020	2607.249481
980.606360	2605.185129
980.903664	2606.619337
981.200931	2607.448607
981.498162	2609.182764
981.795356	2609.913731
982.092513	2610.743001
982.389633	2613.094699
982.686717	2617.694752
982.983764	2618.297170
983.280775	2622.995525
983.577749	2624.457460
983.874686	2622.219187
984.171587	2623.623149
984.468451	2617.964454
984.765279	2618.728188
985.062070	2612.414143
985.358824	2611.466406
985.655543	2611.718464
985.952224	2609.495315
986.248869	2610.828700
986.545478	2608.789554
986.842050	2606.475664
987.138586	2604.401229
987.435086	2603.806373
987.731549	2603.163626
988.027975	2604.930550
988.324366	2602.578852
988.620719	2604.192021
988.917037	2604.396188
989.213318	2604.166816
989.509563	2602.861157
989.805772	2601.366455
990.101944	2604.287803
990.398080	2602.777978
990.694180	2604.600355
990.990244	2603.992896
991.286271	2600.501897
991.582262	2602.220930
991.878217	2604.406270
992.174136	2605.230499
992.470019	2604.290324
992.765865	2600.012905
993.061676	2601.976434
993.357450	2601.724377
993.653188	2598.639190
993.948890	2601.706732
994.244556	2602.631784
994.540186	2603.513986
994.835780	2604.403750
995.131337	2604.224789
995.426859	2601.739500
995.722345	2606.195880
996.017795	2606.402567
996.313208	2606.463061
996.608586	2607.592280
996.903928	2610.130501
997.199234	2608.184615
997.494504	2610.609410
997.789738	2605.240581
998.084936	2607.899790
998.380099	2603.675303
998.675225	2606.614296
998.970316	2602.785539
999.265371	2601.051382
999.560390	2604.161774
999.855373	2604.048348
1000.150320	2600.219592
1000.445232	2603.682865
1000.740108	2599.833944
1001.034948	2603.982813
1001.329752	2600.988368
1001.624521	2601.079109
1001.919254	2600.741352
1002.213951	2603.950046
1002.508613	2599.400405
1002.803239	2603.125817
1003.097829	2600.665734
1003.392384	2601.429469
1003.686903	2600.748913
1003.981386	2600.088522
1004.275834	2601.951228
1004.570246	2601.605909
1004.864623	2602.992227
1005.158964	2601.409304
1005.453270	2599.221444
1005.747540	2601.137082
1006.041775	2601.389140
1006.335974	2601.177411
1006.630138	2600.761516
1006.924266	2598.931577
1007.218359	2599.486104
1007.512416	2598.041814
1007.806438	2597.482246
1008.100425	2597.459560
1008.394376	2596.037955
1008.688292	2599.871752
1008.982172	2600.504417
1009.276017	2600.897627
1009.569827	2600.194386
1009.863602	2599.977617
1010.157341	2599.745724
1010.451045	2599.987699
1010.744714	2601.888214
1011.038347	2604.350818
1011.331945	2600.045672
1011.625508	2599.307143
1011.919036	2599.042483
1012.212528	2600.015425
1012.505986	2601.114397
1012.799408	2599.849067
1013.092795	2598.288830
1013.386147	2599.997781
1013.679464	2601.091712
1013.972745	2599.836464
1014.265992	2598.656834
1014.559204	2599.859150
1014.852380	2600.517020
1015.145521	2598.871083
1015.438628	2598.140116
1015.731699	2600.277565
1016.024736	2600.635487
1016.317737	2599.871752
1016.610703	2598.687081
1016.903635	2602.097422
1017.196531	2598.684561
1017.489393	2600.123810
1017.782219	2599.740682
1018.075011	2599.339911
1018.367768	2597.837647
1018.660490	2601.094232
1018.953177	2601.094232
1019.245829	2601.094232
