Dividing Wavelength (nm)	Counts (n)	Blue Motor Position (mm): 30.600000	Red Motor Position (mm): 0.000000	
326.493990	2212.940510
326.888308	2212.940510
327.282561	2212.940510
327.676750	2172.407112
328.070874	2171.459375
328.464933	2172.240754
328.858929	2176.765190
329.252859	2179.668894
329.646726	2188.130471
330.040528	2203.264015
330.434265	2212.716178
330.827938	2230.912223
331.221547	2248.601632
331.615091	2267.521082
332.008571	2284.512291
332.401986	2304.702113
332.795338	2323.475369
333.188625	2339.349963
333.581847	2359.433920
333.975006	2378.880171
334.368100	2397.479508
334.761129	2415.531880
335.154095	2433.150712
335.546996	2460.055351
335.939833	2499.615805
336.332606	2512.553927
336.725315	2525.912984
337.117960	2536.406146
337.510540	2547.589946
337.903056	2559.476987
338.295508	2570.585169
338.687896	2578.295614
339.080220	2583.044381
339.472480	2591.689960
339.864676	2600.164139
340.256807	2601.666403
340.648875	2605.664038
341.040879	2608.335850
341.432818	2612.051180
341.824694	2613.858434
342.216506	2613.833228
342.608253	2616.658795
342.999937	2616.852879
343.391557	2616.459669
343.783113	2615.892539
344.174605	2616.328599
344.566033	2614.188629
344.957397	2616.172323
345.348697	2610.944647
345.739934	2607.612444
346.131106	2611.983125
346.522215	2606.876436
346.913260	2608.232506
347.304241	2604.451641
347.695159	2603.105653
348.086012	2602.704881
348.476802	2600.000302
348.867528	2595.987543
349.258191	2589.509661
349.648789	2590.381780
350.039324	2589.736513
350.429796	2589.981009
350.820203	2589.154259
351.210548	2588.158632
351.600828	2587.614187
351.991045	2585.774166
352.381198	2587.125195
352.771288	2584.992787
353.161314	2583.795513
353.551276	2582.963723
353.941175	2583.067066
354.331010	2582.247879
354.720782	2583.117478
355.110490	2581.826942
355.500135	2580.859041
355.889717	2582.930955
356.279235	2582.532704
356.668689	2583.553537
357.058080	2582.406675
357.447408	2585.209557
357.836672	2585.363312
358.225873	2582.562951
358.615010	2581.988259
359.004084	2580.327199
359.393095	2583.976994
359.782043	2583.329206
360.170927	2586.553024
360.559748	2585.474217
360.948505	2586.242993
361.337199	2590.109558
361.725830	2591.211050
362.114398	2588.277099
362.502903	2591.112748
362.891344	2587.876327
363.279722	2589.779362
363.668037	2590.285998
364.056289	2591.760536
364.444478	2594.087028
364.832603	2592.236925
365.220665	2592.451174
365.608665	2592.912440
365.996601	2594.777667
366.384474	2594.424786
366.772284	2596.365630
367.160031	2593.729107
367.547715	2598.024170
367.935336	2595.516196
368.322893	2591.495875
368.710388	2591.369847
369.097820	2595.362440
369.485189	2591.561410
369.872495	2596.831937
370.259738	2595.831268
370.646918	2598.717328
371.034035	2596.889910
371.421090	2598.268666
371.808081	2597.192379
372.195010	2599.138265
372.581875	2599.130703
372.968678	2601.026177
373.355418	2597.636001
373.742096	2600.363265
374.128710	2602.097422
374.515262	2600.827051
374.901751	2603.284614
375.288177	2600.998450
375.674540	2603.231682
376.060841	2602.934253
376.447079	2604.741507
376.833254	2605.227978
377.219367	2603.458533
377.605417	2602.543564
377.991404	2603.282093
378.377329	2603.042638
378.763191	2602.409973
379.148991	2605.447269
379.534727	2602.800663
379.920402	2602.175560
380.306013	2604.368462
380.691563	2605.817793
381.077049	2605.878287
381.462474	2605.134717
381.847835	2606.216045
382.233134	2606.168154
382.618371	2608.219903
383.003545	2609.638988
383.388657	2605.442227
383.773706	2607.879625
384.158693	2609.195367
384.543618	2606.208483
384.928480	2610.241406
385.313280	2610.092692
385.698017	2611.413474
386.082692	2608.847527
386.467305	2608.363576
386.851856	2608.996241
387.236344	2612.504884
387.620770	2606.616816
388.005133	2606.498349
388.389435	2608.910541
388.773674	2608.025819
389.157851	2613.104781
389.541965	2613.003958
389.926018	2611.776437
390.310008	2614.937241
390.693936	2616.749536
391.077802	2613.656788
391.461606	2614.181068
391.845348	2616.313476
392.229027	2613.674432
392.612645	2616.283229
392.996200	2613.379524
393.379694	2617.672067
393.763125	2615.864813
394.146494	2617.853548
394.529801	2616.421861
394.913047	2619.257510
395.296230	2618.735750
395.679351	2616.860441
396.062410	2622.113323
396.445408	2620.182561
396.828343	2620.548045
397.211217	2621.568879
397.594028	2620.696759
397.976778	2620.306070
398.359466	2622.009980
398.742092	2622.758591
399.124656	2622.110803
399.507158	2622.473766
399.889598	2623.643313
400.271977	2622.849332
400.654294	2623.363529
401.036549	2623.537449
401.418742	2624.505351
401.800874	2626.325207
402.182944	2626.184055
402.564952	2624.603653
402.946898	2629.375105
403.328783	2626.965434
403.710606	2628.271093
404.092367	2632.021711
404.474067	2628.581124
404.855705	2630.902575
405.237282	2632.316619
405.618797	2628.921402
406.000250	2632.142699
406.381642	2631.951135
406.762972	2631.787297
407.144240	2628.518109
407.525447	2632.510703
407.906593	2626.849487
408.287677	2633.445837
408.668700	2635.245529
409.049661	2637.151085
409.430560	2636.231075
409.811399	2639.999337
410.192176	2637.357773
410.572891	2638.292907
410.953545	2638.577732
411.334138	2639.240643
411.714669	2641.161323
412.095139	2641.975469
412.475547	2642.305665
412.855894	2643.271046
413.236180	2642.199801
413.616405	2641.471354
413.996568	2644.632157
414.376670	2644.075110
414.756711	2643.235758
415.136691	2645.106026
415.516609	2644.760707
415.896466	2645.839514
416.276262	2648.438229
416.655997	2650.832777
417.035670	2651.644402
417.415283	2652.632469
417.794834	2653.701193
418.174324	2651.369660
418.553753	2655.639517
418.933121	2658.739827
419.312428	2660.710918
419.691674	2662.669406
420.070859	2664.295178
420.449983	2667.874397
420.829045	2674.377486
421.208047	2678.317147
421.586988	2684.608507
421.965867	2693.823737
422.344686	2705.642722
422.723444	2713.955585
423.102141	2717.358363
423.480777	2741.918865
423.859352	2752.071749
424.237866	2780.239196
424.616319	2804.514872
424.994712	2833.791373
425.373044	2850.296111
425.751314	2894.393604
426.129524	2923.944848
426.507673	2969.862198
426.885762	3014.839373
427.263789	3065.971796
427.641756	3115.362501
428.019662	3174.880884
428.397508	3255.441043
428.775292	3291.611322
429.153016	3399.076119
429.530679	3456.701548
429.908282	3527.343237
430.285824	3564.506623
430.663305	3742.061103
431.040726	3742.444231
431.418086	3817.960715
431.795385	3959.629741
432.172624	4068.503541
432.549802	4143.468019
432.926920	4255.127056
433.303977	4313.743073
433.680974	4459.329075
434.057910	4589.385803
434.434786	4704.634142
434.811601	4775.081746
435.188355	5041.816758
435.565050	5072.058640
435.941683	5159.038708
436.318257	5449.381443
436.694770	5604.112099
437.071222	5763.878867
437.447614	5821.423638
437.823946	5903.697790
438.200218	6095.433035
438.576429	6127.930833
438.952580	6356.900041
439.328670	6515.751840
439.704700	6537.574995
440.080670	6641.374873
440.456580	7055.919036
440.832429	7056.138327
441.208218	6957.316588
441.583947	7258.437310
441.959616	7470.624516
442.335224	7483.774366
442.710773	7684.588730
443.086261	7946.128832
443.461689	7590.467867
443.837057	8120.991336
444.212365	8441.223072
444.587612	8321.803179
444.962800	8604.634595
445.337927	8558.994508
445.712995	8339.101898
446.088002	9255.492927
446.462949	9090.498482
446.837837	9180.722533
447.212664	9299.494638
447.587431	9779.256208
447.962139	10425.806874
448.336786	12275.343206
448.711374	12927.885283
449.085901	11287.445931
449.460369	11060.697351
449.834776	10698.311487
450.209124	11487.138638
450.583412	11897.410423
450.957640	12836.927744
451.331808	12211.108824
451.705917	11387.701878
452.079965	10850.443427
452.453954	11711.832947
452.827883	11442.365630
453.201752	11759.126532
453.575562	11361.742456
453.949311	11796.660443
454.323001	11800.862244
454.696632	12042.419213
455.070202	12352.193076
455.443713	12645.812561
455.817164	13124.003812
456.190556	13170.700020
456.563888	13550.067012
456.937160	13763.116255
457.310373	13144.864107
457.683526	13244.552924
458.056619	12832.582270
458.429653	12972.781799
458.802628	12473.752939
459.175542	12843.133405
459.548398	13790.822437
459.921194	14128.874652
460.293930	14194.268500
460.666607	15088.919552
461.039224	16099.935559
461.411782	16800.386242
461.784280	16751.776916
462.156719	16787.352339
462.529099	16499.278123
462.901419	15441.875939
463.273680	15248.933337
463.645882	15114.092554
464.018024	14858.271640
464.390106	15075.197532
464.762130	15816.325285
465.134094	16543.433589
465.505999	18504.069390
465.877845	21752.740163
466.249631	24578.314456
466.621358	24311.949969
466.993026	22866.096634
467.364634	22322.072955
467.736184	20880.164323
468.107674	20075.739842
468.479105	20214.689166
468.850477	19675.794861
469.221790	19260.590307
469.593043	18588.032328
469.964238	18037.029171
470.335373	17708.207309
470.706449	18117.261655
471.077467	17663.469589
471.448425	19468.084199
471.819324	23436.644344
472.190164	25552.847632
472.560945	22063.156773
472.931667	19659.315329
473.302330	19019.517288
473.672934	18492.429366
474.043479	18865.694041
474.413965	18693.483184
474.784393	18325.791505
475.154761	18981.509509
475.525070	19005.359208
475.895321	18659.004212
476.265513	19225.854236
476.635645	19799.585435
477.005719	19606.204253
477.375734	19788.953641
477.745691	20278.174937
478.115588	20784.931886
478.485427	21279.990838
478.855207	22338.207168
479.224928	24079.116717
479.594591	26289.829036
479.964194	26390.594140
480.333739	26582.888953
480.703226	26133.817927
481.072653	25805.976569
481.442022	26361.892330
481.811333	27257.435667
482.180584	27209.882463
482.549777	26257.789983
482.918912	25890.642748
483.287988	26011.073393
483.657005	25716.145728
484.025964	25416.547435
484.394864	25372.717123
484.763706	25062.350924
485.132489	24484.463294
485.501213	24647.569827
485.869879	24575.219187
486.238487	24366.407033
486.607036	24519.113665
486.975527	24218.660896
487.343959	24545.279774
487.712333	24498.671787
488.080648	24163.636702
488.448905	24637.295956
488.817104	24374.253589
489.185244	25044.699324
489.553326	25019.818709
489.921350	25973.123587
490.289315	28251.765455
490.657222	30062.142103
491.025070	30554.700643
491.392861	30336.854741
491.760593	29509.969399
492.128267	28615.928326
492.495883	27579.961128
492.863440	26697.620574
493.230939	25822.433416
493.598380	25662.016339
493.965763	25270.719457
494.333088	24822.936446
494.700354	24741.637758
495.067563	24637.946264
495.434713	24384.083839
495.801805	24523.988461
496.168839	24350.875238
496.535815	24169.287835
496.902733	24385.661720
497.269593	24055.307347
497.636395	24252.739096
498.003139	24234.608586
498.369825	23983.057530
498.736453	24162.774665
499.103023	24049.515061
499.469535	24071.255037
499.835989	24276.861017
500.202385	24302.777589
500.568723	23807.310304
500.935003	24080.351799
501.301226	23672.416589
501.667390	24494.490149
502.033497	24746.850311
502.399546	24459.892711
502.765537	24040.960223
503.131470	24429.968421
503.497345	24563.314502
503.863163	23781.706284
504.228923	24401.012034
504.594625	24581.369395
504.960269	24097.106074
505.325856	24606.784372
505.691385	24012.124823
506.056856	24613.710917
506.422270	24588.142185
506.787625	24174.202960
507.152924	24573.434619
507.518164	24598.353042
507.883347	24408.359515
508.248472	24094.623306
508.613540	24870.371183
508.978550	24668.840976
509.343503	24640.655885
509.708398	24919.114100
510.073236	25071.117491
510.438016	25273.212308
510.802738	24957.510048
511.167403	25198.862850
511.532010	24900.303034
511.896561	25678.833628
512.261053	25655.546018
512.625488	25472.791588
512.989866	25383.606015
513.354186	25225.835544
513.718449	25326.209958
514.082655	25709.776231
514.446803	25447.719410
514.810894	25904.886528
515.174927	25392.601954
515.538904	25423.352992
515.902822	25914.363898
516.266684	25669.492370
516.630488	25577.899646
516.994235	25549.167590
517.357925	25849.968198
517.721558	26022.915063
518.085133	26129.664017
518.448651	26040.329729
518.812112	25771.167402
519.175516	25960.366947
519.538863	26126.510775
519.902152	25909.181592
520.265385	26195.004932
520.628560	25976.652395
520.991678	25993.320970
521.354739	26074.009678
521.717743	26128.234850
522.080690	25921.645844
522.443580	26250.450063
522.806413	26259.236794
523.169189	26349.435639
523.531908	26391.188996
523.894569	25995.818862
524.257174	26068.386271
524.619722	26259.486331
524.982213	25960.732431
525.344647	26027.172318
525.707025	26152.465156
526.069345	26141.258671
526.431608	26094.794356
526.793815	26278.110874
527.155964	25734.722380
527.518057	25903.306127
527.880093	25823.464332
528.242072	26068.146816
528.603995	25775.550685
528.965860	25556.631018
529.327669	25619.806758
529.689421	25602.261022
530.051117	25431.784322
530.412755	25609.353925
530.774337	25421.941469
531.135862	25284.055829
531.497331	25482.185778
531.858743	25043.290322
532.220098	25525.191862
532.581396	25191.843043
532.942638	25143.939479
533.303824	25231.582459
533.664953	25251.621046
534.026025	24915.038327
534.387040	25149.086497
534.747999	25222.289092
535.108902	25374.625199
535.469748	24862.501942
535.830537	25058.451592
536.191270	25167.222048
536.551947	25056.422527
536.912567	24698.830800
537.273131	25041.306628
537.633638	24762.303968
537.994089	24966.957170
538.354483	24505.782334
538.714821	25004.780948
539.075103	25041.107502
539.435328	24825.252856
539.795497	24391.970724
540.155609	24789.246415
540.515665	25081.809778
540.875665	24320.978675
541.235609	24611.591112
541.595496	24586.629839
541.955328	24936.241420
542.315102	24848.217833
542.674821	24396.606065
543.034483	24276.578713
543.394090	24439.211377
543.753640	24238.810388
544.113134	24863.762230
544.472571	24470.605163
544.831953	24745.668160
545.191278	24376.930442
545.550548	24301.343381
545.909761	24502.555996
546.268918	24732.770368
546.628019	24701.661408
546.987064	24395.353338
547.346053	24161.133769
547.704986	24289.622698
548.063863	24433.892960
548.422684	24441.764721
548.781449	23989.396781
549.140158	24395.741507
549.498811	23961.685558
549.857408	23706.565365
550.215949	24134.055211
550.574434	23808.797444
550.932864	24037.060891
551.291237	24192.651063
551.649555	24049.986409
552.007817	24117.852943
552.366022	23963.575991
552.724173	24020.104970
553.082267	23951.018477
553.440305	24423.220837
553.798288	23685.430328
554.156215	24210.378280
554.514086	24296.647546
554.871902	23662.548530
555.229661	23960.412667
555.587365	23818.494104
555.945014	23680.351365
556.302606	23934.763276
556.660143	23873.538463
557.017625	24123.388130
557.375050	23656.148785
557.732421	24049.129413
558.089735	23862.644529
558.446994	23926.586525
558.804197	23936.328554
559.161345	23899.336567
559.518437	23654.974197
559.875474	23852.589948
560.232455	24033.247258
560.589381	23845.935625
560.946251	23833.947761
561.303065	24160.730477
561.659825	24255.065589
562.016528	23847.276572
562.373177	23593.381379
562.729770	23939.214615
563.086307	23805.634120
563.442789	23976.937569
563.799216	23808.837774
564.155587	23814.546880
564.511904	23789.371358
564.868164	23731.342636
565.224370	23707.533267
565.580520	23616.033804
565.936615	23746.082970
566.292654	23422.960132
566.648638	23734.412699
567.004567	23558.630185
567.360441	23508.740406
567.716260	23250.184666
568.072023	23573.930087
568.427732	23329.429084
568.783385	23107.469601
569.138982	23337.963758
569.494525	23369.539025
569.850013	23130.583291
570.205445	23221.205593
570.560823	23025.069421
570.916145	22781.470784
571.271412	22954.984779
571.626625	22710.345145
571.981782	22835.509433
572.336884	22639.952993
572.691931	22764.774483
573.046923	22503.680522
573.401860	22388.341443
573.756743	22383.423797
574.111570	22306.364720
574.466342	22227.256413
574.821059	22321.052121
575.175722	22037.454450
575.530330	22015.485102
575.884882	22034.787680
576.239380	21943.479781
576.593823	21832.536587
576.948211	21818.587715
577.302544	21661.432264
577.656823	21534.387625
578.011047	21628.011935
578.365216	21499.893530
578.719330	21369.473839
579.073389	21279.247267
579.427394	21420.255902
579.781344	21195.755677
580.135239	21075.682955
580.489080	21043.691792
580.842866	20814.077317
581.196597	21000.970534
581.550273	20987.026702
581.903895	20876.859847
582.257463	21192.078156
582.610975	20720.168183
582.964434	21029.763084
583.317837	20739.047304
583.671186	20822.559058
584.024481	20797.035696
584.377721	20564.550284
584.730906	20625.981785
585.084037	20655.104530
585.437113	20549.416740
585.790135	20752.792010
586.143103	20225.194930
586.496016	20233.308667
586.848874	20472.294648
587.201679	20414.966646
587.554428	20074.877805
587.907124	20417.940927
588.259765	20190.325269
588.612352	20270.915675
588.964884	19838.414922
589.317362	20001.970117
589.669786	20058.272244
590.022155	20105.999368
590.374470	20290.351844
590.726731	20090.802810
591.078937	19853.876141
591.431090	19943.228072
591.783188	19686.862714
592.135232	19658.410442
592.487222	19762.454816
592.839157	19789.293919
593.191038	19664.543005
593.542866	19547.799965
593.894639	19270.586915
594.246358	19491.160081
594.598022	19401.306554
594.949633	19152.066867
595.301190	19120.978071
595.652692	19288.044430
596.004141	19515.443319
596.355535	18846.351133
596.706876	18864.083392
597.058162	18755.575076
597.409395	18979.150249
597.760573	19055.198575
598.111698	18836.480554
598.462768	18775.389331
598.813785	18737.424402
599.164748	18554.385147
599.515657	18599.727805
599.866511	18381.307212
600.217312	18739.952540
600.568060	18262.961084
600.918753	18582.023273
601.269392	18476.214494
601.619978	18253.219054
601.970510	18471.289287
602.320988	18409.031037
602.671412	18620.845198
603.021783	18519.762502
603.372100	18255.941277
603.722363	18387.961535
604.072572	18336.012444
604.422728	18481.863107
604.772830	18241.374863
605.122878	18194.492132
605.472872	18171.055808
605.822813	18169.059511
606.172701	18127.195249
606.522534	18330.129418
606.872314	18350.840998
607.222041	18188.193211
607.571714	18403.155572
607.921333	18247.870390
608.270899	18306.569585
608.620411	18493.903903
608.969870	18265.007792
609.319276	18262.862781
609.668627	18288.933108
610.017926	18427.146423
610.367171	18533.424029
610.716362	18592.216486
611.065500	18403.745387
611.414585	18535.972332
611.763616	18519.792749
612.112594	18452.793294
612.461518	18431.996013
612.810389	18621.190517
613.159207	18488.068768
613.507971	18390.376247
613.856682	18666.190377
614.205340	18594.079192
614.553945	18734.598835
614.902496	18485.044075
615.250994	18719.185507
615.599439	18666.999482
615.947830	18651.876021
616.296169	18701.649853
616.644454	18662.454882
616.992686	18629.977248
617.340864	18854.396815
617.688990	18604.993290
618.037063	18769.095451
618.385082	18631.502197
618.733048	18913.920239
619.080961	18776.737840
619.428821	18814.445671
619.776628	18699.779585
620.124382	18634.673083
620.472083	18661.131579
620.819731	18683.521864
621.167326	18387.502790
621.514868	18423.978058
621.862357	18187.545422
622.209793	18200.594449
622.557176	18039.398514
622.904506	17855.318260
623.251783	17769.243079
623.599007	17527.053445
623.946179	17473.957493
624.293297	17413.307371
624.640363	17171.702511
624.987376	17192.789657
625.334336	16982.999519
625.681243	16828.901529
626.028097	16840.917119
626.374899	16762.592712
626.721647	16623.955940
627.068343	16463.143132
627.414987	16403.070222
627.761577	16368.636621
628.108115	16414.977427
628.454600	16140.282434
628.801032	16230.889612
629.147412	16168.701939
629.493739	16182.020667
629.840014	15997.786659
630.186236	16100.048985
630.532405	15856.631830
630.878521	16047.752055
631.224585	15951.851665
631.570597	15774.574449
631.916556	15800.060002
632.262462	15778.771209
632.608316	15697.439754
632.954117	15647.524769
633.299866	15637.374406
633.645562	15553.829883
633.991206	15316.021013
634.336797	15172.539692
634.682336	15146.202183
635.027823	15040.632860
635.373257	14921.467545
635.718639	14812.429908
636.063968	14770.512714
636.409245	14517.643396
636.754470	14534.286765
637.099642	14394.321649
637.444762	14163.056196
637.789829	14208.847517
638.134845	14054.835226
638.479808	14071.944902
638.824719	14035.280590
639.169577	13877.200088
639.514383	13916.558896
639.859137	13739.364859
640.203839	13824.366275
640.548489	13666.280731
640.893086	13646.572340
641.237632	13532.117983
641.582125	13670.875743
641.926566	13499.075740
642.270955	13512.873378
642.615292	13477.660919
642.959576	13481.953461
643.303809	13522.000387
643.647990	13455.777270
643.992118	13510.753573
644.336195	13282.520374
644.680219	13491.393022
645.024192	13406.068972
645.368112	13658.751768
645.711981	13706.040312
646.055797	13893.488056
646.399562	13862.623591
646.743274	14130.782729
647.086935	14406.470830
647.430544	14370.116549
647.774101	14403.753648
648.117606	14550.604980
648.461059	14513.769269
648.804460	14512.113250
649.147810	14232.525816
649.491108	14137.837824
649.834354	14154.977747
650.177548	13839.411598
650.520690	13656.261438
650.863781	13581.168410
651.206820	13619.090490
651.549807	13451.547742
651.892742	13251.318152
652.235626	13188.298688
652.578458	13196.591386
652.921238	12881.297460
653.263967	13082.605857
653.606644	12913.268458
653.949269	12882.998849
654.291843	12688.019622
654.634365	12844.371008
654.976836	12699.089995
655.319255	12712.219681
655.661622	12655.274807
656.003938	12581.797469
656.346203	12511.705266
656.688416	12583.942480
657.030577	12540.729709
657.372687	12453.283334
657.714746	12429.287442
658.056753	12623.225671
658.398708	12437.015530
658.740612	12451.153446
659.082465	12541.959751
659.424266	12509.887930
659.766016	12541.437991
660.107715	12446.462653
660.449362	12515.052592
660.790958	12474.844349
661.132503	12425.980445
661.473996	12486.451606
661.815438	12501.512053
662.156829	12522.568952
662.498168	12496.791012
662.839456	12492.188439
663.180693	12519.062830
663.521879	12606.151283
663.863013	12578.326634
664.204097	12553.072974
664.545129	12688.974920
664.886110	12645.658806
665.227040	12744.740164
665.567918	12745.879465
665.908746	12791.312864
666.249522	12769.527517
666.590248	12814.610556
666.930922	12930.572218
667.271545	12905.074062
667.612118	12989.543636
667.952639	12893.025704
668.293109	12902.727405
668.633528	12860.482536
668.973896	12836.363135
669.314213	12919.887493
669.654480	12651.637614
669.994695	12724.744427
670.334859	12748.717634
670.674973	12699.142927
671.015035	12725.230899
671.355047	12669.004389
671.695008	12641.290646
672.034918	12647.395483
672.374777	12694.978934
672.714585	12608.150101
673.054342	12642.361891
673.394049	12591.148809
673.733705	12691.346783
674.073310	12595.711053
674.412864	12617.526647
674.752368	12480.868528
675.091820	12496.899397
675.431223	12485.466060
675.770574	12354.277593
676.109875	12282.118517
676.449125	12231.482647
676.788324	12175.127588
677.127473	12017.349555
677.466571	12003.993018
677.805619	11899.429405
678.144616	11827.855102
678.483562	11791.957046
678.822458	11663.458034
679.161303	11646.920529
679.500098	11627.123918
679.838842	11581.594737
680.177535	11607.700352
680.516179	11670.878613
680.854771	11621.515634
681.193314	11824.845534
681.531805	11988.277221
681.870247	12406.357753
682.208638	12824.418121
682.546978	13140.760607
682.885268	13186.057895
683.223508	12873.052653
683.561697	12708.630379
683.899836	12610.733692
684.237925	12417.982654
684.575963	12331.441166
684.913951	12248.080646
685.251889	12209.641848
685.589776	12304.375211
685.927614	12222.917727
686.265401	12191.707943
686.603137	12236.359963
686.940824	12399.390879
687.278460	12522.216072
687.616046	12567.006723
687.953582	12738.292528
688.291068	12661.906445
688.628504	12891.518399
688.965889	12898.712126
689.303224	12875.490051
689.640510	12758.603337
689.977745	12452.214609
690.314930	12224.853530
690.652065	12134.795837
690.989150	11842.489572
691.326185	11613.883327
691.663170	11412.537122
692.000105	11174.433344
692.336990	11061.811446
692.673825	10807.865842
693.010610	10689.388644
693.347345	10480.475667
693.684030	10284.747828
694.020665	10226.903108
694.357251	10026.338282
694.693786	9966.310742
695.030272	9805.293768
695.366707	9682.599645
695.703093	9616.056414
696.039429	9615.423749
696.375716	9541.502790
696.711952	9400.879803
697.048139	9449.300086
697.384276	9405.656297
697.720363	9419.703472
698.056400	9359.169297
698.392388	9304.586203
698.728326	9269.782077
699.064214	9216.552534
699.400053	9246.068489
699.735842	9063.959327
700.071581	9020.842338
700.407270	8947.987583
700.742910	8873.373465
701.078501	8776.701778
701.414042	8655.151997
701.749533	8587.903005
702.084974	8447.791696
702.420366	8564.010456
702.755709	8446.183568
703.091002	8318.004669
703.426246	8337.856733
703.761440	8295.485835
704.096584	8249.843228
704.431679	8187.824433
704.766725	8172.937906
705.101721	8118.354812
705.436668	8169.149478
705.771565	8058.042448
706.106413	8138.229561
706.441212	8181.507867
706.775961	8140.535889
707.110661	8178.226076
707.445311	8319.257396
707.779913	8216.765697
708.114465	8347.470213
708.448967	8383.511943
708.783421	8530.186835
709.117825	8711.355822
709.452180	8750.681863
709.786485	8843.250050
710.120742	9122.323286
710.454949	9118.713820
710.789107	9216.557575
711.123216	9438.514537
711.457275	9601.971430
711.791286	9760.336758
712.125247	9752.956509
712.459159	9743.027956
712.793023	9993.399383
713.126837	9563.827540
713.460602	9721.257733
713.794318	9544.519921
714.127985	9578.041073
714.461602	9247.406916
714.795171	9198.855563
715.128691	8948.645454
715.462162	8696.764202
715.795584	8645.024319
716.128957	8497.769695
716.462281	8334.070827
716.795556	8378.117908
717.128782	8172.806836
717.461960	7905.570229
717.795088	7979.655026
718.128167	7884.314204
718.461198	7718.611477
718.794180	7660.272724
719.127113	7655.571848
719.459997	7497.798856
719.792833	7271.884588
720.125619	7329.454565
720.458357	7187.929212
720.791046	7175.288518
721.123686	7177.902357
721.456278	7014.289188
721.788821	7033.062445
722.121315	6931.674759
722.453761	6997.522310
722.786158	6942.679597
723.118506	6956.389015
723.450805	6916.886534
723.783056	6984.112841
724.115259	6897.747793
724.447412	6891.554736
724.779518	6938.606345
725.111574	6944.864938
725.443582	7027.658328
725.775542	7004.539596
726.107453	7195.758123
726.439315	7101.508711
726.771129	7167.189905
727.102895	7333.389185
727.434612	7450.089376
727.766281	7478.067780
728.097901	7558.426293
728.429473	7550.095786
728.760996	7526.515789
729.092471	7508.768407
729.423897	7450.137267
729.755276	7460.736293
730.086606	7388.143678
730.417887	7486.221846
730.749120	7682.655447
731.080305	7879.348667
731.411442	8004.860795
731.742530	7992.280596
732.073570	8100.176412
732.404562	8183.862086
732.735506	8035.334570
733.066401	8179.589708
733.397249	8107.017257
733.728048	7867.025567
734.058798	7531.430914
734.389501	7308.732902
734.720156	7124.965200
735.050762	6900.139821
735.381320	6805.285470
735.711831	6747.392859
736.042293	6637.674666
736.372707	6659.694426
736.703073	6523.230392
737.033391	6561.013840
737.363661	6576.709472
737.693883	6606.285922
738.024056	6689.200300
738.354182	6730.227730
738.684260	6762.899448
739.014290	6883.284723
739.344272	6994.157340
739.674207	7014.780700
740.004093	7090.466064
740.333931	7101.463341
740.663722	7113.816688
740.993464	7188.670261
741.323159	7179.553334
741.652806	6926.169819
741.982405	6944.635565
742.311956	6997.577763
742.641460	6830.130797
742.970915	6640.651468
743.300323	6629.870960
743.629683	6582.559731
743.958996	6447.562672
744.288260	6357.585638
744.617477	6302.276619
744.946647	6314.829092
745.275768	6144.934645
745.604842	6093.066213
745.933869	6080.357465
746.262847	6037.648809
746.591778	6026.492736
746.920662	5985.170398
747.249498	5977.870807
747.578286	6026.638929
747.907027	6099.949909
748.235720	6154.394371
748.564365	6131.658767
748.892963	6163.783520
749.221514	6313.155429
749.550017	6142.555221
749.878473	6022.943763
750.206881	6077.506692
750.535242	6022.923599
750.863555	5950.351148
751.191821	5968.345547
751.520039	5967.473427
751.848210	5874.910281
752.176334	5895.644547
752.504411	5944.528615
752.832440	5869.407861
753.160421	5803.635927
753.488356	5854.060068
753.816243	5880.571497
754.144082	5730.425770
754.471875	5704.922573
754.799620	5749.995530
755.127318	5755.553402
755.454969	5715.627463
755.782572	5679.699160
756.110129	5726.072734
756.437638	5712.106217
756.765100	5646.629191
757.092515	5646.636752
757.419882	5698.122057
757.747203	5678.577503
758.074477	5741.602008
758.401703	5724.830090
758.728882	5678.645559
759.056014	5742.151494
759.383099	5866.065576
759.710138	5875.820209
760.037129	5862.672880
760.364073	5868.424836
760.690970	5943.500220
761.017820	5934.312717
761.344623	5883.553339
761.671379	5987.897662
761.998088	6109.283605
762.324751	6348.524164
762.651366	6954.732996
762.977935	8271.038759
763.304456	9914.936343
763.630931	10812.622171
763.957359	10402.511702
764.283740	9463.034710
764.610074	8625.883058
764.936362	7624.848536
765.262602	7025.160436
765.588796	6484.249670
765.914943	6153.940667
766.241044	5991.895297
766.567097	5788.608248
766.893104	5524.388772
767.219064	5348.999467
767.544978	5285.135610
767.870845	5208.104259
768.196665	5105.257158
768.522438	5032.462897
768.848165	5000.169265
769.173846	4930.104789
769.499479	4886.496287
769.825066	4835.164738
770.150607	4772.598978
770.476101	4747.761213
770.801548	4748.313219
771.126949	4674.210778
771.452303	4618.768168
771.777611	4577.410542
772.102872	4594.101802
772.428087	4555.678128
772.753256	4513.566849
773.078378	4477.507476
773.403453	4399.379673
773.728482	4390.701327
774.053465	4342.729707
774.378401	4330.368798
774.703291	4334.225281
775.028135	4260.039661
775.352932	4209.703739
775.677683	4193.448539
776.002388	4213.827403
776.327046	4229.954054
776.651658	4150.553361
776.976224	4087.985080
777.300743	4095.927418
777.625216	4114.254533
777.949643	4111.839820
778.274024	4069.305084
778.598359	4022.195502
778.922647	4047.045869
779.246889	4038.876680
779.571086	4029.056512
779.895236	4015.548740
780.219339	4002.295547
780.543397	3997.698014
780.867409	4047.902866
781.191374	4061.519022
781.515294	4000.637007
781.839167	3991.953620
782.162995	4014.109491
782.486776	3998.547449
782.810511	4009.282586
783.134201	4006.920805
783.457844	3961.978919
783.781441	3909.192997
784.104993	3909.419849
784.428498	3929.072787
784.751958	3928.195626
785.075372	3908.184766
785.398739	3866.610370
785.722061	3880.571846
786.045337	3924.134977
786.368568	3955.667394
786.691752	3865.667675
787.014891	3919.976025
787.337983	4045.967062
787.661030	4207.309191
787.984031	4370.251887
788.306987	4538.918812
788.629897	4621.190443
788.952760	4574.582455
789.275579	4505.977392
789.598351	4444.994554
789.921078	4302.430723
790.243759	4100.797172
790.566395	4083.838731
790.888984	4080.962753
791.211529	3971.577276
791.534027	3911.257349
791.856480	3900.030700
792.178888	3839.463757
792.501249	3789.402579
792.823566	3800.041934
793.145836	3830.248528
793.468062	3775.496556
793.790241	3731.676326
794.112375	3762.742437
794.434464	3824.549503
794.756507	3849.483050
795.078505	3831.614680
795.400457	3865.276985
795.722364	4004.231350
796.044226	4107.464098
796.366042	4184.503011
796.687812	4162.271523
797.009538	4166.811082
797.331218	4126.993528
797.652852	4097.134774
797.974442	4077.960745
798.295986	4077.234819
798.617484	3998.771780
798.938938	3908.371289
799.260346	3950.449800
799.581709	3943.936629
799.903026	3871.255794
800.224299	3836.640711
800.545526	3829.555369
800.866708	3790.607414
801.187845	3730.731110
801.508936	3766.056995
801.829983	3762.092128
802.150984	3684.685210
802.471940	3674.003005
802.792851	3684.806198
803.113717	3683.382072
803.434538	3687.498174
803.755314	3625.602887
804.076045	3602.305195
804.396731	3622.089203
804.717372	3651.736229
805.037967	3637.741986
805.358518	3625.923001
805.679024	3652.048780
805.999485	3664.732323
806.319901	3669.617202
806.640272	3682.313347
806.960598	3696.020245
807.280879	3669.128210
807.601115	3685.272505
807.921306	3700.494269
808.241453	3741.065475
808.561554	3717.982032
808.881611	3648.895539
809.201623	3685.758976
809.521590	3698.722303
809.841513	3672.530988
810.161390	3699.685164
810.481223	3678.257739
810.801011	3625.073566
811.120755	3615.964201
811.440453	3649.709685
811.760107	3653.661950
812.079716	3611.394395
812.399281	3575.808890
812.718801	3601.450719
813.038276	3575.760999
813.357707	3574.730083
813.677093	3592.505192
813.996434	3537.516286
814.315731	3546.068603
814.634983	3551.140004
814.954191	3564.612487
815.273354	3593.374791
815.592473	3590.186261
815.911547	3596.457456
816.230577	3638.876245
816.549562	3686.961291
816.868502	3730.753795
817.187399	3755.994852
817.506250	3748.765838
817.825058	3722.947568
818.143821	3818.928617
818.462539	3922.773865
818.781213	3965.265751
819.099843	4024.416130
819.418429	4272.839150
819.736970	4512.472919
820.055466	4760.888377
820.373919	5124.852123
820.692327	5534.564341
821.010691	5986.266849
821.329011	7378.104220
821.647286	10133.740064
821.965517	14710.550709
822.283704	18746.281709
822.601847	20893.740151
822.919945	19067.347756
823.237999	16470.160418
823.556010	13977.622393
823.873976	11870.818336
824.191897	9779.422566
824.509775	8435.337525
824.827609	7298.811911
825.145398	6764.648729
825.463144	6644.631459
825.780845	6758.382575
826.098502	6955.799200
826.416116	7834.374013
826.733685	9167.807097
827.051210	10281.297158
827.368692	10326.639816
827.686129	9053.279643
828.003522	7535.234465
828.320872	6513.208578
828.638177	5805.554086
828.955439	5249.527420
829.272656	4747.665431
829.589830	4465.459118
829.906960	4291.030154
830.224046	4102.359930
830.541088	3976.222699
830.858086	3932.281482
831.175041	3853.294163
831.491952	3838.904189
831.808819	3850.632433
832.125642	3923.487189
832.442421	4074.051331
832.759157	4351.627344
833.075849	4905.299791
833.392497	5775.841525
833.709101	6550.339197
834.025662	6890.677575
834.342179	6518.927767
834.658653	5853.911354
834.975083	5203.443712
835.291469	4622.158344
835.607811	4215.032239
835.924110	4073.582503
836.240366	3871.540619
836.556578	3667.696522
836.872746	3561.406314
837.188871	3519.872247
837.504952	3453.631486
837.820990	3369.794577
838.136984	3323.635251
838.452935	3348.972091
838.768842	3344.752645
839.084706	3366.704349
839.400526	3526.990356
839.716303	3868.712532
840.032037	4399.140219
840.347727	4664.279705
840.663373	4377.916961
840.978977	3993.087879
841.294537	3683.823173
841.610054	3456.424285
841.925527	3351.016278
842.240957	3279.452058
842.556344	3226.504820
842.871687	3169.663289
843.186987	3118.387193
843.502244	3081.725402
843.817458	3046.233158
844.132629	3015.766945
844.447756	3027.477545
844.762840	3009.914165
845.077881	2976.836634
845.392879	2959.202678
845.707833	2956.009107
846.022745	2952.868468
846.337613	2956.545990
846.652438	2943.007971
846.967221	2942.347580
847.281960	2928.920467
847.596656	2923.392842
847.911309	2925.081628
848.225919	2918.412182
848.540485	2908.554205
848.855009	2911.251223
849.169490	2899.883421
849.483928	2893.206413
849.798323	2891.951165
850.112675	2889.654920
850.426984	2902.678741
850.741251	2896.846126
851.055474	2886.365567
851.369654	2884.039074
851.683792	2886.970505
851.997887	2897.713204
852.311938	2896.155488
852.625947	2885.949672
852.939914	2888.906308
853.253837	2891.217677
853.567718	2876.240409
853.881555	2877.223434
854.195350	2891.454612
854.509103	2887.613252
854.822812	2881.115205
855.136479	2874.231509
855.450103	2877.316696
855.763685	2874.216386
856.077224	2870.107846
856.390720	2883.729043
856.704173	2889.299518
857.017584	2883.857593
857.330953	2881.750390
857.644278	2891.605846
857.957561	2899.301168
858.270802	2901.816703
858.584000	2899.076836
858.897155	2890.582492
859.210268	2886.758777
859.523339	2887.711555
859.836367	2885.748025
860.149352	2881.475648
860.462295	2874.234030
860.775195	2884.540669
861.088054	2883.600494
861.400869	2866.142978
861.713642	2864.807072
862.026373	2878.143445
862.339062	2881.642006
862.651708	2885.306924
862.964312	2891.026113
863.276873	2881.427757
863.589392	2893.581978
863.901869	2906.167219
864.214303	2928.938111
864.526696	2944.384206
864.839045	2938.677620
865.151353	2940.779781
865.463619	2935.751230
865.775842	2938.314657
866.088023	2957.811320
866.400162	2963.253245
866.712258	2930.503389
867.024313	2921.464600
867.336325	2931.075560
867.648296	2956.412399
867.960224	2944.999227
868.272110	2931.809048
868.583954	2938.833896
868.895755	2951.522480
869.207515	2936.520006
869.519233	2939.549740
869.830909	2952.162707
870.142542	2964.442958
870.454134	2964.337093
870.765684	2965.425982
871.077191	2965.153760
871.388657	2975.352014
871.700081	2987.438181
872.011463	2996.522340
872.322803	2996.852536
872.634101	2996.981085
872.945357	3016.387007
873.256571	3042.248126
873.567744	3032.730427
873.878874	3025.952596
874.189963	3048.572253
874.501010	3049.588046
874.812015	3042.515307
875.122979	3040.151006
875.433900	3040.713095
875.744780	3043.611758
876.055618	3052.395969
876.366415	3048.063097
876.677169	3060.061043
876.987882	3056.073490
877.298554	3051.223900
877.609183	3071.201993
877.919771	3093.690580
878.230317	3121.260651
878.540822	3174.689320
878.851285	3214.206925
879.161707	3257.270982
879.472087	3358.366281
879.782425	3588.799944
880.092722	4024.489227
880.402977	4558.249116
880.713191	5193.389131
881.023363	6355.874166
881.333494	7638.411760
881.643583	8182.314452
881.953631	7882.658185
882.263637	7249.166628
882.573602	6663.480333
882.883526	6081.103555
883.193408	5508.625083
883.503248	5048.962593
883.813048	4741.348865
884.122806	4437.274027
884.432522	4124.752735
884.742197	3884.597207
885.051831	3688.844162
885.361424	3558.205181
885.670975	3481.453614
885.980485	3396.547980
886.289954	3318.548727
886.599382	3272.752365
886.908768	3237.287848
887.218113	3191.672967
887.527417	3135.007877
887.836680	3082.899991
888.145901	3081.191039
888.455082	3071.393557
888.764221	3016.510515
889.073319	2993.006135
889.382376	2989.978922
889.691392	2994.715086
890.000366	2990.747698
890.309300	2977.791933
890.618193	2991.105620
890.927044	3010.486336
891.235855	3006.518948
891.544625	2991.357678
891.853353	3005.782940
892.162041	3022.496885
892.470687	3062.498441
892.779293	3113.552727
893.087858	3159.472597
893.396381	3234.149729
893.704864	3355.906198
894.013306	3599.691357
894.321707	3901.742172
894.630068	4106.591979
894.938387	4101.634004
895.246665	4059.752098
895.554903	3937.758695
895.863100	3732.495513
896.171256	3567.276737
896.479371	3428.642486
896.787446	3302.187662
897.095480	3199.910212
897.403473	3135.476705
897.711425	3096.803493
898.019336	3087.991556
898.327207	3059.017524
898.635038	3025.675333
898.942827	3009.737725
899.250576	2999.491580
899.558284	2967.974286
899.865952	2946.289763
900.173579	2924.827050
900.481165	2918.132398
900.788711	2906.714184
901.096216	2880.633775
901.403681	2870.707743
901.711105	2876.326109
902.018489	2873.714791
902.325832	2872.459544
902.633135	2885.843807
902.940397	2918.873447
903.247619	2999.471415
903.554800	3197.981971
903.861941	3541.251781
904.169041	3972.668686
904.476101	4271.367133
904.783121	4228.015731
905.090100	3981.770489
905.397039	3703.753375
905.703938	3452.741722
906.010796	3269.657097
906.317614	3153.745846
906.624391	3061.628842
906.931129	2989.454642
907.237826	2926.384767
907.544483	2879.292828
907.851099	2848.612366
908.157675	2828.417503
908.464211	2807.070737
908.770707	2797.696712
909.077163	2779.241047
909.383578	2764.367123
909.689954	2755.640886
909.996289	2752.676687
910.302584	2754.925042
910.608839	2754.494023
910.915054	2747.345667
911.221229	2740.575397
911.527363	2744.089082
911.833458	2749.377252
912.139513	2757.919487
912.445527	2759.537698
912.751502	2767.769902
913.057436	2777.940430
913.363331	2788.907460
913.669186	2810.206335
913.975000	2847.102540
914.280775	2907.004051
914.586510	2980.221769
914.892205	3061.031465
915.197859	3186.979653
915.503475	3384.686145
915.809050	3598.365533
916.114585	3743.228130
916.420081	3764.670678
916.725536	3705.583314
917.030952	3584.562854
917.336328	3455.229531
917.641665	3324.290601
917.946961	3221.118347
918.252218	3151.119405
918.557435	3073.541088
918.862612	3015.353570
919.167750	2962.481949
919.472848	2923.065167
919.777906	2899.301168
920.082925	2868.431662
920.387904	2842.994000
920.692843	2823.527584
920.997743	2811.297745
921.302603	2800.161836
921.607423	2790.140022
921.912204	2779.304062
922.216946	2764.969541
922.521647	2758.093407
922.826310	2748.600914
923.130932	2742.148237
923.435516	2734.616754
923.740059	2727.223902
924.044564	2715.210832
924.349028	2712.241592
924.653454	2704.677341
924.957840	2699.404294
925.262186	2693.874148
925.566493	2688.956503
925.870761	2685.596574
926.174989	2680.873012
926.479178	2677.079544
926.783328	2672.444203
927.087438	2670.866322
927.391509	2670.349604
927.695541	2665.079077
927.999533	2660.264776
928.303486	2662.137564
928.607400	2659.942142
928.911275	2661.608243
929.215110	2657.792090
929.518906	2656.892244
929.822663	2658.170176
930.126381	2652.912253
930.430060	2656.786379
930.733699	2656.609939
931.037299	2659.559014
931.340861	2661.262924
931.644383	2660.557162
931.947866	2659.266627
932.251309	2658.036586
932.554714	2655.332007
932.858080	2655.533653
933.161407	2652.428302
933.464694	2651.833446
933.767943	2650.215235
934.071153	2651.026861
934.374323	2651.137767
934.677455	2651.445277
934.980548	2649.091058
935.283602	2647.669453
935.586617	2646.598207
935.889593	2649.055770
936.192530	2648.839000
936.495428	2649.106182
936.798287	2649.726243
937.101108	2654.888385
937.403890	2658.873417
937.706632	2662.316525
938.009336	2669.094357
938.312002	2677.850841
938.614628	2687.912984
938.917216	2692.016483
939.219765	2694.726103
939.522275	2691.288036
939.824747	2689.947089
940.127179	2687.827284
940.429573	2687.736543
940.731929	2679.968125
941.034246	2678.460820
941.336524	2674.891683
941.638763	2672.124090
941.940964	2673.076868
942.243126	2666.556136
942.545250	2669.699295
942.847335	2665.031187
943.149381	2663.092863
943.451389	2657.802172
943.753359	2656.148673
944.055290	2653.217242
944.357182	2653.176913
944.659036	2650.179947
944.960851	2652.082983
945.262628	2651.276398
945.564367	2650.210194
945.866067	2652.082983
946.167729	2652.884526
946.469352	2652.607263
946.770937	2652.672798
947.072484	2650.500061
947.373992	2649.416213
947.675462	2647.503095
947.976893	2643.243320
948.278286	2640.551343
948.579641	2641.539410
948.880958	2641.471354
949.182236	2642.708957
949.483476	2642.164513
949.784678	2641.579739
950.085841	2639.986734
950.386967	2643.233237
950.688054	2644.236427
950.989103	2644.632157
951.290114	2646.041160
951.591087	2645.587456
951.892021	2648.324803
952.192917	2654.137253
952.493776	2654.817809
952.794596	2653.723878
953.095378	2656.423416
953.396122	2652.302273
953.696828	2652.292191
953.997496	2648.889412
954.298126	2646.552837
954.598718	2646.562919
954.899272	2643.412198
955.199788	2642.295583
955.500266	2638.703761
955.800706	2635.167391
956.101108	2631.986423
956.401472	2632.039355
956.701798	2631.608337
957.002087	2630.257307
957.302337	2628.629015
957.602550	2629.745630
957.902724	2624.954013
958.202861	2624.313787
958.502960	2623.368571
958.803022	2622.720782
959.103045	2624.701956
959.403031	2621.778087
959.702979	2620.792541
960.002889	2617.392283
960.302762	2620.139712
960.602596	2618.826491
960.902393	2617.954371
961.202153	2618.080400
961.501875	2617.233486
961.801559	2615.121243
962.101205	2615.874895
962.400814	2618.317334
962.700385	2615.320368
962.999918	2613.561006
963.299414	2610.995058
963.598873	2614.710389
963.898293	2611.360542
964.197677	2615.388424
964.497022	2614.811212
964.796331	2613.021602
965.095601	2613.132508
965.394835	2616.651233
965.694030	2615.194340
965.993189	2613.412292
966.292309	2611.542024
966.591393	2615.637961
966.890439	2611.841972
967.189447	2615.743825
967.488419	2613.054370
967.787353	2611.688217
968.086249	2612.537652
968.385108	2614.428084
968.683930	2613.311469
968.982714	2613.934051
969.281462	2611.910028
969.580172	2611.030347
969.878844	2612.439349
970.177480	2612.920779
970.476078	2613.986983
970.774639	2614.843979
971.073162	2613.359360
971.371649	2615.090996
971.670098	2613.871037
971.968510	2614.801130
972.266885	2615.607714
972.565223	2614.223917
972.863524	2612.761983
973.161788	2613.520677
973.460014	2611.451283
973.758204	2614.501181
974.056356	2613.356839
974.354471	2613.210646
974.652550	2613.787858
974.950591	2614.823815
975.248595	2615.728702
975.546563	2613.802981
975.844493	2611.587394
976.142386	2612.192332
976.440243	2611.022785
976.738062	2614.264247
977.035845	2609.989348
977.333590	2612.653598
977.631299	2612.512446
977.928971	2610.531272
978.226606	2607.385592
978.524204	2607.819132
978.821765	2606.430294
979.119290	2611.010182
979.416777	2609.822990
979.714228	2608.771910
980.011642	2609.886005
980.309020	2612.169647
980.606360	2611.521859
980.903664	2610.732918
981.200931	2612.444390
981.498162	2613.414812
981.795356	2613.341716
982.092513	2617.004114
982.389633	2617.230966
982.686717	2618.765997
982.983764	2624.850670
983.280775	2628.563480
983.577749	2632.697226
983.874686	2628.414766
984.171587	2624.568365
984.468451	2624.578447
984.765279	2621.641975
985.062070	2620.089300
985.358824	2617.162910
985.655543	2615.012858
985.952224	2614.213835
986.248869	2614.859103
986.545478	2615.552262
986.842050	2611.910028
987.138586	2613.145111
987.435086	2611.791561
987.731549	2609.102105
988.027975	2609.777620
988.324366	2609.797784
988.620719	2610.085130
988.917037	2608.968515
989.213318	2606.715119
989.509563	2607.534306
989.805772	2609.714605
990.101944	2608.356014
990.398080	2608.106477
990.694180	2608.376179
990.990244	2610.085130
991.286271	2606.596652
991.582262	2607.594800
991.878217	2610.697630
992.174136	2607.556992
992.470019	2606.692434
992.765865	2605.787547
993.061676	2606.699995
993.357450	2602.374685
993.653188	2604.053390
993.948890	2607.662856
994.244556	2608.272835
994.540186	2606.614296
994.835780	2610.377517
995.131337	2611.111005
995.426859	2609.722167
995.722345	2609.127311
996.017795	2610.531272
996.313208	2610.904318
996.608586	2610.866509
996.903928	2612.368773
997.199234	2613.271139
997.494504	2615.516973
997.789738	2610.780809
998.084936	2609.689400
998.380099	2611.415995
998.675225	2611.536982
998.970316	2611.428598
999.265371	2608.519852
999.560390	2608.585387
999.855373	2610.947167
1000.150320	2608.787033
1000.445232	2608.963473
1000.740108	2606.589090
1001.034948	2606.326950
1001.329752	2606.213524
1001.624521	2603.448451
1001.919254	2605.487598
1002.213951	2609.437342
1002.508613	2605.837958
1002.803239	2604.706219
1003.097829	2606.659666
1003.392384	2608.194697
1003.686903	2607.735952
1003.981386	2608.315685
1004.275834	2603.801332
1004.570246	2608.038422
1004.864623	2607.287290
1005.158964	2603.735797
1005.453270	2607.390633
1005.747540	2606.778133
1006.041775	2608.416508
1006.335974	2606.405088
1006.630138	2605.323760
1006.924266	2606.881477
1007.218359	2607.347784
1007.512416	2603.302258
1007.806438	2601.348811
1008.100425	2602.803183
1008.394376	2603.884511
1008.688292	2605.971549
1008.982172	2605.096908
1009.276017	2604.915427
1009.569827	2605.328802
1009.863602	2606.591611
1010.157341	2603.624892
1010.451045	2603.803853
1010.744714	2603.667741
1011.038347	2604.708740
1011.331945	2607.037753
1011.625508	2608.187136
1011.919036	2606.727722
1012.212528	2605.681682
1012.505986	2602.639346
1012.799408	2605.548092
1013.092795	2604.635643
1013.386147	2604.207145
1013.679464	2603.413163
1013.972745	2605.243102
1014.265992	2605.628750
1014.559204	2604.781836
1014.852380	2603.309819
1015.145521	2604.859974
1015.438628	2605.893411
1015.731699	2602.992227
1016.024736	2603.617330
1016.317737	2604.106322
1016.610703	2606.720160
1016.903635	2602.815786
1017.196531	2606.377362
1017.489393	2603.357710
1017.782219	2604.484408
1018.075011	2603.723194
1018.367768	2603.158585
1018.660490	2601.926023
1018.953177	2601.926023
1019.245829	2601.926023
