Dividing Wavelength (nm)	Counts (n)	Blue Motor Position (mm): 33.500000	Red Motor Position (mm): 0.000000	
326.493990	2227.453992
326.888308	2227.453992
327.282561	2227.453992
327.676750	2183.905984
328.070874	2181.342557
328.464933	2182.479338
328.858929	2182.872548
329.252859	2190.572910
329.646726	2197.007943
330.040528	2209.820035
330.434265	2223.206819
330.827938	2241.055025
331.221547	2259.551018
331.615091	2276.650612
332.008571	2296.162398
332.401986	2312.752835
332.795338	2331.808397
333.188625	2350.891685
333.581847	2371.457072
333.975006	2389.622870
334.368100	2407.677762
334.761129	2427.176945
335.154095	2443.671601
335.546996	2470.190590
335.939833	2510.761797
336.332606	2522.222860
336.725315	2534.364479
337.117960	2550.362581
337.510540	2560.512944
337.903056	2573.846796
338.295508	2581.801737
338.687896	2591.074939
339.080220	2596.000146
339.472480	2605.613627
339.864676	2610.662342
340.256807	2614.269288
340.648875	2619.577623
341.040879	2620.611059
341.432818	2623.918056
341.824694	2625.984929
342.216506	2626.506689
342.608253	2629.528861
342.999937	2626.564662
343.391557	2627.066257
343.783113	2624.402007
344.174605	2625.465691
344.566033	2628.460136
344.957397	2626.597430
345.348697	2624.197840
345.739934	2622.476286
346.131106	2622.062912
346.522215	2618.919752
346.913260	2618.428240
347.304241	2615.867334
347.695159	2615.499329
348.086012	2612.051180
348.476802	2608.436673
348.867528	2605.752258
349.258191	2604.653287
349.648789	2602.866198
350.039324	2596.950404
350.429796	2606.054728
350.820203	2597.870414
351.210548	2598.734972
351.600828	2595.639704
351.991045	2597.152050
352.381198	2599.823862
352.771288	2597.338573
353.161314	2595.294385
353.551276	2594.528129
353.941175	2596.539550
354.331010	2595.080136
354.720782	2593.524940
355.110490	2593.391349
355.500135	2593.547625
355.889717	2595.801021
356.279235	2592.083170
356.668689	2593.199785
357.058080	2596.325301
357.447408	2593.630804
357.836672	2594.845722
358.225873	2593.250197
358.615010	2597.005857
359.004084	2595.438058
359.393095	2597.525095
359.782043	2596.310177
360.170927	2596.824375
360.559748	2596.912595
360.948505	2599.440734
361.337199	2598.760178
361.725830	2598.631629
362.114398	2600.834613
362.502903	2600.809407
362.891344	2599.806217
363.279722	2600.292689
363.668037	2602.180601
364.056289	2603.801332
364.444478	2603.718153
364.832603	2603.289655
365.220665	2602.304109
365.608665	2605.253184
365.996601	2603.100612
366.384474	2605.633791
366.772284	2604.234871
367.160031	2604.781836
367.547715	2608.340891
367.935336	2608.151848
368.322893	2605.389295
368.710388	2603.554315
369.097820	2607.302413
369.485189	2605.858123
369.872495	2610.743001
370.259738	2608.797115
370.646918	2608.834924
371.034035	2610.816097
371.421090	2610.133021
371.808081	2610.861468
372.195010	2612.305758
372.581875	2613.709720
372.968678	2613.129987
373.355418	2612.194853
373.742096	2612.930862
374.128710	2611.174019
374.515262	2614.405399
374.901751	2611.310131
375.288177	2613.011520
375.674540	2615.383383
376.060841	2615.622838
376.447079	2613.434977
376.833254	2615.413630
377.219367	2614.239041
377.605417	2616.492437
377.991404	2615.733743
378.377329	2615.663167
378.763191	2613.981942
379.148991	2617.399844
379.534727	2617.258692
379.920402	2616.121912
380.306013	2617.392283
380.691563	2617.319186
381.077049	2618.609721
381.462474	2619.539814
381.847835	2618.239197
382.233134	2617.021758
382.618371	2617.719958
383.003545	2618.634927
383.388657	2619.935545
383.773706	2620.172479
384.158693	2621.203395
384.543618	2619.628034
384.928480	2622.312449
385.313280	2626.042903
385.698017	2621.760442
386.082692	2625.808489
386.467305	2623.842439
386.851856	2627.870321
387.236344	2623.910495
387.620770	2624.860752
388.005133	2622.193982
388.389435	2623.066101
388.773674	2622.960237
389.157851	2627.136833
389.541965	2628.601288
389.926018	2624.172635
390.310008	2628.288737
390.693936	2629.455764
391.077802	2629.370064
391.461606	2629.634725
391.845348	2631.230250
392.229027	2632.876187
392.612645	2630.945425
392.996200	2633.685292
393.379694	2632.422483
393.763125	2635.268214
394.146494	2635.600930
394.529801	2634.237298
394.913047	2635.840385
395.296230	2637.083030
395.679351	2634.086064
396.062410	2638.948257
396.445408	2636.241157
396.828343	2639.207876
397.211217	2644.175933
397.594028	2642.328350
397.976778	2641.494039
398.359466	2641.330202
398.742092	2640.422794
399.124656	2641.325161
399.507158	2643.323978
399.889598	2643.475213
400.271977	2645.602580
400.654294	2646.532672
401.036549	2648.123157
401.418742	2646.394041
401.800874	2646.767086
402.182944	2650.348826
402.564952	2651.989722
402.946898	2649.091058
403.328783	2651.281439
403.710606	2648.521408
404.092367	2651.082314
404.474067	2651.079793
404.855705	2652.231697
405.237282	2654.530463
405.618797	2656.325114
406.000250	2657.376194
406.381642	2659.155722
406.762972	2659.841319
407.144240	2658.558345
407.525447	2660.335352
407.906593	2660.668068
408.287677	2670.891528
408.668700	2672.247598
409.049661	2679.587518
409.430560	2689.889116
409.811399	2695.439427
410.192176	2705.680531
410.572891	2716.982797
410.953545	2734.100035
411.334138	2741.631519
411.714669	2761.029879
412.095139	2774.792229
412.475547	2807.534523
412.855894	2836.354800
413.236180	2874.576828
413.616405	2891.131978
413.996568	2942.196346
414.376670	2982.913745
414.756711	3024.019314
415.136691	3083.136925
415.516609	3153.647544
415.896466	3215.167265
416.276262	3299.677168
416.655997	3368.002446
417.035670	3467.703867
417.415283	3606.386009
417.794834	3694.507899
418.174324	3754.991663
418.553753	3819.934327
418.933121	3981.989779
419.312428	4093.149742
419.691674	4129.801451
420.070859	4361.603787
420.449983	4375.867732
420.829045	4588.957305
421.208047	4618.558960
421.586988	4834.511909
421.965867	4946.027273
422.344686	5096.210808
422.723444	5229.100664
423.102141	5054.606165
423.480777	5489.519110
423.859352	5379.062388
424.237866	5798.302386
424.616319	5838.077090
424.994712	6155.384957
425.373044	6053.472991
425.751314	6418.165184
426.129524	6449.768177
426.507673	6655.061606
426.885762	6853.977975
427.263789	6903.376242
427.641756	6958.271886
428.019662	7146.886658
428.397508	7404.492140
428.775292	7288.802700
429.153016	7684.278699
429.530679	7657.505131
429.908282	7788.219729
430.285824	7656.000346
430.663305	8275.938761
431.040726	7940.248326
431.418086	8009.402875
431.795385	8353.950617
432.172624	8498.263728
432.549802	8513.162858
432.926920	8656.888675
433.303977	8618.911142
433.680974	8863.404583
434.057910	8997.428699
434.434786	9112.339281
434.811601	9052.402482
435.188355	9611.836968
435.565050	9410.785671
435.941683	9401.167149
436.318257	9910.522813
436.694770	10062.480834
437.071222	10174.321353
437.447614	10077.982382
437.823946	10009.757927
438.200218	10197.392193
438.576429	10035.225836
438.952580	10289.942737
439.328670	10392.028623
439.704700	10198.120640
440.080670	10203.764212
440.456580	10783.612851
440.832429	10551.535772
441.208218	10179.541468
441.583947	10529.556341
441.959616	10670.612867
442.335224	10496.075518
442.710773	10659.177009
443.086261	10856.281083
443.461689	10163.316514
443.837057	10794.819336
444.212365	11098.173289
444.587612	10749.935423
444.962800	10994.428863
445.337927	10782.536564
445.712995	10343.593217
446.088002	11444.429982
446.462949	11090.167937
446.837837	11069.418547
447.212664	11083.327091
447.587431	11571.099055
447.962139	12272.573092
448.336786	14522.601370
448.711374	15092.445839
449.085901	12963.654790
449.460369	12571.805902
449.834776	12029.551668
450.209124	12868.099719
450.583412	13282.517853
450.957640	14231.835178
451.331808	13418.056836
451.705917	12381.005791
452.079965	11714.270345
452.453954	12601.652053
452.827883	12235.490364
453.201752	12524.731607
453.575562	12035.144828
453.949311	12451.266872
454.323001	12405.576374
454.696632	12624.017132
455.070202	12914.982450
455.443713	13165.311027
455.817164	13617.497485
456.190556	13625.989309
456.563888	13988.110513
456.937160	14158.695598
457.310373	13499.494156
457.683526	13570.977718
458.056619	13136.137869
458.429653	13271.271039
458.802628	12721.351731
459.175542	13083.135178
459.548398	14026.972768
459.921194	14351.365977
460.293930	14416.003652
460.666607	15305.235464
461.039224	16331.626990
461.411782	17031.190430
461.784280	16933.117302
462.156719	16974.139692
462.529099	16671.042837
462.901419	15591.557879
463.273680	15391.429112
463.645882	15245.661628
464.018024	14987.859541
464.390106	15205.589496
464.762130	15925.607418
465.134094	16676.242787
465.505999	18635.540162
465.877845	21893.269888
466.249631	24730.670728
466.621358	24444.837305
466.993026	22997.612776
467.364634	22445.687088
467.736184	20990.736992
468.107674	20189.087666
468.479105	20330.794501
468.850477	19773.862947
469.221790	19371.445280
469.593043	18678.147994
469.964238	18133.269839
470.335373	17800.039488
470.706449	18220.300319
471.077467	17768.870034
471.448425	19601.261401
471.819324	23599.879426
472.190164	25658.449723
472.560945	22135.371302
472.931667	19751.523074
473.302330	19101.304968
473.672934	18620.787225
474.043479	18966.499473
474.413965	18774.673487
474.784393	18406.490296
475.154761	19079.408717
475.525070	19093.733155
475.895321	18740.537314
476.265513	19319.680191
476.635645	19896.297451
477.005719	19699.629436
477.375734	19887.092304
477.745691	20369.704647
478.115588	20887.259747
478.485427	21393.883106
478.855207	22443.862191
479.224928	24201.894018
479.594591	26423.623780
479.964194	26487.545611
480.333739	26690.240324
480.703226	26234.454482
481.072653	25924.093325
481.442022	26488.390004
481.811333	27386.655564
482.180584	27328.508375
482.549777	26382.359415
482.918912	26024.586206
483.287988	26147.736553
483.657005	25815.113661
484.025964	25550.901747
484.394864	25474.185467
484.763706	25174.380486
485.132489	24593.856333
485.501213	24762.808083
485.869879	24673.224259
486.238487	24486.951104
486.607036	24645.263499
486.975527	24332.096940
487.343959	24670.292828
487.712333	24607.167500
488.080648	24280.054588
488.448905	24757.966055
488.817104	24509.459856
489.185244	25170.387893
489.553326	25152.466591
489.921350	26117.799661
490.289315	28393.391631
490.657222	30194.600941
491.025070	30682.831650
491.392861	30470.465482
491.760593	29623.246647
492.128267	28742.786442
492.495883	27693.954220
492.863440	26829.920615
493.230939	25946.811284
493.598380	25794.949045
493.965763	25386.429061
494.333088	24948.017555
494.700354	24871.283632
495.067563	24757.013277
495.434713	24505.205122
495.801805	24645.540763
496.168839	24462.015036
496.535815	24301.398834
496.902733	24515.030331
497.269593	24185.550598
497.636395	24374.160328
498.003139	24338.221942
498.369825	24089.700619
498.736453	24293.121259
499.103023	24157.083202
499.469535	24178.727396
499.835989	24389.228337
500.202385	24410.282716
500.568723	23933.291259
500.935003	24169.093751
501.301226	23782.071767
501.667390	24623.604182
502.033497	24859.076478
502.399546	24581.442492
502.765537	24147.540298
503.131470	24528.896024
503.497345	24674.348436
503.863163	23894.237440
504.228923	24499.528783
504.594625	24693.822414
504.960269	24220.561411
505.325856	24717.021804
505.691385	24120.486946
506.056856	24718.193872
506.422270	24697.341139
506.787625	24262.022381
507.152924	24680.244066
507.518164	24707.718354
507.883347	24522.352607
508.248472	24192.066289
508.613540	24994.194524
508.978550	24768.320585
509.343503	24771.541883
509.708398	25015.064901
510.073236	25168.131976
510.438016	25389.473918
510.802738	25055.626025
511.167403	25317.168648
511.532010	25017.162021
511.896561	25789.958303
512.261053	25757.984785
512.625488	25583.699493
512.989866	25486.546377
513.354186	25335.037018
513.718449	25431.285248
514.082655	25810.173330
514.446803	25559.239815
514.810894	26015.383580
515.174927	25498.110783
515.538904	25535.160744
515.902822	26025.239035
516.266684	25775.265860
516.630488	25692.384250
516.994235	25660.980382
517.357925	25956.880989
517.721558	26143.680945
518.085133	26232.584214
518.448651	26157.758367
518.812112	25888.593519
519.175516	26082.314979
519.538863	26253.126916
519.902152	26014.513981
520.265385	26316.494219
520.628560	26090.645486
520.991678	26112.506450
521.354739	26179.548755
521.717743	26247.553920
522.080690	26044.314762
522.443580	26368.508845
522.806413	26375.402623
523.169189	26464.111807
523.531908	26493.494172
523.894569	26114.538035
524.257174	26189.215167
524.619722	26364.493566
524.982213	26061.706742
525.344647	26122.061957
525.707025	26252.597594
526.069345	26239.556129
526.431608	26193.066609
526.793815	26380.247172
527.155964	25849.950554
527.518057	26021.216195
527.880093	25942.249040
528.242072	26173.416191
528.603995	25877.815532
528.965860	25666.447513
529.327669	25728.609981
529.689421	25717.932818
530.051117	25534.714602
530.412755	25719.727468
530.774337	25521.526943
531.135862	25397.297789
531.497331	25604.428718
531.858743	25150.084645
532.220098	25644.165613
532.581396	25316.394831
532.942638	25257.854432
533.303824	25341.325858
533.664953	25360.711615
534.026025	25024.179307
534.387040	25260.254022
534.747999	25326.361192
535.108902	25481.147301
535.469748	24967.138652
535.830537	25160.325749
536.191270	25282.228411
536.551947	25142.215404
536.912567	24792.132475
537.273131	25153.240408
537.633638	24849.205899
537.994089	25065.859567
538.354483	24597.433032
538.714821	25105.543531
539.075103	25149.625900
539.435328	24929.007364
539.795497	24491.473019
540.155609	24881.529777
540.515665	25166.894373
540.875665	24418.220012
541.235609	24722.380550
541.595496	24679.321535
541.955328	25031.942684
542.315102	24946.679129
542.674821	24482.540094
543.034483	24358.772206
543.394090	24541.448497
543.753640	24327.307844
544.113134	24970.967408
544.472571	24565.308279
544.831953	24862.600244
545.191278	24475.003569
545.550548	24400.916252
545.909761	24607.487613
546.268918	24826.009029
546.628019	24796.931654
546.987064	24494.560726
547.346053	24252.973510
547.704986	24381.447316
548.063863	24517.921432
548.422684	24538.259968
548.781449	24073.193361
549.140158	24482.091432
549.498811	24047.657396
549.857408	23786.107211
550.215949	24222.529982
550.574434	23895.739704
550.932864	24125.439879
551.291237	24284.843684
551.649555	24139.867662
552.007817	24189.449930
552.366022	24060.177102
552.724173	24090.734056
553.082267	24041.676067
553.440305	24515.947821
553.798288	23773.481641
554.156215	24292.796105
554.514086	24378.231059
554.871902	23768.939562
555.229661	24047.889289
555.587365	23901.080807
555.945014	23777.529688
556.302606	24013.034751
556.660143	23966.600683
557.017625	24224.188521
557.375050	23752.699484
557.732421	24140.424709
558.089735	23946.728455
558.446994	24021.629919
558.804197	24036.939903
559.161345	23982.991995
559.518437	23736.671136
559.875474	23928.318161
560.232455	24113.353713
560.589381	23940.472383
560.946251	23909.186982
561.303065	24237.716458
561.659825	24324.129396
562.016528	23929.091978
562.373177	23666.485671
562.729770	24026.784498
563.086307	23885.811152
563.442789	24062.899325
563.799216	23883.409042
564.155587	23899.243306
564.511904	23880.465008
564.868164	23823.058869
565.224370	23804.711589
565.580520	23706.187278
565.936615	23837.070756
566.292654	23524.841851
566.648638	23810.483710
567.004567	23645.781653
567.360441	23591.750566
567.716260	23319.349297
568.072023	23645.882476
568.427732	23399.843921
568.783385	23177.188758
569.138982	23422.317385
569.494525	23454.769813
569.850013	23214.788204
570.205445	23318.136899
570.560823	23109.463377
570.916145	22871.399928
571.271412	23047.104304
571.626625	22797.317652
571.981782	22926.293052
572.336884	22719.204973
572.691931	22863.863403
573.046923	22593.428184
573.401860	22477.557263
573.756743	22479.883756
574.111570	22398.164131
574.466342	22323.494560
574.821059	22412.438158
575.175722	22113.543106
575.530330	22095.528542
575.884882	22126.687914
576.239380	22029.408768
576.593823	21920.953385
576.948211	21901.711300
577.302544	21746.577353
577.656823	21605.515786
578.011047	21715.980069
578.365216	21590.190678
578.719330	21459.460956
579.073389	21356.858352
579.427394	21497.327583
579.781344	21272.781988
580.135239	21155.159266
580.489080	21124.342692
580.842866	20899.799617
581.196597	21094.965368
581.550273	21063.004453
581.903895	20950.425405
582.257463	21267.428282
582.610975	20803.979886
582.964434	21109.415836
583.317837	20805.406532
583.671186	20892.484903
584.024481	20867.949608
584.377721	20635.998557
584.730906	20711.741894
585.084037	20719.180116
585.437113	20640.926285
585.790135	20840.326605
586.143103	20294.621701
586.496016	20311.668363
586.848874	20553.333717
587.201679	20490.949438
587.554428	20157.270423
587.907124	20496.280458
588.259765	20260.392267
588.612352	20338.305820
588.964884	19906.122659
589.317362	20088.138560
589.669786	20136.483226
590.022155	20167.186373
590.374470	20366.095180
590.726731	20163.851650
591.078937	19921.334341
591.431090	20018.706748
591.783188	19773.699110
592.135232	19744.344471
592.487222	19848.870275
592.839157	19859.857470
593.191038	19747.785058
593.542866	19633.116452
593.894639	19348.071970
594.246358	19562.494928
594.598022	19472.318768
594.949633	19229.219206
595.301190	19188.796714
595.652692	19348.187916
596.004141	19596.326112
596.355535	18915.929139
596.706876	18943.910063
597.058162	18828.863371
597.409395	19053.111538
597.760573	19129.447210
598.111698	18909.541997
598.462768	18838.020627
598.813785	18811.473910
599.164748	18618.077605
599.515657	18673.313528
599.866511	18456.450651
600.217312	18820.179983
600.568060	18333.819542
600.918753	18647.966606
601.269392	18543.599598
601.619978	18337.068566
601.970510	18543.534063
602.320988	18485.749837
602.671412	18692.908493
603.021783	18603.478423
603.372100	18334.956322
603.722363	18469.708885
604.072572	18398.467299
604.422728	18555.995795
604.772830	18304.401889
605.122878	18264.420498
605.472872	18261.123583
605.822813	18234.634840
606.172701	18215.826295
606.522534	18404.519204
606.872314	18436.452393
607.222041	18263.215662
607.571714	18491.789139
607.921333	18312.089649
608.270899	18376.954175
608.620411	18556.746927
608.969870	18333.050766
609.319276	18339.004369
609.668627	18365.699799
610.017926	18497.094954
610.367171	18612.701214
610.716362	18664.257095
611.065500	18478.901429
611.414585	18616.701370
611.763616	18603.337271
612.112594	18539.065080
612.461518	18500.462444
612.810389	18687.418676
613.159207	18552.580413
613.507971	18460.344942
613.856682	18740.784331
614.205340	18670.810595
614.553945	18815.456422
614.902496	18555.355569
615.250994	18786.109345
615.599439	18742.941944
615.947830	18722.709273
616.296169	18781.683212
616.644454	18738.810719
616.992686	18701.536427
617.340864	18929.494884
617.688990	18670.104833
618.037063	18854.427062
618.385082	18705.171099
618.733048	18983.271392
619.080961	18844.763170
619.428821	18888.112052
619.776628	18780.473335
620.124382	18704.762766
620.472083	18754.377802
620.819731	18761.450541
621.167326	18452.039641
621.514868	18498.675355
621.862357	18259.956556
622.209793	18280.879865
622.557176	18109.039533
622.904506	17936.821115
623.251783	17859.439404
623.599007	17598.826873
623.946179	17549.884831
624.293297	17490.129514
624.640363	17236.168786
624.987376	17269.208508
625.334336	17052.025518
625.681243	16900.415337
626.028097	16920.353101
626.374899	16835.255903
626.721647	16701.680450
627.068343	16541.863270
627.414987	16475.763661
627.761577	16446.777026
628.108115	16481.001419
628.454600	16199.024479
628.801032	16304.049358
629.147412	16242.809421
629.493739	16250.628250
629.840014	16056.621965
630.186236	16158.047460
630.532405	15919.855461
630.878521	16125.411030
631.224585	16013.585635
631.570597	15838.889489
631.916556	15870.978954
632.262462	15850.932806
632.608316	15769.656803
632.954117	15712.548092
633.299866	15701.608788
633.645562	15612.400529
633.991206	15382.052566
634.336797	15246.372431
634.682336	15218.038626
635.027823	15099.473208
635.373257	14979.856709
635.718639	14884.278953
636.063968	14833.312888
636.409245	14580.325102
636.754470	14609.609165
637.099642	14449.169403
637.444762	14230.776536
637.789829	14267.720632
638.134845	14102.751393
638.479808	14138.795643
638.824719	14080.489658
639.169577	13937.928347
639.514383	13979.084327
639.859137	13804.201659
640.203839	13888.673754
640.548489	13726.081419
640.893086	13711.837638
641.237632	13583.447012
641.582125	13744.809305
641.926566	13562.432962
642.270955	13569.427563
642.615292	13538.222821
642.959576	13540.251885
643.303809	13577.621958
643.647990	13512.533101
643.992118	13574.415785
644.336195	13338.436853
644.680219	13549.509964
645.024192	13465.869660
645.368112	13719.830388
645.711981	13769.629426
646.055797	13952.542652
646.399562	13914.928083
646.743274	14187.064691
647.086935	14465.185149
647.430544	14425.496144
647.774101	14454.618890
648.117606	14608.394247
648.461059	14586.402213
648.804460	14570.814966
649.147810	14286.912305
649.491108	14198.440055
649.834354	14212.504874
650.177548	13900.487698
650.520690	13714.559862
650.863781	13630.158343
651.206820	13679.554089
651.549807	13507.973377
651.892742	13308.341164
652.235626	13246.166093
652.578458	13241.119898
652.921238	12932.646653
653.263967	13128.881128
653.606644	12964.597486
653.949269	12943.888426
654.291843	12742.910225
654.634365	12903.193712
654.976836	12757.758944
655.319255	12762.548040
655.661622	12712.600288
656.003938	12636.622537
656.346203	12566.873133
656.688416	12641.083959
657.030577	12595.837082
657.372687	12510.218125
657.714746	12488.853715
658.056753	12681.173735
658.398708	12489.662821
658.740612	12488.939415
659.082465	12599.870005
659.424266	12567.888925
659.766016	12591.330291
660.107715	12500.957526
660.449362	12573.734143
660.790958	12537.528576
661.132503	12473.130357
661.473996	12542.652909
661.815438	12562.676372
662.156829	12580.000297
662.498168	12552.931822
662.839456	12552.077346
663.180693	12580.368302
663.521879	12658.929643
663.863013	12640.070687
664.204097	12610.867283
664.545129	12736.991911
664.886110	12712.189434
665.227040	12806.902632
665.567918	12804.495481
665.908746	12829.466837
666.249522	12821.610198
666.590248	12861.470602
666.930922	12990.209068
667.271545	12955.185652
667.612118	13051.017987
667.952639	12945.791462
668.293109	12970.845996
668.633528	12916.514961
668.973896	12889.204510
669.314213	12968.985811
669.654480	12705.590563
669.994695	12780.474383
670.334859	12808.193168
670.674973	12751.361720
671.015035	12785.225671
671.355047	12733.838669
671.695008	12699.422712
672.034918	12699.745345
672.374777	12748.407603
672.714585	12665.238647
673.054342	12691.550950
673.394049	12646.097386
673.733705	12752.932039
674.073310	12648.698622
674.412864	12667.038339
674.752368	12531.083461
675.091820	12552.473077
675.431223	12531.849717
675.770574	12402.864234
676.109875	12329.482678
676.449125	12278.940069
676.788324	12227.364024
677.127473	12065.101885
677.466571	12053.350955
677.805619	11949.954369
678.144616	11872.262627
678.483562	11847.409738
678.822458	11713.299922
679.161303	11685.681961
679.500098	11683.037876
679.838842	11628.474947
680.177535	11663.400061
680.516179	11717.549615
680.854771	11664.892243
681.193314	11881.130016
681.531805	12039.749922
681.870247	12458.652163
682.208638	12874.801933
682.546978	13185.067308
682.885268	13224.680695
683.223508	12917.308942
683.561697	12758.358841
683.899836	12668.278463
684.237925	12473.027013
684.575963	12380.002601
684.913951	12301.058132
685.251889	12259.002306
685.589776	12352.510668
685.927614	12267.879778
686.265401	12241.567475
686.603137	12294.035804
686.940824	12440.594750
687.278460	12567.800705
687.616046	12609.886778
687.953582	12786.286833
688.291068	12704.383207
688.628504	12933.889297
688.965889	12951.540898
689.303224	12911.206626
689.640510	12801.717805
689.977745	12491.553253
690.314930	12273.631734
690.652065	12173.222032
690.989150	11876.857638
691.326185	11656.665080
691.663170	11452.357197
692.000105	11212.627646
692.336990	11104.923394
692.673825	10844.673827
693.010610	10731.373894
693.347345	10507.697898
693.684030	10314.455347
694.020665	10259.199260
694.357251	10070.017359
694.693786	9999.063119
695.030272	9846.066620
695.366707	9723.690090
695.703093	9653.746601
696.039429	9650.479933
696.375716	9572.828520
696.711952	9437.972613
697.048139	9485.160334
697.384276	9436.976986
697.720363	9461.933218
698.056400	9385.776507
698.392388	9338.830761
698.728326	9297.657137
699.064214	9237.490966
699.400053	9285.187843
699.735842	9097.858566
700.071581	9050.617914
700.407270	8980.810536
700.742910	8904.517713
701.078501	8807.122621
701.414042	8689.084004
701.749533	8618.066749
702.084974	8480.740677
702.420366	8593.171011
702.755709	8476.382600
703.091002	8340.541148
703.426246	8378.453145
703.761440	8323.504568
704.096584	8273.902135
704.431679	8214.136735
704.766725	8198.461268
705.101721	8148.763052
705.436668	8200.830610
705.771565	8095.563756
706.106413	8174.170468
706.441212	8213.335192
706.775961	8166.855753
707.110661	8207.565591
707.445311	8344.664811
707.779913	8251.957992
708.114465	8378.082620
708.448967	8409.050428
708.783421	8557.298160
709.117825	8735.450016
709.452180	8773.495604
709.786485	8860.044654
710.120742	9146.848499
710.454949	9147.052666
710.789107	9256.460828
711.123216	9463.289288
711.457275	9632.677098
711.791286	9786.659143
712.125247	9783.899111
712.459159	9772.939643
712.793023	10019.905769
713.126837	9594.845759
713.460602	9745.079706
713.794318	9577.640301
714.127985	9604.174415
714.461602	9280.519735
714.795171	9222.148214
715.128691	8974.738466
715.462162	8724.805620
715.795584	8670.749327
716.128957	8518.645113
716.462281	8348.322168
716.795556	8406.229903
717.128782	8193.004218
717.461960	7929.573683
717.795088	8001.876432
718.128167	7910.835714
718.461198	7749.425530
718.794180	7689.660130
719.127113	7676.850558
719.459997	7521.535129
719.792833	7291.643390
720.125619	7351.512133
720.458357	7212.222532
720.791046	7202.999741
721.123686	7195.823658
721.456278	7036.848351
721.788821	7055.556073
722.121315	6953.092101
722.453761	7017.596185
722.786158	6959.098636
723.118506	6973.087837
723.450805	6937.540141
723.783056	7006.603949
724.115259	6915.878303
724.447412	6914.000473
724.779518	6955.103521
725.111574	6961.059644
725.443582	7043.424537
725.775542	7020.182297
726.107453	7219.292750
726.439315	7120.150898
726.771129	7183.124992
727.102895	7357.243925
727.434612	7464.696119
727.766281	7502.761872
728.097901	7579.939417
728.429473	7575.541010
728.760996	7555.220119
729.092471	7524.653083
729.423897	7473.752552
729.755276	7484.565827
730.086606	7404.885350
730.417887	7503.356728
730.749120	7713.915642
731.080305	7902.525372
731.411442	8013.506374
731.742530	8011.873040
732.073570	8117.684339
732.404562	8204.283800
732.735506	8053.462559
733.066401	8199.161988
733.397249	8123.864793
733.728048	7884.082311
734.058798	7550.657875
734.389501	7323.768143
734.720156	7145.036554
735.050762	6912.805720
735.381320	6818.828530
735.711831	6770.219204
736.042293	6663.140055
736.372707	6678.586150
736.703073	6539.326796
737.033391	6576.550676
737.363661	6594.267811
737.693883	6625.722091
738.024056	6703.134049
738.354182	6746.437561
738.684260	6778.325379
739.014290	6898.612351
739.344272	7011.556883
739.674207	7041.564351
740.004093	7108.092458
740.333931	7123.092411
740.663722	7125.623071
740.993464	7207.178857
741.323159	7193.172012
741.652806	6942.843435
741.982405	6963.676003
742.311956	7014.160638
742.641460	6844.810637
742.970915	6656.014384
743.300323	6646.985678
743.629683	6596.231341
743.958996	6461.965249
744.288260	6374.909563
744.617477	6319.550132
744.946647	6323.285627
745.275768	6155.803373
745.604842	6109.528101
745.933869	6096.592501
746.262847	6053.914092
746.591778	6043.052926
746.920662	5999.734291
747.249498	5993.447972
747.578286	6039.488830
747.907027	6111.060612
748.235720	6173.026475
748.564365	6147.876159
748.892963	6179.116189
749.221514	6330.091185
749.550017	6157.431666
749.878473	6038.780548
750.206881	6092.128559
750.535242	6037.011103
750.863555	5966.376976
751.191821	5985.775336
751.520039	5981.470191
751.848210	5888.957456
752.176334	5916.421662
752.504411	5957.804494
752.832440	5888.841509
753.160421	5817.423483
753.488356	5866.282346
753.816243	5896.867026
754.144082	5746.076033
754.471875	5716.751641
754.799620	5762.003558
755.127318	5772.950424
755.454969	5729.722529
755.782572	5692.614596
756.110129	5740.477831
756.437638	5721.293720
756.765100	5657.694523
757.092515	5659.411036
757.419882	5712.978337
757.747203	5690.769534
758.074477	5751.570890
758.401703	5741.803655
758.728882	5691.656777
759.056014	5754.046097
759.383099	5879.671651
759.710138	5888.871756
760.037129	5880.092587
760.364073	5878.928080
760.690970	5960.887160
761.017820	5941.166166
761.344623	5898.644033
761.671379	6004.851062
761.998088	6120.543023
762.324751	6373.722372
762.651366	6986.494786
762.977935	8304.557391
763.304456	9941.525909
763.630931	10833.752167
763.957359	10416.561398
764.283740	9477.475095
764.610074	8631.173749
764.936362	7635.709702
765.262602	7040.956892
765.588796	6502.453276
765.914943	6172.076218
766.241044	6003.207646
766.567097	5800.858251
766.893104	5540.338982
767.219064	5363.704513
767.544978	5304.067663
767.870845	5224.230910
768.196665	5116.569508
768.522438	5046.633580
768.848165	5015.343138
769.173846	4943.599957
769.499479	4903.338782
769.825066	4848.833827
770.150607	4790.059014
770.476101	4765.677474
770.801548	4759.186988
771.126949	4681.943908
771.452303	4631.451711
771.777611	4587.830607
772.102872	4602.850725
772.428087	4572.923915
772.753256	4529.675856
773.078378	4480.259946
773.403453	4418.019340
773.728482	4395.641658
774.053465	4352.663301
774.378401	4341.227443
774.703291	4341.451775
775.028135	4265.816823
775.352932	4218.828228
775.677683	4205.131413
776.002388	4225.452304
776.327046	4236.890682
776.651658	4162.183303
776.976224	4101.623922
777.300743	4104.731793
777.625216	4127.285915
777.949643	4120.069503
778.274024	4077.686002
778.598359	4034.178324
778.922647	4056.775296
779.246889	4052.344122
779.571086	4042.733162
779.895236	4028.547355
780.219339	4012.924820
780.543397	4009.698481
780.867409	4057.236562
781.191374	4073.458995
781.515294	4010.827700
781.839167	4003.560876
782.162995	4025.867982
782.486776	4014.048997
782.810511	4018.759955
783.134201	4019.992517
783.457844	3970.473263
783.781441	3917.720109
784.104993	3923.603135
784.428498	3938.870270
784.751958	3936.876493
785.075372	3917.354625
785.398739	3883.160478
785.722061	3892.973084
786.045337	3931.840381
786.368568	3967.690546
786.691752	3876.964900
787.014891	3930.680915
787.337983	4058.701017
787.661030	4219.959967
787.984031	4380.636663
788.306987	4547.176222
788.629897	4634.887258
788.952760	4583.943878
789.275579	4517.814021
789.598351	4452.059731
789.921078	4307.484480
790.243759	4111.073564
790.566395	4094.818364
790.888984	4091.849124
791.211529	3980.295951
791.534027	3921.558947
791.856480	3910.130652
792.178888	3849.190663
792.501249	3802.542346
792.823566	3809.020229
793.145836	3836.658355
793.468062	3785.175571
793.790241	3738.945670
794.112375	3771.645114
794.434464	3840.923171
794.756507	3860.918908
795.078505	3841.200434
795.400457	3874.729149
795.722364	4015.475643
796.044226	4119.315851
796.366042	4192.664639
796.687812	4170.032379
797.009538	4177.642001
797.331218	4135.692039
797.652852	4108.409315
797.974442	4089.867951
798.295986	4082.906117
798.617484	4006.386443
798.938938	3916.815222
799.260346	3962.225935
799.581709	3955.692600
799.903026	3880.337432
800.224299	3845.170343
800.545526	3841.092050
800.866708	3800.145277
801.187845	3745.151330
801.508936	3776.754324
801.829983	3771.521606
802.150984	3693.660985
802.471940	3682.204963
802.792851	3691.909184
803.113717	3692.720810
803.434538	3699.309598
803.755314	3637.646204
804.076045	3611.840537
804.396731	3633.817447
804.717372	3656.278308
805.037967	3642.014364
805.358518	3631.657313
805.679024	3664.197961
805.999485	3672.919157
806.319901	3680.924510
806.640272	3689.650747
806.960598	3705.293447
807.280879	3680.652287
807.601115	3694.001263
807.921306	3710.442986
808.241453	3754.391765
808.561554	3723.544945
808.881611	3659.020696
809.201623	3696.501675
809.521590	3711.032801
809.841513	3680.432997
810.161390	3709.061710
810.481223	3688.551775
810.801011	3636.002788
811.120755	3624.932414
811.440453	3661.276613
811.760107	3663.587982
812.079716	3619.334212
812.399281	3591.965788
812.718801	3612.541258
813.038276	3586.395313
813.357707	3582.314499
813.677093	3604.793004
813.996434	3546.718912
814.315731	3556.060170
814.634983	3561.000501
814.954191	3575.990372
815.273354	3604.079681
815.592473	3598.746140
815.911547	3608.273921
816.230577	3646.768172
816.549562	3699.208775
816.868502	3740.644539
817.187399	3767.473559
817.506250	3763.470883
817.825058	3736.399887
818.143821	3832.438909
818.462539	3929.375256
818.781213	3977.752689
819.099843	4032.996174
819.418429	4282.621509
819.736970	4524.042367
820.055466	4774.315491
820.373919	5141.213188
820.692327	5545.914498
821.010691	6004.939282
821.329011	7403.877119
821.647286	10192.003200
821.965517	14800.805007
822.283704	18825.702567
822.601847	20949.591094
822.919945	19095.260625
823.237999	16487.481823
823.556010	13994.240556
823.873976	11878.899306
824.191897	9792.053177
824.509775	8440.895397
824.827609	7315.641803
825.145398	6775.169617
825.463144	6658.290465
825.780845	6772.646519
826.098502	6972.747560
826.416116	7863.844599
826.733685	9197.040748
827.051210	10308.123658
827.368692	10323.509260
827.686129	9047.197491
828.003522	7532.519803
828.320872	6518.713518
828.638177	5815.182690
828.955439	5254.394654
829.272656	4756.552985
829.589830	4475.589317
829.906960	4299.164056
830.224046	4112.222948
830.541088	3991.943537
830.858086	3941.037966
831.175041	3864.417468
831.491952	3851.673432
831.808819	3864.220863
832.125642	3936.112758
832.442421	4083.916869
832.759157	4363.988253
833.075849	4922.505249
833.392497	5797.163086
833.709101	6570.763431
834.025662	6902.194091
834.342179	6523.726945
834.658653	5855.779102
834.975083	5207.910174
835.291469	4633.626969
835.607811	4224.870051
835.924110	4083.906786
836.240366	3883.725088
836.556578	3679.036598
836.872746	3570.127510
837.188871	3530.950183
837.504952	3462.302270
837.820990	3380.801936
838.136984	3332.346365
838.452935	3363.931715
838.768842	3357.277392
839.084706	3377.986452
839.400526	3540.319167
839.716303	3887.190881
840.032037	4414.145213
840.347727	4669.605684
840.663373	4384.140265
840.978977	4001.801514
841.294537	3693.741643
841.610054	3464.147333
841.925527	3361.388453
842.240957	3293.753812
842.556344	3235.190728
842.871687	3178.197963
843.186987	3128.575365
843.502244	3093.486414
843.817458	3057.500137
844.132629	3026.139119
844.447756	3034.552805
844.762840	3019.983870
845.077881	2986.321565
845.392879	2969.418576
845.707833	2968.455716
846.022745	2965.481435
846.337613	2966.545119
846.652438	2952.994497
846.967221	2952.598767
847.281960	2937.830706
847.596656	2932.184614
847.911309	2935.284924
848.225919	2924.350661
848.540485	2920.055598
848.855009	2922.866041
849.169490	2910.845410
849.483928	2901.942732
849.798323	2902.308216
850.112675	2898.376116
850.426984	2911.394896
850.741251	2906.610841
851.055474	2899.591034
851.369654	2888.568551
851.683792	2894.706156
851.997887	2904.412898
852.311938	2905.834503
852.625947	2893.977709
852.939914	2899.086918
853.253837	2902.565315
853.567718	2885.692573
853.881555	2884.797768
854.195350	2903.502969
854.509103	2897.030128
854.822812	2890.927811
855.136479	2885.067470
855.450103	2890.960578
855.763685	2881.591594
856.077224	2879.920452
856.390720	2891.570558
856.704173	2900.780746
857.017584	2892.586351
857.330953	2891.867986
857.644278	2901.539440
857.957561	2908.801222
858.270802	2911.326840
858.584000	2910.164854
858.897155	2901.221847
859.210268	2897.388050
859.523339	2896.246228
859.836367	2897.153636
860.149352	2891.341186
860.462295	2886.547048
860.775195	2894.688512
861.088054	2892.810682
861.400869	2878.871892
861.713642	2874.501211
862.026373	2889.579302
862.339062	2889.654920
862.651708	2896.183214
862.964312	2902.459450
863.276873	2892.926628
863.589392	2902.477094
863.901869	2918.951585
864.214303	2940.736932
864.526696	2952.586164
864.839045	2950.186574
865.151353	2948.979218
865.463619	2947.426543
865.775842	2946.153651
866.088023	2967.853298
866.400162	2975.132724
866.712258	2944.169957
867.024313	2935.194183
867.336325	2944.840431
867.648296	2960.483131
867.960224	2957.334931
868.272110	2943.063424
868.583954	2948.860751
868.895755	2963.013790
869.207515	2949.674897
869.519233	2956.964406
869.830909	2964.289202
870.142542	2974.447127
870.454134	2970.825058
870.765684	2974.908393
871.077191	2976.050214
871.388657	2981.998776
871.700081	2999.743637
872.011463	3008.721932
872.322803	3006.657580
872.634101	3007.411232
872.945357	3022.882533
873.256571	3049.030998
873.567744	3041.527241
873.878874	3038.936088
874.189963	3059.138512
874.501010	3061.039027
874.812015	3049.318344
875.122979	3049.956050
875.433900	3048.005124
875.744780	3055.879406
876.055618	3060.033317
876.366415	3059.216650
876.677169	3069.674523
876.987882	3065.525654
877.298554	3058.702452
877.609183	3080.001327
877.919771	3103.364555
878.230317	3132.918319
878.540822	3182.261133
878.851285	3224.775704
879.161707	3268.580810
879.472087	3372.542005
879.782425	3604.258642
880.092722	4048.346487
880.402977	4582.139144
880.713191	5219.714036
881.023363	6392.243571
881.333494	7684.762649
881.643583	8231.158191
881.953631	7922.639576
882.263637	7273.470031
882.573602	6683.957500
882.883526	6097.794816
883.193408	5525.744842
883.503248	5064.895160
883.813048	4758.458541
884.122806	4450.053352
884.432522	4133.668016
884.742197	3893.131881
885.051831	3699.410421
885.361424	3565.441757
885.670975	3494.779904
885.980485	3405.934608
886.289954	3330.284533
886.599382	3284.150414
886.908768	3245.777151
887.218113	3202.098073
887.527417	3144.240751
887.836680	3094.882813
888.145901	3092.289140
888.455082	3079.535020
888.764221	3028.067360
889.073319	3001.704646
889.382376	2998.790859
889.691392	3004.116838
890.000366	3000.900582
890.309300	2988.970692
890.618193	3000.885459
890.927044	3017.266688
891.235855	3019.278108
891.544625	3004.575583
891.853353	3016.031605
892.162041	3032.216230
892.470687	3076.565781
892.779293	3125.545632
893.087858	3171.558763
893.396381	3247.460896
893.704864	3368.372971
894.013306	3613.650312
894.321707	3914.105601
894.630068	4119.552785
894.938387	4112.641363
895.246665	4069.685691
895.554903	3944.985189
895.863100	3743.686875
896.171256	3575.186308
896.479371	3437.325873
896.787446	3314.525886
897.095480	3210.317675
897.403473	3144.409629
897.711425	3107.445369
898.019336	3098.872887
898.327207	3069.503124
898.635038	3032.959800
898.942827	3017.359949
899.250576	3011.371059
899.558284	2977.179433
899.865952	2954.887450
900.173579	2937.485387
900.481165	2927.962648
900.788711	2914.938827
901.096216	2892.540980
901.403681	2880.149824
901.711105	2886.002604
902.018489	2885.264075
902.325832	2883.033364
902.633135	2896.775549
902.940397	2932.199738
903.247619	3014.867099
903.554800	3211.802294
903.861941	3558.681570
904.169041	3991.046212
904.476101	4290.510915
904.783121	4239.494438
905.090100	3992.276253
905.397039	3711.002554
905.703938	3460.184986
906.010796	3276.601286
906.317614	3167.356962
906.624391	3071.577559
906.931129	2997.311281
907.237826	2935.413473
907.544483	2887.469579
907.851099	2860.590147
908.157675	2836.044769
908.464211	2818.786379
908.770707	2805.238278
909.077163	2790.495423
909.383578	2776.057559
909.689954	2764.878800
909.996289	2764.762854
910.302584	2765.541712
910.608839	2765.362751
910.915054	2760.515682
911.221229	2751.842376
911.527363	2754.254568
911.833458	2760.601381
912.139513	2767.066661
912.445527	2769.320057
912.751502	2779.699792
913.057436	2787.765639
913.363331	2801.096970
913.669186	2822.229487
913.975000	2856.040506
914.280775	2921.076432
914.586510	2989.928511
914.892205	3066.682599
915.197859	3201.936756
915.503475	3397.258783
915.809050	3616.611989
916.114585	3759.163217
916.420081	3780.018471
916.725536	3714.450703
917.030952	3595.421499
917.336328	3464.714462
917.641665	3334.972806
917.946961	3232.652507
918.252218	3161.552073
918.557435	3083.865372
918.862612	3023.195085
919.167750	2971.798001
919.472848	2936.898093
919.777906	2910.303486
920.082925	2882.751059
920.387904	2851.899198
920.692843	2835.026456
920.997743	2822.234528
921.302603	2808.477219
921.607423	2796.733851
921.912204	2788.168931
922.216946	2775.200563
922.521647	2765.718152
922.826310	2754.942686
923.130932	2751.718868
923.435516	2741.777713
923.740059	2733.762278
924.044564	2725.877913
924.349028	2722.288612
924.653454	2717.118909
924.957840	2706.870243
925.262186	2703.895962
925.566493	2699.474870
925.870761	2696.215764
926.174989	2691.514888
926.479178	2688.225535
926.783328	2680.850327
927.087438	2680.951150
927.391509	2678.720440
927.695541	2673.971673
927.999533	2672.156857
928.303486	2671.751045
928.607400	2671.733401
928.911275	2668.817093
929.215110	2666.530930
929.518906	2669.169974
929.822663	2668.675941
930.126381	2665.404232
930.430060	2667.211486
930.733699	2666.644356
931.037299	2671.811538
931.340861	2669.026301
931.644383	2671.516631
931.947866	2669.616116
932.251309	2668.817093
932.554714	2668.093687
932.858080	2665.550425
933.161407	2661.146978
933.464694	2662.964313
933.767943	2659.765701
934.071153	2659.508602
934.374323	2662.240908
934.677455	2661.711587
934.980548	2659.291833
935.283602	2660.453819
935.586617	2659.322080
935.889593	2661.278047
936.192530	2658.439878
936.495428	2659.274189
936.798287	2658.943993
937.101108	2664.075888
937.403890	2669.704336
937.706632	2671.937567
938.009336	2677.991993
938.312002	2685.586491
938.614628	2697.055116
938.917216	2702.454192
939.219765	2704.321940
939.522275	2702.650797
939.824747	2700.594006
940.127179	2699.374047
940.429573	2694.700897
940.731929	2694.350537
941.034246	2688.868282
941.336524	2687.015658
941.638763	2685.094979
941.940964	2681.997190
942.243126	2678.072652
942.545250	2680.517611
942.847335	2676.204904
943.149381	2671.441014
943.451389	2665.686537
943.753359	2665.525220
944.055290	2667.375323
944.357182	2665.527740
944.659036	2662.190496
944.960851	2661.152019
945.262628	2660.809220
945.564367	2662.442554
945.866067	2661.010866
946.167729	2660.957934
946.469352	2663.246618
946.770937	2659.175886
947.072484	2659.470794
947.373992	2655.747902
947.675462	2657.923160
947.976893	2653.575164
948.278286	2654.157418
948.579641	2652.665236
948.880958	2649.201963
949.182236	2651.102478
949.483476	2650.941162
949.784678	2651.518374
950.085841	2652.715648
950.386967	2654.235556
950.688054	2657.053561
950.989103	2653.156749
951.290114	2652.849238
951.591087	2657.648417
951.892021	2657.282933
952.192917	2662.077070
952.493776	2665.303409
952.794596	2662.598830
953.095378	2666.515806
953.396122	2661.613284
953.696828	2662.676968
953.997496	2663.153357
954.298126	2660.713438
954.598718	2656.035248
954.899272	2654.502737
955.199788	2654.238076
955.500266	2649.023002
955.800706	2643.838176
956.101108	2645.894967
956.401472	2641.693165
956.701798	2639.291055
957.002087	2640.715181
957.302337	2637.556898
957.602550	2637.675365
957.902724	2635.404325
958.202861	2632.450209
958.502960	2634.938019
958.803022	2632.029273
959.103045	2629.458284
959.403031	2629.251597
959.702979	2630.093470
960.002889	2627.323356
960.302762	2628.692029
960.602596	2629.400311
960.902393	2627.698922
961.202153	2629.417955
961.501875	2626.325207
961.801559	2627.875362
962.101205	2625.251442
962.400814	2627.093983
962.700385	2624.797738
962.999918	2622.998046
963.299414	2620.971502
963.598873	2623.424023
963.898293	2620.293467
964.197677	2625.148098
964.497022	2627.245218
964.796331	2623.638272
965.095601	2623.234980
965.394835	2623.615587
965.694030	2622.904784
965.993189	2624.833026
966.292309	2624.616256
966.591393	2624.679271
966.890439	2626.052985
967.189447	2621.432767
967.488419	2622.541821
967.787353	2624.293622
968.086249	2622.645165
968.385108	2623.169445
968.683930	2624.578447
968.982714	2623.529887
969.281462	2623.242542
969.580172	2624.364198
969.878844	2625.339662
970.177480	2625.858901
970.476078	2623.595422
970.774639	2625.642131
971.073162	2623.683643
971.371649	2623.081225
971.670098	2626.388222
971.968510	2625.322018
972.266885	2622.647686
972.565223	2625.609363
972.863524	2625.339662
973.161788	2624.056688
973.460014	2625.962244
973.758204	2623.358488
974.056356	2624.212964
974.354471	2622.040227
974.652550	2623.650875
974.950591	2625.213633
975.248595	2624.094497
975.546563	2622.546862
975.844493	2624.396966
976.142386	2623.585340
976.440243	2621.929321
976.738062	2623.451750
977.035845	2624.175155
977.333590	2623.794548
977.631299	2624.442336
977.928971	2620.416975
978.226606	2617.412447
978.524204	2618.213991
978.821765	2617.714917
979.119290	2622.224229
979.416777	2621.962089
979.714228	2619.693569
980.011642	2621.117695
980.309020	2619.630555
980.606360	2620.215329
980.903664	2621.843622
981.200931	2623.335803
981.498162	2622.440998
981.795356	2622.335134
982.092513	2625.276647
982.389633	2626.098355
982.686717	2629.990126
982.983764	2634.101187
983.280775	2640.826086
983.577749	2640.672331
983.874686	2639.931282
984.171587	2635.542957
984.468451	2633.370220
984.765279	2630.857205
985.062070	2628.807976
985.358824	2628.608850
985.655543	2627.683798
985.952224	2625.702625
986.248869	2625.697584
986.545478	2621.246245
986.842050	2619.940586
987.138586	2621.614249
987.435086	2620.840432
987.731549	2618.899588
988.027975	2619.280195
988.324366	2619.895216
988.620719	2621.818416
988.917037	2619.481841
989.213318	2618.342540
989.509563	2618.100565
989.805772	2618.972684
990.101944	2617.987139
990.398080	2617.031840
990.694180	2619.373456
990.990244	2618.271964
991.286271	2616.273147
991.582262	2615.632920
991.878217	2619.073507
992.174136	2621.664661
992.470019	2617.881275
992.765865	2612.399020
993.061676	2612.386417
993.357450	2616.187447
993.653188	2613.681993
993.948890	2620.399331
994.244556	2618.483692
994.540186	2619.217180
994.835780	2619.980915
995.131337	2617.714917
995.426859	2618.924793
995.722345	2619.640637
996.017795	2620.238014
996.313208	2625.679940
996.608586	2622.138529
996.903928	2622.826647
997.199234	2622.098200
997.494504	2625.122892
997.789738	2621.397479
998.084936	2620.195164
998.380099	2619.086110
998.675225	2619.653240
998.970316	2618.531583
999.265371	2621.586523
999.560390	2617.964454
999.855373	2616.328599
1000.150320	2616.099227
1000.445232	2617.510750
1000.740108	2617.324227
1001.034948	2617.609052
1001.329752	2615.653085
1001.624521	2615.721140
1001.919254	2618.592077
1002.213951	2619.370936
1002.508613	2614.838938
1002.803239	2618.919752
1003.097829	2618.675256
1003.392384	2615.635441
1003.686903	2617.571244
1003.981386	2615.058228
1004.275834	2612.988835
1004.570246	2620.147273
1004.864623	2616.169803
1005.158964	2616.091665
1005.453270	2615.527056
1005.747540	2614.896912
1006.041775	2617.362036
1006.335974	2615.169134
1006.630138	2616.310955
1006.924266	2614.826335
1007.218359	2616.099227
1007.512416	2613.250975
1007.806438	2613.639144
1008.100425	2612.038577
1008.394376	2612.991355
1008.688292	2614.486057
1008.982172	2614.120574
1009.276017	2615.027982
1009.569827	2617.346912
1009.863602	2617.563682
1010.157341	2613.618979
1010.451045	2616.744494
1010.744714	2613.046808
1011.038347	2612.265429
1011.331945	2618.105606
1011.625508	2613.598814
1011.919036	2615.292642
1012.212528	2614.244082
1012.505986	2613.843310
1012.799408	2614.286932
1013.092795	2615.937910
1013.386147	2616.343723
1013.679464	2614.380193
1013.972745	2614.307097
1014.265992	2614.208794
1014.559204	2614.753239
1014.852380	2613.508074
1015.145521	2613.374483
1015.438628	2616.928497
1015.731699	2615.728702
1016.024736	2616.023609
1016.317737	2615.466562
1016.610703	2613.548403
1016.903635	2615.867334
1017.196531	2614.564195
1017.489393	2613.064452
1017.782219	2614.125615
1018.075011	2612.232662
1018.367768	2613.497991
1018.660490	2612.593104
1018.953177	2612.593104
1019.245829	2612.593104
