Dividing Wavelength (nm)	Counts (n)	Blue Motor Position (mm): 0.300000	Red Motor Position (mm): 0.000000	
326.493990	2167.250012
326.888308	2167.250012
327.282561	2167.250012
327.676750	2127.009001
328.070874	2123.472632
328.464933	2123.422220
328.858929	2125.859618
329.252859	2130.189969
329.646726	2140.050466
330.040528	2153.792652
330.434265	2165.790598
330.827938	2182.834739
331.221547	2201.232430
331.615091	2219.410831
332.008571	2237.785836
332.401986	2254.277971
332.795338	2274.906373
333.188625	2293.306584
333.581847	2310.746456
333.975006	2329.786894
334.368100	2348.968484
334.761129	2364.424662
335.154095	2381.856972
335.546996	2398.575959
335.939833	2414.755542
336.332606	2430.529312
336.725315	2444.021961
337.117960	2457.237346
337.510540	2469.757051
337.903056	2480.048567
338.295508	2488.134578
338.687896	2495.471977
339.080220	2504.848523
339.472480	2512.289266
339.864676	2513.501664
340.256807	2519.591377
340.648875	2522.792510
341.040879	2526.996833
341.432818	2532.688295
341.824694	2531.836340
342.216506	2532.542102
342.608253	2535.793646
342.999937	2536.035621
343.391557	2535.720549
343.783113	2534.268697
344.174605	2533.721732
344.566033	2531.995137
344.957397	2531.551515
345.348697	2530.361803
345.739934	2528.738551
346.131106	2527.158149
346.522215	2523.468025
346.913260	2524.297295
347.304241	2521.554907
347.695159	2522.500123
348.086012	2515.850841
348.476802	2516.405368
348.867528	2512.075017
349.258191	2509.897239
349.648789	2508.145438
350.039324	2504.939264
350.429796	2508.589059
350.820203	2508.180726
351.210548	2505.776095
351.600828	2501.037411
351.991045	2505.541682
352.381198	2501.044973
352.771288	2505.110663
353.161314	2503.845333
353.551276	2500.886176
353.941175	2502.355672
354.331010	2500.533295
354.720782	2500.233347
355.110490	2500.974396
355.500135	2497.291833
355.889717	2501.549088
356.279235	2498.264776
356.668689	2501.065137
357.058080	2499.835096
357.447408	2500.487925
357.836672	2502.756444
358.225873	2503.091681
358.615010	2502.068327
359.004084	2504.558657
359.393095	2501.602020
359.782043	2503.714263
360.170927	2504.349449
360.559748	2505.148472
360.948505	2504.286434
361.337199	2506.401198
361.725830	2503.399191
362.114398	2504.876249
362.502903	2505.687875
362.891344	2507.323730
363.279722	2506.993534
363.668037	2508.715088
364.056289	2506.320540
364.444478	2511.517970
364.832603	2508.208452
365.220665	2509.418329
365.608665	2511.129801
365.996601	2510.368587
366.384474	2511.535614
366.772284	2512.410254
367.160031	2511.086951
367.547715	2512.322034
367.935336	2514.893022
368.322893	2509.559481
368.710388	2512.896725
369.097820	2512.059894
369.485189	2508.026971
369.872495	2513.806653
370.259738	2513.937723
370.646918	2516.140708
371.034035	2515.084586
371.421090	2515.881088
371.808081	2514.991325
372.195010	2516.118022
372.581875	2514.104082
372.968678	2514.131808
373.355418	2515.220697
373.742096	2518.961233
374.128710	2518.152128
374.515262	2515.029133
374.901751	2515.918897
375.288177	2517.088445
375.674540	2518.260513
376.060841	2517.673218
376.447079	2518.331089
376.833254	2520.163548
377.219367	2517.259844
377.605417	2520.284536
377.991404	2517.209432
378.377329	2520.685308
378.763191	2518.346213
379.148991	2518.865451
379.534727	2519.505678
379.920402	2521.990967
380.306013	2523.062212
380.691563	2519.871162
381.077049	2519.288908
381.462474	2518.930986
381.847835	2519.588857
382.233134	2522.384177
382.618371	2522.721934
383.003545	2523.480628
383.388657	2520.105575
383.773706	2522.709331
384.158693	2522.669002
384.543618	2525.391225
384.928480	2523.447860
385.313280	2523.967099
385.698017	2519.805627
386.082692	2521.103724
386.467305	2523.541122
386.851856	2523.876358
387.236344	2524.435926
387.620770	2519.409896
388.005133	2518.101717
388.389435	2523.883920
388.773674	2521.849814
389.157851	2525.555063
389.541965	2526.490197
389.926018	2525.071112
390.310008	2524.851822
390.693936	2526.505320
391.077802	2525.199661
391.461606	2522.048940
391.845348	2526.893489
392.229027	2525.550021
392.612645	2526.898530
392.996200	2528.468849
393.379694	2525.882738
393.763125	2528.226874
394.146494	2528.960362
394.529801	2530.276103
394.913047	2527.279137
395.296230	2528.846936
395.679351	2526.701925
396.062410	2529.325846
396.445408	2529.986237
396.828343	2529.653521
397.211217	2528.486493
397.594028	2529.935825
397.976778	2527.695032
398.359466	2530.331556
398.742092	2529.608150
399.124656	2532.141330
399.507158	2530.777698
399.889598	2530.976823
400.271977	2530.034128
400.654294	2530.349200
401.036549	2530.891124
401.418742	2531.871628
401.800874	2533.320960
402.182944	2529.850126
402.564952	2530.480270
402.946898	2531.574200
403.328783	2531.062523
403.710606	2531.155784
404.092367	2530.891124
404.474067	2531.218799
404.855705	2530.845753
405.237282	2531.937163
405.618797	2532.612678
406.000250	2533.446989
406.381642	2533.318439
406.762972	2528.320135
407.144240	2531.213758
407.525447	2530.190403
407.906593	2530.646628
408.287677	2533.389016
408.668700	2534.616537
409.049661	2537.716846
409.430560	2532.726104
409.811399	2535.879346
410.192176	2531.387678
410.572891	2535.244160
410.953545	2533.920857
411.334138	2533.802390
411.714669	2535.808769
412.095139	2538.261291
412.475547	2535.551671
412.855894	2535.029911
413.236180	2537.124511
413.616405	2533.091587
413.996568	2534.906403
414.376670	2535.438245
414.756711	2535.826413
415.136691	2532.980682
415.516609	2537.258101
415.896466	2537.527803
416.276262	2540.123997
416.655997	2539.372865
417.035670	2535.710467
417.415283	2538.359593
417.794834	2538.485622
418.174324	2536.373379
418.553753	2534.109901
418.933121	2538.339429
419.312428	2538.873791
419.691674	2538.039480
420.070859	2539.743390
420.449983	2535.644932
420.829045	2540.580222
421.208047	2540.028215
421.586988	2539.019984
421.965867	2539.975283
422.344686	2539.297248
422.723444	2539.604758
423.102141	2542.115253
423.480777	2542.495860
423.859352	2538.220962
424.237866	2539.277083
424.616319	2539.577032
424.994712	2540.991076
425.373044	2537.457227
425.751314	2537.278266
426.129524	2536.033101
426.507673	2539.720705
426.885762	2533.875487
427.263789	2540.272711
427.641756	2539.284645
428.019662	2543.007537
428.397508	2539.100643
428.775292	2542.417722
429.153016	2541.538041
429.530679	2544.076262
429.908282	2542.795809
430.285824	2543.005017
430.663305	2540.106353
431.040726	2540.746580
431.418086	2542.841179
431.795385	2542.306817
432.172624	2539.140972
432.549802	2544.915614
432.926920	2545.157589
433.303977	2542.947043
433.680974	2541.185160
434.057910	2541.376724
434.434786	2541.207845
434.811601	2544.391334
435.188355	2541.346477
435.565050	2541.593493
435.941683	2543.012578
436.318257	2542.679862
436.694770	2543.743546
437.071222	2542.644574
437.447614	2544.852599
437.823946	2542.853782
438.200218	2544.658515
438.576429	2544.053577
438.952580	2544.479554
439.328670	2543.451159
439.704700	2543.698175
440.080670	2544.343443
440.456580	2543.592311
440.832429	2542.412681
441.208218	2546.924514
441.583947	2543.988042
441.959616	2545.399565
442.335224	2549.563558
442.710773	2547.254709
443.086261	2545.903680
443.461689	2547.547096
443.837057	2547.196736
444.212365	2544.529966
444.587612	2542.800850
444.962800	2543.441076
445.337927	2542.652136
445.712995	2538.977135
446.088002	2546.168341
446.462949	2545.306303
446.837837	2545.976777
447.212664	2546.889226
447.587431	2546.440563
447.962139	2544.812270
448.336786	2547.365615
448.711374	2545.792775
449.085901	2545.838145
449.460369	2544.436704
449.834776	2545.603731
450.209124	2545.694472
450.583412	2546.879143
450.957640	2544.875285
451.331808	2546.634647
451.705917	2546.695141
452.079965	2548.961140
452.453954	2547.307641
452.827883	2544.928217
453.201752	2545.394523
453.575562	2546.712785
453.949311	2545.996941
454.323001	2546.483413
454.696632	2549.263609
455.070202	2547.731098
455.443713	2547.335368
455.817164	2547.219421
456.190556	2546.589277
456.563888	2550.654967
456.937160	2548.421736
457.310373	2550.292004
457.683526	2550.571788
458.056619	2547.055584
458.429653	2548.819987
458.802628	2548.789741
459.175542	2547.715975
459.548398	2550.397869
459.921194	2547.529452
460.293930	2550.977601
460.666607	2548.416695
461.039224	2548.628424
461.411782	2549.520708
461.784280	2549.412323
462.156719	2548.797302
462.529099	2550.173537
462.901419	2548.595656
463.273680	2548.293187
463.645882	2543.267157
464.018024	2546.536345
464.390106	2545.664225
464.762130	2551.355688
465.134094	2550.533980
465.505999	2550.715461
465.877845	2548.673794
466.249631	2552.114382
466.621358	2546.362425
466.993026	2550.942313
467.364634	2553.601522
467.736184	2553.198230
468.107674	2550.425595
468.479105	2550.939793
468.850477	2553.808209
469.221790	2549.760163
469.593043	2552.326110
469.964238	2551.688404
470.335373	2553.462890
470.706449	2550.972560
471.077467	2550.879299
471.448425	2554.246790
471.819324	2550.349978
472.190164	2551.799309
472.560945	2550.629762
472.931667	2553.982129
473.302330	2549.245965
473.672934	2550.319731
474.043479	2550.581871
474.413965	2552.842828
474.784393	2552.983981
475.154761	2553.167983
475.525070	2551.927859
475.895321	2552.406768
476.265513	2553.367108
476.635645	2551.701007
477.005719	2553.732592
477.375734	2550.274360
477.745691	2551.605225
478.115588	2550.236552
478.485427	2553.599001
478.855207	2552.439536
479.224928	2551.385935
479.594591	2553.452808
479.964194	2552.348795
480.333739	2551.285112
480.703226	2550.105482
481.072653	2553.110009
481.442022	2550.821326
481.811333	2550.624721
482.180584	2550.473486
482.549777	2551.078424
482.918912	2548.663712
483.287988	2552.401727
483.657005	2554.914743
484.025964	2553.669577
484.394864	2553.115051
484.763706	2553.752757
485.132489	2554.176213
485.501213	2553.699824
485.869879	2554.065308
486.238487	2554.087993
486.607036	2550.770914
486.975527	2552.187478
487.343959	2551.206974
487.712333	2554.347613
488.080648	2552.522715
488.448905	2551.937941
488.817104	2554.881975
489.185244	2554.009855
489.553326	2550.455842
489.921350	2557.155535
490.289315	2552.295863
490.657222	2553.052036
491.025070	2553.566234
491.392861	2555.902809
491.760593	2554.776111
492.128267	2550.586912
492.495883	2553.775442
492.863440	2550.095399
493.230939	2552.651264
493.598380	2555.769218
493.965763	2552.593291
494.333088	2555.912891
494.700354	2551.433826
495.067563	2553.588919
495.434713	2554.128323
495.801805	2552.555482
496.168839	2555.691080
496.535815	2556.762325
496.902733	2554.196378
497.269593	2554.811399
497.636395	2553.873744
498.003139	2551.091027
498.369825	2555.456667
498.736453	2553.596481
499.103023	2555.890206
499.469535	2553.538507
499.835989	2552.058929
500.202385	2552.038764
500.568723	2550.234031
500.935003	2554.859290
501.301226	2548.608259
501.667390	2554.375339
502.033497	2556.583364
502.399546	2557.548745
502.765537	2552.346275
503.131470	2555.433981
503.497345	2555.123950
503.863163	2554.067829
504.228923	2555.396173
504.594625	2555.000442
504.960269	2555.857438
505.325856	2554.370298
505.691385	2554.156049
506.056856	2557.523540
506.422270	2556.580844
506.787625	2553.757798
507.152924	2557.296688
507.518164	2557.284085
507.883347	2556.908519
508.248472	2559.076215
508.613540	2557.324414
508.978550	2554.697973
509.343503	2554.960113
509.708398	2556.437171
510.073236	2554.524053
510.438016	2556.316183
510.802738	2554.708055
511.167403	2554.463559
511.532010	2556.197716
511.896561	2553.180586
512.261053	2557.213509
512.625488	2556.376677
512.989866	2555.280226
513.354186	2554.818961
513.718449	2555.106306
514.082655	2554.093034
514.446803	2555.731409
514.810894	2558.899775
515.174927	2556.858107
515.538904	2555.721327
515.902822	2558.330124
516.266684	2557.528581
516.630488	2556.454815
516.994235	2556.593447
517.357925	2556.674105
517.721558	2555.033210
518.085133	2556.785011
518.448651	2553.697304
518.812112	2553.253682
519.175516	2554.720658
519.538863	2551.809392
519.902152	2554.271995
520.265385	2557.011862
520.628560	2557.289126
520.991678	2559.628221
521.354739	2555.239897
521.717743	2556.248128
522.080690	2557.218550
522.443580	2556.172510
522.806413	2556.769887
523.169189	2557.601678
523.531908	2559.242573
523.894569	2556.837943
524.257174	2555.234856
524.619722	2558.176369
524.982213	2557.289126
525.344647	2556.265772
525.707025	2557.614280
526.069345	2558.400700
526.431608	2556.613611
526.793815	2557.508416
527.155964	2556.250648
527.518057	2556.038920
527.880093	2555.890206
528.242072	2555.116389
528.603995	2555.975905
528.965860	2557.838612
529.327669	2559.204764
529.689421	2555.524722
530.051117	2558.985474
530.412755	2558.042778
530.774337	2558.705690
531.135862	2555.174362
531.497331	2555.476831
531.858743	2556.003632
532.220098	2556.134702
532.581396	2557.631924
532.942638	2559.189641
533.303824	2556.976574
533.664953	2557.798282
534.026025	2558.776266
534.387040	2558.370453
534.747999	2556.641338
535.108902	2556.043961
535.469748	2556.974054
535.830537	2554.816440
536.191270	2557.241235
536.551947	2553.896429
536.912567	2552.797458
537.273131	2553.354505
537.633638	2552.132026
537.994089	2557.107644
538.354483	2556.749722
538.714821	2558.511606
539.075103	2557.019424
539.435328	2556.152346
539.795497	2558.940104
540.155609	2558.539332
540.515665	2557.647048
540.875665	2556.106975
541.235609	2558.199054
541.595496	2559.096380
541.955328	2555.164280
542.315102	2556.069167
542.674821	2557.848694
543.034483	2557.775597
543.394090	2556.878272
543.753640	2559.071174
544.113134	2558.519167
544.472571	2555.358364
544.831953	2558.584702
545.191278	2557.775597
545.550548	2556.601008
545.909761	2558.007490
546.268918	2558.609908
546.628019	2559.340876
546.987064	2556.805175
547.346053	2557.168138
547.704986	2557.377346
548.063863	2557.354661
548.422684	2557.213509
548.781449	2558.526729
549.140158	2559.038406
549.498811	2556.215360
549.857408	2559.605536
550.215949	2557.485731
550.574434	2557.465566
550.932864	2557.755433
551.291237	2558.836760
551.649555	2559.189641
552.007817	2557.369784
552.366022	2557.238714
552.724173	2555.897768
553.082267	2558.030176
553.440305	2559.310629
553.798288	2558.579661
554.156215	2560.399518
554.514086	2553.730071
554.871902	2553.982129
555.229661	2556.953889
555.587365	2553.029351
555.945014	2559.161915
556.302606	2557.216029
556.660143	2559.635783
557.017625	2557.508416
557.375050	2556.041440
557.732421	2557.110165
558.089735	2556.333827
558.446994	2559.504713
558.804197	2557.594116
559.161345	2558.698128
559.518437	2557.442881
559.875474	2560.283571
560.232455	2557.997408
560.589381	2556.888354
560.946251	2558.320042
561.303065	2557.190823
561.659825	2557.140412
562.016528	2556.127140
562.373177	2562.005125
562.729770	2555.260062
563.086307	2559.688715
563.442789	2558.995557
563.799216	2558.821637
564.155587	2558.279713
564.511904	2558.025134
564.868164	2560.644014
565.224370	2558.849363
565.580520	2558.496482
565.936615	2558.632593
566.292654	2558.425906
566.648638	2557.553787
567.004567	2559.776935
567.360441	2560.028993
567.716260	2557.238714
568.072023	2557.730227
568.427732	2557.059753
568.783385	2558.010011
569.138982	2557.538663
569.494525	2558.546894
569.850013	2559.464384
570.205445	2560.084446
570.560823	2561.395146
570.916145	2557.732748
571.271412	2556.777449
571.626625	2560.308777
571.981782	2559.169476
572.336884	2555.504558
572.691931	2553.876265
573.046923	2553.606563
573.401860	2552.126984
573.756743	2555.073539
574.111570	2559.540001
574.466342	2559.746688
574.821059	2558.894733
575.175722	2559.237532
575.530330	2557.652089
575.884882	2560.749878
576.239380	2557.826009
576.593823	2559.928170
576.948211	2555.915412
577.302544	2559.585372
577.656823	2555.111347
578.011047	2562.549570
578.365216	2559.227450
578.719330	2559.930691
579.073389	2560.991853
579.427394	2559.608057
579.781344	2557.266441
580.135239	2559.718962
580.489080	2559.555125
580.842866	2560.792728
581.196597	2558.430947
581.550273	2559.088818
581.903895	2558.491441
582.257463	2558.393139
582.610975	2557.644527
582.964434	2558.803993
583.317837	2558.171328
583.671186	2561.606874
584.024481	2561.697615
584.377721	2560.565876
584.730906	2558.773746
585.084037	2556.737120
585.437113	2560.157542
585.790135	2560.124775
586.143103	2558.809034
586.496016	2561.314487
586.848874	2560.598643
587.201679	2562.436144
587.554428	2561.100238
587.907124	2560.747358
588.259765	2556.437171
588.612352	2557.747871
588.964884	2560.868345
589.317362	2561.392625
589.669786	2561.548901
590.022155	2556.890875
590.374470	2555.373487
590.726731	2557.962120
591.078937	2555.542366
591.431090	2561.163253
591.783188	2559.318190
592.135232	2561.672409
592.487222	2557.750392
592.839157	2560.840619
593.191038	2559.711400
593.542866	2559.252655
593.894639	2558.350289
594.246358	2560.903633
594.598022	2557.936914
594.949633	2560.460012
595.301190	2561.059909
595.652692	2559.411452
596.004141	2558.057902
596.355535	2559.156873
596.706876	2557.316852
597.058162	2559.040927
597.409395	2558.405742
597.760573	2561.440516
598.111698	2558.204095
598.462768	2558.372974
598.813785	2558.700649
599.164748	2558.947666
599.515657	2559.706359
599.866511	2558.204095
600.217312	2558.451112
600.568060	2560.860783
600.918753	2561.702656
601.269392	2558.385577
601.619978	2559.156873
601.970510	2558.307439
602.320988	2559.978582
602.671412	2560.722152
603.021783	2558.007490
603.372100	2559.824826
603.722363	2559.219888
604.072572	2560.812892
604.422728	2558.105793
604.772830	2560.462532
605.122878	2558.567058
605.472872	2557.175700
605.822813	2559.343396
606.172701	2560.429765
606.522534	2557.026986
606.872314	2561.392625
607.222041	2562.254662
607.571714	2555.953220
607.921333	2557.016904
608.270899	2556.535473
608.620411	2557.095042
608.969870	2562.564693
609.319276	2562.610064
609.668627	2569.438307
610.017926	2572.904100
610.367171	2576.324523
610.716362	2571.994172
611.065500	2569.266908
611.414585	2567.631053
611.763616	2569.014850
612.112594	2566.088460
612.461518	2564.951680
612.810389	2562.209292
613.159207	2560.359189
613.507971	2562.796587
613.856682	2565.939746
614.205340	2562.920095
614.553945	2560.117213
614.902496	2559.262738
615.250994	2563.068809
615.599439	2559.444219
615.947830	2561.034703
616.296169	2561.004456
616.644454	2561.881617
616.992686	2558.088149
617.340864	2561.306926
617.688990	2560.079405
618.037063	2558.791390
618.385082	2560.885989
618.733048	2557.299208
619.080961	2560.202913
619.428821	2562.428582
619.776628	2557.112686
620.124382	2562.259704
620.472083	2560.467573
620.819731	2560.656617
621.167326	2560.883469
621.514868	2560.598643
621.862357	2560.462532
622.209793	2559.386246
622.557176	2561.125444
622.904506	2555.534804
623.251783	2558.841801
623.599007	2558.499003
623.946179	2561.962276
624.293297	2559.940773
624.640363	2558.917419
624.987376	2555.865000
625.334336	2553.835936
625.681243	2556.825340
626.028097	2556.422047
626.374899	2558.836760
626.721647	2556.807696
627.068343	2559.429096
627.414987	2560.941442
627.761577	2557.987326
628.108115	2557.815927
628.454600	2558.073025
628.801032	2556.822819
629.147412	2562.393294
629.493739	2559.305587
629.840014	2559.837429
630.186236	2560.233160
630.532405	2559.900444
630.878521	2558.597305
631.224585	2558.960268
631.570597	2557.851215
631.916556	2559.429096
632.262462	2558.556976
632.608316	2559.376164
632.954117	2559.000598
633.299866	2560.144940
633.645562	2558.251986
633.991206	2559.595454
634.336797	2557.475649
634.682336	2559.860114
635.027823	2556.537994
635.373257	2557.906667
635.718639	2559.182079
636.063968	2561.470763
636.409245	2559.620660
636.754470	2558.768705
637.099642	2558.851884
637.444762	2562.478994
637.789829	2557.899106
638.134845	2557.916750
638.479808	2556.999260
638.824719	2559.345917
639.169577	2558.332645
639.514383	2557.952038
639.859137	2557.891544
640.203839	2559.229970
640.548489	2559.343396
640.893086	2556.565720
641.237632	2558.194013
641.582125	2559.192162
641.926566	2553.442726
642.270955	2556.666543
642.615292	2553.629248
642.959576	2555.192006
643.303809	2554.128323
643.647990	2557.450443
643.992118	2558.269630
644.336195	2560.497820
644.680219	2558.388097
645.024192	2556.898437
645.368112	2560.545711
645.711981	2556.084290
646.055797	2558.430947
646.399562	2559.156873
646.743274	2557.137891
647.086935	2559.459343
647.430544	2558.146122
647.774101	2558.975392
648.117606	2557.488252
648.461059	2560.260886
648.804460	2560.207954
649.147810	2559.061092
649.491108	2560.283571
649.834354	2558.360371
650.177548	2562.113510
650.520690	2557.740309
650.863781	2558.282233
651.206820	2558.990515
651.549807	2557.889023
651.892742	2557.581513
652.235626	2559.373643
652.578458	2561.601833
652.921238	2557.667213
653.263967	2559.393808
653.606644	2558.320042
653.949269	2557.994888
654.291843	2558.027655
654.634365	2560.775084
654.976836	2554.939948
655.319255	2558.292316
655.661622	2556.732078
656.003938	2560.465053
656.346203	2558.861966
656.688416	2561.697615
657.030577	2558.877089
657.372687	2556.043961
657.714746	2558.882131
658.056753	2558.050340
658.398708	2558.987995
658.740612	2556.311142
659.082465	2558.166287
659.424266	2555.184444
659.766016	2554.740823
660.107715	2558.196534
660.449362	2550.949875
660.790958	2558.703170
661.132503	2558.405742
661.473996	2560.840619
661.815438	2554.650082
662.156829	2560.079405
662.498168	2559.328273
662.839456	2557.314332
663.180693	2556.137222
663.521879	2558.320042
663.863013	2557.553787
664.204097	2557.079918
664.545129	2558.057902
664.886110	2560.548232
665.227040	2558.423386
665.567918	2558.914898
665.908746	2562.000084
666.249522	2559.832388
666.590248	2557.654610
666.930922	2558.987995
667.271545	2559.068653
667.612118	2558.410783
667.952639	2554.861810
668.293109	2558.330124
668.633528	2560.046637
668.973896	2555.935576
669.314213	2558.385577
669.654480	2556.646379
669.994695	2560.149981
670.334859	2557.672254
670.674973	2554.816440
671.015035	2556.081770
671.355047	2555.731409
671.695008	2556.943807
672.034918	2557.210988
672.374777	2557.427758
672.714585	2558.776266
673.054342	2556.999260
673.394049	2559.298026
673.733705	2558.423386
674.073310	2557.916750
674.412864	2558.514126
674.752368	2557.964641
675.091820	2557.105124
675.431223	2554.768549
675.770574	2559.144271
676.109875	2557.505896
676.449125	2554.473642
676.788324	2551.801830
677.127473	2551.990873
677.466571	2553.631769
677.805619	2556.452294
678.144616	2557.276523
678.483562	2554.755946
678.822458	2557.800803
679.161303	2560.396997
679.500098	2555.633107
679.838842	2558.226781
680.177535	2555.645710
680.516179	2560.215516
680.854771	2559.887841
681.193314	2557.437840
681.531805	2556.767367
681.870247	2557.319373
682.208638	2558.758622
682.546978	2555.824671
682.885268	2558.567058
683.223508	2556.011193
683.561697	2556.764846
683.899836	2555.771739
684.237925	2557.722665
684.575963	2556.873231
684.913951	2557.236194
685.251889	2557.737789
685.589776	2558.332645
685.927614	2561.581668
686.265401	2557.581513
686.603137	2557.815927
686.940824	2557.573951
687.278460	2559.340876
687.616046	2557.682336
687.953582	2556.142263
688.291068	2558.917419
688.628504	2557.969682
688.965889	2557.382387
689.303224	2559.361040
689.640510	2554.488765
689.977745	2555.829712
690.314930	2554.778631
690.652065	2557.568910
690.989150	2558.680484
691.326185	2557.258879
691.663170	2557.339537
692.000105	2556.633776
692.336990	2556.931204
692.673825	2558.274672
693.010610	2558.307439
693.347345	2555.744012
693.684030	2554.579506
694.020665	2552.827705
694.357251	2552.477345
694.693786	2558.587223
695.030272	2558.695608
695.366707	2557.921791
695.703093	2554.665205
696.039429	2561.022100
696.375716	2558.864487
696.711952	2554.387942
697.048139	2558.625032
697.384276	2556.328786
697.720363	2558.345248
698.056400	2557.609239
698.392388	2557.682336
698.728326	2558.108313
699.064214	2557.778118
699.400053	2558.703170
699.735842	2558.022614
700.071581	2558.045299
700.407270	2556.590926
700.742910	2556.724517
701.078501	2557.417675
701.414042	2556.858107
701.749533	2558.279713
702.084974	2556.656461
702.420366	2557.644527
702.755709	2556.026317
703.091002	2558.168807
703.426246	2557.324414
703.761440	2557.533622
704.096584	2557.311811
704.431679	2556.386759
704.766725	2558.098231
705.101721	2557.553787
705.436668	2558.861966
705.771565	2558.246945
706.106413	2555.255020
706.441212	2556.326266
706.775961	2558.362892
707.110661	2557.044630
707.445311	2558.919939
707.779913	2557.397511
708.114465	2557.682336
708.448967	2555.922973
708.783421	2554.634958
709.117825	2556.684188
709.452180	2555.759136
709.786485	2558.229301
710.120742	2555.128992
710.454949	2554.433312
710.789107	2555.857438
711.123216	2552.220246
711.457275	2556.258210
711.791286	2556.258210
712.125247	2558.481359
712.459159	2557.029507
712.793023	2557.286605
713.126837	2558.710731
713.460602	2556.853066
713.794318	2557.689898
714.127985	2558.657799
714.461602	2557.079918
714.795171	2558.015052
715.128691	2557.213509
715.462162	2555.791903
715.795584	2556.417006
716.128957	2558.088149
716.462281	2555.411296
716.795556	2557.268961
717.128782	2555.784342
717.461960	2556.749722
717.795088	2558.819116
718.128167	2557.647048
718.461198	2555.849877
718.794180	2555.249979
719.127113	2556.285936
719.459997	2557.805844
719.792833	2556.651420
720.125619	2553.586398
720.458357	2556.537994
720.791046	2558.738458
721.123686	2556.490103
721.456278	2556.321224
721.788821	2557.815927
722.121315	2558.095711
722.453761	2556.653941
722.786158	2555.277706
723.118506	2557.150494
723.450805	2557.586554
723.783056	2559.058571
724.115259	2557.669733
724.447412	2559.051009
724.779518	2555.570093
725.111574	2558.529250
725.443582	2557.490772
725.775542	2556.094373
726.107453	2558.577141
726.439315	2557.820968
726.771129	2559.237532
727.102895	2552.926007
727.434612	2553.669578
727.766281	2548.431819
728.097901	2558.002449
728.429473	2555.260062
728.760996	2555.673436
729.092471	2559.464384
729.423897	2556.976574
729.755276	2555.885165
730.086606	2555.907850
730.417887	2556.946327
730.749120	2556.328786
731.080305	2557.901626
731.411442	2554.725699
731.742530	2554.455997
732.073570	2556.525391
732.404562	2555.005483
732.735506	2555.222253
733.066401	2555.870041
733.397249	2555.307952
733.728048	2554.208981
734.058798	2557.702501
734.389501	2555.224773
734.720156	2554.944989
735.050762	2556.306101
735.381320	2556.732078
735.711831	2558.095711
736.042293	2556.023796
736.372707	2556.212840
736.703073	2558.352809
737.033391	2553.903991
737.363661	2557.626883
737.693883	2552.976419
738.024056	2556.081770
738.354182	2557.762994
738.684260	2553.467931
739.014290	2556.094373
739.344272	2556.948848
739.674207	2556.018755
740.004093	2556.379198
740.333931	2555.890206
740.663722	2556.505227
740.993464	2554.771070
741.323159	2557.047151
741.652806	2554.234187
741.982405	2556.389280
742.311956	2557.291647
742.641460	2556.686708
742.970915	2554.277037
743.300323	2556.384239
743.629683	2550.586912
743.958996	2553.162942
744.288260	2554.481203
744.617477	2554.934907
744.946647	2553.896429
745.275768	2554.665205
745.604842	2553.767880
745.933869	2557.047151
746.262847	2555.781821
746.591778	2555.948179
746.920662	2553.445246
747.249498	2556.432130
747.578286	2556.041440
747.907027	2553.624207
748.235720	2553.460370
748.564365	2555.126471
748.892963	2555.741492
749.221514	2555.960782
749.550017	2553.846018
749.878473	2556.719476
750.206881	2557.130330
750.535242	2556.706873
750.863555	2555.108827
751.191821	2556.585885
751.520039	2556.205278
751.848210	2552.923487
752.176334	2557.541184
752.504411	2554.299722
752.832440	2555.076059
753.160421	2552.144628
753.488356	2554.415668
753.816243	2554.319886
754.144082	2557.011863
754.471875	2552.033723
754.799620	2557.067315
755.127318	2554.491286
755.454969	2553.558672
755.782572	2554.062787
756.110129	2555.733930
756.437638	2556.359033
756.765100	2552.860472
757.092515	2555.330638
757.419882	2554.216543
757.747203	2552.802499
758.074477	2554.098076
758.401703	2557.286605
758.728882	2554.012376
759.056014	2556.709393
759.383099	2554.773590
759.710138	2554.317366
760.037129	2551.922818
760.364073	2551.436346
760.690970	2552.452139
761.017820	2556.984136
761.344623	2554.118240
761.671379	2552.565565
761.998088	2555.496996
762.324751	2555.688560
762.651366	2555.872562
762.977935	2555.537325
763.304456	2554.229146
763.630931	2556.366595
763.957359	2556.432130
764.283740	2554.156049
764.610074	2553.586398
764.936362	2555.953220
765.262602	2558.468756
765.588796	2553.929197
765.914943	2556.424568
766.241044	2556.918601
766.567097	2555.010524
766.893104	2556.417006
767.219064	2554.536656
767.544978	2553.213353
767.870845	2556.051523
768.196665	2553.868703
768.522438	2554.413148
768.848165	2553.992211
769.173846	2557.210988
769.499479	2555.116389
769.825066	2558.062943
770.150607	2555.829712
770.476101	2553.452808
770.801548	2554.186296
771.126949	2554.012376
771.452303	2557.127809
771.777611	2555.943138
772.102872	2557.145453
772.428087	2556.482541
772.753256	2555.093703
773.078378	2554.314845
773.403453	2555.030689
773.728482	2554.541697
774.053465	2553.699824
774.378401	2553.538508
774.703291	2554.743343
775.028135	2555.766698
775.352932	2556.205278
775.677683	2554.851728
776.002388	2553.241079
776.327046	2550.349978
776.651658	2552.958775
776.976224	2552.706717
777.300743	2556.046482
777.625216	2554.428271
777.949643	2556.132181
778.274024	2554.395504
778.598359	2552.810061
778.922647	2553.941800
779.246889	2557.047151
779.571086	2553.223435
779.895236	2555.766698
780.219339	2555.000442
780.543397	2554.156049
780.867409	2553.155380
781.191374	2555.738971
781.515294	2557.155535
781.839167	2552.744526
782.162995	2556.928683
782.486776	2555.880123
782.810511	2552.207643
783.134201	2557.856256
783.457844	2557.233673
783.781441	2557.208467
784.104993	2553.273847
784.428498	2554.866852
784.751958	2555.867521
785.075372	2551.592622
785.398739	2552.106820
785.722061	2552.835267
786.045337	2555.686039
786.368568	2552.361398
786.691752	2552.845349
787.014891	2554.292160
787.337983	2553.001625
787.661030	2554.226625
787.984031	2552.164793
788.306987	2553.019269
788.629897	2553.087324
788.952760	2557.894064
789.275579	2554.322407
789.598351	2554.539177
789.921078	2555.605381
790.243759	2553.455328
790.566395	2552.802499
790.888984	2553.077242
791.211529	2554.897098
791.534027	2552.348795
791.856480	2554.796275
792.178888	2553.679660
792.501249	2551.315359
792.823566	2552.313507
793.145836	2548.333516
793.468062	2553.341902
793.790241	2553.505740
794.112375	2557.178221
794.434464	2554.004814
794.756507	2554.534135
795.078505	2553.495658
795.400457	2554.597150
795.722364	2556.994218
796.044226	2555.292829
796.366042	2555.302911
796.687812	2552.351316
797.009538	2554.216543
797.331218	2555.391132
797.652852	2554.259393
797.974442	2554.314845
798.295986	2555.179403
798.617484	2553.687222
798.938938	2550.833928
799.260346	2554.128323
799.581709	2552.189999
799.903026	2554.687891
800.224299	2554.219063
800.545526	2555.834753
800.866708	2555.610422
801.187845	2554.279557
801.508936	2557.838612
801.829983	2552.739485
802.150984	2554.168652
802.471940	2554.234187
802.792851	2553.374670
803.113717	2553.548590
803.434538	2553.510781
803.755314	2553.283929
804.076045	2553.503219
804.396731	2554.168652
804.717372	2554.662685
805.037967	2555.065977
805.358518	2551.403579
805.679024	2552.560524
805.999485	2552.021120
806.319901	2553.977088
806.640272	2555.335679
806.960598	2552.651264
807.280879	2551.953065
807.601115	2555.421378
807.921306	2552.815102
808.241453	2550.047508
808.561554	2548.623383
808.881611	2549.606407
809.201623	2550.465924
809.521590	2554.861810
809.841513	2551.852242
810.161390	2553.949362
810.481223	2553.573796
810.801011	2554.771070
811.120755	2555.144115
811.440453	2556.825340
811.760107	2553.014227
812.079716	2557.210988
812.399281	2552.247972
812.718801	2554.750905
813.038276	2554.352654
813.357707	2556.064126
813.677093	2554.587068
813.996434	2555.365926
814.315731	2551.819474
814.634983	2554.967675
814.954191	2552.847869
815.273354	2553.551110
815.592473	2553.351985
815.911547	2552.126984
816.230577	2557.538663
816.549562	2553.609084
816.868502	2553.977088
817.187399	2553.465411
817.506250	2552.752087
817.825058	2552.426933
818.143821	2553.505740
818.462539	2553.097407
818.781213	2552.389124
819.099843	2552.895760
819.418429	2553.500699
819.736970	2555.000442
820.055466	2553.752757
820.373919	2553.147818
820.692327	2550.670091
821.010691	2554.125802
821.329011	2552.875596
821.647286	2551.597663
821.965517	2554.445915
822.283704	2554.536656
822.601847	2553.246121
822.919945	2553.112530
823.237999	2552.875596
823.556010	2555.113868
823.873976	2554.433312
824.191897	2553.304094
824.509775	2548.388969
824.827609	2553.518343
825.145398	2548.883002
825.463144	2552.736964
825.780845	2553.760318
826.098502	2552.094217
826.416116	2552.437015
826.733685	2551.645554
827.051210	2551.559855
827.368692	2552.971378
827.686129	2554.498847
828.003522	2554.151008
828.320872	2553.964485
828.638177	2552.885678
828.955439	2553.750236
829.272656	2550.705379
829.589830	2553.767880
829.906960	2553.110009
830.224046	2552.031202
830.541088	2552.253013
830.858086	2552.462221
831.175041	2553.687222
831.491952	2551.322920
831.808819	2554.904660
832.125642	2553.016748
832.442421	2553.548590
832.759157	2554.014897
833.075849	2552.462221
833.392497	2552.026161
833.709101	2549.011551
834.025662	2554.297201
834.342179	2551.070863
834.658653	2555.234856
834.975083	2553.621687
835.291469	2558.254507
835.607811	2554.060267
835.924110	2551.743857
836.240366	2551.390976
836.556578	2551.217056
836.872746	2553.152859
837.188871	2551.731254
837.504952	2552.656306
837.820990	2553.523384
838.136984	2552.469783
838.452935	2550.912066
838.768842	2551.068342
839.084706	2554.216543
839.400526	2554.082952
839.716303	2553.583878
840.032037	2552.547921
840.347727	2549.170348
840.663373	2550.952396
840.978977	2547.542055
841.294537	2549.828218
841.610054	2556.583364
841.925527	2553.460370
842.240957	2554.715617
842.556344	2554.634958
842.871687	2554.198899
843.186987	2552.615976
843.502244	2553.757798
843.817458	2551.093548
844.132629	2553.346944
844.447756	2552.787376
844.762840	2550.574309
845.077881	2552.857952
845.392879	2553.772921
845.707833	2553.359547
846.022745	2551.632951
846.337613	2553.394835
846.652438	2552.497509
846.967221	2550.339895
847.281960	2550.614638
847.596656	2552.063970
847.911309	2554.115720
848.225919	2553.251162
848.540485	2552.492468
848.855009	2553.455328
849.169490	2551.108671
849.483928	2552.797458
849.798323	2553.664536
850.112675	2553.417520
850.426984	2552.815102
850.741251	2550.395348
851.055474	2554.675288
851.369654	2553.573796
851.683792	2552.477345
851.997887	2552.588250
852.311938	2552.207643
852.625947	2555.015566
852.939914	2550.541542
853.253837	2555.880123
853.567718	2554.100596
853.881555	2552.908363
854.195350	2552.560524
854.509103	2554.831563
854.822812	2551.837118
855.136479	2554.332489
855.450103	2553.460370
855.763685	2549.992056
856.077224	2550.637323
856.390720	2548.028526
856.704173	2549.253527
857.017584	2551.953065
857.330953	2552.500030
857.644278	2552.404248
857.957561	2559.865156
858.270802	2554.208981
858.584000	2552.406768
858.897155	2552.870555
859.210268	2553.142777
859.523339	2549.359391
859.836367	2553.470452
860.149352	2552.142108
860.462295	2550.765873
860.775195	2554.950031
861.088054	2552.283260
861.400869	2551.660678
861.713642	2551.859803
862.026373	2552.963816
862.339062	2551.746377
862.651708	2551.186809
862.964312	2552.406768
863.276873	2553.634289
863.589392	2551.673281
863.901869	2551.751418
864.214303	2549.084648
864.526696	2551.201933
864.839045	2550.589432
865.151353	2551.650595
865.463619	2553.306614
865.775842	2550.518856
866.088023	2551.189330
866.400162	2552.510112
866.712258	2549.119936
867.024313	2556.235525
867.336325	2548.767055
867.648296	2553.089845
867.960224	2551.474155
868.272110	2549.949206
868.583954	2554.957592
868.895755	2552.043805
869.207515	2550.370142
869.519233	2551.940462
869.830909	2553.573796
870.142542	2550.770914
870.454134	2554.022458
870.765684	2552.305945
871.077191	2551.138918
871.388657	2550.438198
871.700081	2545.976777
872.011463	2547.778989
872.322803	2544.645912
872.634101	2553.031872
872.945357	2554.612273
873.256571	2548.893084
873.567744	2554.879454
873.878874	2552.593291
874.189963	2551.935421
874.501010	2549.162786
874.812015	2552.066491
875.122979	2551.869886
875.433900	2552.711758
875.744780	2551.171686
876.055618	2550.387786
876.366415	2551.501881
876.677169	2552.782334
876.987882	2553.215874
877.298554	2552.598332
877.609183	2552.953734
877.919771	2552.956254
878.230317	2551.499361
878.540822	2554.672767
878.851285	2549.450132
879.161707	2551.862324
879.472087	2551.839639
879.782425	2550.226469
880.092722	2552.429454
880.402977	2551.784186
880.713191	2550.846531
881.023363	2553.014228
881.333494	2552.784855
881.643583	2549.929041
881.953631	2553.243600
882.263637	2552.517674
882.573602	2550.120605
882.883526	2552.739485
883.193408	2554.347613
883.503248	2552.590771
883.813048	2551.675801
884.122806	2552.273178
884.432522	2551.282591
884.742197	2553.236038
885.051831	2550.985163
885.361424	2550.743188
885.670975	2552.888199
885.980485	2549.503064
886.289954	2551.519525
886.599382	2551.801830
886.908768	2549.051881
887.218113	2546.836293
887.527417	2548.005841
887.836680	2550.909546
888.145901	2550.992725
888.455082	2548.409133
888.764221	2552.610935
889.073319	2552.724361
889.382376	2552.341233
889.691392	2550.390307
890.000366	2550.602035
890.309300	2549.871068
890.618193	2552.991542
890.927044	2552.641182
891.235855	2553.210833
891.544625	2553.805689
891.853353	2548.799823
892.162041	2552.815102
892.470687	2548.469627
892.779293	2552.714279
893.087858	2551.690925
893.396381	2550.191181
893.704864	2551.128836
894.013306	2550.712941
894.321707	2551.716130
894.630068	2550.654968
894.938387	2549.334185
895.246665	2552.668908
895.554903	2552.041285
895.863100	2551.890050
896.171256	2551.423743
896.479371	2554.733261
896.787446	2550.990204
897.095480	2549.684545
897.403473	2550.239072
897.711425	2548.658671
898.019336	2550.700338
898.327207	2551.748898
898.635038	2551.333003
898.942827	2551.743857
899.250576	2550.423074
899.558284	2550.619679
899.865952	2548.913249
900.173579	2549.117416
900.481165	2549.334185
900.788711	2552.663867
901.096216	2549.445091
901.403681	2551.453990
901.711105	2551.375852
902.018489	2548.903167
902.325832	2548.071376
902.633135	2549.104813
902.940397	2550.082797
903.247619	2545.676828
903.554800	2552.358878
903.861941	2549.946685
904.169041	2550.589433
904.476101	2551.446429
904.783121	2552.036244
905.090100	2551.098589
905.397039	2552.222766
905.703938	2549.039278
906.010796	2550.531459
906.317614	2550.286963
906.624391	2552.817622
906.931129	2548.514998
907.237826	2551.529608
907.544483	2551.418702
907.851099	2553.208312
908.157675	2551.214536
908.464211	2551.809392
908.770707	2551.093548
909.077163	2550.949875
909.383578	2549.823177
909.689954	2550.990204
909.996289	2549.876109
910.302584	2551.390976
910.608839	2550.813764
910.915054	2551.229659
911.221229	2550.102961
911.527363	2548.951057
911.833458	2551.469114
912.139513	2550.914587
912.445527	2553.014228
912.751502	2549.944165
913.057436	2550.854093
913.363331	2553.674619
913.669186	2553.989691
913.975000	2552.137067
914.280775	2548.613300
914.586510	2550.198743
914.892205	2551.592622
915.197859	2551.164124
915.503475	2550.735626
915.809050	2550.286963
916.114585	2553.112530
916.420081	2550.569268
916.725536	2549.639175
917.030952	2549.866027
917.336328	2550.612118
917.641665	2547.816798
917.946961	2547.307641
918.252218	2549.142621
918.557435	2545.049204
918.862612	2552.104299
919.167750	2550.748229
919.472848	2550.927190
919.777906	2550.642365
920.082925	2551.035575
920.387904	2553.225956
920.692843	2549.394679
920.997743	2548.227652
921.302603	2551.055739
921.607423	2549.180430
921.912204	2550.092879
922.216946	2549.545914
922.521647	2551.025492
922.826310	2550.690256
923.130932	2553.167983
923.435516	2550.322251
923.740059	2550.980122
924.044564	2549.475337
924.349028	2554.229146
924.653454	2550.090358
924.957840	2547.821839
925.262186	2550.319731
925.566493	2553.614125
925.870761	2550.201264
926.174989	2552.472303
926.479178	2548.736808
926.783328	2549.089689
927.087438	2550.163455
927.391509	2547.741181
927.695541	2551.695966
927.999533	2548.169679
928.303486	2548.124308
928.607400	2549.876109
928.911275	2548.890564
929.215110	2550.909546
929.518906	2551.098589
929.822663	2550.705379
930.126381	2548.704041
930.430060	2550.836449
930.733699	2549.949206
931.037299	2550.743188
931.340861	2550.085317
931.644383	2548.308310
931.947866	2549.903836
932.251309	2551.479196
932.554714	2549.734957
932.858080	2547.804195
933.161407	2547.040460
933.464694	2546.979966
933.767943	2543.574667
934.071153	2549.288815
934.374323	2548.550286
934.677455	2548.799823
934.980548	2550.385266
935.283602	2548.651109
935.586617	2552.633620
935.889593	2548.633465
936.192530	2551.103630
936.495428	2549.992056
936.798287	2550.221428
937.101108	2547.224462
937.403890	2548.141952
937.706632	2551.017931
938.009336	2549.321582
938.312002	2548.850234
938.614628	2550.044988
938.917216	2549.424926
939.219765	2551.383414
939.522275	2550.034906
939.824747	2549.344268
940.127179	2548.623382
940.429573	2549.003990
940.731929	2550.723023
941.034246	2552.812581
941.336524	2551.355688
941.638763	2551.829556
941.940964	2548.933413
942.243126	2548.230173
942.545250	2547.453835
942.847335	2549.782848
943.149381	2551.701007
943.451389	2548.509957
943.753359	2551.421223
944.055290	2550.768393
944.357182	2548.479710
944.659036	2548.162117
944.960851	2547.947868
945.262628	2552.729402
945.564367	2550.070194
945.866067	2550.922149
946.167729	2549.457693
946.469352	2552.159752
946.770937	2549.833259
947.072484	2547.660522
947.373992	2551.264947
947.675462	2548.136911
947.976893	2548.436860
948.278286	2545.336550
948.579641	2546.304452
948.880958	2542.233720
949.182236	2550.944834
949.483476	2550.322251
949.784678	2549.107333
950.085841	2546.359904
950.386967	2550.596994
950.688054	2552.416851
950.989103	2550.082797
951.290114	2550.972560
951.591087	2549.994576
951.892021	2549.659340
952.192917	2549.485420
952.493776	2550.602035
952.794596	2547.471479
953.095378	2549.440049
953.396122	2548.525080
953.696828	2550.871737
953.997496	2548.910728
954.298126	2547.988197
954.598718	2550.213867
954.899272	2550.415513
955.199788	2551.325441
955.500266	2548.300749
955.800706	2549.409803
956.101108	2550.929710
956.401472	2547.887374
956.701798	2548.366284
957.002087	2549.263609
957.302337	2549.162786
957.602550	2548.981304
957.902724	2551.622869
958.202861	2550.130687
958.502960	2548.605738
958.803022	2551.015410
959.103045	2549.152704
959.403031	2549.019113
959.702979	2552.290822
960.002889	2546.463248
960.302762	2549.555996
960.602596	2550.884340
960.902393	2552.126984
961.202153	2549.737477
961.501875	2547.741181
961.801559	2549.336706
962.101205	2549.792930
962.400814	2553.725030
962.700385	2548.905687
962.999918	2546.382590
963.299414	2548.872920
963.598873	2545.316386
963.898293	2545.676828
964.197677	2547.567261
964.497022	2548.383928
964.796331	2550.254196
965.095601	2547.957950
965.394835	2549.853424
965.694030	2550.516336
965.993189	2551.827036
966.292309	2552.159752
966.591393	2548.739329
966.890439	2549.863506
967.189447	2550.586912
967.488419	2549.248486
967.787353	2549.931562
968.086249	2550.261758
968.385108	2549.419885
968.683930	2548.550286
968.982714	2547.320244
969.281462	2547.504246
969.580172	2552.449618
969.878844	2549.177909
970.177480	2549.024154
970.476078	2547.395862
970.774639	2548.116747
971.073162	2550.619679
971.371649	2548.474668
971.670098	2549.853424
971.968510	2550.377704
972.266885	2547.461397
972.565223	2553.079762
972.863524	2546.516180
973.161788	2548.981304
973.460014	2548.865358
973.758204	2549.573640
974.056356	2548.641027
974.354471	2548.663712
974.652550	2548.144473
974.950591	2550.622200
975.248595	2549.649257
975.546563	2549.666901
975.844493	2550.486089
976.142386	2549.994576
976.440243	2547.867209
976.738062	2549.293856
977.035845	2549.263609
977.333590	2548.431819
977.631299	2550.791079
977.928971	2545.520552
978.226606	2545.180274
978.524204	2545.853268
978.821765	2545.016437
979.119290	2549.150183
979.416777	2549.739998
979.714228	2548.300749
980.011642	2550.884340
980.309020	2552.686552
980.606360	2548.497354
980.903664	2550.465924
981.200931	2548.351160
981.498162	2548.323434
981.795356	2548.537683
982.092513	2548.726726
982.389633	2547.899977
982.686717	2549.697148
982.983764	2548.404092
983.280775	2548.487271
983.577749	2548.983825
983.874686	2547.668084
984.171587	2548.444422
984.468451	2547.978115
984.765279	2549.931562
985.062070	2550.105482
985.358824	2551.968188
985.655543	2545.371838
985.952224	2549.160265
986.248869	2550.095399
986.545478	2546.488454
986.842050	2548.557847
987.138586	2545.606252
987.435086	2548.207487
987.731549	2549.896274
988.027975	2551.920297
988.324366	2548.179761
988.620719	2548.603218
988.917037	2546.175902
989.213318	2549.351829
989.509563	2548.550286
989.805772	2548.315872
990.101944	2545.497867
990.398080	2548.928372
990.694180	2547.801674
990.990244	2548.300749
991.286271	2549.593805
991.582262	2546.879143
991.878217	2547.373176
992.174136	2551.915256
992.470019	2547.514329
992.765865	2548.215049
993.061676	2544.771941
993.357450	2545.029040
993.653188	2543.713299
993.948890	2548.202446
994.244556	2548.260419
994.540186	2549.339226
994.835780	2548.704041
995.131337	2547.025337
995.426859	2549.787889
995.722345	2550.327293
996.017795	2548.638506
996.313208	2549.268650
996.608586	2546.697662
996.903928	2548.177240
997.199234	2548.394010
997.494504	2550.828887
997.789738	2549.724875
998.084936	2546.932075
998.380099	2548.086500
998.675225	2548.880481
998.970316	2548.877961
999.265371	2544.436704
999.560390	2549.734957
999.855373	2546.579195
1000.150320	2549.160265
1000.445232	2546.480892
1000.740108	2547.380738
1001.034948	2548.615821
1001.329752	2551.360729
1001.624521	2549.185471
1001.919254	2550.097920
1002.213951	2548.847714
1002.508613	2547.042981
1002.803239	2548.751932
1003.097829	2550.844011
1003.392384	2547.050542
1003.686903	2547.358053
1003.981386	2549.122457
1004.275834	2548.036088
1004.570246	2548.968702
1004.864623	2547.562220
1005.158964	2549.026675
1005.453270	2548.600697
1005.747540	2547.804195
1006.041775	2547.458876
1006.335974	2546.624565
1006.630138	2548.086500
1006.924266	2551.159083
1007.218359	2547.466438
1007.512416	2546.921993
1007.806438	2542.833617
1008.100425	2547.027857
1008.394376	2543.196580
1008.688292	2551.935421
1008.982172	2548.923331
1009.276017	2548.958619
1009.569827	2547.380738
1009.863602	2547.993238
1010.157341	2543.874616
1010.451045	2548.426778
1010.744714	2548.497354
1011.038347	2548.139432
1011.331945	2548.048691
1011.625508	2550.574309
1011.919036	2545.616334
1012.212528	2548.625903
1012.505986	2546.508618
1012.799408	2550.183620
1013.092795	2549.765204
1013.386147	2549.407282
1013.679464	2549.820657
1013.972745	2552.951213
1014.265992	2548.779658
1014.559204	2550.879299
1014.852380	2548.772097
1015.145521	2548.366284
1015.438628	2547.350491
1015.731699	2547.582384
1016.024736	2544.529966
1016.317737	2547.529452
1016.610703	2545.538196
1016.903635	2550.518856
1017.196531	2546.997610
1017.489393	2547.133722
1017.782219	2547.688248
1018.075011	2547.385779
1018.367768	2546.813608
1018.660490	2549.954247
1018.953177	2549.954247
1019.245829	2549.954247
