Dividing Wavelength (nm)	Counts (n)	Blue Motor Position (mm): 15.800000	Red Motor Position (mm): 0.000000	
326.493990	2172.180260
326.888308	2172.180260
327.282561	2172.180260
327.676750	2134.154837
328.070874	2129.043107
328.464933	2129.456481
328.858929	2136.239354
329.252859	2139.518624
329.646726	2147.571868
330.040528	2160.431851
330.434265	2171.540034
330.827938	2190.678774
331.221547	2209.376414
331.615091	2224.399052
332.008571	2244.135170
332.401986	2260.549167
332.795338	2280.713782
333.188625	2300.240691
333.581847	2317.221818
333.975006	2336.562205
334.368100	2351.554596
334.761129	2371.797350
335.154095	2389.388456
335.546996	2412.537434
335.939833	2438.620364
336.332606	2452.657457
336.725315	2466.724797
337.117960	2479.680562
337.510540	2491.512151
337.903056	2502.433810
338.295508	2512.211128
338.687896	2520.239166
339.080220	2527.790814
339.472480	2532.862215
339.864676	2539.874460
340.256807	2545.044163
340.648875	2545.979297
341.040879	2552.255534
341.432818	2553.314176
341.824694	2557.112686
342.216506	2554.922304
342.608253	2558.398180
342.999937	2558.642676
343.391557	2560.906154
343.783113	2561.606874
344.174605	2556.374157
344.566033	2557.158056
344.957397	2555.287788
345.348697	2552.719320
345.739934	2554.171172
346.131106	2554.072870
346.522215	2548.552806
346.913260	2546.826211
347.304241	2545.850748
347.695159	2544.577857
348.086012	2542.634492
348.476802	2540.807073
348.867528	2534.029242
349.258191	2533.951104
349.648789	2532.050589
350.039324	2531.044879
350.429796	2530.591175
350.820203	2531.491021
351.210548	2526.124713
351.600828	2530.046731
351.991045	2528.315094
352.381198	2527.994981
352.771288	2526.661596
353.161314	2526.754857
353.551276	2525.081194
353.941175	2524.650175
354.331010	2523.957017
354.720782	2524.090607
355.110490	2525.282840
355.500135	2520.229083
355.889717	2526.500279
356.279235	2524.355268
356.668689	2525.630680
357.058080	2523.599095
357.447408	2524.360309
357.836672	2524.919877
358.225873	2520.894516
358.615010	2524.272089
359.004084	2524.577079
359.393095	2524.065402
359.782043	2529.197296
360.170927	2526.807789
360.559748	2527.770650
360.948505	2529.015815
361.337199	2533.701567
361.725830	2529.335928
362.114398	2529.429189
362.502903	2529.464477
362.891344	2530.387008
363.279722	2529.835002
363.668037	2532.380785
364.056289	2529.416586
364.444478	2532.791639
364.832603	2532.257277
365.220665	2535.173584
365.608665	2532.889941
365.996601	2534.465302
366.384474	2534.727442
366.772284	2534.477905
367.160031	2532.965559
367.547715	2536.940508
367.935336	2535.095446
368.322893	2533.265507
368.710388	2531.533871
369.097820	2535.987730
369.485189	2532.418593
369.872495	2539.473688
370.259738	2536.963194
370.646918	2540.862526
371.034035	2540.310520
371.421090	2537.835313
371.808081	2537.588297
372.195010	2542.841179
372.581875	2540.083668
372.968678	2539.665252
373.355418	2541.192722
373.742096	2541.608617
374.128710	2539.826569
374.515262	2540.716333
374.901751	2542.891591
375.288177	2541.512835
375.674540	2540.426466
376.060841	2544.103988
376.447079	2542.745397
376.833254	2542.483257
377.219367	2542.831097
377.605417	2542.122815
377.991404	2541.966539
378.377329	2544.164482
378.763191	2543.244471
379.148991	2543.897301
379.534727	2542.546272
379.920402	2546.604400
380.306013	2543.667928
380.691563	2544.527445
381.077049	2544.643392
381.462474	2545.283618
381.847835	2543.141128
382.233134	2549.727395
382.618371	2545.893598
383.003545	2545.618855
383.388657	2543.788916
383.773706	2542.200953
384.158693	2546.551468
384.543618	2547.292518
384.928480	2547.932744
385.313280	2548.121788
385.698017	2545.134904
386.082692	2548.572971
386.467305	2547.171530
386.851856	2547.736139
387.236344	2549.061963
387.620770	2546.770758
388.005133	2543.201622
388.389435	2546.480892
388.773674	2543.456200
389.157851	2549.578681
389.541965	2549.462735
389.926018	2550.337375
390.310008	2549.588763
390.693936	2548.653629
391.077802	2549.104813
391.461606	2552.621018
391.845348	2547.889895
392.229027	2552.288301
392.612645	2550.712941
392.996200	2552.789896
393.379694	2551.327962
393.763125	2551.955585
394.146494	2550.763352
394.529801	2554.519012
394.913047	2550.407951
395.296230	2552.366439
395.679351	2550.934752
396.062410	2551.728733
396.445408	2551.280071
396.828343	2554.070349
397.211217	2553.740154
397.594028	2554.629917
397.976778	2553.916594
398.359466	2555.865000
398.742092	2553.026830
399.124656	2554.430792
399.507158	2555.630586
399.889598	2559.114024
400.271977	2554.970195
400.654294	2554.975236
401.036549	2557.072356
401.418742	2552.915925
401.800874	2556.230484
402.182944	2557.364743
402.564952	2555.512119
402.946898	2556.162428
403.328783	2555.350802
403.710606	2557.362223
404.092367	2556.409445
404.474067	2556.076728
404.855705	2558.635114
405.237282	2557.715103
405.618797	2558.400700
406.000250	2559.764332
406.381642	2555.176882
406.762972	2554.219063
407.144240	2554.554300
407.525447	2554.766028
407.906593	2553.704866
408.287677	2561.886658
408.668700	2557.931873
409.049661	2560.296174
409.430560	2557.901626
409.811399	2563.358675
410.192176	2559.232491
410.572891	2559.328273
410.953545	2561.581668
411.334138	2560.379353
411.714669	2558.473797
412.095139	2562.383212
412.475547	2560.951524
412.855894	2557.891544
413.236180	2561.629559
413.616405	2559.706359
413.996568	2561.294323
414.376670	2561.097718
414.756711	2561.463201
415.136691	2562.446226
415.516609	2562.809189
415.896466	2561.095197
416.276262	2561.506051
416.655997	2563.716597
417.035670	2560.225598
417.415283	2562.063099
417.794834	2561.891699
418.174324	2562.708366
418.553753	2563.532595
418.933121	2564.838254
419.312428	2564.099725
419.691674	2563.046124
420.070859	2562.783984
420.449983	2564.137533
420.829045	2563.877914
421.208047	2564.291289
421.586988	2565.778429
421.965867	2564.273645
422.344686	2563.341031
422.723444	2567.956207
423.102141	2563.116700
423.480777	2565.173491
423.859352	2568.722463
424.237866	2563.174673
424.616319	2566.514438
424.994712	2561.133006
425.373044	2567.245405
425.751314	2562.138716
426.129524	2563.073850
426.507673	2561.770712
426.885762	2560.318859
427.263789	2565.798594
427.641756	2565.070147
428.019662	2564.049313
428.397508	2567.189952
428.775292	2567.048800
429.153016	2566.456464
429.530679	2566.214489
429.908282	2567.109294
430.285824	2566.282544
430.663305	2567.174829
431.040726	2566.506876
431.418086	2565.465877
431.795385	2567.336146
432.172624	2565.417987
432.549802	2569.801270
432.926920	2569.440827
433.303977	2572.115159
433.680974	2568.919068
434.057910	2568.462843
434.434786	2569.753379
434.811601	2568.543502
435.188355	2566.648028
435.565050	2567.789849
435.941683	2568.677092
436.318257	2567.913358
436.694770	2568.669531
437.071222	2566.171639
437.447614	2567.734397
437.823946	2568.692216
438.200218	2569.239181
438.576429	2571.797567
438.952580	2567.779767
439.328670	2569.574418
439.704700	2568.573749
440.080670	2568.926630
440.456580	2570.076013
440.832429	2569.556774
441.208218	2571.333781
441.583947	2571.111970
441.959616	2571.109449
442.335224	2570.817062
442.710773	2569.544171
443.086261	2570.577607
443.461689	2573.882084
443.837057	2573.708164
444.212365	2571.898390
444.587612	2569.455951
444.962800	2567.381516
445.337927	2570.801939
445.712995	2566.837071
446.088002	2574.393761
446.462949	2571.142217
446.837837	2570.141548
447.212664	2574.658422
447.587431	2570.486867
447.962139	2573.461147
448.336786	2572.906621
448.711374	2570.214644
449.085901	2574.532393
449.460369	2574.247568
449.834776	2575.926272
450.209124	2574.839903
450.583412	2572.619275
450.957640	2575.883422
451.331808	2576.909297
451.705917	2573.771178
452.079965	2574.038360
452.453954	2574.784450
452.827883	2574.476940
453.201752	2575.273442
453.575562	2577.660429
453.949311	2574.857547
454.323001	2574.174471
454.696632	2575.769996
455.070202	2574.182033
455.443713	2572.210941
455.817164	2576.069945
456.190556	2576.006930
456.563888	2578.749318
456.937160	2577.209245
457.310373	2578.829976
457.683526	2576.735377
458.056619	2575.424677
458.429653	2575.465006
458.802628	2576.871488
459.175542	2578.512384
459.548398	2579.596232
459.921194	2579.510532
460.293930	2579.397106
460.666607	2576.556416
461.039224	2577.693196
461.411782	2580.556572
461.784280	2581.834504
462.156719	2578.845100
462.529099	2581.922724
462.901419	2577.945254
463.273680	2576.659760
463.645882	2574.928123
464.018024	2578.719071
464.390106	2575.545665
464.762130	2578.872826
465.134094	2580.365008
465.505999	2580.586818
465.877845	2583.724937
466.249631	2586.938672
466.621358	2586.815164
466.993026	2584.065215
467.364634	2588.463621
467.736184	2584.274422
468.107674	2584.264340
468.479105	2586.225349
468.850477	2582.567992
469.221790	2585.615369
469.593043	2584.246696
469.964238	2583.939186
470.335373	2583.180492
470.706449	2587.629310
471.077467	2584.344999
471.448425	2584.692838
471.819324	2586.905905
472.190164	2587.798189
472.560945	2586.298446
472.931667	2584.339957
473.302330	2586.079156
473.672934	2584.891964
474.043479	2587.420102
474.413965	2586.616038
474.784393	2587.445308
475.154761	2587.697366
475.525070	2587.964547
475.895321	2587.982191
476.265513	2587.924218
476.635645	2586.394228
477.005719	2585.630493
477.375734	2587.412541
477.745691	2587.515884
478.115588	2589.101327
478.485427	2589.751636
478.855207	2590.754826
479.224928	2590.132243
479.594591	2591.919332
479.964194	2590.782552
480.333739	2592.932604
480.703226	2592.899837
481.072653	2596.537029
481.442022	2594.631473
481.811333	2592.302460
482.180584	2591.148036
482.549777	2591.175762
482.918912	2590.288519
483.287988	2593.724065
483.657005	2593.272882
484.025964	2595.657348
484.394864	2594.495362
484.763706	2597.033583
485.132489	2594.286154
485.501213	2595.148191
485.869879	2597.235229
486.238487	2597.663727
486.607036	2596.789087
486.975527	2597.809921
487.343959	2595.697677
487.712333	2599.415528
488.080648	2593.585434
488.448905	2596.756319
488.817104	2596.221957
489.185244	2594.775146
489.553326	2599.380240
489.921350	2596.776484
490.289315	2600.166660
490.657222	2602.593976
491.025070	2602.160436
491.392861	2604.396188
491.760593	2603.307299
492.128267	2603.413163
492.495883	2599.733121
492.863440	2600.731269
493.230939	2600.080960
493.598380	2597.391505
493.965763	2597.136927
494.333088	2600.615323
494.700354	2599.302102
495.067563	2599.546598
495.434713	2600.771598
495.801805	2599.637339
496.168839	2600.665734
496.535815	2598.291351
496.902733	2601.056424
497.269593	2603.645056
497.636395	2601.016094
498.003139	2601.169850
498.369825	2599.085332
498.736453	2603.314861
499.103023	2599.828903
499.469535	2602.571290
499.835989	2603.138420
500.202385	2599.544077
500.568723	2600.292689
500.935003	2602.157916
501.301226	2599.375199
501.667390	2605.109511
502.033497	2605.716970
502.399546	2603.322422
502.765537	2606.417691
503.131470	2608.136724
503.497345	2608.867692
503.863163	2608.497167
504.228923	2608.857609
504.594625	2611.816767
504.960269	2609.591097
505.325856	2610.919441
505.691385	2609.268463
506.056856	2612.318361
506.422270	2611.884822
506.787625	2615.017899
507.152924	2615.900101
507.518164	2615.085955
507.883347	2616.817591
508.248472	2613.891201
508.613540	2617.619135
508.978550	2620.737088
509.343503	2617.883795
509.708398	2620.832870
510.073236	2620.981584
510.438016	2621.495782
510.802738	2622.304887
511.167403	2623.275309
511.532010	2621.062243
511.896561	2627.361164
512.261053	2626.466360
512.625488	2625.407717
512.989866	2630.852163
513.354186	2631.295785
513.718449	2631.787297
514.082655	2634.854840
514.446803	2634.096146
514.810894	2636.989768
515.174927	2639.984214
515.538904	2637.118318
515.902822	2640.485808
516.266684	2643.170223
516.630488	2644.057466
516.994235	2645.519401
517.357925	2652.186327
517.721558	2650.994094
518.085133	2652.098106
518.448651	2652.319917
518.812112	2653.638179
519.175516	2656.042809
519.538863	2655.619352
519.902152	2661.875424
520.265385	2668.232319
520.628560	2667.708039
520.991678	2671.264573
521.354739	2672.073678
521.717743	2674.556447
522.080690	2681.011644
522.443580	2685.838549
522.806413	2690.947758
523.169189	2687.920546
523.531908	2695.573017
523.894569	2695.714169
524.257174	2698.403625
524.619722	2703.417052
524.982213	2709.405943
525.344647	2710.131869
525.707025	2714.978939
526.069345	2722.409600
526.431608	2720.849362
526.793815	2730.422514
527.155964	2735.433421
527.518057	2737.379306
527.880093	2742.422980
528.242072	2750.030082
528.603995	2757.264137
528.965860	2761.123141
529.327669	2768.833585
529.689421	2776.775923
530.051117	2777.738784
530.412755	2786.626338
530.774337	2795.478604
531.135862	2798.059675
531.497331	2808.759524
531.858743	2816.112047
532.220098	2829.839109
532.581396	2834.025787
532.942638	2845.302848
533.303824	2855.634693
533.664953	2867.738503
534.026025	2875.083464
534.387040	2888.949158
534.747999	2904.614544
535.108902	2916.113416
535.469748	2921.852769
535.830537	2937.170315
536.191270	2957.218984
536.551947	2969.413535
536.912567	2973.733804
537.273131	3000.464522
537.633638	3009.077334
537.994089	3031.603730
538.354483	3039.087322
538.714821	3066.549008
539.075103	3095.147474
539.435328	3107.586521
539.795497	3117.898201
540.155609	3151.991525
540.515665	3176.980524
540.875665	3181.817511
541.235609	3210.045452
541.595496	3240.052921
541.955328	3271.328239
542.315102	3301.423928
542.674821	3314.346925
543.034483	3329.848473
543.394090	3363.886344
543.753640	3384.176988
544.113134	3428.881941
544.472571	3454.160807
544.831953	3507.372706
545.191278	3519.564737
545.550548	3554.799882
545.909761	3578.495825
546.268918	3635.304588
546.628019	3667.315915
546.987064	3709.921227
547.346053	3736.800659
547.704986	3767.728138
548.063863	3825.877847
548.422684	3848.363914
548.781449	3880.919686
549.140158	3941.557205
549.498811	3983.542454
549.857408	3993.390348
550.215949	4065.758632
550.574434	4093.666460
550.932864	4158.510822
551.291237	4204.057647
551.649555	4263.243314
552.007817	4319.250533
552.366022	4359.486503
552.724173	4402.953852
553.082267	4460.057522
553.440305	4552.209814
553.798288	4552.547571
554.156215	4654.799815
554.514086	4719.046801
554.871902	4722.641143
555.229661	4803.148370
555.587365	4872.736458
555.945014	4909.609978
556.302606	5016.757182
556.660143	5055.543820
557.017625	5161.934851
557.375050	5182.422100
557.732421	5270.312097
558.089735	5337.818188
558.446994	5398.299432
558.804197	5486.113811
559.161345	5562.862858
559.518437	5564.907046
559.875474	5693.910172
560.232455	5760.092961
560.589381	5842.233522
560.946251	5892.849227
561.303065	6021.023084
561.659825	6115.567404
562.016528	6138.494571
562.373177	6177.707187
562.729770	6291.702798
563.086307	6385.697632
563.442789	6494.518500
563.799216	6550.992026
564.155587	6608.514112
564.511904	6723.094498
564.868164	6768.984121
565.224370	6881.283385
565.580520	6912.299084
565.936615	7054.058851
566.292654	7057.035652
566.648638	7242.146821
567.004567	7270.405009
567.360441	7352.086825
567.716260	7374.497274
568.072023	7563.878301
568.427732	7597.807787
568.783385	7632.952191
569.138982	7775.248840
569.494525	7900.403046
569.850013	7944.707227
570.205445	8047.607259
570.560823	8066.619971
570.916145	8140.813153
571.271412	8233.030980
571.626625	8319.615318
571.981782	8405.773678
572.336884	8435.624871
572.691931	8577.162827
573.046923	8559.705311
573.401860	8670.199842
573.756743	8776.782437
574.111570	8823.176176
574.466342	8888.713696
574.821059	9025.656640
575.175722	9004.072940
575.530330	9137.419021
575.884882	9226.312208
576.239380	9311.908479
576.593823	9351.748718
576.948211	9423.544831
577.302544	9452.244120
577.656823	9513.181588
578.011047	9654.520418
578.365216	9695.358805
578.719330	9755.424153
579.073389	9793.883116
579.427394	9977.799532
579.781344	9948.291138
580.135239	10032.243993
580.489080	10090.877654
580.842866	10067.879910
581.196597	10288.843765
581.550273	10302.490169
581.903895	10421.375700
582.257463	10608.962076
582.610975	10525.795640
582.964434	10730.741229
583.317837	10713.883611
583.671186	10843.201810
584.024481	10933.433422
584.377721	10898.102496
584.730906	11019.430466
585.084037	11134.053702
585.437113	11178.622543
585.790135	11342.273520
586.143103	11196.911849
586.496016	11256.810839
586.848874	11520.629543
587.201679	11547.882021
587.554428	11461.332971
587.907124	11718.978782
588.259765	11685.505521
588.612352	11841.173831
588.964884	11709.672812
589.317362	11873.283460
589.669786	11974.242648
590.022155	12091.590628
590.374470	12274.854214
590.726731	12269.079572
591.078937	12209.397352
591.431090	12337.392248
591.783188	12267.685693
592.135232	12323.332470
592.487222	12505.897857
592.839157	12583.967686
593.191038	12628.796146
593.542866	12619.200310
593.894639	12566.865571
594.246358	12765.875202
594.598022	12777.737037
594.949633	12729.135272
595.301190	12760.327412
595.652692	12952.009725
596.004141	13180.525229
596.355535	12845.560720
596.706876	12927.197166
597.058162	12950.099128
597.409395	13134.537303
597.760573	13297.757262
598.111698	13237.034043
598.462768	13260.664452
598.813785	13295.075368
599.164748	13261.312240
599.515657	13339.873581
599.866511	13291.445737
600.217312	13580.651692
600.568060	13348.330117
600.918753	13619.977733
601.269392	13646.340447
601.619978	13532.188559
601.970510	13779.338688
602.320988	13786.913022
602.671412	13993.849867
603.021783	13990.076563
603.372100	13871.737997
603.722363	14035.777143
604.072572	14057.638107
604.422728	14196.998285
604.772830	14121.799393
605.122878	14106.663328
605.472872	14185.121326
605.822813	14247.079628
606.172701	14271.020067
606.522534	14475.668228
606.872314	14557.526484
607.222041	14456.307677
607.571714	14696.899265
607.921333	14634.905675
608.270899	14746.012706
608.620411	14961.847187
608.969870	14799.358196
609.319276	14865.886303
609.668627	14954.371156
610.017926	15114.019457
610.367171	15250.899387
610.716362	15351.651888
611.065500	15237.983951
611.414585	15407.006278
611.763616	15438.810917
612.112594	15456.465038
612.461518	15468.130268
612.810389	15685.227558
613.159207	15583.305510
613.507971	15571.511731
613.856682	15883.228958
614.205340	15851.167220
614.553945	16038.786363
614.902496	15829.046637
615.250994	16117.914834
615.599439	16095.494302
615.947830	16119.533045
616.296169	16170.287382
616.644454	16211.569390
616.992686	16192.332347
617.340864	16421.961946
617.688990	16258.807522
618.037063	16456.589632
618.385082	16351.806729
618.733048	16619.713809
619.080961	16527.425405
619.428821	16620.979138
619.776628	16580.387768
620.124382	16532.953030
620.472083	16600.736385
620.819731	16681.283941
621.167326	16440.420131
621.514868	16519.488108
621.862357	16354.123139
622.209793	16415.816780
622.557176	16309.024977
622.904506	16184.876481
623.251783	16148.605379
623.599007	15994.058725
623.946179	15981.208824
624.293297	15970.821527
624.640363	15781.932013
624.987376	15823.148487
625.334336	15657.493651
625.681243	15548.355190
626.028097	15567.650207
626.374899	15565.989147
626.721647	15446.284428
627.068343	15311.965404
627.414987	15276.042142
627.761577	15294.293639
628.108115	15364.214443
628.454600	15107.639877
628.801032	15210.973449
629.147412	15170.102294
629.493739	15209.544282
629.840014	15051.914962
630.186236	15158.200130
630.532405	14956.039778
630.878521	15154.968750
631.224585	15064.127158
631.570597	14923.322690
631.916556	14966.588392
632.262462	14955.207988
632.608316	14907.004475
632.954117	14856.910529
633.299866	14872.391912
633.645562	14817.839066
633.991206	14589.373974
634.336797	14478.130832
634.682336	14472.691427
635.027823	14388.773859
635.373257	14304.803360
635.718639	14210.188464
636.063968	14172.843596
636.409245	13962.730824
636.754470	13999.085105
637.099642	13869.245147
637.444762	13658.406449
637.789829	13720.316859
638.134845	13585.576899
638.479808	13605.008027
638.824719	13583.449532
639.169577	13442.342595
639.514383	13489.172394
639.859137	13318.098317
640.203839	13398.197211
640.548489	13260.152774
640.893086	13249.503337
641.237632	13125.483391
641.582125	13286.684367
641.926566	13139.850679
642.270955	13143.084579
642.615292	13127.010860
642.959576	13142.966112
643.303809	13182.934900
643.647990	13128.734935
643.992118	13187.950848
644.336195	12957.721352
644.680219	13163.612158
645.024192	13107.403292
645.368112	13331.666583
645.711981	13397.030184
646.055797	13574.282194
646.399562	13539.843552
646.743274	13814.294049
647.086935	14086.168517
647.430544	14063.473243
647.774101	14073.868102
648.117606	14249.517025
648.461059	14206.763000
648.804460	14216.318507
649.147810	13955.809320
649.491108	13854.283002
649.834354	13882.881468
650.177548	13595.296244
650.520690	13412.998038
650.863781	13340.602028
651.206820	13387.580541
651.549807	13218.109551
651.892742	13033.389072
652.235626	12970.109988
652.578458	12978.863952
652.921238	12664.127073
653.263967	12857.586393
653.606644	12692.201259
653.949269	12667.217300
654.291843	12477.498516
654.634365	12634.359059
654.976836	12484.200730
655.319255	12516.655679
655.661622	12461.691978
656.003938	12381.603167
656.346203	12319.377685
656.688416	12382.313970
657.030577	12345.626973
657.372687	12281.324535
657.714746	12257.116914
658.056753	12431.361876
658.398708	12263.052873
658.740612	12267.547062
659.082465	12352.850946
659.424266	12313.567755
659.766016	12343.504647
660.107715	12250.848239
660.449362	12333.865961
660.790958	12293.020012
661.132503	12248.988054
661.473996	12303.934110
661.815438	12321.865494
662.156829	12334.221362
662.498168	12318.858446
662.839456	12314.961634
663.180693	12340.101868
663.521879	12426.923140
663.863013	12411.726582
664.204097	12391.887121
664.545129	12505.446673
664.886110	12470.939975
665.227040	12552.775546
665.567918	12567.480592
665.908746	12602.201539
666.249522	12574.059298
666.590248	12619.500258
666.930922	12736.392013
667.271545	12732.464954
667.612118	12804.450111
667.952639	12729.042011
668.293109	12718.944580
668.633528	12684.178262
668.973896	12651.942604
669.314213	12750.635793
669.654480	12496.654901
669.994695	12538.975388
670.334859	12569.444121
670.674973	12515.574351
671.015035	12557.148747
671.355047	12493.763799
671.695008	12468.822691
672.034918	12477.740492
672.374777	12510.419772
672.714585	12430.648553
673.054342	12468.484933
673.394049	12412.913774
673.733705	12506.800223
674.073310	12430.895570
674.412864	12446.679422
674.752368	12321.948673
675.091820	12325.217862
675.431223	12312.836788
675.770574	12200.761855
676.109875	12107.550921
676.449125	12079.159142
676.788324	12016.167404
677.127473	11853.101201
677.466571	11844.443019
677.805619	11748.562794
678.144616	11670.341730
678.483562	11633.652212
678.822458	11493.233392
679.161303	11476.292595
679.500098	11472.229425
679.838842	11432.182499
680.177535	11442.836977
680.516179	11504.759991
680.854771	11449.327463
681.193314	11669.242758
681.531805	11805.018676
681.870247	12206.559182
682.208638	12602.085593
682.546978	12933.906942
682.885268	13005.975277
683.223508	12693.925333
683.561697	12526.440558
683.899836	12433.658122
684.237925	12237.786610
684.575963	12154.380719
684.913951	12078.740727
685.251889	12016.003567
685.589776	12118.724638
685.927614	12055.259032
686.265401	12017.329390
686.603137	12051.856253
686.940824	12210.839122
687.278460	12311.004328
687.616046	12369.537166
687.953582	12548.757747
688.291068	12470.947537
688.628504	12689.005167
688.965889	12695.921630
689.303224	12674.045543
689.640510	12579.067684
689.977745	12279.199689
690.314930	12052.985472
690.652065	11958.347890
690.989150	11680.277844
691.326185	11451.540530
691.663170	11250.630384
692.000105	11008.702891
692.336990	10911.028014
692.673825	10657.531072
693.010610	10535.053719
693.347345	10336.684315
693.684030	10122.445359
694.020665	10070.801259
694.357251	9871.642914
694.693786	9835.223098
695.030272	9658.596191
695.366707	9543.171412
695.703093	9472.738931
696.039429	9464.726017
696.375716	9400.942818
696.711952	9271.155792
697.048139	9305.309609
697.384276	9260.443340
697.720363	9267.213609
698.056400	9208.118683
698.392388	9167.270214
698.728326	9128.274368
699.064214	9066.772291
699.400053	9117.181309
699.735842	8926.668543
700.071581	8885.948623
700.407270	8816.612593
700.742910	8734.923216
701.078501	8643.822004
701.414042	8520.470011
701.749533	8453.399979
702.084974	8315.960481
702.420366	8423.732789
702.755709	8310.170716
703.091002	8185.810492
703.426246	8211.734626
703.761440	8166.969179
704.096584	8115.362887
704.431679	8041.174747
704.766725	8037.366155
705.101721	7983.655182
705.436668	8021.320162
705.771565	7924.323321
706.106413	7999.681010
706.441212	8051.859472
706.775961	8001.526072
707.110661	8027.074640
707.445311	8181.023916
707.779913	8073.992658
708.114465	8202.486629
708.448967	8249.777693
708.783421	8372.408802
709.117825	8558.840753
709.452180	8597.259387
709.786485	8681.207201
710.120742	8955.705590
710.454949	8953.621072
710.789107	9054.731495
711.123216	9260.949976
711.457275	9422.448380
711.791286	9590.217980
712.125247	9581.035518
712.459159	9577.191639
712.793023	9836.372481
713.126837	9406.384743
713.460602	9554.468638
713.794318	9376.662100
714.127985	9410.420187
714.461602	9107.706460
714.795171	9054.562617
715.128691	8815.052356
715.462162	8555.891678
715.795584	8504.696240
716.128957	8373.200263
716.462281	8195.721400
716.795556	8245.291066
717.128782	8047.070376
717.461960	7766.325998
717.795088	7841.502205
718.128167	7749.266733
718.461198	7581.605518
718.794180	7521.910695
719.127113	7518.502875
719.459997	7379.384673
719.792833	7141.505226
720.125619	7200.214503
720.458357	7065.938330
720.791046	7061.842392
721.123686	7049.426030
721.456278	6900.066724
721.788821	6919.941473
722.121315	6807.493495
722.453761	6868.105809
722.786158	6822.899262
723.118506	6829.979562
723.450805	6796.866743
723.783056	6871.879112
724.115259	6767.292814
724.447412	6762.977586
724.779518	6811.239073
725.111574	6817.159908
725.443582	6895.146558
725.775542	6874.724844
726.107453	7051.810496
726.439315	6971.855275
726.771129	7022.307143
727.102895	7186.643717
727.434612	7303.311141
727.766281	7331.443300
728.097901	7416.729541
728.429473	7394.316571
728.760996	7366.665842
729.092471	7352.389294
729.423897	7307.427243
729.755276	7320.904768
730.086606	7255.793225
730.417887	7351.118923
730.749120	7521.525047
731.080305	7717.976292
731.411442	7851.571910
731.742530	7846.664346
732.073570	7945.297042
732.404562	8029.534723
732.735506	7882.514512
733.066401	8028.276955
733.397249	7962.562994
733.728048	7731.620174
734.058798	7401.162458
734.389501	7183.031731
734.720156	7006.246027
735.050762	6765.906497
735.381320	6666.338667
735.711831	6624.446679
736.042293	6516.649165
736.372707	6535.543410
736.703073	6398.973511
737.033391	6436.930879
737.363661	6443.998577
737.693883	6463.933820
738.024056	6548.325256
738.354182	6596.783347
738.684260	6637.200798
739.014290	6740.234421
739.344272	6846.149063
739.674207	6876.214505
740.004093	6941.469721
740.333931	6963.393699
740.663722	6971.290666
740.993464	7045.861934
741.323159	7044.750360
741.652806	6795.855992
741.982405	6786.570186
742.311956	6852.561411
742.641460	6709.679987
742.970915	6515.270410
743.300323	6509.689852
743.629683	6447.224915
743.958996	6318.761192
744.288260	6229.578139
744.617477	6178.763308
744.946647	6193.531368
745.275768	6025.418970
745.604842	5978.599254
745.933869	5958.757272
746.262847	5912.545015
746.591778	5906.503192
746.920662	5865.989959
747.249498	5855.700964
747.578286	5899.876595
747.907027	5978.193441
748.235720	6030.197984
748.564365	6004.314179
748.892963	6018.605851
749.221514	6183.176838
749.550017	6038.082348
749.878473	5900.345423
750.206881	5947.447443
750.535242	5891.760338
750.863555	5823.477909
751.191821	5845.454819
751.520039	5850.808524
751.848210	5758.832672
752.176334	5769.144353
752.504411	5829.113919
752.832440	5753.020222
753.160421	5679.200086
753.488356	5726.647426
753.816243	5764.072952
754.144082	5616.107525
754.471875	5583.410601
754.799620	5625.899966
755.127318	5637.534949
755.454969	5593.823104
755.782572	5554.358431
756.110129	5597.765286
756.437638	5597.036840
756.765100	5529.608886
757.092515	5520.925499
757.419882	5567.006686
757.747203	5552.208379
758.074477	5618.996106
758.401703	5611.797338
758.728882	5554.497063
759.056014	5599.630513
759.383099	5738.645372
759.710138	5754.993834
760.037129	5729.961984
760.364073	5739.666205
760.690970	5820.117980
761.017820	5809.876876
761.344623	5753.476446
761.671379	5852.474626
761.998088	5957.716274
762.324751	6186.642632
762.651366	6760.386433
762.977935	8008.046804
763.304456	9608.978634
763.630931	10542.703670
763.957359	10200.515188
764.283740	9283.892267
764.610074	8477.955440
764.936362	7502.381265
765.262602	6904.661736
765.588796	6364.759200
765.914943	6020.120717
766.241044	5866.610021
766.567097	5675.958624
766.893104	5421.418163
767.219064	5238.068877
767.544978	5176.960010
767.870845	5105.410914
768.196665	4995.065097
768.522438	4923.863840
768.848165	4895.598091
769.173846	4832.145087
769.499479	4789.454076
769.825066	4738.130088
770.150607	4674.871169
770.476101	4644.861181
770.801548	4647.051562
771.126949	4577.907096
771.452303	4524.281822
771.777611	4479.909586
772.102872	4497.785517
772.428087	4461.252275
772.753256	4423.199125
773.078378	4380.702198
773.403453	4310.138648
773.728482	4297.621463
774.053465	4250.862240
774.378401	4234.594437
774.703291	4244.399481
775.028135	4169.581196
775.352932	4124.924135
775.677683	4108.006022
776.002388	4130.081235
776.327046	4146.580932
776.651658	4068.838777
776.976224	4002.834950
777.300743	4008.841485
777.625216	4030.561296
777.949643	4030.689846
778.274024	3985.478257
778.598359	3932.498251
778.922647	3956.582364
779.246889	3950.280921
779.571086	3947.712453
779.895236	3933.690484
780.219339	3919.847476
780.543397	3906.742996
780.867409	3961.250472
781.191374	3974.758244
781.515294	3916.792536
781.839167	3908.177204
782.162995	3927.015996
782.486776	3912.081578
782.810511	3922.531890
783.134201	3922.892333
783.457844	3881.501939
783.781441	3823.490861
784.104993	3829.328517
784.428498	3851.794419
784.751958	3846.586907
785.075372	3826.031603
785.398739	3787.376035
785.722061	3797.730565
786.045337	3837.001153
786.368568	3875.891135
786.691752	3791.224956
787.014891	3829.905729
787.337983	3949.507104
787.661030	4106.806228
787.984031	4270.885703
788.306987	4439.338379
788.629897	4520.823590
788.952760	4476.257270
789.275579	4408.945263
789.598351	4346.969318
789.921078	4216.121128
790.243759	4023.133156
790.566395	3993.133250
790.888984	3991.144514
791.211529	3887.420253
791.534027	3827.143177
791.856480	3822.538083
792.178888	3757.086262
792.501249	3705.749672
792.823566	3716.935992
793.145836	3747.155189
793.468062	3700.829506
793.790241	3650.397802
794.112375	3680.417874
794.434464	3738.076071
794.756507	3767.672685
795.078505	3749.403543
795.400457	3776.391361
795.722364	3905.379364
796.044226	4013.741487
796.366042	4084.841920
796.687812	4075.162905
797.009538	4082.016354
797.331218	4034.004404
797.652852	4005.350486
797.974442	3988.213083
798.295986	3991.081500
798.617484	3910.488573
798.938938	3821.900377
799.260346	3863.711707
799.581709	3858.864638
799.903026	3791.224956
800.224299	3754.101899
800.545526	3747.951691
800.866708	3709.991803
801.187845	3647.695744
801.508936	3683.528266
801.829983	3688.206456
802.150984	3604.901389
802.471940	3593.190789
802.792851	3607.164867
803.113717	3605.468519
803.434538	3609.206534
803.755314	3556.869275
804.076045	3525.503216
804.396731	3545.597255
804.717372	3569.245308
805.037967	3558.956313
805.358518	3549.786454
805.679024	3573.701688
805.999485	3580.918100
806.319901	3587.043102
806.640272	3601.422993
806.960598	3617.935292
807.280879	3595.245059
807.601115	3601.312087
807.921306	3617.784058
808.241453	3660.172600
808.561554	3637.845329
808.881611	3570.803024
809.201623	3605.241667
809.521590	3617.148872
809.841513	3589.916559
810.161390	3619.571147
810.481223	3599.913167
810.801011	3543.971483
811.120755	3533.967313
811.440453	3571.914599
811.760107	3576.244950
812.079716	3537.513765
812.399281	3501.585462
812.718801	3521.397196
813.038276	3497.040861
813.357707	3495.185717
813.677093	3515.317565
813.996434	3465.526088
814.315731	3469.987509
814.634983	3471.136892
814.954191	3485.917555
815.273354	3516.383769
815.592473	3516.149355
815.911547	3513.651463
816.230577	3554.217628
816.549562	3604.619084
816.868502	3645.633912
817.187399	3673.425793
817.506250	3667.141995
817.825058	3634.797952
818.143821	3721.198288
818.462539	3826.523115
818.781213	3874.202348
819.099843	3924.419802
819.418429	4149.136797
819.736970	4387.427098
820.055466	4622.266729
820.373919	4974.875276
820.692327	5378.749837
821.010691	5780.073574
821.329011	7054.386526
821.647286	9642.421649
821.965517	14019.710986
822.283704	18009.635541
822.601847	20293.860487
822.919945	18574.960616
823.237999	16104.752382
823.556010	13667.296524
823.873976	11646.875159
824.191897	9594.722251
824.509775	8243.347701
824.827609	7123.924202
825.145398	6577.206026
825.463144	6459.260670
825.780845	6576.084369
826.098502	6743.412868
826.416116	7536.212448
826.733685	8813.837438
827.051210	9930.836143
827.368692	10048.862157
827.686129	8869.053196
828.003522	7366.209617
828.320872	6368.126691
828.638177	5683.139747
828.955439	5143.022963
829.272656	4649.607427
829.589830	4363.834498
829.906960	4189.897046
830.224046	4012.624871
830.541088	3887.039646
830.858086	3843.383254
831.175041	3769.553035
831.491952	3746.353645
831.808819	3757.416458
832.125642	3824.166376
832.442421	3963.443374
832.759157	4216.665573
833.075849	4739.224019
833.392497	5566.799999
833.709101	6326.597665
834.025662	6684.007911
834.342179	6371.290015
834.658653	5721.563422
834.975083	5090.572277
835.291469	4528.975136
835.607811	4121.879278
835.924110	3986.420953
836.240366	3795.036068
836.556578	3589.094851
836.872746	3479.686689
837.188871	3443.660083
837.504952	3382.026936
837.820990	3301.582724
838.136984	3253.290991
838.452935	3276.424846
838.768842	3273.241357
839.084706	3293.368164
839.400526	3440.670679
839.716303	3755.710027
840.032037	4248.187908
840.347727	4535.422772
840.663373	4287.362714
840.978977	3915.940581
841.294537	3617.010241
841.610054	3387.408368
841.925527	3278.713529
842.240957	3209.475802
842.556344	3162.920746
842.871687	3106.784977
843.186987	3057.421999
843.502244	3020.498068
843.817458	2988.922801
844.132629	2954.214456
844.447756	2962.764253
844.762840	2950.960392
845.077881	2920.511822
845.392879	2900.206055
845.707833	2897.952659
846.022745	2895.805127
846.337613	2896.919222
846.652438	2885.914383
846.967221	2882.330123
847.281960	2872.399050
847.596656	2866.705067
847.911309	2864.676002
848.225919	2857.487317
848.540485	2853.280474
848.855009	2856.625280
849.169490	2842.779751
849.483928	2837.978052
849.798323	2833.814058
850.112675	2830.998574
850.426984	2841.597600
850.741251	2841.148937
851.055474	2831.656445
851.369654	2822.841987
851.683792	2829.702997
851.997887	2837.153823
852.311938	2839.104749
852.625947	2828.732575
852.939914	2832.780622
853.253837	2838.099039
853.567718	2822.612615
853.881555	2819.512305
854.195350	2835.215499
854.509103	2834.456806
854.822812	2824.225784
855.136479	2821.095227
855.450103	2823.630928
855.763685	2815.378559
856.077224	2812.084165
856.390720	2824.339210
856.704173	2836.652228
857.017584	2829.715600
857.330953	2824.306442
857.644278	2833.002433
857.957561	2845.058352
858.270802	2845.587673
858.584000	2842.285717
858.897155	2834.290447
859.210268	2832.074860
859.523339	2828.876248
859.836367	2830.539829
860.149352	2824.621514
860.462295	2819.335865
860.775195	2828.299036
861.088054	2828.208295
861.400869	2811.998465
861.713642	2808.477219
862.026373	2821.957265
862.339062	2823.986329
862.651708	2831.333811
862.964312	2834.567711
863.276873	2827.706701
863.589392	2835.618792
863.901869	2847.881398
864.214303	2864.547453
864.526696	2882.234341
864.839045	2879.726367
865.151353	2878.879453
865.463619	2873.308978
865.775842	2874.768392
866.088023	2894.411248
866.400162	2903.291241
866.712258	2874.632281
867.024313	2863.493852
867.336325	2871.564739
867.648296	2891.613408
867.960224	2883.991183
868.272110	2871.786550
868.583954	2876.961294
868.895755	2892.800600
869.207515	2876.416850
869.519233	2880.404402
869.830909	2891.109293
870.142542	2901.073133
870.454134	2903.815521
870.765684	2906.996489
871.077191	2904.395253
871.388657	2908.337436
871.700081	2924.126330
872.011463	2933.215530
872.322803	2936.736776
872.634101	2933.989347
872.945357	2952.618931
873.256571	2975.326809
873.567744	2967.530664
873.878874	2960.946917
874.189963	2983.024651
874.501010	2984.133704
874.812015	2976.987869
875.122979	2976.977787
875.433900	2969.589976
875.744780	2978.840493
876.055618	2986.679487
876.366415	2979.211018
876.677169	2993.611074
876.987882	2990.730054
877.298554	2981.237562
877.609183	3000.285561
877.919771	3023.734488
878.230317	3047.190977
878.540822	3099.175356
878.851285	3137.236067
879.161707	3173.943229
879.472087	3268.046448
879.782425	3472.563539
880.092722	3887.349677
880.402977	4389.042787
880.713191	4985.348273
881.023363	6074.509726
881.333494	7320.428379
881.643583	7890.045996
881.953631	7614.332689
882.263637	7027.544902
882.573602	6478.515357
882.883526	5914.601806
883.193408	5346.700701
883.503248	4890.125918
883.813048	4599.596660
884.122806	4319.648784
884.432522	4018.616282
884.742197	3786.824028
885.051831	3596.848146
885.361424	3461.898978
885.670975	3393.195613
885.980485	3313.769713
886.289954	3238.303640
886.599382	3199.267465
886.908768	3160.594254
887.218113	3117.958695
887.527417	3061.417113
887.836680	3015.230062
888.145901	3009.437776
888.455082	3000.353617
888.764221	2953.397789
889.073319	2922.440064
889.382376	2921.532656
889.691392	2928.466763
890.000366	2924.164138
890.309300	2914.449835
890.618193	2924.443922
890.927044	2942.922272
891.235855	2944.437138
891.544625	2927.259407
891.853353	2939.728701
892.162041	2954.552214
892.470687	2992.600322
892.779293	3041.698640
893.087858	3086.577512
893.396381	3151.784837
893.704864	3264.061416
894.013306	3487.190447
894.321707	3774.997482
894.630068	3981.268894
894.938387	3980.605982
895.246665	3935.013787
895.554903	3826.409689
895.863100	3634.613950
896.171256	3473.564208
896.479371	3339.449351
896.787446	3228.047413
897.095480	3124.849952
897.403473	3062.430385
897.711425	3027.737165
898.019336	3015.398941
898.327207	2991.231649
898.635038	2958.796865
898.942827	2944.600976
899.250576	2934.584203
899.558284	2898.877711
899.865952	2882.907335
900.173579	2863.471167
900.481165	2859.914632
900.788711	2847.599094
901.096216	2822.592450
901.403681	2807.370686
901.711105	2816.051553
902.018489	2814.783703
902.325832	2814.461069
902.633135	2823.149497
902.940397	2853.451873
903.247619	2927.014911
903.554800	3100.775922
903.861941	3420.677463
904.169041	3827.201150
904.476101	4133.206750
904.783121	4108.684058
905.090100	3876.357441
905.397039	3611.470012
905.703938	3368.327601
906.010796	3190.702545
906.317614	3083.285639
906.624391	2992.655775
906.931129	2924.839653
907.237826	2866.359748
907.544483	2820.515495
907.851099	2792.118675
908.157675	2770.451796
908.464211	2752.661564
908.770707	2738.490880
909.077163	2727.332286
909.383578	2714.358877
909.689954	2703.316229
909.996289	2699.684078
910.302584	2702.058462
910.608839	2702.809593
910.915054	2695.809951
911.221229	2691.192254
911.527363	2691.986236
911.833458	2700.102494
912.139513	2702.449151
912.445527	2702.156764
912.751502	2714.321068
913.057436	2724.635269
913.363331	2731.680282
913.669186	2753.556369
913.975000	2785.166924
914.280775	2841.461489
914.586510	2908.067734
914.892205	2980.143631
915.197859	3099.104780
915.503475	3279.643622
915.809050	3483.500322
916.114585	3622.724388
916.420081	3651.869819
916.725536	3596.840584
917.030952	3483.583501
917.336328	3362.472301
917.641665	3236.861870
917.946961	3139.552477
918.252218	3075.416398
918.557435	3002.917044
918.862612	2945.672221
919.167750	2901.826786
919.472848	2860.343131
919.777906	2836.551405
920.082925	2812.300934
920.387904	2782.343878
920.692843	2767.943822
920.997743	2755.514857
921.302603	2744.237796
921.607423	2733.076681
921.912204	2723.402707
922.216946	2712.314689
922.521647	2703.805221
922.826310	2696.321628
923.130932	2689.241328
923.435516	2680.134483
923.740059	2673.964111
924.044564	2665.263080
924.349028	2660.463901
924.653454	2654.911070
924.957840	2648.019813
925.262186	2647.588794
925.566493	2642.529996
925.870761	2636.354583
926.174989	2632.586320
926.479178	2625.276647
926.783328	2623.350927
927.087438	2620.691718
927.391509	2622.748509
927.695541	2617.188116
927.999533	2612.754421
928.303486	2610.952209
928.607400	2612.356170
928.911275	2609.873402
929.215110	2613.377004
929.518906	2609.326437
929.822663	2607.234358
930.126381	2610.911879
930.430060	2611.771396
930.733699	2607.403236
931.037299	2612.824997
931.340861	2615.327930
931.644383	2611.547065
931.947866	2610.163268
932.251309	2611.005141
932.554714	2608.242588
932.858080	2607.647732
933.161407	2605.689244
933.464694	2603.743359
933.767943	2599.634818
934.071153	2602.407453
934.374323	2601.908379
934.677455	2602.422576
934.980548	2601.084150
935.283602	2601.217741
935.586617	2601.863008
935.889593	2603.539192
936.192530	2599.314705
936.495428	2602.639346
936.798287	2602.777978
937.101108	2606.316868
937.403890	2609.586056
937.706632	2614.995214
938.009336	2620.374125
938.312002	2630.070785
938.614628	2638.842392
938.917216	2646.532673
939.219765	2644.228865
939.522275	2643.792805
939.824747	2640.064872
940.127179	2637.882052
940.429573	2637.317443
940.731929	2635.908441
941.034246	2627.474590
941.336524	2628.997019
941.638763	2627.613222
941.940964	2626.012656
942.243126	2621.531070
942.545250	2618.788682
942.847335	2616.920935
943.149381	2612.956067
943.451389	2609.462548
943.753359	2608.943309
944.055290	2608.121601
944.357182	2606.717639
944.659036	2607.352825
944.960851	2603.773606
945.262628	2602.533482
945.564367	2599.808738
945.866067	2605.280911
946.167729	2601.684047
946.469352	2605.369131
946.770937	2604.154213
947.072484	2602.120107
947.373992	2602.508276
947.675462	2598.939139
947.976893	2595.233891
948.278286	2594.926381
948.579641	2597.000815
948.880958	2593.270362
949.182236	2593.197265
949.483476	2596.191710
949.784678	2594.596185
950.085841	2592.645258
950.386967	2593.499734
950.688054	2595.720362
950.989103	2596.836978
951.290114	2597.699015
951.591087	2600.824531
951.892021	2600.811928
952.192917	2603.960128
952.493776	2607.824173
952.794596	2607.806529
953.095378	2606.100098
953.396122	2605.386775
953.696828	2603.582042
953.997496	2604.060951
954.298126	2598.530806
954.598718	2599.193717
954.899272	2597.358737
955.199788	2593.771956
955.500266	2591.649631
955.800706	2589.318097
956.101108	2585.307859
956.401472	2586.056470
956.701798	2584.027406
957.002087	2582.371387
957.302337	2578.046077
957.602550	2583.165369
957.902724	2578.293093
958.202861	2576.163206
958.502960	2576.632033
958.803022	2575.893504
959.103045	2577.438618
959.403031	2574.116497
959.702979	2575.850654
960.002889	2574.620613
960.302762	2574.240006
960.602596	2572.029460
960.902393	2572.349573
961.202153	2570.854871
961.501875	2572.140365
961.801559	2572.062227
962.101205	2569.947463
962.400814	2571.830334
962.700385	2569.571897
962.999918	2569.271949
963.299414	2566.610219
963.598873	2568.898903
963.898293	2566.335477
964.197677	2569.768502
964.497022	2568.921588
964.796331	2568.329253
965.095601	2567.378995
965.394835	2569.108111
965.694030	2567.303378
965.993189	2570.595252
966.292309	2568.656928
966.591393	2569.213975
966.890439	2568.964438
967.189447	2566.365723
967.488419	2568.470405
967.787353	2569.110632
968.086249	2567.933522
968.385108	2569.909655
968.683930	2567.484860
968.982714	2571.454768
969.281462	2569.329922
969.580172	2564.056875
969.878844	2568.530899
970.177480	2569.055179
970.476078	2566.801783
970.774639	2569.428224
971.073162	2569.987792
971.371649	2569.196331
971.670098	2568.225909
971.968510	2566.577452
972.266885	2567.018553
972.565223	2570.418811
972.863524	2567.557956
973.161788	2567.389078
973.460014	2567.613409
973.758204	2569.216496
974.056356	2569.070302
974.354471	2567.021073
974.652550	2570.459140
974.950591	2570.043245
975.248595	2570.189439
975.546563	2567.537792
975.844493	2566.521999
976.142386	2567.676423
976.440243	2567.994016
976.738062	2568.576269
977.035845	2566.716084
977.333590	2565.286917
977.631299	2567.479818
977.928971	2563.199879
978.226606	2561.024621
978.524204	2565.622153
978.821765	2559.776935
979.119290	2566.506876
979.416777	2566.469067
979.714228	2566.630384
980.011642	2566.932853
980.309020	2565.236505
980.606360	2567.210117
980.903664	2566.559808
981.200931	2565.561659
981.498162	2567.217678
981.795356	2567.744479
982.092513	2570.784295
982.389633	2571.227916
982.686717	2573.380489
982.983764	2576.480799
983.280775	2581.446335
983.577749	2585.116295
983.874686	2583.934145
984.171587	2579.858372
984.468451	2577.937692
984.765279	2576.712692
985.062070	2573.819069
985.358824	2573.191446
985.655543	2570.446538
985.952224	2569.183728
986.248869	2570.880077
986.545478	2568.021743
986.842050	2563.449416
987.138586	2566.900086
987.435086	2567.419325
987.731549	2565.516289
988.027975	2564.074519
988.324366	2562.489076
988.620719	2566.642987
988.917037	2563.656103
989.213318	2563.900599
989.509563	2564.450085
989.805772	2564.797925
990.101944	2564.535785
990.398080	2561.987481
990.694180	2562.292471
990.990244	2561.531257
991.286271	2562.753737
991.582262	2562.010167
991.878217	2563.893037
992.174136	2562.509241
992.470019	2563.651062
992.765865	2560.339024
993.061676	2559.620660
993.357450	2560.545711
993.653188	2557.450443
993.948890	2564.200548
994.244556	2562.166442
994.540186	2562.980589
994.835780	2564.510579
995.131337	2565.768347
995.426859	2565.806155
995.722345	2563.945970
996.017795	2567.696588
996.313208	2569.735735
996.608586	2566.990827
996.903928	2565.929664
997.199234	2569.440827
997.494504	2569.677762
997.789738	2569.733214
998.084936	2566.169118
998.380099	2564.578634
998.675225	2565.087791
998.970316	2562.910012
999.265371	2567.298337
999.560390	2566.249777
999.855373	2564.182904
1000.150320	2564.762637
1000.445232	2564.760116
1000.740108	2562.607543
1001.034948	2564.374468
1001.329752	2564.271124
1001.624521	2560.344065
1001.919254	2564.235836
1002.213951	2566.658110
1002.508613	2562.859601
1002.803239	2563.000753
1003.097829	2562.655434
1003.392384	2560.253324
1003.686903	2559.587892
1003.981386	2562.776422
1004.275834	2563.257852
1004.570246	2561.753068
1004.864623	2561.075032
1005.158964	2559.890361
1005.453270	2560.838098
1005.747540	2561.937070
1006.041775	2562.325239
1006.335974	2561.498489
1006.630138	2563.895558
1006.924266	2560.404559
1007.218359	2559.618139
1007.512416	2557.710062
1007.806438	2557.836091
1008.100425	2559.373643
1008.394376	2554.743343
1008.688292	2560.959086
1008.982172	2561.818603
1009.276017	2559.787018
1009.569827	2560.981771
1009.863602	2562.630228
1010.157341	2560.447409
1010.451045	2562.887327
1010.744714	2561.899261
1011.038347	2562.204251
1011.331945	2561.412790
1011.625508	2560.528067
1011.919036	2562.849519
1012.212528	2562.983109
1012.505986	2561.576627
1012.799408	2562.882286
1013.092795	2560.308777
1013.386147	2562.116031
1013.679464	2560.916236
1013.972745	2561.848850
1014.265992	2559.603016
1014.559204	2561.700136
1014.852380	2560.298695
1015.145521	2560.722152
1015.438628	2559.010680
1015.731699	2561.765671
1016.024736	2561.201061
1016.317737	2560.386915
1016.610703	2561.763150
1016.903635	2563.134344
1017.196531	2560.139898
1017.489393	2559.940773
1017.782219	2561.599313
1018.075011	2559.913047
1018.367768	2557.271482
1018.660490	2562.325239
1018.953177	2562.325239
1019.245829	2562.325239
