Dividing Wavelength (nm)	Counts (n)	Blue Motor Position (mm): 26.100000	Red Motor Position (mm): 0.000000	
326.493990	2203.137986
326.888308	2203.137986
327.282561	2203.137986
327.676750	2161.553508
328.070874	2156.265338
328.464933	2155.748619
328.858929	2162.249187
329.252859	2167.610454
329.646726	2176.326609
330.040528	2187.676767
330.434265	2201.260156
330.827938	2220.058619
331.221547	2234.405743
331.615091	2250.683628
332.008571	2270.175250
332.401986	2290.297015
332.795338	2311.963895
333.188625	2327.193220
333.581847	2344.333143
333.975006	2365.332070
334.368100	2384.170862
334.761129	2403.377658
335.154095	2419.237128
335.546996	2445.010027
335.939833	2479.854482
336.332606	2493.193375
336.725315	2507.928668
337.117960	2521.280164
337.510540	2534.182997
337.903056	2542.427804
338.295508	2552.482386
338.687896	2564.928995
339.080220	2569.128276
339.472480	2575.878381
339.864676	2582.726788
340.256807	2585.864907
340.648875	2591.367326
341.040879	2593.466967
341.432818	2594.833119
341.824694	2598.596341
342.216506	2598.951742
342.608253	2600.421238
342.999937	2600.683378
343.391557	2602.115066
343.783113	2602.500714
344.174605	2599.836464
344.566033	2597.280599
344.957397	2596.554673
345.348697	2599.304623
345.739934	2596.171546
346.131106	2592.604929
346.522215	2592.078129
346.913260	2589.613004
347.304241	2589.071080
347.695159	2583.114957
348.086012	2586.842890
348.476802	2582.015986
348.867528	2576.795871
349.258191	2572.578946
349.648789	2572.367217
350.039324	2571.139696
350.429796	2572.405026
350.820203	2571.023750
351.210548	2571.449727
351.600828	2572.001733
351.991045	2568.687175
352.381198	2570.476784
352.771288	2567.978893
353.161314	2568.044428
353.551276	2565.228943
353.941175	2565.304561
354.331010	2567.565518
354.720782	2565.697771
355.110490	2565.975034
355.500135	2565.589386
355.889717	2567.560477
356.279235	2566.461505
356.668689	2566.151474
357.058080	2565.067626
357.447408	2563.948490
357.836672	2562.199210
358.225873	2565.251628
358.615010	2564.550908
359.004084	2568.919068
359.393095	2566.166598
359.782043	2567.764644
360.170927	2569.455951
360.559748	2569.992834
360.948505	2570.912844
361.337199	2570.665828
361.725830	2571.258163
362.114398	2570.726322
362.502903	2572.780592
362.891344	2572.732701
363.279722	2572.334450
363.668037	2574.602969
364.056289	2574.507187
364.444478	2573.067938
364.832603	2573.894687
365.220665	2576.430387
365.608665	2576.490881
365.996601	2579.833166
366.384474	2576.105233
366.772284	2578.729153
367.160031	2576.621951
367.547715	2579.961715
367.935336	2578.764441
368.322893	2573.264542
368.710388	2576.894173
369.097820	2575.742270
369.485189	2576.430387
369.872495	2577.662949
370.259738	2577.259657
370.646918	2581.090934
371.034035	2583.089751
371.421090	2581.900039
371.808081	2580.964905
372.195010	2581.824422
372.581875	2582.492375
372.968678	2582.948599
373.355418	2584.697879
373.742096	2579.944071
374.128710	2587.286512
374.515262	2583.777869
374.901751	2582.026068
375.288177	2583.641758
375.674540	2586.217787
376.060841	2587.629310
376.447079	2583.359453
376.833254	2586.288363
377.219367	2584.733167
377.605417	2584.813826
377.991404	2584.624783
378.377329	2585.106213
378.763191	2586.182499
379.148991	2589.870103
379.534727	2588.498909
379.920402	2586.411872
380.306013	2585.607808
380.691563	2591.505958
381.077049	2585.015472
381.462474	2587.026893
381.847835	2586.782397
382.233134	2586.689135
382.618371	2588.438416
383.003545	2589.794486
383.388657	2587.972109
383.773706	2589.005545
384.158693	2590.674167
384.543618	2590.288519
384.928480	2588.652665
385.313280	2589.902871
385.698017	2591.498396
386.082692	2591.059816
386.467305	2591.092583
386.851856	2594.041658
387.236344	2592.098293
387.620770	2588.206522
388.005133	2589.650813
388.389435	2589.673498
388.773674	2588.428333
389.157851	2590.752305
389.541965	2593.628283
389.926018	2595.586772
390.310008	2593.144333
390.693936	2594.238263
391.077802	2596.642893
391.461606	2595.148191
391.845348	2593.343458
392.229027	2592.799014
392.612645	2594.628953
392.996200	2597.230188
393.379694	2597.636001
393.763125	2597.172215
394.146494	2598.462750
394.529801	2597.603233
394.913047	2597.409149
395.296230	2596.378233
395.679351	2599.465940
396.062410	2600.945518
396.445408	2600.474170
396.828343	2597.681371
397.211217	2601.225302
397.594028	2600.184304
397.976778	2600.764037
398.359466	2601.154726
398.742092	2599.327308
399.124656	2601.300920
399.507158	2598.460229
399.889598	2604.570108
400.271977	2602.427617
400.654294	2600.915271
401.036549	2602.425097
401.418742	2601.694130
401.800874	2601.338728
402.182944	2605.134717
402.564952	2604.650766
402.946898	2605.326281
403.328783	2605.359048
403.710606	2601.404263
404.092367	2601.454675
404.474067	2602.714963
404.855705	2604.459202
405.237282	2606.710078
405.618797	2605.472474
406.000250	2606.541199
406.381642	2607.796446
406.762972	2601.442072
407.144240	2603.236723
407.525447	2603.450972
407.906593	2602.135231
408.287677	2609.301231
408.668700	2606.616816
409.049661	2609.190325
409.430560	2609.616303
409.811399	2609.515480
410.192176	2610.052363
410.572891	2609.041611
410.953545	2610.921962
411.334138	2610.374997
411.714669	2610.553957
412.095139	2612.330964
412.475547	2613.374483
412.855894	2609.838114
413.236180	2609.568412
413.616405	2609.641509
413.996568	2611.665532
414.376670	2611.852055
414.756711	2613.830707
415.136691	2611.789040
415.516609	2613.472786
415.896466	2613.273660
416.276262	2615.010337
416.655997	2615.854731
417.035670	2616.031171
417.415283	2617.198198
417.794834	2616.920935
418.174324	2613.576129
418.553753	2613.646705
418.933121	2616.575616
419.312428	2616.061418
419.691674	2616.258023
420.070859	2615.784155
420.449983	2616.663836
420.829045	2617.825822
421.208047	2618.617283
421.586988	2616.258023
421.965867	2618.367746
422.344686	2621.543673
422.723444	2618.188785
423.102141	2619.307921
423.480777	2619.622993
423.859352	2618.004783
424.237866	2618.403034
424.616319	2623.255145
424.994712	2624.054167
425.373044	2621.158025
425.751314	2618.581995
426.129524	2617.793054
426.507673	2619.660802
426.885762	2619.617952
427.263789	2625.616925
427.641756	2623.597943
428.019662	2625.624487
428.397508	2625.301853
428.775292	2624.134826
429.153016	2626.032820
429.530679	2625.322018
429.908282	2623.933180
430.285824	2628.278654
430.663305	2628.238325
431.040726	2629.465846
431.418086	2629.256638
431.795385	2628.946607
432.172624	2629.337297
432.549802	2630.854684
432.926920	2631.948614
433.303977	2633.226547
433.680974	2630.597585
434.057910	2631.305867
434.434786	2633.927267
434.811601	2634.098667
435.188355	2635.865591
435.565050	2634.799387
435.941683	2636.573873
436.318257	2637.418266
436.694770	2639.112094
437.071222	2637.125879
437.447614	2641.453710
437.823946	2643.555871
438.200218	2643.026550
438.576429	2643.770120
438.952580	2643.548309
439.328670	2646.573002
439.704700	2648.294556
440.080670	2648.841521
440.456580	2652.612304
440.832429	2651.914104
441.208218	2656.735968
441.583947	2657.577841
441.959616	2660.554642
442.335224	2664.726197
442.710773	2665.868018
443.086261	2671.945129
443.461689	2671.637619
443.837057	2679.620286
444.212365	2687.928107
444.587612	2687.101358
444.962800	2693.375074
445.337927	2703.134748
445.712995	2705.494008
446.088002	2731.178687
446.462949	2737.631364
446.837837	2749.543610
447.212664	2764.097421
447.587431	2786.873354
447.962139	2811.454021
448.336786	2889.690208
448.711374	2935.599996
449.085901	2905.403484
449.460369	2921.227666
449.834776	2932.172011
450.209124	2994.072339
450.583412	3050.936555
450.957640	3137.173053
451.331808	3137.536016
451.705917	3133.319091
452.079965	3144.122283
452.453954	3245.048704
452.827883	3277.382665
453.201752	3352.027030
453.575562	3375.433107
453.949311	3467.913074
454.323001	3528.822816
454.696632	3620.062659
455.070202	3721.939337
455.443713	3827.823733
455.817164	3966.677274
456.190556	4054.579874
456.563888	4198.456925
456.937160	4318.537210
457.310373	4312.064368
457.683526	4403.503337
458.056619	4432.318573
458.429653	4545.648752
458.802628	4561.427564
459.175542	4730.399479
459.548398	5011.257283
459.921194	5217.639601
460.293930	5354.822000
460.666607	5694.784813
461.039224	6089.897848
461.411782	6430.276556
461.784280	6550.797942
462.156719	6716.878755
462.529099	6740.287353
462.901419	6590.252532
463.273680	6666.378996
463.645882	6753.593478
464.018024	6799.558719
464.390106	7025.372165
464.762130	7441.653005
465.134094	7853.182558
465.505999	8739.054441
465.877845	10190.740391
466.249631	11558.128166
466.621358	11690.559277
466.993026	11344.032883
467.364634	11326.119142
467.736184	10963.307300
468.107674	10783.506987
468.479105	11029.565706
468.850477	11010.583241
469.221790	10989.410395
469.593043	10842.478404
469.964238	10789.521083
470.335373	10785.404981
470.706449	11180.588593
471.077467	11092.249933
471.448425	12245.776839
471.819324	14713.552716
472.190164	16202.906167
472.560945	14472.056241
472.931667	13212.024879
473.302330	12991.005571
473.672934	12816.899240
474.043479	13266.345832
474.413965	13330.933095
474.784393	13266.900359
475.154761	13866.830434
475.525070	14060.488880
475.895321	13961.142861
476.265513	14531.856929
476.635645	15092.224029
477.005719	15127.509585
477.375734	15434.856132
477.745691	15974.403267
478.115588	16486.370248
478.485427	17057.096919
478.855207	18031.723357
479.224928	19502.169961
479.594591	21433.458684
479.964194	21699.714786
480.333739	22179.589783
480.703226	21997.422647
481.072653	21929.472935
481.442022	22529.314790
481.811333	23429.609414
482.180584	23571.107041
482.549777	22935.876286
482.918912	22793.554430
483.287988	23029.051932
483.657005	22922.227362
484.025964	22786.630405
484.394864	22902.705493
484.763706	22780.790229
485.132489	22393.158265
485.501213	22633.800265
485.869879	22692.091127
486.238487	22573.119896
486.607036	22854.144058
486.975527	22631.408237
487.343959	23042.337893
487.712333	23103.597995
488.080648	22860.808464
488.448905	23383.394636
488.817104	23213.419531
489.185244	23900.617021
489.553326	23966.351146
489.921350	24900.734053
490.289315	27089.761849
490.657222	28913.893286
491.025070	29459.920824
491.392861	29334.207050
491.760593	28598.191026
492.128267	27813.444689
492.495883	26857.306683
492.863440	26059.198768
493.230939	25234.095474
493.598380	25125.539267
493.965763	24752.241825
494.333088	24375.967581
494.700354	24306.871006
495.067563	24234.422064
495.434713	24011.804710
495.801805	24162.530169
496.168839	24020.404918
496.535815	23873.737588
496.902733	24077.972375
497.269593	23766.066104
497.636395	23973.960768
498.003139	23975.223577
498.369825	23743.501899
498.736453	23932.371249
499.103023	23829.531710
499.469535	23859.607234
499.835989	24070.319903
500.202385	24107.553865
500.568723	23616.268217
500.935003	23907.596498
501.301226	23475.390652
501.667390	24315.461132
502.033497	24574.730195
502.399546	24296.433297
502.765537	23902.217587
503.131470	24282.227326
503.497345	24419.530712
503.863163	23626.973108
504.228923	24266.456076
504.594625	24439.770945
504.960269	23956.825886
505.325856	24465.553926
505.691385	23871.491754
506.056856	24485.509334
506.422270	24453.659324
506.787625	24059.284817
507.152924	24450.329642
507.518164	24480.934487
507.883347	24292.707884
508.248472	23971.662002
508.613540	24753.489511
508.978550	24541.219125
509.343503	24528.301168
509.708398	24808.899353
510.073236	24966.059845
510.438016	25172.200187
510.802738	24856.003895
511.167403	25102.470947
511.532010	24789.478308
511.896561	25578.615490
512.261053	25544.053339
512.625488	25390.865277
512.989866	25290.022035
513.354186	25138.951257
513.718449	25223.060388
514.082655	25611.897187
514.446803	25359.854619
514.810894	25806.417670
515.174927	25286.556242
515.538904	25322.938249
515.902822	25824.351575
516.266684	25569.654839
516.630488	25468.816638
516.994235	25481.018751
517.357925	25749.261068
517.721558	25956.873427
518.085133	26025.927153
518.448651	25954.367974
518.812112	25672.837176
519.175516	25869.227927
519.538863	26019.323241
519.902152	25802.014222
520.265385	26114.525432
520.628560	25895.764561
520.991678	25912.264257
521.354739	25985.534908
521.717743	26026.000250
522.080690	25841.254564
522.443580	26159.852967
522.806413	26176.856778
523.169189	26251.939724
523.531908	26313.290566
523.894569	25909.592446
524.257174	25979.699772
524.619722	26185.212491
524.982213	25864.718615
525.344647	25946.012262
525.707025	26056.824385
526.069345	26059.004684
526.431608	26000.539902
526.793815	26201.334101
527.155964	25646.497147
527.518057	25809.845655
527.880093	25747.680666
528.242072	25975.623999
528.603995	25684.774628
528.965860	25473.686393
529.327669	25535.049838
529.689421	25527.402408
530.051117	25343.024727
530.412755	25523.825709
530.774337	25341.134294
531.135862	25195.840678
531.497331	25409.678863
531.858743	24945.920435
532.220098	25445.055160
532.581396	25123.142199
532.942638	25063.712036
533.303824	25156.076057
533.664953	25160.781974
534.026025	24842.407903
534.387040	25067.770165
534.747999	25136.770958
535.108902	25298.491173
535.469748	24786.866990
535.830537	24982.380580
536.191270	25088.330511
536.551947	24996.692416
536.912567	24649.036803
537.273131	24953.996364
537.633638	24684.970147
537.994089	24889.245263
538.354483	24438.558547
538.714821	24937.103457
539.075103	24969.145031
539.435328	24770.334526
539.795497	24316.673530
540.155609	24724.223092
540.515665	25016.027762
540.875665	24262.191260
541.235609	24541.516553
541.595496	24494.666590
541.955328	24858.713515
542.315102	24779.232163
542.674821	24352.241391
543.034483	24217.798859
543.394090	24378.208374
543.753640	24174.066849
544.113134	24814.384128
544.472571	24407.696604
544.831953	24690.076836
545.191278	24295.273832
545.550548	24245.502520
545.909761	24453.737462
546.268918	24672.097561
546.628019	24640.857531
546.987064	24333.420243
547.346053	24104.042702
547.704986	24230.643719
548.063863	24381.538056
548.422684	24387.405959
548.781449	23936.893164
549.140158	24328.432021
549.498811	23909.819647
549.857408	23633.662719
550.215949	24085.771040
550.574434	23752.160081
550.932864	23982.092149
551.291237	24123.932574
551.649555	24003.993442
552.007817	24045.184710
552.366022	23916.027828
552.724173	23964.811074
553.082267	23899.104674
553.440305	24375.828950
553.798288	23646.076560
554.156215	24162.872967
554.514086	24246.273816
554.871902	23624.611327
555.229661	23913.255193
555.587365	23772.594398
555.945014	23618.708136
556.302606	23887.013467
556.660143	23810.390449
557.017625	24073.014400
557.375050	23612.530202
557.732421	24005.324307
558.089735	23801.641527
558.446994	23867.189129
558.804197	23902.207505
559.161345	23863.289797
559.518437	23584.763526
559.875474	23795.599704
560.232455	23975.533608
560.589381	23804.537669
560.946251	23762.590228
561.303065	24112.471511
561.659825	24181.081615
562.016528	23796.670949
562.373177	23538.813409
562.729770	23881.291757
563.086307	23761.544189
563.442789	23926.452934
563.799216	23751.713939
564.155587	23767.545682
564.511904	23746.614812
564.868164	23674.067567
565.224370	23665.855527
565.580520	23571.979160
565.936615	23705.514284
566.292654	23362.345298
566.648638	23690.141286
567.004567	23509.526826
567.360441	23462.200473
567.716260	23180.725128
568.072023	23505.793851
568.427732	23280.940746
568.783385	23059.714750
569.138982	23282.226240
569.494525	23329.693745
569.850013	23072.264703
570.205445	23165.084948
570.560823	22965.624134
570.916145	22733.385738
571.271412	22911.540115
571.626625	22673.022962
571.981782	22788.780457
572.336884	22585.901742
572.691931	22725.705541
573.046923	22456.747380
573.401860	22337.539215
573.756743	22340.795800
574.111570	22261.753029
574.466342	22183.983148
574.821059	22279.966717
575.175722	21974.576138
575.530330	21963.064663
575.884882	21992.590701
576.239380	21901.136609
576.593823	21786.916666
576.948211	21768.027462
577.302544	21614.602465
577.656823	21478.735808
578.011047	21588.282601
578.365216	21452.521807
578.719330	21334.145433
579.073389	21226.358002
579.427394	21378.043801
579.781344	21158.511633
580.135239	21041.312368
580.489080	21015.796567
580.842866	20780.979621
581.196597	20960.517795
581.550273	20950.095209
581.903895	20832.964000
582.257463	21164.117396
582.610975	20686.296670
582.964434	20985.640385
583.317837	20705.884073
583.671186	20791.044285
584.024481	20745.668859
584.377721	20531.011487
584.730906	20585.234138
585.084037	20611.367480
585.437113	20509.621872
585.790135	20714.315403
586.143103	20185.271513
586.496016	20202.983607
586.848874	20442.297262
587.201679	20385.599405
587.554428	20036.101250
587.907124	20377.241172
588.259765	20162.054478
588.612352	20238.085161
588.964884	19801.531320
589.317362	19969.290838
589.669786	20024.607419
590.022155	20073.141127
590.374470	20258.239694
590.726731	20065.460930
591.078937	19811.696807
591.431090	19930.421021
591.783188	19664.560649
592.135232	19639.337236
592.487222	19734.055476
592.839157	19759.704867
593.191038	19635.576535
593.542866	19536.031391
593.894639	19245.696217
594.246358	19469.057142
594.598022	19366.522593
594.949633	19122.122413
595.301190	19090.083360
595.652692	19252.766436
596.004141	19499.404888
596.355535	18831.003340
596.706876	18835.656325
597.058162	18726.711950
597.409395	18953.589078
597.760573	19036.624444
598.111698	18813.167738
598.462768	18741.916070
598.813785	18704.793013
599.164748	18532.594759
599.515657	18560.941167
599.866511	18355.156226
600.217312	18720.468481
600.568060	18253.289630
600.918753	18557.203152
601.269392	18460.874263
601.619978	18237.772959
601.970510	18453.486452
602.320988	18387.134785
602.671412	18601.998845
603.021783	18508.656840
603.372100	18240.525429
603.722363	18371.630717
604.072572	18315.973858
604.422728	18450.013097
604.772830	18215.271768
605.122878	18163.867123
605.472872	18159.317481
605.822813	18141.610428
606.172701	18117.891800
606.522534	18310.461356
606.872314	18338.127208
607.222041	18164.983738
607.571714	18385.070433
607.921333	18207.079893
608.270899	18287.884548
608.620411	18475.034864
608.969870	18229.553357
609.319276	18247.731758
609.668627	18272.297301
610.017926	18404.357887
610.367171	18513.826543
610.716362	18561.770437
611.065500	18383.885762
611.414585	18514.577675
611.763616	18497.833483
612.112594	18442.877344
612.461518	18411.511285
612.810389	18597.159337
613.159207	18464.206466
613.507971	18364.767186
613.856682	18647.938880
614.205340	18577.982788
614.553945	18722.525271
614.902496	18459.866033
615.250994	18708.024392
615.599439	18642.663312
615.947830	18630.292321
616.296169	18679.612449
616.644454	18645.347727
616.992686	18606.858517
617.340864	18829.574173
617.688990	18584.740454
618.037063	18753.367051
618.385082	18612.872613
618.733048	18887.706239
619.080961	18752.230270
619.428821	18794.994378
619.776628	18683.332821
620.124382	18604.963043
620.472083	18643.210277
620.819731	18674.934258
621.167326	18370.879585
621.514868	18400.720695
621.862357	18161.641453
622.209793	18172.086724
622.557176	18012.493876
622.904506	17834.180702
623.251783	17739.462463
623.599007	17509.197678
623.946179	17455.252291
624.293297	17398.592243
624.640363	17153.365314
624.987376	17171.947007
625.334336	16970.346223
625.681243	16805.954196
626.028097	16818.118501
626.374899	16752.815394
626.721647	16617.767923
627.068343	16446.542612
627.414987	16378.991151
627.761577	16355.695979
628.108115	16403.223977
628.454600	16113.312261
628.801032	16211.148454
629.147412	16145.721839
629.493739	16165.641958
629.840014	15977.458206
630.186236	16067.082359
630.532405	15828.575289
630.878521	16037.304264
631.224585	15932.090342
631.570597	15750.117291
631.916556	15778.834224
632.262462	15760.529794
632.608316	15681.373596
632.954117	15631.584640
633.299866	15626.437622
633.645562	15540.440579
633.991206	15293.877744
634.336797	15159.415048
634.682336	15132.850687
635.027823	15019.873389
635.373257	14910.606379
635.718639	14795.690757
636.063968	14754.514612
636.409245	14499.585983
636.754470	14531.151167
637.099642	14380.781110
637.444762	14152.835256
637.789829	14195.947204
638.134845	14031.840002
638.479808	14068.138831
638.824719	14008.564995
639.169577	13866.487636
639.514383	13910.302824
639.859137	13726.411614
640.203839	13806.291217
640.548489	13650.973267
640.893086	13634.040032
641.237632	13504.240402
641.582125	13656.067353
641.926566	13486.316580
642.270955	13500.903159
642.615292	13464.148106
642.959576	13480.360457
643.303809	13515.088966
643.647990	13443.711268
643.992118	13501.737470
644.336195	13266.597890
644.680219	13478.016320
645.024192	13399.744845
645.368112	13638.032626
645.711981	13693.203013
646.055797	13872.957957
646.399562	13832.716946
646.743274	14107.928658
647.086935	14390.122368
647.430544	14358.315208
647.774101	14380.385379
648.117606	14539.128793
648.461059	14497.700591
648.804460	14493.564324
649.147810	14227.030959
649.491108	14122.154794
649.834354	14141.283452
650.177548	13838.766331
650.520690	13647.928411
650.863781	13566.370103
651.206820	13605.751597
651.549807	13439.562399
651.892742	13244.540321
652.235626	13180.419365
652.578458	13188.631404
652.921238	12874.746481
653.263967	13074.837438
653.606644	12897.358576
653.949269	12872.288918
654.291843	12682.232377
654.634365	12830.187722
654.976836	12682.239939
655.319255	12688.183459
655.661622	12646.656954
656.003938	12566.681569
656.346203	12496.244047
656.688416	12566.502608
657.030577	12527.398378
657.372687	12443.705142
657.714746	12412.989391
658.056753	12608.263527
658.398708	12434.273143
658.740612	12423.956421
659.082465	12529.757638
659.424266	12496.342349
659.766016	12513.867921
660.107715	12427.606217
660.449362	12496.707833
660.790958	12454.296606
661.132503	12402.493709
661.473996	12470.743370
661.815438	12482.209475
662.156829	12496.619613
662.498168	12473.783186
662.839456	12476.570944
663.180693	12490.615599
663.521879	12586.636977
663.863013	12566.731981
664.204097	12538.619986
664.545129	12659.665652
664.886110	12635.299235
665.227040	12715.352758
665.567918	12725.162843
665.908746	12761.464192
666.249522	12740.556006
666.590248	12788.101649
666.930922	12898.898649
667.271545	12891.059654
667.612118	12966.601345
667.952639	12872.750184
668.293109	12883.828119
668.633528	12846.480731
668.973896	12811.207777
669.314213	12902.671952
669.654480	12646.064619
669.994695	12698.520345
670.334859	12723.965569
670.674973	12676.828260
671.015035	12711.579454
671.355047	12653.356648
671.695008	12625.920168
672.034918	12627.982000
672.374777	12672.707117
672.714585	12585.785022
673.054342	12622.139302
673.394049	12578.868558
673.733705	12663.622957
674.073310	12578.172879
674.412864	12594.680138
674.752368	12457.981689
675.091820	12469.992238
675.431223	12463.421094
675.770574	12333.250940
676.109875	12253.220102
676.449125	12222.348076
676.788324	12155.588076
677.127473	11984.808907
677.466571	11983.712456
677.805619	11879.975592
678.144616	11802.326699
678.483562	11766.252203
678.822458	11644.901547
679.161303	11619.650407
679.500098	11606.520722
679.838842	11561.929196
680.177535	11586.025911
680.516179	11645.826599
680.854771	11587.931467
681.193314	11801.252934
681.531805	11963.194960
681.870247	12370.071528
682.208638	12787.963017
682.546978	13100.373403
682.885268	13151.510868
683.223508	12838.515708
683.561697	12686.706401
683.899836	12585.623705
684.237925	12389.787481
684.575963	12305.965695
684.913951	12229.887122
685.251889	12172.327227
685.589776	12271.058225
685.927614	12195.050228
686.265401	12160.911534
686.603137	12207.572454
686.940824	12353.430679
687.278460	12466.536527
687.616046	12525.875949
687.953582	12698.883308
688.291068	12616.752830
688.628504	12849.679343
688.965889	12865.677445
689.303224	12834.772651
689.640510	12726.609654
689.977745	12412.550811
690.314930	12191.435721
690.652065	12103.815426
690.989150	11813.823051
691.326185	11592.670152
691.663170	11390.093905
692.000105	11132.553958
692.336990	11034.594257
692.673825	10774.135482
693.010610	10657.692389
693.347345	10450.566501
693.684030	10255.524259
694.020665	10196.104179
694.357251	9999.625208
694.693786	9943.897772
695.030272	9774.963666
695.366707	9653.343309
695.703093	9596.824412
696.039429	9587.462990
696.375716	9512.064972
696.711952	9379.691834
697.048139	9421.089789
697.384276	9372.742603
697.720363	9388.307166
698.056400	9327.248710
698.392388	9275.344990
698.728326	9238.123631
699.064214	9174.214403
699.400053	9221.029078
699.735842	9040.477633
700.071581	8997.779060
700.407270	8922.549921
700.742910	8841.130245
701.078501	8752.615145
701.414042	8626.125033
701.749533	8563.019870
702.084974	8420.438395
702.420366	8535.124645
702.755709	8419.825895
703.091002	8285.746326
703.426246	8312.761869
703.761440	8263.681195
704.096584	8220.060091
704.431679	8159.233529
704.766725	8142.128894
705.101721	8094.676513
705.436668	8136.240826
705.771565	8029.905247
706.106413	8107.181095
706.441212	8149.892271
706.775961	8107.498687
707.110661	8143.195098
707.445311	8280.816077
707.779913	8183.110954
708.114465	8313.099627
708.448967	8357.459260
708.783421	8491.445567
709.117825	8674.162188
709.452180	8713.417653
709.786485	8796.800859
710.120742	9083.423222
710.454949	9080.557326
710.789107	9178.229682
711.123216	9390.812619
711.457275	9557.362260
711.791286	9722.449966
712.125247	9713.244819
712.459159	9702.068581
712.793023	9953.334812
713.126837	9526.875882
713.460602	9678.196197
713.794318	9504.314198
714.127985	9536.496924
714.461602	9215.814005
714.795171	9161.747630
715.128691	8916.984487
715.462162	8665.393101
715.795584	8611.775389
716.128957	8465.733162
716.462281	8296.267214
716.795556	8345.254626
717.128782	8133.349724
717.461960	7875.235086
717.795088	7943.857792
718.128167	7855.821602
718.461198	7688.727517
718.794180	7621.410469
719.127113	7619.807382
719.459997	7470.153168
719.792833	7237.060297
720.125619	7299.278218
720.458357	7161.551374
720.791046	7147.879765
721.123686	7147.867162
721.456278	6992.808831
721.788821	7009.878178
722.121315	6897.150417
722.453761	6962.826569
722.786158	6905.445635
723.118506	6917.927532
723.450805	6891.930302
723.783056	6955.171577
724.115259	6860.697833
724.447412	6860.980138
724.779518	6904.031592
725.111574	6906.738691
725.443582	6988.115517
725.775542	6965.644574
726.107453	7161.745458
726.439315	7069.005872
726.771129	7125.837320
727.102895	7294.864687
727.434612	7407.438694
727.766281	7438.098992
728.097901	7528.597786
728.429473	7517.419027
728.760996	7490.761405
729.092471	7463.231664
729.423897	7408.767038
729.755276	7423.898061
730.086606	7347.663212
730.417887	7446.386649
730.749120	7641.393603
731.080305	7832.934764
731.411442	7960.922098
731.742530	7954.519833
732.073570	8057.545894
732.404562	8146.701220
732.735506	7989.828074
733.066401	8133.533727
733.397249	8068.447389
733.728048	7835.682193
734.058798	7497.375399
734.389501	7275.950278
734.720156	7097.516117
735.050762	6860.977617
735.381320	6765.984635
735.711831	6717.188786
736.042293	6604.468586
736.372707	6628.454396
736.703073	6490.712429
737.033391	6524.732656
737.363661	6538.038781
737.693883	6568.010961
738.024056	6654.801987
738.354182	6693.386978
738.684260	6725.005095
739.014290	6840.755028
739.344272	6947.554393
739.674207	6982.439178
740.004093	7047.603653
740.333931	7065.270377
740.663722	7072.522077
740.993464	7149.210629
741.323159	7139.322406
741.652806	6888.023407
741.982405	6898.970273
742.311956	6959.002854
742.641460	6800.226672
742.970915	6605.048319
743.300323	6591.807728
743.629683	6540.496344
743.958996	6412.037661
744.288260	6317.059802
744.617477	6270.648419
744.946647	6279.782990
745.275768	6106.458039
745.604842	6060.036573
745.933869	6050.314708
746.262847	6002.506926
746.591778	5993.994937
746.920662	5951.220747
747.249498	5941.594664
747.578286	5991.189535
747.907027	6065.181071
748.235720	6117.795594
748.564365	6092.504125
748.892963	6121.097549
749.221514	6274.020951
749.550017	6116.232836
749.878473	5987.822045
750.206881	6041.749788
750.535242	5988.127034
750.863555	5915.300005
751.191821	5934.179127
751.520039	5934.320279
751.848210	5842.994736
752.176334	5860.230441
752.504411	5912.071146
752.832440	5840.920301
753.160421	5762.971460
753.488356	5815.659079
753.816243	5847.241908
754.144082	5699.715061
754.471875	5670.078118
754.799620	5713.565631
755.127318	5725.056942
755.454969	5675.615825
755.782572	5641.890506
756.110129	5684.057237
756.437638	5675.431823
756.765100	5614.670796
757.092515	5608.225681
757.419882	5659.214431
757.747203	5643.395290
758.074477	5705.900557
758.401703	5692.927147
758.728882	5642.187934
759.056014	5697.970822
759.383099	5828.209032
759.710138	5836.826884
760.037129	5820.296941
760.364073	5830.976625
760.690970	5908.862452
761.017820	5888.793618
761.344623	5843.801320
761.671379	5945.766219
761.998088	6062.158899
762.324751	6299.788809
762.651366	6897.042032
762.977935	8188.925925
763.304456	9811.421290
763.630931	10727.472041
763.957359	10347.132107
764.283740	9413.868336
764.610074	8578.027385
764.936362	7584.657937
765.262602	6992.430745
765.588796	6450.678106
765.914943	6119.101253
766.241044	5956.859278
766.567097	5758.084061
766.893104	5494.620758
767.219064	5319.191125
767.544978	5254.303913
767.870845	5180.211554
768.196665	5068.857507
768.522438	5000.592722
768.848165	4969.793793
769.173846	4900.672012
769.499479	4855.861195
769.825066	4804.179286
770.150607	4747.103342
770.476101	4720.294486
770.801548	4718.797263
771.126949	4645.647601
771.452303	4586.797171
771.777611	4545.757137
772.102872	4564.222884
772.428087	4528.110578
772.753256	4484.814628
773.078378	4442.015232
773.403453	4376.167681
773.728482	4359.282336
774.053465	4314.020336
774.378401	4299.789159
774.703291	4301.956855
775.028135	4229.822984
775.352932	4180.467568
775.677683	4165.550793
776.002388	4185.730532
776.327046	4199.999518
776.651658	4125.503867
776.976224	4062.693611
777.300743	4068.649734
777.625216	4091.314762
777.949643	4085.522476
778.274024	4043.214592
778.598359	4000.848736
778.922647	4019.526211
779.246889	4008.775950
779.571086	4006.504910
779.895236	3990.254751
780.219339	3977.223368
780.543397	3971.025269
780.867409	4021.809853
781.191374	4037.162687
781.515294	3979.078513
781.839167	3968.121565
782.162995	3986.368021
782.486776	3971.383191
782.810511	3983.149244
783.134201	3981.339470
783.457844	3938.308181
783.781441	3881.204511
784.104993	3883.465468
784.428498	3903.267121
784.751958	3904.736617
785.075372	3880.350035
785.398739	3841.911237
785.722061	3851.852393
786.045337	3898.089856
786.368568	3933.887089
786.691752	3842.090198
787.014891	3893.915780
787.337983	4015.480685
787.661030	4174.665200
787.984031	4338.444726
788.306987	4507.794728
788.629897	4588.173406
788.952760	4547.408115
789.275579	4478.419925
789.598351	4410.457609
789.921078	4275.629429
790.243759	4076.844130
790.566395	4055.940985
790.888984	4051.653484
791.211529	3945.610292
791.534027	3887.516035
791.856480	3875.346690
792.178888	3814.525169
792.501249	3764.153960
792.823566	3777.177781
793.145836	3803.268272
793.468062	3753.370932
793.790241	3706.853684
794.112375	3736.946852
794.434464	3800.059578
794.756507	3824.592353
795.078505	3805.425886
795.400457	3834.684743
795.722364	3973.858398
796.044226	4079.208431
796.366042	4151.269205
796.687812	4133.524343
797.009538	4142.366527
797.331218	4100.008232
797.652852	4069.534457
797.974442	4052.122311
798.295986	4048.981672
798.617484	3971.289930
798.938938	3884.181312
799.260346	3923.998866
799.581709	3920.666663
799.903026	3847.199407
800.224299	3807.210455
800.545526	3801.771050
800.866708	3767.022376
801.187845	3706.462995
801.508936	3739.863160
801.829983	3740.468098
802.150984	3660.633865
802.471940	3651.385869
802.792851	3658.735871
803.113717	3660.117147
803.434538	3659.262672
803.755314	3605.707974
804.076045	3580.955908
804.396731	3599.673712
804.717372	3625.706231
805.037967	3611.323819
805.358518	3598.587344
805.679024	3624.818988
805.999485	3642.571411
806.319901	3645.734735
806.640272	3653.666991
806.960598	3672.727593
807.280879	3647.688182
807.601115	3660.593536
807.921306	3673.324970
808.241453	3715.703430
808.561554	3693.383721
808.881611	3625.686066
809.201623	3661.672343
809.521590	3674.144158
809.841513	3647.688182
810.161390	3675.865712
810.481223	3657.016838
810.801011	3598.451233
811.120755	3592.054008
811.440453	3625.242445
811.760107	3630.386942
812.079716	3589.094851
812.399281	3555.871127
812.718801	3578.982297
813.038276	3553.390879
813.357707	3548.682441
813.677093	3567.874114
813.996434	3515.781351
814.315731	3526.612270
814.634983	3526.080428
814.954191	3542.305382
815.273354	3570.891245
815.592473	3568.358065
815.911547	3569.388981
816.230577	3609.556895
816.549562	3664.664268
816.868502	3703.934856
817.187399	3729.644741
817.506250	3724.326324
817.825058	3696.794062
818.143821	3786.266981
818.462539	3890.061818
818.781213	3934.489507
819.099843	3995.008559
819.418429	4231.766349
819.736970	4472.350375
820.055466	4713.970359
820.373919	5078.745730
820.692327	5484.959387
821.010691	5916.956024
821.329011	7273.275946
821.647286	9981.779523
821.965517	14508.559236
822.283704	18527.624181
822.601847	20703.038342
822.919945	18915.097348
823.237999	16360.273347
823.556010	13893.697263
823.873976	11805.416927
824.191897	9720.269667
824.509775	8368.391002
824.827609	7250.774756
825.145398	6706.509102
825.463144	6590.237409
825.780845	6700.263112
826.098502	6887.796556
826.416116	7742.703151
826.733685	9057.904902
827.051210	10170.701804
827.368692	10228.475948
827.686129	8989.635076
828.003522	7478.980229
828.320872	6467.341640
828.638177	5771.959837
828.955439	5215.275300
829.272656	4716.153178
829.589830	4433.407462
829.906960	4261.615021
830.224046	4077.262546
830.541088	3952.534317
830.858086	3903.415835
831.175041	3829.126871
831.491952	3810.532575
831.808819	3823.483299
832.125642	3896.325452
832.442421	4039.186711
832.759157	4308.979182
833.075849	4851.639229
833.392497	5710.757709
833.709101	6475.992260
834.025662	6822.168294
834.342179	6468.435570
834.658653	5811.979037
834.975083	5168.183361
835.291469	4597.965847
835.607811	4186.458979
835.924110	4044.880694
836.240366	3850.773586
836.556578	3642.974703
836.872746	3532.608722
837.188871	3498.480111
837.504952	3432.216664
837.820990	3346.423787
838.136984	3302.167498
838.452935	3328.520129
838.768842	3324.151970
839.084706	3345.440762
839.400526	3499.511027
839.716303	3831.400431
840.032037	4354.150441
840.347727	4620.076348
840.663373	4348.068289
840.978977	3969.805310
841.294537	3661.337106
841.610054	3437.308229
841.925527	3328.252948
842.240957	3256.424068
842.556344	3205.231150
842.871687	3148.092192
843.186987	3098.275510
843.502244	3063.678071
843.817458	3029.173893
844.132629	2997.523009
844.447756	3005.603979
844.762840	2991.763491
845.077881	2960.977164
845.392879	2941.165430
845.707833	2939.849688
846.022745	2935.060592
846.337613	2935.892383
846.652438	2923.680188
846.967221	2924.191865
847.281960	2908.289545
847.596656	2906.512538
847.911309	2905.920203
848.225919	2899.603637
848.540485	2896.263872
848.855009	2893.617267
849.169490	2884.006307
849.483928	2874.448279
849.798323	2873.210676
850.112675	2871.751262
850.426984	2882.947664
850.741251	2880.583363
851.055474	2870.120448
851.369654	2860.970754
851.683792	2868.764378
851.997887	2876.898280
852.311938	2879.867519
852.625947	2868.149357
852.939914	2872.651108
853.253837	2876.149668
853.567718	2859.748274
853.881555	2860.789273
854.195350	2874.886859
854.509103	2871.373175
854.822812	2864.698688
855.136479	2859.191227
855.450103	2860.945548
855.763685	2858.820702
856.077224	2851.805937
856.390720	2864.320601
856.704173	2875.474154
857.017584	2866.541229
857.330953	2864.131558
857.644278	2872.996427
857.957561	2881.163096
858.270802	2885.236348
858.584000	2884.424722
858.897155	2872.356200
859.210268	2869.412166
859.523339	2869.505428
859.836367	2868.983668
860.149352	2863.786239
860.462295	2854.112264
860.775195	2867.967876
861.088054	2868.983668
861.400869	2847.727643
861.713642	2849.318127
862.026373	2861.522761
862.339062	2862.198275
862.651708	2869.283617
862.964312	2875.580018
863.276873	2865.167515
863.589392	2875.542209
863.901869	2885.395145
864.214303	2910.976480
864.526696	2922.934097
864.839045	2923.065167
865.151353	2920.211874
865.463619	2916.877150
865.775842	2918.187850
866.088023	2939.910182
866.400162	2946.138528
866.712258	2916.393200
867.024313	2905.584966
867.336325	2914.711975
867.648296	2934.972372
867.960224	2928.053388
868.272110	2916.400761
868.583954	2916.521749
868.895755	2932.988678
869.207515	2921.794796
869.519233	2924.174221
869.830909	2937.407249
870.142542	2945.188270
870.454134	2941.838424
870.765684	2947.567695
871.077191	2945.888991
871.388657	2953.748150
871.700081	2968.072588
872.011463	2977.930565
872.322803	2980.730926
872.634101	2977.938126
872.945357	2995.062926
873.256571	3020.677029
873.567744	3013.904238
873.878874	3003.423680
874.189963	3030.938297
874.501010	3031.949049
874.812015	3023.290867
875.122979	3025.095600
875.433900	3014.902387
875.744780	3022.443953
876.055618	3032.667413
876.366415	3031.346631
876.677169	3038.366438
876.987882	3036.632281
877.298554	3027.076773
877.609183	3053.177347
877.919771	3073.969587
878.230317	3102.242898
878.540822	3153.834066
878.851285	3189.603573
879.161707	3229.920201
879.472087	3329.863597
879.782425	3554.257958
880.092722	3985.485819
880.402977	4508.674409
880.713191	5128.625427
881.023363	6269.483913
881.333494	7553.173411
881.643583	8112.693597
881.953631	7814.922721
882.263637	7195.004471
882.573602	6610.636438
882.883526	6038.611670
883.193408	5464.877950
883.503248	5008.943394
883.813048	4703.706569
884.122806	4404.072988
884.432522	4093.003548
884.742197	3856.974205
885.051831	3664.134947
885.361424	3530.330121
885.670975	3460.762198
885.980485	3374.921430
886.289954	3300.062816
886.599382	3253.069180
886.908768	3216.581308
887.218113	3171.341994
887.527417	3113.582973
887.836680	3065.210582
888.145901	3057.742112
888.455082	3048.801626
888.764221	2999.615088
889.073319	2970.323463
889.382376	2968.266673
889.691392	2971.145172
890.000366	2968.778350
890.309300	2956.009107
890.618193	2971.339256
890.927044	2987.624703
891.235855	2989.925990
891.544625	2973.086016
891.853353	2983.165803
892.162041	3000.484687
892.470687	3042.903476
892.779293	3090.703697
893.087858	3136.210193
893.396381	3210.753734
893.704864	3328.605829
894.013306	3563.712642
894.321707	3863.366388
894.630068	4067.928849
894.938387	4067.870876
895.246665	4018.064276
895.554903	3907.393305
895.863100	3706.417625
896.171256	3538.811862
896.479371	3401.793301
896.787446	3280.457769
897.095480	3177.940864
897.403473	3114.089609
897.711425	3075.726429
898.019336	3070.627302
898.327207	3039.515821
898.635038	3005.120028
898.942827	2988.872389
899.250576	2980.680514
899.558284	2950.294959
899.865952	2925.817637
900.173579	2908.080337
900.481165	2900.644635
900.788711	2885.599311
901.096216	2861.016125
901.403681	2854.823067
901.711105	2858.976978
902.018489	2856.529498
902.325832	2856.963037
902.633135	2867.461240
902.940397	2898.749161
903.247619	2980.458703
903.554800	3169.552384
903.861941	3506.424969
904.169041	3932.498251
904.476101	4231.211822
904.783121	4191.479968
905.090100	3945.151547
905.397039	3675.923685
905.703938	3429.983433
906.010796	3241.285483
906.317614	3134.319760
906.624391	3039.745193
906.931129	2971.934112
907.237826	2905.937847
907.544483	2860.890096
907.851099	2830.209633
908.157675	2812.936120
908.464211	2791.221350
908.770707	2781.945627
909.077163	2763.522730
909.383578	2751.431522
909.689954	2740.023391
909.996289	2741.084554
910.302584	2738.874008
910.608839	2739.766292
910.915054	2734.722618
911.221229	2727.181052
911.527363	2730.069633
911.833458	2735.284707
912.139513	2739.428535
912.445527	2743.380800
912.751502	2751.915473
913.057436	2759.822523
913.363331	2770.711415
913.669186	2795.413069
913.975000	2829.405569
914.280775	2884.976729
914.586510	2956.447688
914.892205	3031.823020
915.197859	3162.769512
915.503475	3353.723378
915.809050	3566.243301
916.114585	3711.368038
916.420081	3731.048702
916.725536	3670.106193
917.030952	3554.225190
917.336328	3426.205088
917.641665	3300.418217
917.946961	3196.043647
918.252218	3128.230046
918.557435	3052.668191
918.862612	2994.372288
919.167750	2943.113836
919.472848	2906.356262
919.777906	2878.370297
920.082925	2853.567820
920.387904	2823.648572
920.692843	2806.042342
920.997743	2794.878707
921.302603	2780.115688
921.607423	2772.811056
921.912204	2758.973088
922.216946	2747.280132
922.521647	2742.319637
922.826310	2733.696743
923.130932	2725.071329
923.435516	2718.931203
923.740059	2707.452496
924.044564	2701.166177
924.349028	2695.883048
924.653454	2688.550690
924.957840	2682.057684
925.262186	2679.794206
925.566493	2674.639626
925.870761	2670.415139
926.174989	2667.826506
926.479178	2661.739313
926.783328	2655.982315
927.087438	2657.426606
927.391509	2654.462407
927.695541	2652.261944
927.999533	2649.527118
928.303486	2646.883033
928.607400	2645.211890
928.911275	2646.109216
929.215110	2646.880512
929.518906	2642.593011
929.822663	2642.303144
930.126381	2642.580408
930.430060	2642.976138
930.733699	2643.107208
931.037299	2646.600728
931.340861	2646.668784
931.644383	2648.176089
931.947866	2643.845737
932.251309	2643.472692
932.554714	2644.198618
932.858080	2640.924389
933.161407	2642.734163
933.464694	2637.083030
933.767943	2630.348048
934.071153	2637.040180
934.374323	2635.999182
934.677455	2633.186218
934.980548	2637.050262
935.283602	2633.536578
935.586617	2634.612864
935.889593	2636.394912
936.192530	2635.290899
936.495428	2631.557925
936.798287	2639.114615
937.101108	2638.660911
937.403890	2642.953453
937.706632	2647.656850
938.009336	2656.322593
938.312002	2665.643687
938.614628	2675.045439
938.917216	2680.068948
939.219765	2679.403516
939.522275	2679.088444
939.824747	2675.383196
940.127179	2674.445541
940.429573	2672.204748
940.731929	2668.234840
941.034246	2665.641166
941.336524	2661.058757
941.638763	2660.080773
941.940964	2655.778149
942.243126	2654.101965
942.545250	2654.469969
942.847335	2652.413178
943.149381	2647.674494
943.451389	2643.639050
943.753359	2642.610655
944.055290	2640.115284
944.357182	2639.711991
944.659036	2639.893473
944.960851	2636.205869
945.262628	2637.234264
945.564367	2636.531023
945.866067	2637.725777
946.167729	2638.272742
946.469352	2639.333905
946.770937	2637.877011
947.072484	2635.094294
947.373992	2633.397946
947.675462	2632.246042
947.976893	2629.359982
948.278286	2629.649848
948.579641	2626.786473
948.880958	2627.656072
949.182236	2629.798562
949.483476	2625.657254
949.784678	2628.069447
950.085841	2627.885444
950.386967	2627.507358
950.688054	2628.233284
950.989103	2631.194962
951.290114	2629.894344
951.591087	2631.313429
951.892021	2634.307874
952.192917	2636.316774
952.493776	2640.407671
952.794596	2639.719553
953.095378	2641.524286
953.396122	2640.420273
953.696828	2637.529172
953.997496	2633.990282
954.298126	2634.007926
954.598718	2633.103039
954.899272	2629.901906
955.199788	2627.177162
955.500266	2623.240021
955.800706	2623.469394
956.101108	2620.890843
956.401472	2619.408744
956.701798	2614.410440
957.002087	2614.216356
957.302337	2612.278032
957.602550	2613.543362
957.902724	2611.108484
958.202861	2610.112857
958.502960	2607.751076
958.803022	2608.393823
959.103045	2605.772423
959.403031	2604.650766
959.702979	2605.948863
960.002889	2604.423914
960.302762	2605.265787
960.602596	2604.091198
960.902393	2604.209665
961.202153	2604.365941
961.501875	2603.473657
961.801559	2603.428287
962.101205	2601.928543
962.400814	2603.403081
962.700385	2601.578183
962.999918	2601.069027
963.299414	2596.637852
963.598873	2598.195569
963.898293	2594.507965
964.197677	2598.160281
964.497022	2600.784201
964.796331	2600.320415
965.095601	2598.886207
965.394835	2600.370827
965.694030	2601.542895
965.993189	2599.854108
966.292309	2601.835282
966.591393	2599.523913
966.890439	2599.707915
967.189447	2598.535847
967.488419	2598.611464
967.787353	2598.727411
968.086249	2599.523913
968.385108	2599.284458
968.683930	2599.342431
968.982714	2599.370158
969.281462	2601.079109
969.580172	2599.029880
969.878844	2601.956270
970.177480	2602.339397
970.476078	2600.436362
970.774639	2600.514500
971.073162	2600.073399
971.371649	2600.070878
971.670098	2600.343100
971.968510	2600.801845
972.266885	2601.011053
972.565223	2602.394850
972.863524	2599.493666
973.161788	2600.476691
973.460014	2601.356372
973.758204	2601.157247
974.056356	2598.477873
974.354471	2599.765888
974.652550	2600.907710
974.950591	2600.365786
975.248595	2600.771598
975.546563	2602.357041
975.844493	2598.069540
976.142386	2596.375712
976.440243	2598.447627
976.738062	2600.852257
977.035845	2597.141968
977.333590	2598.503079
977.631299	2598.198089
977.928971	2594.906216
978.226606	2593.996288
978.524204	2596.126175
978.821765	2592.325145
979.119290	2598.896289
979.416777	2597.436875
979.714228	2600.070878
980.011642	2597.646083
980.309020	2598.382092
980.606360	2599.518872
980.903664	2597.366299
981.200931	2600.315374
981.498162	2599.604571
981.795356	2600.643049
982.092513	2601.429469
982.389633	2605.180087
982.686717	2607.269646
982.983764	2610.261571
983.280775	2613.561006
983.577749	2615.128805
983.874686	2613.888681
984.171587	2611.395830
984.468451	2610.377517
984.765279	2606.876436
985.062070	2605.606065
985.358824	2601.850405
985.655543	2600.917792
985.952224	2601.875611
986.248869	2599.024839
986.545478	2598.024170
986.842050	2597.940991
987.138586	2596.811772
987.435086	2599.281937
987.731549	2595.637183
988.027975	2595.473346
988.324366	2592.499065
988.620719	2597.111721
988.917037	2595.680033
989.213318	2595.632142
989.509563	2594.933942
989.805772	2594.649117
990.101944	2595.367482
990.398080	2595.395208
990.694180	2593.524940
990.990244	2596.272369
991.286271	2593.154415
991.582262	2593.600557
991.878217	2595.717842
992.174136	2594.807913
992.470019	2592.554518
992.765865	2589.360947
993.061676	2591.405135
993.357450	2591.054774
993.653188	2590.805237
993.948890	2594.008891
994.244556	2592.302460
994.540186	2595.647266
994.835780	2596.171546
995.131337	2594.240784
995.426859	2596.330342
995.722345	2597.089036
996.017795	2596.259766
996.313208	2600.244798
996.608586	2597.411669
996.903928	2597.895620
997.199234	2598.659355
997.494504	2598.450147
997.789738	2600.511979
998.084936	2599.349993
998.380099	2597.625918
998.675225	2595.846391
998.970316	2595.314549
999.265371	2592.776328
999.560390	2591.571493
999.855373	2595.990064
1000.150320	2593.998808
1000.445232	2594.754981
1000.740108	2593.106524
1001.034948	2593.978644
1001.329752	2594.051740
1001.624521	2591.760536
1001.919254	2590.384301
1002.213951	2594.026535
1002.508613	2593.560228
1002.803239	2594.467636
1003.097829	2592.927563
1003.392384	2593.328335
1003.686903	2591.392532
1003.981386	2594.823037
1004.275834	2590.835484
1004.570246	2593.870259
1004.864623	2592.531832
1005.158964	2592.471339
1005.453270	2593.015783
1005.747540	2589.912953
1006.041775	2588.491348
1006.335974	2591.828592
1006.630138	2591.034610
1006.924266	2592.985536
1007.218359	2590.512850
1007.512416	2587.573858
1007.806438	2590.984198
1008.100425	2588.940010
1008.394376	2587.846080
1008.688292	2591.677357
1008.982172	2588.869434
1009.276017	2590.825402
1009.569827	2587.004207
1009.863602	2592.367995
1010.157341	2591.667275
1010.451045	2592.594847
1010.744714	2590.641400
1011.038347	2594.160125
1011.331945	2588.937490
1011.625508	2591.705083
1011.919036	2589.355906
1012.212528	2590.147367
1012.505986	2590.293560
1012.799408	2591.700042
1013.092795	2592.476380
1013.386147	2593.101483
1013.679464	2589.096286
1013.972745	2591.044692
1014.265992	2591.193406
1014.559204	2591.168200
1014.852380	2590.301122
1015.145521	2592.768767
1015.438628	2590.472521
1015.731699	2594.147522
1016.024736	2588.970257
1016.317737	2588.103179
1016.610703	2589.696183
1016.903635	2591.934456
1017.196531	2589.754157
1017.489393	2590.797676
1017.782219	2590.041502
1018.075011	2590.628797
1018.367768	2591.430340
1018.660490	2589.902871
1018.953177	2589.902871
1019.245829	2589.902871
