Dividing Wavelength (nm)	Counts (n)	Blue Motor Position (mm): 39.100000	Red Motor Position (mm): 0.000000	
326.493990	2243.779768
326.888308	2243.779768
327.282561	2243.779768
327.676750	2207.238965
328.070874	2200.398119
328.464933	2201.902903
328.858929	2207.150744
329.252859	2213.333720
329.646726	2218.984853
330.040528	2231.834754
330.434265	2244.336816
330.827938	2262.227871
331.221547	2279.458535
331.615091	2297.397481
332.008571	2317.615028
332.401986	2334.543223
332.795338	2354.352437
333.188625	2372.601414
333.581847	2392.239228
333.975006	2412.809657
334.368100	2431.537543
334.761129	2451.016562
335.154095	2466.049283
335.546996	2494.405773
335.939833	2533.096629
336.332606	2547.358053
336.725315	2560.969168
337.117960	2571.573235
337.510540	2584.118147
337.903056	2596.834457
338.295508	2604.847371
338.687896	2613.694596
339.080220	2620.124588
339.472480	2627.358644
339.864676	2631.240332
340.256807	2639.086888
340.648875	2641.857002
341.040879	2644.463279
341.432818	2645.254740
341.824694	2647.873619
342.216506	2649.428815
342.608253	2651.530977
342.999937	2648.113074
343.391557	2653.807057
343.783113	2648.864206
344.174605	2650.991573
344.566033	2648.758342
344.957397	2646.036119
345.348697	2646.918321
345.739934	2644.934627
346.131106	2644.619555
346.522215	2641.763741
346.913260	2641.456231
347.304241	2638.887763
347.695159	2634.733852
348.086012	2636.833492
348.476802	2633.521454
348.867528	2629.170939
349.258191	2627.424179
349.648789	2625.508540
350.039324	2622.768673
350.429796	2626.877214
350.820203	2625.553911
351.210548	2624.747326
351.600828	2623.020731
351.991045	2621.967130
352.381198	2620.981584
352.771288	2620.492592
353.161314	2620.913529
353.551276	2619.040740
353.941175	2617.125102
354.331010	2618.791203
354.720782	2617.674587
355.110490	2618.987808
355.500135	2617.805657
355.889717	2618.309773
356.279235	2618.019906
356.668689	2618.551748
357.058080	2618.443363
357.447408	2618.977726
357.836672	2619.315483
358.225873	2620.137191
358.615010	2618.380349
359.004084	2621.195833
359.393095	2619.862448
359.782043	2624.608694
360.170927	2622.902264
360.559748	2623.035854
360.948505	2622.589712
361.337199	2624.618777
361.725830	2624.212964
362.114398	2621.450412
362.502903	2622.246914
362.891344	2627.197327
363.279722	2625.246400
363.668037	2628.293778
364.056289	2627.719086
364.444478	2629.612040
364.832603	2627.585496
365.220665	2629.637245
365.608665	2628.218161
365.996601	2631.043727
366.384474	2628.752523
366.772284	2633.382823
367.160031	2630.627832
367.547715	2631.986423
367.935336	2632.992133
368.322893	2630.612709
368.710388	2632.074643
369.097820	2631.192441
369.485189	2630.642956
369.872495	2635.285858
370.259738	2634.837196
370.646918	2634.219654
371.034035	2635.442134
371.421090	2637.718215
371.808081	2635.757206
372.195010	2639.772485
372.581875	2639.278452
372.968678	2638.418935
373.355418	2641.683082
373.742096	2643.034112
374.128710	2641.370531
374.515262	2640.284162
374.901751	2643.119811
375.288177	2642.540079
375.674540	2643.568474
376.060841	2645.216931
376.447079	2642.867754
376.833254	2645.617703
377.219367	2646.215080
377.605417	2644.125522
377.991404	2644.175933
378.377329	2646.620893
378.763191	2647.170378
379.148991	2648.957467
379.534727	2649.499392
379.920402	2647.097282
380.306013	2647.724905
380.691563	2651.062149
381.077049	2651.180616
381.462474	2649.307828
381.847835	2651.057108
382.233134	2654.096924
382.618371	2655.379897
383.003545	2653.761687
383.388657	2653.678508
383.773706	2653.799496
384.158693	2655.541214
384.543618	2654.626245
384.928480	2656.415855
385.313280	2656.625062
385.698017	2657.272851
386.082692	2658.213026
386.467305	2659.838798
386.851856	2659.962306
387.236344	2659.974909
387.620770	2658.863335
388.005133	2658.139929
388.389435	2659.085146
388.773674	2657.683705
389.157851	2667.370282
389.541965	2666.553615
389.926018	2668.035714
390.310008	2672.885304
390.693936	2678.105419
391.077802	2680.147086
391.461606	2688.853159
391.845348	2699.013605
392.229027	2708.654811
392.612645	2725.600650
392.996200	2745.140162
393.379694	2769.715787
393.763125	2796.141516
394.146494	2831.873214
394.529801	2871.105994
394.913047	2922.273706
395.296230	2960.273923
395.679351	3019.557893
396.062410	3079.416553
396.445408	3130.155767
396.828343	3197.808051
397.211217	3269.042076
397.594028	3303.573980
397.976778	3393.853483
398.359466	3477.607213
398.742092	3549.289900
399.124656	3581.918769
399.507158	3698.056871
399.889598	3793.677477
400.271977	3916.701796
400.654294	3981.906600
401.036549	4075.175508
401.418742	4103.741206
401.800874	4284.600162
402.182944	4385.506418
402.564952	4533.192061
402.946898	4641.377743
403.328783	4612.441520
403.710606	4688.003375
404.092367	4972.987364
404.474067	5059.569181
404.855705	5052.864447
405.237282	5063.612187
405.618797	5314.427234
406.000250	5363.412126
406.381642	5574.326442
406.762972	5648.388553
407.144240	5747.701805
407.525447	5791.151510
407.906593	5863.189598
408.287677	6044.219953
408.668700	6005.264437
409.049661	6155.790770
409.430560	6219.876438
409.811399	6121.581500
410.192176	6407.515746
410.572891	6431.758655
410.953545	6655.785012
411.334138	6427.561895
411.714669	6613.053671
412.095139	6435.378204
412.475547	6690.511000
412.855894	6772.737260
413.236180	6952.403983
413.616405	6669.073493
413.996568	6893.195631
414.376670	6924.652431
414.756711	6833.934347
415.136691	6935.770696
415.516609	7141.038919
415.896466	7144.736605
416.276262	7333.666449
416.655997	7323.291754
417.035670	7527.309771
417.415283	7857.528033
417.794834	7910.934017
418.174324	7771.747759
418.553753	7691.414452
418.933121	8016.359667
419.312428	8112.277701
419.691674	7898.648725
420.070859	8369.469809
420.449983	8056.764515
420.829045	8415.588805
421.208047	8200.767595
421.586988	8488.284764
421.965867	8507.610027
422.344686	8622.233263
422.723444	8655.081421
423.102141	8030.835340
423.480777	8774.705481
423.859352	8300.960528
424.237866	8919.449611
424.616319	8793.191392
424.994712	9196.582003
425.373044	8772.303372
425.751314	9218.102688
426.129524	9095.290098
426.507673	9214.858706
426.885762	9370.796718
427.263789	9281.969067
427.641756	9205.535092
428.019662	9304.112335
428.397508	9545.966732
428.775292	9234.899813
429.153016	9618.566909
429.530679	9441.597203
429.908282	9488.830294
430.285824	9200.786325
430.663305	9888.127487
431.040726	9339.241615
431.418086	9327.432712
431.795385	9645.166557
432.172624	9735.541843
432.549802	9646.968770
432.926920	9730.843487
433.303977	9610.465775
433.680974	9812.147217
434.057910	9901.554601
434.434786	9969.068253
434.811601	9812.351383
435.188355	10375.513803
435.565050	10103.571279
435.941683	10033.093428
436.318257	10523.685917
436.694770	10654.803808
437.071222	10726.753677
437.447614	10572.799359
437.823946	10454.629671
438.200218	10598.045457
438.576429	10411.797508
438.952580	10659.171968
439.328670	10705.230470
439.704700	10494.827832
440.080670	10485.345422
440.456580	11042.103055
440.832429	10799.127002
441.208218	10396.369056
441.583947	10726.244520
441.959616	10873.506706
442.335224	10676.868939
442.710773	10819.687348
443.086261	11019.788388
443.461689	10300.025045
443.837057	10960.275046
444.212365	11226.962167
444.587612	10860.926507
444.962800	11093.162382
445.337927	10863.598318
445.712995	10463.486979
446.088002	11536.539425
446.462949	11211.987419
446.837837	11177.420227
447.212664	11154.876188
447.587431	11680.837412
447.962139	12413.390163
448.336786	14682.529456
448.711374	15215.238265
449.085901	13062.204307
449.460369	12689.587420
449.834776	12132.413892
450.209124	13010.182120
450.583412	13434.841358
450.957640	14377.879926
451.331808	13492.867559
451.705917	12500.052639
452.079965	11791.878908
452.453954	12699.762989
452.827883	12335.645488
453.201752	12629.529634
453.575562	12155.862819
453.949311	12567.268863
454.323001	12529.356866
454.696632	12766.752362
455.070202	13046.072615
455.443713	13280.811423
455.817164	13749.880706
456.190556	13732.466040
456.563888	14101.160909
456.937160	14264.002781
457.310373	13614.203091
457.683526	13694.175956
458.056619	13233.101943
458.429653	13404.929672
458.802628	12814.204743
459.175542	13195.396633
459.548398	14151.930369
459.921194	14490.179189
460.293930	14553.508685
460.666607	15429.323466
461.039224	16478.594268
461.411782	17181.464705
461.784280	17025.619955
462.156719	17098.099144
462.529099	16783.891587
462.901419	15714.927516
463.273680	15496.597664
463.645882	15378.453182
464.018024	15106.399753
464.390106	15327.542570
464.762130	16053.541820
465.134094	16822.673183
465.505999	18846.416668
465.877845	22091.977049
466.249631	24929.025008
466.621358	24597.135603
466.993026	23159.587570
467.364634	22600.029575
467.736184	21120.224069
468.107674	20320.671864
468.479105	20452.399734
468.850477	19913.994421
469.221790	19504.090640
469.593043	18821.155446
469.964238	18252.878776
470.335373	17906.422958
470.706449	18365.868678
471.077467	17938.721630
471.448425	19787.811820
471.819324	23869.964285
472.190164	25813.964278
472.560945	22217.675700
472.931667	19872.150324
473.302330	19233.652901
473.672934	18808.981060
474.043479	19093.743238
474.413965	18905.410771
474.784393	18525.063275
475.154761	19237.214476
475.525070	19206.072748
475.895321	18886.191372
476.265513	19478.766404
476.635645	20065.292051
477.005719	19843.178812
477.375734	20029.880466
477.745691	20515.724188
478.115588	21048.924510
478.485427	21584.113567
478.855207	22655.928410
479.224928	24438.286325
479.594591	26660.026169
479.964194	26649.729612
480.333739	26880.438018
480.703226	26441.534999
481.072653	26139.590049
481.442022	26733.049803
481.811333	27639.474470
482.180584	27545.028453
482.549777	26611.663859
482.918912	26255.332420
483.287988	26382.898818
483.657005	26033.801435
484.025964	25803.720653
484.394864	25698.597472
484.763706	25365.609096
485.132489	24813.784231
485.501213	24981.019469
485.869879	24892.184256
486.238487	24730.728701
486.607036	24867.366655
486.975527	24591.325674
487.343959	24894.616612
487.712333	24823.070037
488.080648	24498.835624
488.448905	24988.228319
488.817104	24723.434151
489.185244	25425.734938
489.553326	25380.969492
489.921350	26390.793265
490.289315	28715.667555
490.657222	30468.597735
491.025070	30973.618007
491.392861	30734.899207
491.760593	29886.536030
492.128267	28977.061464
492.495883	27922.018540
492.863440	27053.440336
493.230939	26181.741657
493.598380	26032.745313
493.965763	25628.313705
494.333088	25157.235522
494.700354	25116.621466
495.067563	24977.437729
495.434713	24726.279883
495.801805	24878.008531
496.168839	24683.188100
496.535815	24534.295100
496.902733	24741.360494
497.269593	24432.423463
497.636395	24604.137766
498.003139	24554.076588
498.369825	24307.259175
498.736453	24514.647203
499.103023	24386.528799
499.469535	24383.604929
499.835989	24616.165959
500.202385	24628.519307
500.568723	24152.296626
500.935003	24359.044428
501.301226	24007.169369
501.667390	24860.087229
502.033497	25065.345370
502.399546	24803.714526
502.765537	24359.702298
503.131470	24733.909669
503.497345	24884.761157
503.863163	24114.520740
504.228923	24690.303688
504.594625	24915.986064
504.960269	24447.325114
505.325856	24932.218579
505.691385	24327.325488
506.056856	24938.194867
506.422270	24922.897486
506.787625	24466.146262
507.152924	24887.183431
507.518164	24924.626601
507.883347	24734.774227
508.248472	24411.858076
508.613540	25197.446286
508.978550	24995.757282
509.343503	24985.710262
509.708398	25216.247269
510.073236	25381.105603
510.438016	25595.528561
510.802738	25267.417501
511.167403	25519.797827
511.532010	25249.355047
511.896561	26000.164336
512.261053	25960.066998
512.625488	25796.521885
512.989866	25700.303903
513.354186	25525.121286
513.718449	25651.951675
514.082655	26028.961927
514.446803	25760.129796
514.810894	26237.877425
515.174927	25725.663427
515.538904	25754.851708
515.902822	26252.282522
516.266684	26004.555181
516.630488	25913.247282
516.994235	25866.571239
517.357925	26198.122886
517.721558	26358.814706
518.085133	26479.615876
518.448651	26362.048606
518.812112	26108.264319
519.175516	26330.092732
519.538863	26471.025749
519.902152	26270.218948
520.265385	26536.165019
520.628560	26336.742014
520.991678	26326.158111
521.354739	26389.175055
521.717743	26469.238660
522.080690	26243.505873
522.443580	26577.250423
522.806413	26567.800780
523.169189	26682.613059
523.531908	26712.202111
523.894569	26333.119945
524.257174	26422.991115
524.619722	26586.412720
524.982213	26270.796160
525.344647	26317.184857
525.707025	26474.118497
526.069345	26447.430629
526.431608	26408.419660
526.793815	26595.161642
527.155964	26061.593316
527.518057	26234.393988
527.880093	26147.988611
528.242072	26378.684414
528.603995	26088.346720
528.965860	25894.171556
529.327669	25936.292917
529.689421	25916.032520
530.051117	25764.629026
530.412755	25942.594359
530.774337	25731.347328
531.135862	25604.779078
531.497331	25796.385774
531.858743	25375.898091
532.220098	25840.019481
532.581396	25533.910537
532.942638	25452.503465
533.303824	25578.081128
533.664953	25566.375568
534.026025	25227.695729
534.387040	25471.337215
534.747999	25524.193713
535.108902	25679.337744
535.469748	25182.942886
535.830537	25350.704924
536.191270	25483.614946
536.551947	25334.424518
536.912567	24966.450534
537.273131	25368.553130
537.633638	25046.375508
537.994089	25264.503714
538.354483	24781.283912
538.714821	25286.752847
539.075103	25328.717932
539.435328	25108.646361
539.795497	24690.913668
540.155609	25049.836260
540.515665	25361.079619
540.875665	24578.352264
541.235609	24905.336626
541.595496	24855.086405
541.955328	25208.735950
542.315102	25134.182326
542.674821	24648.875486
543.034483	24532.472723
543.394090	24715.330497
543.753640	24498.639019
544.113134	25134.935978
544.472571	24724.172680
544.831953	25027.622416
545.191278	24662.289996
545.550548	24583.506844
545.909761	24767.244299
546.268918	25002.560319
546.628019	24969.429856
546.987064	24662.020295
547.346053	24408.914042
547.704986	24520.777246
548.063863	24681.902605
548.422684	24701.580749
548.781449	24209.564134
549.140158	24631.682631
549.498811	24198.937382
549.857408	23952.878663
550.215949	24354.784653
550.574434	24044.254617
550.932864	24254.304374
551.291237	24426.172432
551.649555	24279.875627
552.007817	24333.553833
552.366022	24196.893194
552.724173	24215.227870
553.082267	24188.633263
553.440305	24674.292984
553.798288	23909.126488
554.156215	24414.900412
554.514086	24533.866602
554.871902	23917.149485
555.229661	24197.714902
555.587365	24034.976373
555.945014	23931.567185
556.302606	24153.703108
556.660143	24131.249809
557.017625	24368.206725
557.375050	23893.803901
557.732421	24292.942298
558.089735	24099.964408
558.446994	24149.037520
558.804197	24181.018600
559.161345	24107.891623
559.518437	23869.956723
559.875474	24062.518718
560.232455	24251.975361
560.589381	24059.622575
560.946251	24044.899885
561.303065	24368.592373
561.659825	24458.188801
562.016528	24055.231730
562.373177	23800.779489
562.729770	24157.922554
563.086307	24014.461398
563.442789	24182.619167
563.799216	24023.608572
564.155587	24023.848026
564.511904	24016.871069
564.868164	23954.060813
565.224370	23905.910232
565.580520	23851.284289
565.936615	23964.211176
566.292654	23654.253312
566.648638	23924.842285
567.004567	23758.164095
567.360441	23693.995248
567.716260	23432.303911
568.072023	23752.548250
568.427732	23525.892932
568.783385	23300.757522
569.138982	23540.595457
569.494525	23577.287495
569.850013	23328.027643
570.205445	23427.827366
570.560823	23247.795159
570.916145	22994.545234
571.271412	23186.754348
571.626625	22933.809413
571.981782	23048.563718
572.336884	22848.828162
572.691931	22986.310509
573.046923	22725.506415
573.401860	22607.467798
573.756743	22618.565898
574.111570	22521.130476
574.466342	22448.920989
574.821059	22526.678266
575.175722	22234.530798
575.530330	22204.919060
575.884882	22227.435374
576.239380	22135.348617
576.593823	22024.591946
576.948211	21997.359633
577.302544	21855.146162
577.656823	21719.536603
578.011047	21825.864620
578.365216	21705.517154
578.719330	21564.851318
579.073389	21460.559927
579.427394	21614.242023
579.781344	21370.673634
580.135239	21267.405597
580.489080	21211.226979
580.842866	20991.752784
581.196597	21200.360772
581.550273	21163.814927
581.903895	21048.251516
582.257463	21361.574351
582.610975	20890.226466
582.964434	21216.986497
583.317837	20895.678474
583.671186	20980.611834
584.024481	20966.161367
584.377721	20724.707742
584.730906	20802.722118
585.084037	20796.050151
585.437113	20723.780169
585.790135	20926.177455
586.143103	20376.699247
586.496016	20398.986189
586.848874	20646.330402
587.201679	20566.844009
587.554428	20257.879251
587.907124	20584.646844
588.259765	20347.861327
588.612352	20432.167063
588.964884	19993.541308
589.317362	20146.865482
589.669786	20221.764425
590.022155	20232.426466
590.374470	20461.115889
590.726731	20234.558874
591.078937	20015.843373
591.431090	20103.882084
591.783188	19861.437872
592.135232	19835.256639
592.487222	19927.986144
592.839157	19943.573391
593.191038	19816.014555
593.542866	19710.843483
593.894639	19411.403986
594.246358	19641.119284
594.598022	19537.432832
594.949633	19282.698287
595.301190	19255.871787
595.652692	19430.189845
596.004141	19651.395676
596.355535	18990.016456
596.706876	19015.650723
597.058162	18900.389782
597.409395	19144.956320
597.760573	19197.510348
598.111698	18966.171798
598.462768	18912.115506
598.813785	18873.369197
599.164748	18681.323921
599.515657	18726.994254
599.866511	18540.872334
600.217312	18889.137927
600.568060	18404.652795
600.918753	18708.049598
601.269392	18612.681050
601.619978	18405.892919
601.970510	18595.861240
602.320988	18549.021359
602.671412	18753.389736
603.021783	18669.895625
603.372100	18388.402636
603.722363	18539.904432
604.072572	18476.010328
604.422728	18620.963665
604.772830	18382.844763
605.122878	18342.449998
605.472872	18318.055854
605.822813	18312.767684
606.172701	18285.081667
606.522534	18461.149006
606.872314	18490.097832
607.222041	18328.143203
607.571714	18555.809272
607.921333	18364.946147
608.270899	18451.485114
608.620411	18609.986553
608.969870	18402.722033
609.319276	18395.805570
609.668627	18423.312626
610.017926	18561.462927
610.367171	18674.616666
610.716362	18724.947546
611.065500	18538.941572
611.414585	18683.229477
611.763616	18673.923507
612.112594	18605.081510
612.461518	18572.621521
612.810389	18758.415766
613.159207	18621.855950
613.507971	18526.563018
613.856682	18800.000244
614.205340	18726.923678
614.553945	18874.299290
614.902496	18614.682388
615.250994	18834.524586
615.599439	18777.370505
615.947830	18769.420605
616.296169	18839.341409
616.644454	18790.480025
616.992686	18770.212066
617.340864	18982.444643
617.688990	18728.990551
618.037063	18910.603160
618.385082	18765.617054
618.733048	19030.474236
619.080961	18922.487680
619.428821	18942.490978
619.776628	18832.742538
620.124382	18761.551364
620.472083	18809.091965
620.819731	18823.393719
621.167326	18516.952059
621.514868	18553.381957
621.862357	18335.246189
622.209793	18330.419284
622.557176	18165.928955
622.904506	17995.550558
623.251783	17926.637984
623.599007	17680.531374
623.946179	17617.423690
624.293297	17548.863998
624.640363	17282.839788
624.987376	17318.465623
625.334336	17116.131351
625.681243	16952.896269
626.028097	16974.323694
626.374899	16889.798667
626.721647	16760.861075
627.068343	16593.280518
627.414987	16527.773245
627.761577	16497.228894
628.108115	16529.005807
628.454600	16253.615134
628.801032	16351.842017
629.147412	16296.464942
629.493739	16294.856814
629.840014	16115.636233
630.186236	16218.017026
630.532405	15969.077288
630.878521	16172.001374
631.224585	16080.816983
631.570597	15886.803136
631.916556	15926.799651
632.262462	15897.923922
632.608316	15817.177240
632.954117	15758.999804
633.299866	15758.707417
633.645562	15658.441387
633.991206	15434.994764
634.336797	15290.865655
634.682336	15269.723056
635.027823	15144.034487
635.373257	15024.841446
635.718639	14935.602940
636.063968	14873.843765
636.409245	14626.444098
636.754470	14654.959385
637.099642	14509.726263
637.444762	14275.552064
637.789829	14313.723681
638.134845	14146.531293
638.479808	14180.478423
638.824719	14098.226957
639.169577	13976.692300
639.514383	14011.730840
639.859137	13845.488709
640.203839	13924.813786
640.548489	13773.385086
640.893086	13757.031583
641.237632	13635.186894
641.582125	13793.090956
641.926566	13609.837452
642.270955	13626.440492
642.615292	13573.710023
642.959576	13586.688474
643.303809	13618.437661
643.647990	13555.274523
643.992118	13611.811064
644.336195	13384.094583
644.680219	13604.380403
645.024192	13514.378163
645.368112	13760.126851
645.711981	13806.051763
646.055797	13997.386236
646.399562	13965.324498
646.743274	14232.203183
647.086935	14512.211552
647.430544	14465.333863
647.774101	14501.761240
648.117606	14652.491740
648.461059	14626.670950
648.804460	14603.353093
649.147810	14329.590713
649.491108	14246.020985
649.834354	14259.564045
650.177548	13939.667545
650.520690	13755.035286
650.863781	13671.400023
651.206820	13719.016242
651.549807	13554.873752
651.892742	13343.641844
652.235626	13282.795117
652.578458	13287.334676
652.921238	12979.612563
653.263967	13177.893747
653.606644	13007.643899
653.949269	12989.160508
654.291843	12779.216615
654.634365	12945.332717
654.976836	12797.400057
655.319255	12800.828042
655.661622	12757.869849
656.003938	12674.922704
656.346203	12606.088269
656.688416	12686.759333
657.030577	12636.849389
657.372687	12544.676932
657.714746	12536.658977
658.056753	12727.776681
658.398708	12531.206969
658.740612	12534.178730
659.082465	12639.380049
659.424266	12613.508847
659.766016	12636.877116
660.107715	12547.406717
660.449362	12628.360086
660.790958	12568.226683
661.132503	12515.009742
661.473996	12587.675454
661.815438	12600.416971
662.156829	12624.997637
662.498168	12600.298503
662.839456	12606.862086
663.180693	12618.181997
663.521879	12713.026265
663.863013	12678.844722
664.204097	12663.514573
664.545129	12785.392029
664.886110	12758.772216
665.227040	12851.625228
665.567918	12859.857433
665.908746	12868.871016
666.249522	12860.048997
666.590248	12917.281216
666.930922	13029.557795
667.271545	13014.288140
667.612118	13095.992641
667.952639	12988.381650
668.293109	13013.239580
668.633528	12963.753093
668.973896	12941.299794
669.314213	13008.689938
669.654480	12756.982606
669.994695	12830.114625
670.334859	12863.388761
670.674973	12801.763176
671.015035	12831.493381
671.355047	12777.948765
671.695008	12745.405596
672.034918	12762.306065
672.374777	12798.980459
672.714585	12718.397615
673.054342	12742.925349
673.394049	12697.557485
673.733705	12801.808546
674.073310	12703.107795
674.412864	12709.222715
674.752368	12572.466293
675.091820	12608.497940
675.431223	12584.302922
675.770574	12446.901233
676.109875	12372.967671
676.449125	12330.589211
676.788324	12282.269751
677.127473	12112.725665
677.466571	12105.078235
677.805619	11992.103457
678.144616	11927.465782
678.483562	11893.682489
678.822458	11764.477716
679.161303	11741.111968
679.500098	11733.439332
679.838842	11683.262207
680.177535	11717.902496
680.516179	11783.019080
680.854771	11722.794936
681.193314	11938.727720
681.531805	12096.170516
681.870247	12526.949715
682.208638	12946.837501
682.546978	13251.255138
682.885268	13277.617852
683.223508	12979.776400
683.561697	12825.872494
683.899836	12725.634191
684.237925	12522.289168
684.575963	12443.117847
684.913951	12360.873943
685.251889	12312.199082
685.589776	12415.189855
685.927614	12321.426914
686.265401	12306.159779
686.603137	12350.768950
686.940824	12505.751663
687.278460	12638.699493
687.616046	12671.872806
687.953582	12825.139006
688.291068	12770.543310
688.628504	12995.698885
688.965889	13013.552131
689.303224	12969.825163
689.640510	12855.078419
689.977745	12536.301055
690.314930	12319.118065
690.652065	12223.865463
690.989150	11937.074221
691.326185	11705.718027
691.663170	11503.451811
692.000105	11267.024217
692.336990	11148.151288
692.673825	10887.758048
693.010610	10782.523962
693.347345	10562.210415
693.684030	10374.906344
694.020665	10304.577207
694.357251	10116.416139
694.693786	10043.253873
695.030272	9891.104289
695.366707	9769.095763
695.703093	9712.128204
696.039429	9697.725627
696.375716	9615.587587
696.711952	9483.322833
697.048139	9526.089462
697.384276	9486.357608
697.720363	9508.044652
698.056400	9434.600082
698.392388	9383.185353
698.728326	9357.553607
699.064214	9291.504409
699.400053	9326.915994
699.735842	9143.206266
700.071581	9106.978014
700.407270	9030.249132
700.742910	8954.261299
701.078501	8854.035599
701.414042	8725.763439
701.749533	8669.554574
702.084974	8533.221609
702.420366	8652.013879
702.755709	8525.619549
703.091002	8390.161225
703.426246	8428.289992
703.761440	8373.447279
704.096584	8329.037234
704.431679	8268.056917
704.766725	8244.948268
705.101721	8201.191052
705.436668	8254.090400
705.771565	8142.607803
706.106413	8222.875576
706.441212	8266.189169
706.775961	8222.273158
707.110661	8265.130527
707.445311	8398.123727
707.779913	8292.456102
708.114465	8424.879651
708.448967	8459.487173
708.783421	8620.741081
709.117825	8793.332545
709.452180	8828.250097
709.786485	8917.879292
710.120742	9203.589207
710.454949	9208.380823
710.789107	9308.094846
711.123216	9529.494762
711.457275	9700.369712
711.791286	9851.745480
712.125247	9847.757927
712.459159	9844.347587
712.793023	10069.137678
713.126837	9654.832970
713.460602	9807.925250
713.794318	9632.430082
714.127985	9658.679370
714.461602	9321.506836
714.795171	9279.788768
715.128691	9025.223101
715.462162	8782.930124
715.795584	8724.621618
716.128957	8562.389725
716.462281	8398.012822
716.795556	8446.082744
717.128782	8236.416115
717.461960	7977.860375
717.795088	8048.290336
718.128167	7958.242725
718.461198	7793.235677
718.794180	7740.457317
719.127113	7725.323773
719.459997	7561.680358
719.792833	7343.622727
720.125619	7407.413488
720.458357	7258.893534
720.791046	7256.105776
721.123686	7247.603870
721.456278	7081.858293
721.788821	7099.550223
722.121315	7003.914493
722.453761	7068.438742
722.786158	7008.837180
723.118506	7017.628952
723.450805	6982.713921
723.783056	7046.343365
724.115259	6966.390665
724.447412	6963.625592
724.779518	7015.186513
725.111574	7007.586974
725.443582	7087.275013
725.775542	7068.602579
726.107453	7257.366065
726.439315	7173.045205
726.771129	7239.979125
727.102895	7417.528563
727.434612	7521.855242
727.766281	7564.039618
728.097901	7640.471072
728.429473	7639.672049
728.760996	7621.342413
729.092471	7599.783919
729.423897	7535.894856
729.755276	7538.203704
730.086606	7453.232536
730.417887	7559.484935
730.749120	7773.635671
731.080305	7965.325546
731.411442	8069.072492
731.742530	8063.292809
732.073570	8172.196856
732.404562	8261.296730
732.735506	8122.927139
733.066401	8247.907425
733.397249	8169.255343
733.728048	7938.315044
734.058798	7597.323836
734.389501	7369.229268
734.720156	7192.478853
735.050762	6964.222968
735.381320	6878.102417
735.711831	6814.984650
736.042293	6711.822478
736.372707	6725.846968
736.703073	6588.641883
737.033391	6633.941692
737.363661	6641.931921
737.693883	6679.964906
738.024056	6760.141937
738.354182	6793.854654
738.684260	6835.867630
739.014290	6953.775177
739.344272	7062.880870
739.674207	7094.022598
740.004093	7168.200656
740.333931	7179.704569
740.663722	7185.907709
740.993464	7260.637773
741.323159	7244.700166
741.652806	6997.454255
741.982405	7023.534664
742.311956	7075.080462
742.641460	6895.600262
742.970915	6701.798143
743.300323	6694.243974
743.629683	6647.394011
743.958996	6512.601119
744.288260	6423.831441
744.617477	6367.279777
744.946647	6370.816146
745.275768	6202.267688
745.604842	6160.584907
745.933869	6142.605632
746.262847	6103.882009
746.591778	6090.858188
746.920662	6046.806065
747.249498	6041.732144
747.578286	6092.617551
747.907027	6162.654301
748.235720	6224.199228
748.564365	6204.833635
748.892963	6239.617597
749.221514	6382.103290
749.550017	6197.644950
749.878473	6082.542805
750.206881	6145.721065
750.535242	6091.682417
750.863555	6020.816397
751.191821	6031.198653
751.520039	6034.361977
751.848210	5939.938645
752.176334	5963.853879
752.504411	6011.621332
752.832440	5938.824550
753.160421	5862.602304
753.488356	5915.357979
753.816243	5943.079284
754.144082	5795.993538
754.471875	5768.181492
754.799620	5810.685981
755.127318	5819.560932
755.454969	5782.483246
755.782572	5744.606536
756.110129	5788.318381
756.437638	5766.747284
756.765100	5707.241504
757.092515	5716.040838
757.419882	5768.373056
757.747203	5745.587041
758.074477	5806.030475
758.401703	5790.312158
758.728882	5747.043934
759.056014	5811.984078
759.383099	5929.077479
759.710138	5943.480055
760.037129	5926.556902
760.364073	5929.390030
760.690970	6013.156363
761.017820	5995.751780
761.344623	5951.061951
761.671379	6058.519186
761.998088	6183.023083
762.324751	6436.187309
762.651366	7061.602937
762.977935	8418.827746
763.304456	10063.743643
763.630931	10937.814185
763.957359	10502.533236
764.283740	9545.966732
764.610074	8688.864714
764.936362	7693.483846
765.262602	7089.667041
765.588796	6554.362037
765.914943	6225.608230
766.241044	6055.605399
766.567097	5843.153532
766.893104	5586.488225
767.219064	5410.546915
767.544978	5349.627091
767.870845	5269.394607
768.196665	5158.542155
768.522438	5088.646557
768.848165	5056.269746
769.173846	4984.634950
769.499479	4946.062561
769.825066	4891.280342
770.150607	4829.594263
770.476101	4811.698167
770.801548	4799.392711
771.126949	4722.008478
771.452303	4668.390766
771.777611	4630.914828
772.102872	4647.280934
772.428087	4613.530409
772.753256	4566.950148
773.078378	4522.925751
773.403453	4454.171975
773.728482	4438.194037
774.053465	4390.741656
774.378401	4379.464595
774.703291	4382.459041
775.028135	4300.855363
775.352932	4255.608486
775.677683	4242.473760
776.002388	4258.968415
776.327046	4267.067029
776.651658	4199.140002
776.976224	4137.161536
777.300743	4141.691012
777.625216	4166.677491
777.949643	4155.007220
778.274024	4116.311323
778.598359	4074.898244
778.922647	4098.576544
779.246889	4089.008434
779.571086	4078.527875
779.895236	4061.866862
780.219339	4053.455697
780.543397	4049.142989
780.867409	4099.814147
781.191374	4113.107670
781.515294	4047.050911
781.839167	4043.454047
782.162995	4061.110689
782.486776	4050.239440
782.810511	4062.643199
783.134201	4051.716498
783.457844	4005.857122
783.781441	3952.430973
784.104993	3961.799958
784.428498	3976.031135
784.751958	3972.845126
785.075372	3953.015747
785.398739	3913.823297
785.722061	3927.184875
786.045337	3976.099191
786.368568	4004.788397
786.691752	3913.735077
787.014891	3968.194662
787.337983	4098.344651
787.661030	4261.887243
787.984031	4425.354219
788.306987	4587.616358
788.629897	4676.370913
788.952760	4628.878202
789.275579	4557.195515
789.598351	4496.016072
789.921078	4343.793391
790.243759	4146.543123
790.566395	4132.017038
790.888984	4129.004949
791.211529	4019.642157
791.534027	3956.320224
791.856480	3943.399746
792.178888	3884.398082
792.501249	3840.814786
792.823566	3848.782330
793.145836	3874.726628
793.468062	3821.227383
793.790241	3781.404788
794.112375	3806.882780
794.434464	3874.199828
794.756507	3898.843508
795.078505	3871.709497
795.400457	3912.764654
795.722364	4055.487282
796.044226	4162.372346
796.366042	4237.188110
796.687812	4207.208368
797.009538	4210.762382
797.331218	4174.105632
797.652852	4151.281808
797.974442	4130.227428
798.295986	4124.566213
798.617484	4038.541443
798.938938	3957.744350
799.260346	4000.200947
799.581709	3993.740709
799.903026	3915.650715
800.224299	3881.247361
800.545526	3875.349211
800.866708	3835.443437
801.187845	3780.008388
801.508936	3812.896876
801.829983	3802.749033
802.150984	3729.342272
802.471940	3722.574523
802.792851	3726.113413
803.113717	3729.128023
803.434538	3727.656006
803.755314	3670.169208
804.076045	3649.830673
804.396731	3672.810773
804.717372	3696.698280
805.037967	3677.957791
805.358518	3662.272240
805.679024	3697.676264
805.999485	3710.793346
806.319901	3717.074624
806.640272	3729.001994
806.960598	3743.218048
807.280879	3711.466340
807.601115	3730.191706
807.921306	3749.290118
808.241453	3785.147845
808.561554	3757.703803
808.881611	3694.079401
809.201623	3736.727562
809.521590	3743.021443
809.841513	3717.326682
810.161390	3746.537648
810.481223	3720.971436
810.801011	3665.929597
811.120755	3661.934483
811.440453	3697.567879
811.760107	3697.572920
812.079716	3652.822597
812.399281	3624.329996
812.718801	3644.169457
813.038276	3620.407978
813.357707	3618.273050
813.677093	3633.310812
813.996434	3580.817277
814.315731	3593.508381
814.634983	3596.651541
814.954191	3613.234416
815.273354	3640.907830
815.592473	3634.689567
815.911547	3642.132831
816.230577	3687.835932
816.549562	3734.847212
816.868502	3782.319758
817.187399	3805.183911
817.506250	3798.948003
817.825058	3774.894138
818.143821	3868.150443
818.462539	3971.035352
818.781213	4018.318854
819.099843	4081.703802
819.418429	4339.662165
819.736970	4580.324329
820.055466	4831.366229
820.373919	5200.895409
820.692327	5618.703719
821.010691	6092.720894
821.329011	7538.725464
821.647286	10391.854703
821.965517	15071.822479
822.283704	19092.112424
822.601847	21147.789099
822.919945	19253.746940
823.237999	16612.764578
823.556010	14108.505870
823.873976	11973.514202
824.191897	9861.308549
824.509775	8514.516408
824.827609	7385.809623
825.145398	6855.644076
825.463144	6736.521611
825.780845	6842.325348
826.098502	7058.119500
826.416116	7985.301118
826.733685	9341.845371
827.051210	10439.541498
827.368692	10421.519373
827.686129	9109.160833
828.003522	7589.792352
828.320872	6580.520585
828.638177	5865.871492
828.955439	5298.439215
829.272656	4795.110250
829.589830	4522.340977
829.906960	4345.005788
830.224046	4154.114936
830.541088	4028.907798
830.858086	3981.175633
831.175041	3904.434148
831.491952	3889.656005
831.808819	3897.822674
832.125642	3980.774861
832.442421	4133.040392
832.759157	4418.614196
833.075849	4992.126104
833.392497	5878.832298
833.709101	6662.550240
834.025662	6981.526729
834.342179	6583.328507
834.658653	5906.175517
834.975083	5252.100929
835.291469	4666.059232
835.607811	4266.235239
835.924110	4122.753918
836.240366	3919.522321
836.556578	3717.717371
836.872746	3606.779219
837.188871	3565.151891
837.504952	3500.168897
837.820990	3411.071544
838.136984	3370.775081
838.452935	3394.919687
838.768842	3388.167062
839.084706	3412.929209
839.400526	3579.625044
839.716303	3934.948252
840.032037	4475.697702
840.347727	4724.614755
840.663373	4420.963374
840.978977	4032.867624
841.294537	3724.192733
841.610054	3495.717558
841.925527	3389.356774
842.240957	3321.089469
842.556344	3266.443361
842.871687	3205.026984
843.186987	3155.588388
843.502244	3119.103037
843.817458	3081.417891
844.132629	3054.790517
844.447756	3060.623132
844.762840	3045.618137
845.077881	3011.610513
845.392879	2995.695591
845.707833	2993.490086
846.022745	2990.457832
846.337613	2990.243583
846.652438	2981.023313
846.967221	2976.491315
847.281960	2961.514047
847.596656	2956.573716
847.911309	2958.779221
848.225919	2955.250413
848.540485	2946.929989
848.855009	2947.081224
849.169490	2937.351797
849.483928	2928.444078
849.798323	2927.982812
850.112675	2926.631783
850.426984	2937.508073
850.741251	2932.756785
851.055474	2921.832605
851.369654	2915.805905
851.683792	2920.806730
851.997887	2931.186466
852.311938	2933.142433
852.625947	2919.773293
852.939914	2924.680857
853.253837	2928.761671
853.567718	2914.139804
853.881555	2913.542427
854.195350	2929.011208
854.509103	2926.218408
854.822812	2915.614341
855.136479	2911.742735
855.450103	2915.142993
855.763685	2909.358269
856.077224	2908.133269
856.390720	2921.081473
856.704173	2927.597164
857.017584	2919.722882
857.330953	2916.927562
857.644278	2926.399890
857.957561	2936.966148
858.270802	2939.365738
858.584000	2936.469595
858.897155	2923.775969
859.210268	2923.612132
859.523339	2920.970567
859.836367	2921.194899
860.149352	2916.977973
860.462295	2913.935637
860.775195	2918.754980
861.088054	2917.852614
861.400869	2902.686302
861.713642	2900.090108
862.026373	2914.253230
862.339062	2920.068201
862.651708	2920.834456
862.964312	2926.500713
863.276873	2917.764393
863.589392	2930.447937
863.901869	2942.329936
864.214303	2965.680561
864.526696	2982.097078
864.839045	2976.229175
865.151353	2974.714308
865.463619	2974.137096
865.775842	2975.508290
866.088023	2992.786845
866.400162	3001.283710
866.712258	2969.138792
867.024313	2958.275106
867.336325	2968.097794
867.648296	2992.136536
867.960224	2985.162100
868.272110	2971.213227
868.583954	2973.612816
868.895755	2986.757625
869.207515	2975.399905
869.519233	2981.908035
869.830909	2992.945641
870.142542	3001.528206
870.454134	3000.590551
870.765684	3002.889317
871.077191	3001.704646
871.388657	3013.241327
871.700081	3026.444109
872.011463	3038.913403
872.322803	3037.360727
872.634101	3035.954245
872.945357	3054.178017
873.256571	3077.281625
873.567744	3070.060172
873.878874	3063.781415
874.189963	3090.544900
874.501010	3087.646237
874.812015	3079.144331
875.122979	3079.998807
875.433900	3076.316244
875.744780	3083.540217
876.055618	3090.078594
876.366415	3086.736309
876.677169	3097.635283
876.987882	3094.325766
877.298554	3089.904674
877.609183	3115.223869
877.919771	3136.878145
878.230317	3166.910819
878.540822	3216.530897
878.851285	3256.761825
879.161707	3305.426604
879.472087	3414.073551
879.782425	3657.074811
880.092722	4106.876804
880.402977	4646.847395
880.713191	5296.367301
881.023363	6498.581670
881.333494	7798.894372
881.643583	8327.913057
881.953631	8014.572578
882.263637	7350.811413
882.573602	6738.863227
882.883526	6155.926881
883.193408	5577.512451
883.503248	5125.769613
883.813048	4812.807221
884.122806	4491.428622
884.432522	4169.472811
884.742197	3930.567489
885.051831	3739.651431
885.361424	3606.905248
885.670975	3530.819113
885.980485	3444.096143
886.289954	3360.660006
886.599382	3318.011844
886.908768	3281.345012
887.218113	3235.326839
887.527417	3173.325688
887.836680	3127.320118
888.145901	3123.191413
888.455082	3109.466871
888.764221	3057.777400
889.073319	3028.185827
889.382376	3026.706249
889.691392	3031.092053
890.000366	3031.092053
890.309300	3014.892305
890.618193	3030.197248
890.927044	3044.511604
891.235855	3044.115873
891.544625	3032.826209
891.853353	3045.779454
892.162041	3066.382650
892.470687	3101.832044
892.779293	3155.250631
893.087858	3203.224771
893.396381	3279.416770
893.704864	3409.430649
894.013306	3656.585819
894.321707	3967.130978
894.630068	4169.329138
894.938387	4157.424453
895.246665	4117.425418
895.554903	3986.302486
895.863100	3782.448307
896.171256	3611.522945
896.479371	3470.922643
896.787446	3343.295751
897.095480	3238.979155
897.403473	3178.268539
897.711425	3139.882673
898.019336	3129.936477
898.327207	3098.482197
898.635038	3061.192782
898.942827	3049.192315
899.250576	3038.270656
899.558284	3007.131448
899.865952	2988.048160
900.173579	2963.129737
900.481165	2956.737554
900.788711	2943.343208
901.096216	2917.986204
901.403681	2907.934143
901.711105	2915.047212
902.018489	2913.461769
902.325832	2910.986562
902.633135	2926.314190
902.940397	2958.161680
903.247619	3044.919938
903.554800	3248.295207
903.861941	3612.311885
904.169041	4054.030388
904.476101	4346.082074
904.783121	4285.401706
905.090100	4024.892519
905.397039	3742.751741
905.703938	3494.099348
906.010796	3310.092192
906.317614	3193.863348
906.624391	3096.029676
906.931129	3025.899664
907.237826	2961.433389
907.544483	2912.798857
907.851099	2886.857079
908.157675	2861.767257
908.464211	2842.721777
908.770707	2826.239725
909.077163	2814.135914
909.383578	2799.216620
909.689954	2787.566513
909.996289	2788.564662
910.302584	2787.614404
910.608839	2787.011986
910.915054	2780.395472
911.221229	2775.155192
911.527363	2778.255502
911.833458	2786.255813
912.139513	2790.409724
912.445527	2792.826957
912.751502	2805.901190
913.057436	2811.454021
913.363331	2826.075887
913.669186	2849.716378
913.975000	2886.531925
914.280775	2948.913683
914.586510	3019.381452
914.892205	3101.426231
915.197859	3237.600399
915.503475	3440.574897
915.809050	3656.971467
916.114585	3806.928150
916.420081	3819.377279
916.725536	3757.683639
917.030952	3632.809217
917.336328	3499.715193
917.641665	3367.165615
917.946961	3264.976385
918.252218	3192.492155
918.557435	3111.947119
918.862612	3051.954868
919.167750	3002.181035
919.472848	2966.416569
919.777906	2936.383895
920.082925	2905.960532
920.387904	2875.819473
920.692843	2862.311701
920.997743	2846.946264
921.302603	2834.509738
921.607423	2823.998932
921.912204	2808.583083
922.216946	2797.179993
922.521647	2791.463325
922.826310	2784.677932
923.130932	2774.913217
923.435516	2763.676485
923.740059	2758.199271
924.044564	2746.846593
924.349028	2744.293248
924.653454	2737.724625
924.957840	2728.458984
925.262186	2728.297667
925.566493	2724.428582
925.870761	2719.478169
926.174989	2712.627241
926.479178	2709.728577
926.783328	2705.088195
927.087438	2703.346476
927.391509	2700.074767
927.695541	2699.535364
927.999533	2695.512523
928.303486	2691.305680
928.607400	2691.078828
928.911275	2691.063705
929.215110	2689.485824
929.518906	2689.188396
929.822663	2688.210412
930.126381	2689.349713
930.430060	2689.332069
930.733699	2690.365505
931.037299	2692.898685
931.340861	2693.178469
931.644383	2694.373222
931.947866	2692.177800
932.251309	2692.079497
932.554714	2690.042871
932.858080	2687.970957
933.161407	2684.999197
933.464694	2684.084227
933.767943	2681.435101
934.071153	2683.950637
934.374323	2685.011800
934.677455	2682.387879
934.980548	2680.076510
935.283602	2680.378979
935.586617	2680.268074
935.889593	2680.966274
936.192530	2681.097344
936.495428	2680.809998
936.798287	2685.291584
937.101108	2687.144208
937.403890	2691.227542
937.706632	2696.639221
938.009336	2701.584593
938.312002	2710.653629
938.614628	2719.354660
938.917216	2726.215671
939.219765	2726.382029
939.522275	2724.978067
939.824747	2721.817264
940.127179	2721.623180
940.429573	2718.439691
940.731929	2716.350133
941.034246	2711.429967
941.336524	2707.739842
941.638763	2706.693802
941.940964	2703.293544
942.243126	2701.995447
942.545250	2699.530323
942.847335	2697.755837
943.149381	2695.935980
943.451389	2689.309383
943.753359	2687.295442
944.055290	2686.811492
944.357182	2684.202695
944.659036	2684.386697
944.960851	2684.149762
945.262628	2683.320493
945.564367	2679.343022
945.866067	2682.972653
946.167729	2684.134639
946.469352	2686.075483
946.770937	2682.796213
947.072484	2679.292611
947.373992	2680.182374
947.675462	2678.914524
947.976893	2677.248423
948.278286	2674.047290
948.579641	2673.903617
948.880958	2672.388751
949.182236	2675.118535
949.483476	2672.645849
949.784678	2671.514110
950.085841	2672.691220
950.386967	2675.925120
950.688054	2674.932013
950.989103	2676.222548
951.290114	2677.528207
951.591087	2679.554751
951.892021	2681.656912
952.192917	2683.312931
952.493776	2687.809640
952.794596	2686.725792
953.095378	2686.262006
953.396122	2684.237983
953.696828	2682.889474
953.997496	2684.086748
954.298126	2677.422343
954.598718	2677.475275
954.899272	2676.787157
955.199788	2673.671724
955.500266	2671.665345
955.800706	2667.463543
956.101108	2665.527740
956.401472	2663.118069
956.701798	2661.661175
957.002087	2660.410969
957.302337	2659.571617
957.602550	2660.068171
957.902724	2657.746719
958.202861	2654.999290
958.502960	2655.715134
958.803022	2655.768066
959.103045	2652.329999
959.403031	2651.896460
959.702979	2652.176244
960.002889	2651.513333
960.302762	2650.265647
960.602596	2650.227838
960.902393	2649.620379
961.202153	2649.464103
961.501875	2648.879330
961.801559	2645.703403
962.101205	2646.794812
962.400814	2647.666932
962.700385	2646.880512
962.999918	2644.778351
963.299414	2643.732312
963.598873	2643.041673
963.898293	2641.869605
964.197677	2646.167189
964.497022	2648.902015
964.796331	2644.881695
965.095601	2646.371356
965.394835	2645.252219
965.694030	2646.593166
965.993189	2644.344812
966.292309	2649.017961
966.591393	2646.782210
966.890439	2645.494195
967.189447	2643.840696
967.488419	2644.470841
967.787353	2646.988897
968.086249	2646.633496
968.385108	2646.525111
968.683930	2644.077631
968.982714	2645.090902
969.281462	2646.935965
969.580172	2647.644247
969.878844	2645.055614
970.177480	2646.094092
970.476078	2645.784061
970.774639	2646.096613
971.073162	2644.748104
971.371649	2646.981335
971.670098	2648.120636
971.968510	2645.209370
972.266885	2645.761376
972.565223	2648.047539
972.863524	2646.378917
973.161788	2646.129380
973.460014	2645.930255
973.758204	2645.411016
974.056356	2645.403454
974.354471	2645.655512
974.652550	2646.903197
974.950591	2647.213228
975.248595	2646.225162
975.546563	2644.433032
975.844493	2644.299441
976.142386	2646.361273
976.440243	2643.187867
976.738062	2644.231386
977.035845	2646.182312
977.333590	2644.637199
977.631299	2644.392703
977.928971	2639.817856
978.226606	2641.178967
978.524204	2640.982362
978.821765	2639.079327
979.119290	2642.857671
979.416777	2642.345994
979.714228	2641.539410
980.011642	2642.628299
980.309020	2643.964205
980.606360	2644.790954
980.903664	2643.729791
981.200931	2643.525624
981.498162	2644.735501
981.795356	2647.437560
982.092513	2645.718526
982.389633	2651.505771
982.686717	2652.352685
982.983764	2654.747233
983.280775	2660.365599
983.577749	2660.829385
983.874686	2658.636483
984.171587	2658.835608
984.468451	2657.018272
984.765279	2652.211532
985.062070	2648.841521
985.358824	2650.908394
985.655543	2648.657519
985.952224	2646.789771
986.248869	2646.953609
986.545478	2645.302631
986.842050	2644.705254
987.138586	2643.046715
987.435086	2643.155099
987.731549	2641.403298
988.027975	2641.559574
988.324366	2642.610655
988.620719	2641.100829
988.917037	2641.483957
989.213318	2642.073772
989.509563	2636.851137
989.805772	2641.713329
990.101944	2638.446662
990.398080	2639.792650
990.694180	2641.602424
990.990244	2641.010088
991.286271	2640.553864
991.582262	2637.443472
991.878217	2639.321302
992.174136	2643.031591
992.470019	2640.042187
992.765865	2636.934316
993.061676	2634.267545
993.357450	2637.141003
993.653188	2634.784263
993.948890	2638.943215
994.244556	2640.521097
994.540186	2641.695685
994.835780	2642.018319
995.131337	2639.497742
995.426859	2637.970273
995.722345	2640.810963
996.017795	2643.475213
996.313208	2645.988228
996.608586	2645.100985
996.903928	2644.097795
997.199234	2646.061325
997.494504	2646.633496
997.789738	2645.214411
998.084936	2642.305665
998.380099	2641.463792
998.675225	2642.600572
998.970316	2642.353556
999.265371	2641.849441
999.560390	2642.928248
999.855373	2641.017650
1000.150320	2640.836169
1000.445232	2638.033287
1000.740108	2638.471867
1001.034948	2640.632002
1001.329752	2637.748462
1001.624521	2638.050931
1001.919254	2637.365334
1002.213951	2640.558905
1002.508613	2638.197125
1002.803239	2638.497073
1003.097829	2637.511528
1003.392384	2635.547998
1003.686903	2636.974645
1003.981386	2639.497742
1004.275834	2639.076806
1004.570246	2636.160498
1004.864623	2635.916002
1005.158964	2636.828451
1005.453270	2637.786271
1005.747540	2639.464975
1006.041775	2636.367186
1006.335974	2635.832823
1006.630138	2637.193935
1006.924266	2636.704943
1007.218359	2637.163688
1007.512416	2633.491207
1007.806438	2634.040693
1008.100425	2636.163019
1008.394376	2632.112452
1008.688292	2638.542444
1008.982172	2635.510190
1009.276017	2636.263842
1009.569827	2637.629995
1009.863602	2637.166209
1010.157341	2639.200314
1010.451045	2637.521610
1010.744714	2639.119656
1011.038347	2637.478760
1011.331945	2635.789974
1011.625508	2636.311733
1011.919036	2636.536064
1012.212528	2637.158647
1012.505986	2637.020015
1012.799408	2638.078657
1013.092795	2635.905920
1013.386147	2634.643111
1013.679464	2636.175622
1013.972745	2634.897689
1014.265992	2638.098822
1014.559204	2635.023718
1014.852380	2636.198307
1015.145521	2633.629839
1015.438628	2636.939357
1015.731699	2637.216620
1016.024736	2637.224182
1016.317737	2637.070427
1016.610703	2636.238636
1016.903635	2635.769809
1017.196531	2634.575056
1017.489393	2635.240488
1017.782219	2637.317443
1018.075011	2636.664614
1018.367768	2636.901548
1018.660490	2635.784932
1018.953177	2635.784932
1019.245829	2635.784932
