Dividing Wavelength (nm)	Counts (n)	Blue Motor Position (mm): 25.700000	Red Motor Position (mm): 0.000000	
326.493990	2199.747810
326.888308	2199.747810
327.282561	2199.747810
327.676750	2160.457057
328.070874	2157.923877
328.464933	2155.909936
328.858929	2163.814465
329.252859	2166.014929
329.646726	2174.249654
330.040528	2186.691222
330.434265	2199.500793
330.827938	2217.606098
331.221547	2235.227451
331.615091	2252.067425
332.008571	2270.530651
332.401986	2287.433640
332.795338	2307.973821
333.188625	2327.394867
333.581847	2343.587053
333.975006	2363.045907
334.368100	2382.348485
334.761129	2403.922103
335.154095	2419.423651
335.546996	2443.026333
335.939833	2478.337095
336.332606	2495.129178
336.725315	2508.185767
337.117960	2520.788652
337.510540	2533.820034
337.903056	2542.621889
338.295508	2551.423743
338.687896	2560.780125
339.080220	2565.763306
339.472480	2573.269584
339.864676	2582.890626
340.256807	2588.287181
340.648875	2588.050247
341.040879	2591.243818
341.432818	2593.224991
341.824694	2599.133223
342.216506	2600.317895
342.608253	2596.796649
342.999937	2601.119438
343.391557	2599.347472
343.783113	2598.596341
344.174605	2599.029880
344.566033	2595.143150
344.957397	2597.830085
345.348697	2595.223809
345.739934	2596.053078
346.131106	2587.977150
346.522215	2590.361616
346.913260	2589.030751
347.304241	2586.016141
347.695159	2584.894484
348.086012	2583.185533
348.476802	2579.432394
348.867528	2579.039184
349.258191	2574.602969
349.648789	2576.362332
350.039324	2566.675754
350.429796	2576.193453
350.820203	2572.173133
351.210548	2572.604151
351.600828	2569.299675
351.991045	2568.898903
352.381198	2567.474777
352.771288	2567.880590
353.161314	2568.301527
353.551276	2564.848336
353.941175	2566.481670
354.331010	2564.286247
354.720782	2564.946639
355.110490	2567.477298
355.500135	2563.880435
355.889717	2565.060065
356.279235	2565.390260
356.668689	2565.349931
357.058080	2565.125600
357.447408	2564.810527
357.836672	2566.005281
358.225873	2566.567370
358.615010	2569.216496
359.004084	2566.418656
359.393095	2568.165415
359.782043	2568.452761
360.170927	2565.637277
360.559748	2567.729356
360.948505	2568.551064
361.337199	2572.967114
361.725830	2570.517114
362.114398	2572.097515
362.502903	2570.975859
362.891344	2572.372258
363.279722	2571.968966
363.668037	2575.301169
364.056289	2571.323698
364.444478	2574.741601
364.832603	2571.401836
365.220665	2575.684296
365.608665	2574.744121
365.996601	2577.063052
366.384474	2576.790830
366.772284	2578.524987
367.160031	2575.570870
367.547715	2577.758731
367.935336	2576.483319
368.322893	2578.653536
368.710388	2573.352763
369.097820	2575.018864
369.485189	2571.237999
369.872495	2579.921386
370.259738	2578.787127
370.646918	2580.080183
371.034035	2581.544638
371.421090	2580.319637
371.808081	2580.982549
372.195010	2580.738053
372.581875	2581.514391
372.968678	2580.102868
373.355418	2583.210739
373.742096	2584.297108
374.128710	2583.452714
374.515262	2581.554720
374.901751	2583.724937
375.288177	2584.478589
375.674540	2581.237127
376.060841	2585.380956
376.447079	2583.470358
376.833254	2583.850966
377.219367	2584.312231
377.605417	2585.474217
377.991404	2583.278795
378.377329	2586.192582
378.763191	2584.350040
379.148991	2584.796182
379.534727	2585.915318
379.920402	2586.560586
380.306013	2584.655030
380.691563	2587.367170
381.077049	2587.654516
381.462474	2588.635021
381.847835	2586.603436
382.233134	2588.335072
382.618371	2588.554362
383.003545	2589.376070
383.388657	2586.013621
383.773706	2588.070411
384.158693	2588.163673
384.543618	2590.953951
384.928480	2587.558734
385.313280	2587.505802
385.698017	2588.521595
386.082692	2591.634507
386.467305	2590.898499
386.851856	2592.660382
387.236344	2591.001842
387.620770	2586.984043
388.005133	2589.539908
388.389435	2588.408169
388.773674	2590.709455
389.157851	2594.051740
389.541965	2592.912440
389.926018	2592.516709
390.310008	2594.018973
390.693936	2593.683736
391.077802	2593.567790
391.461606	2593.693818
391.845348	2593.146853
392.229027	2594.949066
392.612645	2594.235742
392.996200	2595.201123
393.379694	2593.333376
393.763125	2593.378746
394.146494	2596.141299
394.529801	2597.038624
394.913047	2597.802359
395.296230	2596.295054
395.679351	2597.159612
396.062410	2598.777822
396.445408	2596.673140
396.828343	2598.258583
397.211217	2598.432503
397.594028	2598.966865
397.976778	2598.556011
398.359466	2601.152206
398.742092	2598.808069
399.124656	2600.907710
399.507158	2599.513831
399.889598	2602.301589
400.271977	2600.829572
400.654294	2602.500714
401.036549	2601.167329
401.418742	2601.056424
401.800874	2602.044490
402.182944	2601.043821
402.564952	2601.953749
402.946898	2603.009871
403.328783	2604.822166
403.710606	2602.387288
404.092367	2603.161105
404.474067	2604.176898
404.855705	2604.209665
405.237282	2604.295365
405.618797	2604.333174
406.000250	2606.528596
406.381642	2605.898452
406.762972	2603.274531
407.144240	2602.800663
407.525447	2604.524738
407.906593	2599.783532
408.287677	2605.212855
408.668700	2608.114039
409.049661	2606.994903
409.430560	2607.688062
409.811399	2607.662856
410.192176	2610.190994
410.572891	2608.683689
410.953545	2609.518000
411.334138	2609.656632
411.714669	2609.086982
412.095139	2607.919955
412.475547	2607.027670
412.855894	2608.822321
413.236180	2610.881632
413.616405	2609.583535
413.996568	2609.669235
414.376670	2610.858947
414.756711	2610.662342
415.136691	2612.472117
415.516609	2612.106633
415.896466	2613.739967
416.276262	2611.622682
416.655997	2611.970522
417.035670	2613.339195
417.415283	2613.109822
417.794834	2612.774586
418.174324	2613.245934
418.553753	2611.347939
418.933121	2616.315996
419.312428	2613.954216
419.691674	2614.145780
420.070859	2615.068311
420.449983	2614.060080
420.829045	2615.252313
421.208047	2617.379680
421.586988	2619.864969
421.965867	2617.326748
422.344686	2618.965123
422.723444	2618.120729
423.102141	2617.170472
423.480777	2618.627365
423.859352	2618.115688
424.237866	2616.547889
424.616319	2616.774741
424.994712	2618.405555
425.373044	2619.048302
425.751314	2616.610904
426.129524	2616.840276
426.507673	2617.485544
426.885762	2615.272477
427.263789	2619.486882
427.641756	2623.050978
428.019662	2621.132819
428.397508	2620.207767
428.775292	2624.137347
429.153016	2620.651389
429.530679	2623.741616
429.908282	2624.149949
430.285824	2624.412089
430.663305	2625.979888
431.040726	2625.669857
431.418086	2626.300002
431.795385	2626.037862
432.172624	2625.982409
432.549802	2628.949128
432.926920	2629.387708
433.303977	2628.475259
433.680974	2630.857205
434.057910	2627.961062
434.434786	2629.806124
434.811601	2627.963582
435.188355	2632.215796
435.565050	2633.534057
435.941683	2632.641773
436.318257	2633.476084
436.694770	2635.177473
437.071222	2634.373409
437.447614	2634.595220
437.823946	2638.111425
438.200218	2637.771147
438.576429	2638.388688
438.952580	2638.565129
439.328670	2638.885242
439.704700	2639.928761
440.080670	2638.129069
440.456580	2644.170892
440.832429	2644.037301
441.208218	2643.190387
441.583947	2643.548309
441.959616	2649.572488
442.335224	2649.796820
442.710773	2651.067190
443.086261	2654.560710
443.461689	2654.908550
443.837057	2658.328972
444.212365	2660.161432
444.587612	2660.388284
444.962800	2665.252997
445.337927	2667.942453
445.712995	2665.676454
446.088002	2680.321006
446.462949	2684.716892
446.837837	2689.584126
447.212664	2696.639221
447.587431	2711.682024
447.962139	2723.299363
448.336786	2760.019128
448.711374	2783.576440
449.085901	2770.078750
449.460369	2779.914042
449.834776	2786.021399
450.209124	2820.560865
450.583412	2852.473889
450.957640	2900.667320
451.331808	2902.260325
451.705917	2902.817372
452.079965	2913.844896
452.453954	2969.002681
452.827883	2989.913387
453.201752	3035.533309
453.575562	3055.506361
453.949311	3111.097685
454.323001	3153.645023
454.696632	3218.501988
455.070202	3286.492030
455.443713	3359.979450
455.817164	3451.778862
456.190556	3519.179088
456.563888	3622.731950
456.937160	3712.464489
457.310373	3721.160479
457.683526	3788.394348
458.056619	3821.290397
458.429653	3907.690733
458.802628	3936.236267
459.175542	4064.768046
459.548398	4268.206330
459.921194	4431.791772
460.293930	4545.043814
460.666607	4818.861647
461.039224	5121.600579
461.411782	5396.419081
461.784280	5494.638402
462.156719	5630.187467
462.529099	5661.253578
462.901419	5566.527777
463.273680	5639.894209
463.645882	5728.802519
464.018024	5780.290344
464.390106	5969.273119
464.762130	6307.247196
465.134094	6641.097610
465.505999	7368.783126
465.877845	8575.789112
466.249631	9687.018216
466.621358	9805.439961
466.993026	9547.703409
467.364634	9538.765443
467.736184	9282.420250
468.107674	9169.631994
468.479105	9398.268486
468.850477	9413.104602
469.221790	9421.233462
469.593043	9328.166200
469.964238	9311.696751
470.335373	9331.775667
470.706449	9684.351446
471.077467	9637.771184
471.448425	10627.868923
471.819324	12721.480280
472.190164	14013.124719
472.560945	12574.049215
472.931667	11541.814992
473.302330	11396.113043
473.672934	11284.985848
474.043479	11690.211438
474.413965	11769.879313
474.784393	11752.638567
475.154761	12308.511478
475.525070	12515.004701
475.895321	12458.793315
476.265513	13016.052543
476.635645	13540.337585
477.005719	13621.704328
477.375734	13920.634669
477.745691	14431.517803
478.115588	14912.837090
478.485427	15467.442151
478.855207	16341.618557
479.224928	17700.743881
479.594591	19501.398664
479.964194	19781.306211
480.333739	20279.402458
480.703226	20147.972015
481.072653	20148.307252
481.442022	20763.310377
481.811333	21613.811004
482.180584	21804.900982
482.549777	21266.904002
482.918912	21208.174560
483.287988	21478.529120
483.657005	21406.148233
484.025964	21331.491265
484.394864	21496.790700
484.763706	21421.710275
485.132489	21142.647122
485.501213	21398.016852
485.869879	21511.531034
486.238487	21423.822519
486.607036	21754.358373
486.975527	21577.365983
487.343959	21996.593378
487.712333	22125.094910
488.080648	21913.626068
488.448905	22466.403710
488.817104	22324.270898
489.185244	23031.968240
489.553326	23150.735304
489.921350	24084.402366
490.289315	26220.099796
490.657222	28010.659669
491.025070	28590.062166
491.392861	28506.799948
491.760593	27835.802207
492.128267	27132.790618
492.495883	26238.689051
492.863440	25497.646997
493.230939	24722.330139
493.598380	24632.012826
493.965763	24317.792666
494.333088	23950.753816
494.700354	23909.161776
495.067563	23874.397979
495.434713	23670.233769
495.801805	23843.659544
496.168839	23732.572678
496.535815	23576.271703
496.902733	23823.983920
497.269593	23513.012784
497.636395	23732.870106
498.003139	23769.466362
498.369825	23543.514285
498.736453	23740.134408
499.103023	23663.113139
499.469535	23695.472306
499.835989	23910.177569
500.202385	23959.424601
500.568723	23487.184432
500.935003	23771.603811
501.301226	23361.092571
501.667390	24200.462331
502.033497	24460.154851
502.399546	24185.195196
502.765537	23805.402227
503.131470	24193.873543
503.497345	24343.661347
503.863163	23552.485018
504.228923	24199.602814
504.594625	24385.593665
504.960269	23899.475199
505.325856	24409.985287
505.691385	23834.766948
506.056856	24420.249077
506.422270	24403.961109
506.787625	24019.530278
507.152924	24409.604680
507.518164	24422.099180
507.883347	24242.384566
508.248472	23950.181645
508.613540	24711.017789
508.978550	24500.509287
509.343503	24487.961855
509.708398	24765.863023
510.073236	24927.638691
510.438016	25123.865604
510.802738	24814.303470
511.167403	25066.293107
511.532010	24755.606795
511.896561	25541.925972
512.261053	25514.083679
512.625488	25360.562901
512.989866	25259.893579
513.354186	25111.187102
513.718449	25195.097108
514.082655	25585.315183
514.446803	25324.120400
514.810894	25779.976818
515.174927	25261.678147
515.538904	25290.647138
515.902822	25790.119620
516.266684	25539.087803
516.630488	25448.858710
516.994235	25445.241683
517.357925	25718.071449
517.721558	25915.974546
518.085133	25991.077656
518.448651	25927.211278
518.812112	25637.841486
519.175516	25830.678223
519.538863	26001.845561
519.902152	25782.767097
520.265385	26085.117861
520.628560	25866.233481
520.991678	25884.343827
521.354739	25967.510262
521.717743	26012.464752
522.080690	25814.397817
522.443580	26141.452755
522.806413	26137.581149
523.169189	26228.276548
523.531908	26291.144777
523.894569	25886.385494
524.257174	25961.453316
524.619722	26174.129514
524.982213	25837.776168
525.344647	25926.203048
525.707025	26031.054006
526.069345	26031.812700
526.431608	25982.059032
526.793815	26181.235021
527.155964	25609.484995
527.518057	25799.798635
527.880093	25718.028599
528.242072	25948.863034
528.603995	25652.264227
528.965860	25444.162876
529.327669	25509.360118
529.689421	25499.837379
530.051117	25329.272459
530.412755	25498.733366
530.774337	25310.272350
531.135862	25189.355234
531.497331	25380.530911
531.858743	24930.164309
532.220098	25413.495016
532.581396	25086.601395
532.942638	25031.791450
533.303824	25123.827796
533.664953	25145.892926
534.026025	24810.167203
534.387040	25050.410952
534.747999	25110.627534
535.108902	25275.029643
535.469748	24756.559573
535.830537	24968.865247
536.191270	25073.265023
536.551947	24967.357942
536.912567	24626.409584
537.273131	24935.351656
537.633638	24657.616847
537.994089	24871.351688
538.354483	24411.575772
538.714821	24921.183493
539.075103	24958.258659
539.435328	24748.992801
539.795497	24289.559684
540.155609	24704.970925
540.515665	24990.290151
540.875665	24250.679785
541.235609	24506.830894
541.595496	24485.557225
541.955328	24844.842780
542.315102	24757.366158
542.674821	24325.732483
543.034483	24187.307440
543.394090	24368.557085
543.753640	24156.851309
544.113134	24783.862463
544.472571	24383.161308
544.831953	24667.273177
545.191278	24276.777838
545.550548	24221.088212
545.909761	24435.175933
546.268918	24643.453725
546.628019	24604.737663
546.987064	24319.748634
547.346053	24080.480349
547.704986	24206.302507
548.063863	24354.469581
548.422684	24365.093813
548.781449	23919.299537
549.140158	24312.101203
549.498811	23878.808989
549.857408	23623.000678
550.215949	24062.974942
550.574434	23742.705397
550.932864	23963.152534
551.291237	24112.474032
551.649555	23983.281861
552.007817	24026.431618
552.366022	23901.174068
552.724173	23952.155257
553.082267	23878.105748
553.440305	24343.600853
553.798288	23616.996664
554.156215	24151.777387
554.514086	24226.487288
554.871902	23599.017389
555.229661	23887.187387
555.587365	23755.381378
555.945014	23592.819290
556.302606	23859.972718
556.660143	23790.717346
557.017625	24062.644746
557.375050	23589.918106
557.732421	23981.731707
558.089735	23793.265649
558.446994	23845.562579
558.804197	23863.819118
559.161345	23832.740405
559.518437	23570.048398
559.875474	23774.230253
560.232455	23953.828920
560.589381	23782.331387
560.946251	23753.785853
561.303065	24072.487599
561.659825	24154.902903
562.016528	23766.320682
562.373177	23508.979861
562.729770	23858.982131
563.086307	23740.068873
563.442789	23893.934971
563.799216	23735.272216
564.155587	23748.505244
564.511904	23731.062852
564.868164	23644.856601
565.224370	23645.940449
565.580520	23542.884141
565.936615	23688.397047
566.292654	23351.862219
566.648638	23666.568850
567.004567	23484.389112
567.360441	23430.017747
567.716260	23158.372652
568.072023	23485.858608
568.427732	23247.890941
568.783385	23039.809754
569.138982	23265.625720
569.494525	23305.218943
569.850013	23040.686915
570.205445	23157.550944
570.560823	22956.839924
570.916145	22725.831569
571.271412	22886.835941
571.626625	22653.105363
571.981782	22756.935489
572.336884	22565.916087
572.691931	22707.537222
573.046923	22446.642387
573.401860	22316.318478
573.756743	22319.517090
574.111570	22238.220923
574.466342	22168.811796
574.821059	22260.613728
575.175722	21955.079476
575.530330	21941.856529
575.884882	21984.146769
576.239380	21865.132688
576.593823	21772.682968
576.948211	21747.043659
577.302544	21594.266451
577.656823	21466.206020
578.011047	21556.581305
578.365216	21439.523192
578.719330	21313.680869
579.073389	21214.274356
579.427394	21358.653002
579.781344	21132.063219
580.135239	21019.292608
580.489080	20994.578351
580.842866	20753.548183
581.196597	20937.091553
581.550273	20936.156419
581.903895	20817.429684
582.257463	21131.138168
582.610975	20666.212713
582.964434	20965.241356
583.317837	20674.868374
583.671186	20770.582242
584.024481	20736.980431
584.377721	20512.754949
584.730906	20556.088707
585.084037	20598.154615
585.437113	20494.518575
585.790135	20700.648835
586.143103	20174.753145
586.496016	20187.981133
586.848874	20418.455125
587.201679	20358.624190
587.554428	20023.684888
587.907124	20359.309787
588.259765	20141.161416
588.612352	20213.338137
588.964884	19781.623803
589.317362	19952.786100
589.669786	20012.816160
590.022155	20055.567665
590.374470	20233.648945
590.726731	20041.041580
591.078937	19785.394587
591.431090	19901.419263
591.783188	19639.183481
592.135232	19615.663978
592.487222	19707.803667
592.839157	19741.287011
593.191038	19615.661457
593.542866	19512.345530
593.894639	19228.059741
594.246358	19454.034503
594.598022	19351.315952
594.949633	19112.360219
595.301190	19071.925124
595.652692	19240.231607
596.004141	19473.536207
596.355535	18812.956010
596.706876	18819.806938
597.058162	18711.540597
597.409395	18929.814997
597.760573	19026.224544
598.111698	18790.074212
598.462768	18731.737980
598.813785	18692.782464
599.164748	18515.883334
599.515657	18542.399803
599.866511	18335.699893
600.217312	18701.359987
600.568060	18223.624960
600.918753	18538.770172
601.269392	18438.733516
601.619978	18216.665647
601.970510	18426.730528
602.320988	18378.015338
602.671412	18587.364375
603.021783	18495.096136
603.372100	18216.479125
603.722363	18354.531123
604.072572	18295.400909
604.422728	18434.070448
604.772830	18192.279066
605.122878	18141.701169
605.472872	18137.080952
605.822813	18126.832286
606.172701	18087.680165
606.522534	18289.709446
606.872314	18313.677612
607.222041	18146.568403
607.571714	18360.706536
607.921333	18186.580041
608.270899	18263.407226
608.620411	18451.417059
608.969870	18212.239514
609.319276	18222.105053
609.668627	18245.775790
610.017926	18380.200678
610.367171	18485.838057
610.716362	18535.135501
611.065500	18365.127628
611.414585	18483.569538
611.763616	18473.323393
612.112594	18417.245597
612.461518	18390.565291
612.810389	18582.197192
613.159207	18437.737888
613.507971	18342.563424
613.856682	18628.409450
614.205340	18555.118634
614.553945	18702.287559
614.902496	18444.757694
615.250994	18675.319907
615.599439	18624.245457
615.947830	18606.621583
616.296169	18652.314601
616.644454	18621.331670
616.992686	18592.884438
617.340864	18798.369431
617.688990	18565.082475
618.037063	18732.826869
618.385082	18588.969983
618.733048	18871.141007
619.080961	18733.149503
619.428821	18773.350184
619.776628	18662.717022
620.124382	18594.421990
620.472083	18623.070868
620.819731	18637.871695
621.167326	18334.883226
621.514868	18374.249596
621.862357	18129.327657
622.209793	18146.780132
622.557176	17987.681316
622.904506	17824.179053
623.251783	17732.122543
623.599007	17480.198441
623.946179	17435.135567
624.293297	17379.377885
624.640363	17132.265564
624.987376	17154.756672
625.334336	16946.277234
625.681243	16777.307840
626.028097	16803.007642
626.374899	16727.909573
626.721647	16596.577433
627.068343	16426.362873
627.414987	16352.139445
627.761577	16334.311404
628.108115	16368.830705
628.454600	16097.167966
628.801032	16193.552307
629.147412	16130.416896
629.493739	16144.272507
629.840014	15956.797037
630.186236	16052.473096
630.532405	15813.456868
630.878521	16014.452713
631.224585	15908.464974
631.570597	15731.780094
631.916556	15764.681184
632.262462	15751.334729
632.608316	15662.224773
632.954117	15608.843995
633.299866	15598.716317
633.645562	15514.874367
633.991206	15285.272495
634.336797	15145.566998
634.682336	15112.653305
635.027823	15008.762686
635.373257	14890.358585
635.718639	14787.506443
636.063968	14732.535181
636.409245	14484.399507
636.754470	14524.988357
637.099642	14372.616961
637.444762	14135.181136
637.789829	14175.177650
638.134845	14014.286705
638.479808	14044.957085
638.824719	13991.956914
639.169577	13842.322865
639.514383	13892.273138
639.859137	13708.845714
640.203839	13793.426193
640.548489	13631.300165
640.893086	13620.282723
641.237632	13489.953772
641.582125	13644.129901
641.926566	13479.758039
642.270955	13485.310870
642.615292	13443.358387
642.959576	13459.220378
643.303809	13488.748937
643.647990	13431.410853
643.992118	13483.720386
644.336195	13250.622473
644.680219	13458.338176
645.024192	13380.505281
645.368112	13617.547897
645.711981	13675.294314
646.055797	13863.780536
646.399562	13827.441378
646.743274	14094.138582
647.086935	14360.641700
647.430544	14333.749665
647.774101	14364.357031
648.117606	14521.152039
648.461059	14486.703314
648.804460	14476.253002
649.147810	14207.917424
649.491108	14108.841107
649.834354	14127.016987
650.177548	13822.064988
650.520690	13630.307057
650.863781	13552.285119
651.206820	13596.198610
651.549807	13427.874483
651.892742	13224.829409
652.235626	13174.049867
652.578458	13168.252540
652.921238	12854.927184
653.263967	13055.423955
653.606644	12880.994991
653.949269	12857.553625
654.291843	12658.468378
654.634365	12811.774907
654.976836	12665.546158
655.319255	12676.291377
655.661622	12629.058286
656.003938	12552.452912
656.346203	12483.391625
656.688416	12551.583313
657.030577	12506.404493
657.372687	12426.534972
657.714746	12404.971436
658.056753	12591.226947
658.398708	12409.601736
658.740612	12408.953947
659.082465	12516.791790
659.424266	12476.540697
659.766016	12496.690189
660.107715	12416.682036
660.449362	12484.440185
660.790958	12442.941407
661.132503	12391.440979
661.473996	12449.739403
661.815438	12468.704223
662.156829	12484.669558
662.498168	12466.526445
662.839456	12469.916621
663.180693	12484.311636
663.521879	12570.696848
663.863013	12542.632745
664.204097	12518.069723
664.545129	12647.607212
664.886110	12609.712858
665.227040	12700.123432
665.567918	12711.304711
665.908746	12739.978794
666.249522	12727.779202
666.590248	12770.712189
666.930922	12880.629507
667.271545	12865.044780
667.612118	12949.894961
667.952639	12855.022966
668.293109	12876.911656
668.633528	12819.634066
668.973896	12800.757466
669.314213	12884.642266
669.654480	12616.457922
669.994695	12687.843181
670.334859	12714.659599
670.674973	12656.950990
671.015035	12694.497504
671.355047	12640.978094
671.695008	12605.548865
672.034918	12611.194958
672.374777	12654.120382
672.714585	12567.720047
673.054342	12602.922424
673.394049	12552.878890
673.733705	12647.503868
674.073310	12557.783933
674.412864	12575.795975
674.752368	12446.074484
675.091820	12458.470681
675.431223	12450.346862
675.770574	12317.686378
676.109875	12240.594532
676.449125	12206.617156
676.788324	12145.321766
677.127473	11977.819347
677.466571	11960.165226
677.805619	11865.953623
678.144616	11783.024121
678.483562	11759.605441
678.822458	11629.503343
679.161303	11595.760379
679.500098	11595.891449
679.838842	11545.921012
680.177535	11570.511760
680.516179	11632.996862
680.854771	11580.432751
681.193314	11793.257664
681.531805	11942.190992
681.870247	12352.954290
682.208638	12767.397630
682.546978	13084.730703
682.885268	13141.204229
683.223508	12823.924088
683.561697	12663.078513
683.899836	12575.017117
684.237925	12370.116898
684.575963	12279.403855
684.913951	12210.697970
685.251889	12154.693271
685.589776	12264.043460
685.927614	12188.690812
686.265401	12148.177580
686.603137	12192.580063
686.940824	12344.089421
687.278460	12460.325826
687.616046	12511.702745
687.953582	12680.712469
688.291068	12606.650357
688.628504	12848.260258
688.965889	12857.654448
689.303224	12819.639107
689.640510	12716.751678
689.977745	12405.692321
690.314930	12179.810820
690.652065	12096.490629
690.989150	11805.328707
691.326185	11577.130795
691.663170	11370.163704
692.000105	11134.973712
692.336990	11020.330312
692.673825	10771.872003
693.010610	10646.377520
693.347345	10442.747672
693.684030	10245.598227
694.020665	10182.808135
694.357251	9987.256737
694.693786	9936.220095
695.030272	9763.905895
695.366707	9646.666300
695.703093	9578.923275
696.039429	9581.085930
696.375716	9509.211679
696.711952	9373.783602
697.048139	9409.066637
697.384276	9366.330256
697.720363	9379.202842
698.056400	9320.097834
698.392388	9271.727963
698.728326	9234.390657
699.064214	9169.705091
699.400053	9213.674035
699.735842	9029.739975
700.071581	8987.779931
700.407270	8915.933406
700.742910	8833.021549
701.078501	8740.375224
701.414042	8619.223694
701.749533	8558.026607
702.084974	8420.624918
702.420366	8527.537708
702.755709	8413.095954
703.091002	8281.108464
703.426246	8312.971077
703.761440	8256.610977
704.096584	8214.514822
704.431679	8145.214080
704.766725	8133.463150
705.101721	8084.856345
705.436668	8122.627190
705.771565	8017.657764
706.106413	8102.036597
706.441212	8144.508318
706.775961	8102.202955
707.110661	8133.957183
707.445311	8279.187785
707.779913	8174.437649
708.114465	8306.336919
708.448967	8341.264553
708.783421	8481.456521
709.117825	8661.145929
709.452180	8704.353659
709.786485	8790.015466
710.120742	9073.711439
710.454949	9068.110717
710.789107	9171.093929
711.123216	9388.173575
711.457275	9544.562770
711.791286	9718.147341
712.125247	9704.677378
712.459159	9699.563128
712.793023	9944.666548
713.126837	9523.480665
713.460602	9669.689250
713.794318	9499.799845
714.127985	9529.499803
714.461602	9210.046925
714.795171	9152.774376
715.128691	8909.826048
715.462162	8662.867483
715.795584	8607.155172
716.128957	8464.356927
716.462281	8290.815206
716.795556	8337.342535
717.128782	8132.838047
717.461960	7867.408694
717.795088	7939.250178
718.128167	7847.602001
718.461198	7683.424223
718.794180	7619.020962
719.127113	7616.530632
719.459997	7463.831562
719.792833	7229.488484
720.125619	7296.187990
720.458357	7150.400342
720.791046	7144.499671
721.123686	7144.625700
721.456278	6984.049827
721.788821	7001.804770
722.121315	6900.263329
722.453761	6953.152595
722.786158	6908.193064
723.118506	6918.106493
723.450805	6885.170114
723.783056	6948.862573
724.115259	6860.854109
724.447412	6853.945208
724.779518	6902.287352
725.111574	6907.174751
725.443582	6984.304405
725.775542	6965.082485
726.107453	7154.627349
726.439315	7070.067035
726.771129	7123.377237
727.102895	7289.354706
727.434612	7400.295379
727.766281	7437.957839
728.097901	7518.916250
728.429473	7513.875096
728.760996	7483.429047
729.092471	7459.980120
729.423897	7410.599498
729.755276	7421.410252
730.086606	7346.380239
730.417887	7442.046215
730.749120	7634.865309
731.080305	7835.941812
731.411442	7949.965150
731.742530	7950.781817
732.073570	8052.986170
732.404562	8135.935836
732.735506	7988.766912
733.066401	8127.471739
733.397249	8063.590237
733.728048	7828.107859
734.058798	7491.192424
734.389501	7272.739063
734.720156	7094.604851
735.050762	6863.518359
735.381320	6761.319047
735.711831	6712.974381
736.042293	6606.739626
736.372707	6619.771008
736.703073	6485.920812
737.033391	6521.985227
737.363661	6534.189860
737.693883	6566.788482
738.024056	6642.302446
738.354182	6688.340783
738.684260	6722.779426
739.014290	6833.291600
739.344272	6944.534742
739.674207	6976.858621
740.004093	7046.161883
740.333931	7061.902886
740.663722	7065.983700
740.993464	7145.086966
741.323159	7139.211501
741.652806	6887.234467
741.982405	6898.758545
742.311956	6956.036135
742.641460	6797.159130
742.970915	6601.779130
743.300323	6589.824034
743.629683	6542.966509
743.958996	6406.479789
744.288260	6315.827240
744.617477	6264.498212
744.946647	6269.887205
745.275768	6103.924859
745.604842	6058.113373
745.933869	6043.796496
746.262847	5998.282439
746.591778	5994.020143
746.920662	5944.357216
747.249498	5937.135763
747.578286	5985.795501
747.907027	6059.928189
748.235720	6122.866994
748.564365	6092.519248
748.892963	6121.568897
749.221514	6276.319717
749.550017	6109.157577
749.878473	5982.100335
750.206881	6040.718872
750.535242	5980.449357
750.863555	5912.555097
751.191821	5928.502787
751.520039	5931.905566
751.848210	5836.103478
752.176334	5858.665163
752.504411	5906.021762
752.832440	5834.737326
753.160421	5762.774855
753.488356	5810.897709
753.816243	5846.392473
754.144082	5695.205749
754.471875	5662.095451
754.799620	5711.660075
755.127318	5720.734152
755.454969	5676.717317
755.782572	5642.545856
756.110129	5684.518503
756.437638	5673.576678
756.765100	5610.252224
757.092515	5608.465135
757.419882	5659.907590
757.747203	5637.232480
758.074477	5702.535587
758.401703	5690.530079
758.728882	5640.050485
759.056014	5692.715419
759.383099	5828.554351
759.710138	5836.504250
760.037129	5821.252239
760.364073	5822.978834
760.690970	5905.825157
761.017820	5890.502570
761.344623	5843.471125
761.671379	5942.867555
761.998088	6057.296706
762.324751	6297.212780
762.651366	6890.044910
762.977935	8183.047940
763.304456	9807.025404
763.630931	10720.749662
763.957359	10343.570532
764.283740	9403.478518
764.610074	8583.408816
764.936362	7589.487362
765.262602	6987.283727
765.588796	6451.308250
765.914943	6110.049861
766.241044	5951.016580
766.567097	5755.845789
766.893104	5495.538248
767.219064	5313.645856
767.544978	5257.752062
767.870845	5176.453374
768.196665	5067.130912
768.522438	4999.155993
768.848165	4965.123164
769.173846	4900.160335
769.499479	4857.013099
769.825066	4801.845232
770.150607	4742.059668
770.476101	4717.491605
770.801548	4715.714598
771.126949	4639.681395
771.452303	4586.499742
771.777611	4548.005492
772.102872	4564.709355
772.428087	4528.024878
772.753256	4487.438549
773.078378	4439.290488
773.403453	4374.247001
773.728482	4359.337788
774.053465	4316.150223
774.378401	4299.809323
774.703291	4304.159839
775.028135	4230.410279
775.352932	4181.715253
775.677683	4170.460877
776.002388	4183.240202
776.327046	4199.127399
776.651658	4126.469248
776.976224	4062.776790
777.300743	4068.382553
777.625216	4091.962550
777.949643	4083.881581
778.274024	4040.557904
778.598359	4000.132892
778.922647	4016.136035
779.246889	4011.901465
779.571086	4006.489787
779.895236	3990.146366
780.219339	3975.660610
780.543397	3966.851194
780.867409	4023.349926
781.191374	4035.519271
781.515294	3976.784788
781.839167	3967.844301
782.162995	3985.662260
782.486776	3972.550218
782.810511	3984.898525
783.134201	3982.259481
783.457844	3937.761216
783.781441	3882.028739
784.104993	3885.076117
784.428498	3905.273500
784.751958	3901.863159
785.075372	3879.336763
785.398739	3841.160105
785.722061	3852.979090
786.045337	3894.566089
786.368568	3931.467335
786.691752	3843.416022
787.014891	3892.373187
787.337983	4015.909183
787.661030	4173.949356
787.984031	4336.584541
788.306987	4502.168800
788.629897	4586.212397
788.952760	4543.675141
789.275579	4478.828258
789.598351	4412.995830
789.921078	4275.604223
790.243759	4079.407557
790.566395	4055.552817
790.888984	4048.580901
791.211529	3946.749593
791.534027	3884.468658
791.856480	3874.119169
792.178888	3815.757731
792.501249	3762.404679
792.823566	3773.817852
793.145836	3806.529899
793.468062	3753.260026
793.790241	3704.522151
794.112375	3736.014239
794.434464	3797.599495
794.756507	3822.323834
795.078505	3805.052841
795.400457	3834.941842
795.722364	3973.671875
796.044226	4077.199531
796.366042	4147.760562
796.687812	4131.177686
797.009538	4141.355776
797.331218	4099.763736
797.652852	4069.058068
797.974442	4049.528638
798.295986	4048.384296
798.617484	3968.691215
798.938938	3881.746435
799.260346	3922.221859
799.581709	3916.696754
799.903026	3845.853419
800.224299	3808.296823
800.545526	3803.480001
800.866708	3767.899537
801.187845	3705.550546
801.508936	3739.706884
801.829983	3738.655803
802.150984	3658.723268
802.471940	3649.510559
802.792851	3662.138650
803.113717	3659.600429
803.434538	3663.068743
803.755314	3605.483642
804.076045	3576.232347
804.396731	3597.357302
804.717372	3626.991725
805.037967	3611.419601
805.358518	3604.243518
805.679024	3626.038947
805.999485	3637.184938
806.319901	3644.872698
806.640272	3653.535921
806.960598	3673.786236
807.280879	3645.394457
807.601115	3660.308711
807.921306	3673.430834
808.241453	3711.380641
808.561554	3688.347609
808.881611	3625.159266
809.201623	3659.640758
809.521590	3673.065351
809.841513	3646.712719
810.161390	3678.504756
810.481223	3657.082372
810.801011	3599.446861
811.120755	3590.266919
811.440453	3625.255048
811.760107	3629.522384
812.079716	3587.300200
812.399281	3555.419943
812.718801	3580.222420
813.038276	3552.309552
813.357707	3547.023902
813.677093	3565.872776
813.996434	3514.896628
814.315731	3522.962474
814.634983	3527.781817
814.954191	3542.849826
815.273354	3570.813107
815.592473	3564.514185
815.911547	3570.858477
816.230577	3611.848099
816.549562	3664.225687
816.868502	3703.617264
817.187399	3727.121643
817.506250	3725.067373
817.825058	3697.358671
818.143821	3788.974081
818.462539	3892.715986
818.781213	3937.322635
819.099843	3989.571674
819.418429	4231.257193
819.736970	4471.349706
820.055466	4711.164957
820.373919	5077.004012
820.692327	5481.496114
821.010691	5916.824954
821.329011	7272.918024
821.647286	9977.890273
821.965517	14489.596936
822.283704	18508.525770
822.601847	20709.682583
822.919945	18926.603782
823.237999	16364.704521
823.556010	13894.254311
823.873976	11812.577886
824.191897	9727.387776
824.509775	8376.587918
824.827609	7253.567555
825.145398	6704.162444
825.463144	6587.956287
825.780845	6699.300252
826.098502	6876.632920
826.416116	7741.188284
826.733685	9061.269872
827.051210	10169.572586
827.368692	10228.377646
827.686129	8995.661775
828.003522	7484.603636
828.320872	6466.189736
828.638177	5771.221308
828.955439	5220.364345
829.272656	4719.992017
829.589830	4431.418727
829.906960	4260.551338
830.224046	4079.710026
830.541088	3952.935089
830.858086	3903.914909
831.175041	3826.853311
831.491952	3813.983245
831.808819	3823.732836
832.125642	3896.973240
832.442421	4038.433058
832.759157	4306.040189
833.075849	4852.677707
833.392497	5713.192586
833.709101	6483.107848
834.025662	6823.773902
834.342179	6476.652651
834.658653	5813.798893
834.975083	5175.576213
835.291469	4593.761525
835.607811	4182.894883
835.924110	4048.817835
836.240366	3851.197042
836.556578	3644.734066
836.872746	3536.437479
837.188871	3498.364164
837.504952	3430.185079
837.820990	3348.415043
838.136984	3303.450471
838.452935	3328.661282
838.768842	3321.240703
839.084706	3346.264991
839.400526	3494.757219
839.716303	3832.960668
840.032037	4353.361501
840.347727	4620.512407
840.663373	4349.144575
840.978977	3969.918736
841.294537	3662.541942
841.610054	3434.215482
841.925527	3328.147084
842.240957	3259.428595
842.556344	3207.792057
842.871687	3148.629075
843.186987	3098.608226
843.502244	3063.335273
843.817458	3028.042154
844.132629	2995.355313
844.447756	3006.405522
844.762840	2990.717451
845.077881	2958.887606
845.392879	2943.655760
845.707833	2937.906324
846.022745	2938.483536
846.337613	2937.505552
846.652438	2924.063315
846.967221	2923.632297
847.281960	2910.232910
847.596656	2904.188566
847.911309	2905.713515
848.225919	2899.192783
848.540485	2894.615415
848.855009	2892.540980
849.169490	2883.819784
849.483928	2873.961808
849.798323	2873.520707
850.112675	2869.003833
850.426984	2883.960936
850.741251	2876.394164
851.055474	2871.592465
851.369654	2863.249356
851.683792	2871.118597
851.997887	2877.994731
852.311938	2879.912890
852.625947	2868.628267
852.939914	2869.613812
853.253837	2875.756458
853.567718	2856.101000
853.881555	2859.876824
854.195350	2874.440717
854.509103	2869.094574
854.822812	2859.556711
855.136479	2859.050075
855.450103	2861.510158
855.763685	2856.771473
856.077224	2852.010103
856.390720	2868.431662
856.704173	2873.145141
857.017584	2865.749768
857.330953	2863.216588
857.644278	2872.792260
857.957561	2880.638816
858.270802	2883.310628
858.584000	2884.949003
858.897155	2872.469626
859.210268	2869.971734
859.523339	2869.626415
859.836367	2869.200438
860.149352	2865.107021
860.462295	2856.206864
860.775195	2868.177084
861.088054	2863.763553
861.400869	2847.846110
861.713642	2844.599607
862.026373	2859.765918
862.339062	2863.967720
862.651708	2869.134903
862.964312	2873.314019
863.276873	2865.467463
863.589392	2873.745038
863.901869	2888.084600
864.214303	2910.306006
864.526696	2922.669436
864.839045	2918.109713
865.151353	2919.674991
865.463619	2919.475865
865.775842	2921.351174
866.088023	2938.528906
866.400162	2944.394289
866.712258	2919.264137
867.024313	2905.085892
867.336325	2914.240627
867.648296	2938.211313
867.960224	2931.413318
868.272110	2912.756007
868.583954	2921.056267
868.895755	2934.808535
869.207515	2921.686411
869.519233	2922.976947
869.830909	2936.212496
870.142542	2944.792540
870.454134	2948.260854
870.765684	2946.740946
871.077191	2944.681634
871.388657	2953.218828
871.700081	2967.157619
872.011463	2979.178250
872.322803	2979.208497
872.634101	2979.765545
872.945357	2995.262052
873.256571	3022.554858
873.567744	3012.099505
873.878874	3005.959380
874.189963	3031.802855
874.501010	3031.515509
874.812015	3022.224663
875.122979	3022.612832
875.433900	3018.753828
875.744780	3021.140815
876.055618	3030.986188
876.366415	3027.999305
876.677169	3041.582694
876.987882	3038.114380
877.298554	3029.604912
877.609183	3050.208108
877.919771	3073.536047
878.230317	3099.006477
878.540822	3151.638644
878.851285	3190.213553
879.161707	3231.029255
879.472087	3331.501972
879.782425	3554.923390
880.092722	3982.619923
880.402977	4508.036703
880.713191	5129.429491
881.023363	6268.939468
881.333494	7543.403654
881.643583	8102.603727
881.953631	7812.583626
882.263637	7193.729059
882.573602	6607.546210
882.883526	6039.514036
883.193408	5467.146470
883.503248	5011.249722
883.813048	4703.265468
884.122806	4404.892175
884.432522	4090.634206
884.742197	3856.691900
885.051831	3663.119154
885.361424	3530.352806
885.670975	3461.241107
885.980485	3372.395812
886.289954	3296.118113
886.599382	3253.714447
886.908768	3215.933520
887.218113	3167.997188
887.527417	3115.294445
887.836680	3062.652196
888.145901	3060.214798
888.455082	3049.537634
888.764221	3000.341014
889.073319	2966.416569
889.382376	2965.778863
889.691392	2975.223465
890.000366	2970.285655
890.309300	2958.945579
890.618193	2969.411015
890.927044	2987.425578
891.235855	2984.726040
891.544625	2972.070223
891.853353	2982.132366
892.162041	3001.671879
892.470687	3039.082281
892.779293	3091.754777
893.087858	3138.841675
893.396381	3207.855071
893.704864	3328.880572
894.013306	3563.954617
894.321707	3862.648023
894.630068	4069.602512
894.938387	4065.481369
895.246665	4022.689535
895.554903	3903.156215
895.863100	3707.080536
896.171256	3537.690205
896.479371	3401.289185
896.787446	3280.286369
897.095480	3176.322654
897.403473	3114.147583
897.711425	3075.839855
898.019336	3068.711663
898.327207	3037.272507
898.635038	3001.492918
898.942827	2989.749550
899.250576	2982.502891
899.558284	2948.291101
899.865952	2928.638162
900.173579	2908.040008
900.481165	2901.088257
900.788711	2889.869169
901.096216	2865.661548
901.403681	2851.165710
901.711105	2859.229036
902.018489	2856.151411
902.325832	2855.927080
902.633135	2863.566948
902.940397	2896.541136
903.247619	2980.587253
903.554800	3165.274965
903.861941	3507.854136
904.169041	3931.855504
904.476101	4233.523191
904.783121	4192.115154
905.090100	3950.598514
905.397039	3676.906710
905.703938	3424.100406
906.010796	3245.295721
906.317614	3132.252887
906.624391	3041.340718
906.931129	2968.664924
907.237826	2907.729977
907.544483	2859.173583
907.851099	2830.958245
908.157675	2811.396047
908.464211	2791.271761
908.770707	2776.861623
909.077163	2763.855446
909.383578	2749.301635
909.689954	2738.112794
909.996289	2739.531879
910.302584	2736.539954
910.608839	2741.412229
910.915054	2732.050806
911.221229	2725.209961
911.527363	2726.019066
911.833458	2734.115159
912.139513	2739.431056
912.445527	2741.082033
912.751502	2751.839856
913.057436	2759.736823
913.363331	2773.950357
913.669186	2793.991464
913.975000	2829.660148
914.280775	2888.424878
914.586510	2955.343675
914.892205	3038.351314
915.197859	3162.318328
915.503475	3352.039633
915.809050	3563.049730
916.114585	3710.100188
916.420081	3728.475193
916.725536	3668.548477
917.030952	3556.460942
917.336328	3429.857404
917.641665	3299.394863
917.946961	3197.828216
918.252218	3129.807927
918.557435	3050.066956
918.862612	2992.333141
919.167750	2943.368414
919.472848	2904.995151
919.777906	2880.560678
920.082925	2852.451204
920.387904	2824.465239
920.692843	2807.567291
920.997743	2794.891310
921.302603	2780.992848
921.607423	2773.534461
921.912204	2757.967378
922.216946	2748.918507
922.521647	2737.744790
922.826310	2733.868142
923.130932	2726.248438
923.435516	2717.592777
923.740059	2711.026674
924.044564	2701.166177
924.349028	2697.269365
924.653454	2689.758046
924.957840	2682.221521
925.262186	2676.265398
925.566493	2676.885460
925.870761	2672.126611
926.174989	2663.536484
926.479178	2662.913902
926.783328	2658.134888
927.087438	2657.905516
927.391509	2654.306132
927.695541	2650.547952
927.999533	2647.011582
928.303486	2644.972435
928.607400	2644.627116
928.911275	2644.279277
929.215110	2643.613844
929.518906	2641.370531
929.822663	2641.836838
930.126381	2642.398926
930.430060	2641.534368
930.733699	2642.585449
931.037299	2645.574853
931.340861	2645.627785
931.644383	2647.392189
931.947866	2646.724236
932.251309	2643.865902
932.554714	2644.884215
932.858080	2640.914307
933.161407	2638.265180
933.464694	2636.646970
933.767943	2635.979017
934.071153	2638.093781
934.374323	2637.894655
934.677455	2636.210910
934.980548	2635.290899
935.283602	2635.850467
935.586617	2635.999182
935.889593	2635.149747
936.192530	2633.614716
936.495428	2632.361989
936.798287	2635.585807
937.101108	2638.860036
937.403890	2644.228865
937.706632	2648.707930
938.009336	2656.582213
938.312002	2662.901299
938.614628	2671.267094
938.917216	2680.615914
939.219765	2678.014678
939.522275	2678.987621
939.824747	2673.207938
940.127179	2675.325223
940.429573	2672.255160
940.731929	2667.123265
941.034246	2664.580003
941.336524	2661.094045
941.638763	2658.800320
941.940964	2658.369302
942.243126	2657.096410
942.545250	2653.517191
942.847335	2651.049546
943.149381	2645.277425
943.451389	2643.588639
943.753359	2642.187198
944.055290	2640.405150
944.357182	2643.545789
944.659036	2637.917341
944.960851	2638.086219
945.262628	2636.024387
945.564367	2637.599748
945.866067	2636.896507
946.167729	2639.273411
946.469352	2636.359624
946.770937	2638.476909
947.072484	2634.902731
947.373992	2636.720067
947.675462	2632.714870
947.976893	2632.062040
948.278286	2628.326545
948.579641	2629.551546
948.880958	2623.033334
949.182236	2627.444343
949.483476	2627.978706
949.784678	2628.535753
950.085841	2625.178345
950.386967	2627.277985
950.688054	2627.880403
950.989103	2626.514251
951.290114	2631.673872
951.591087	2631.946094
951.892021	2635.298461
952.192917	2638.827269
952.493776	2637.864408
952.794596	2642.822383
953.095378	2636.770478
953.396122	2641.148720
953.696828	2637.461116
953.997496	2636.369706
954.298126	2633.665127
954.598718	2632.452730
954.899272	2630.206896
955.199788	2626.640279
955.500266	2624.954013
955.800706	2622.060391
956.101108	2619.403703
956.401472	2620.772376
956.701798	2617.697272
957.002087	2614.009668
957.302337	2612.688886
957.602550	2612.305758
957.902724	2612.930862
958.202861	2607.438524
958.502960	2607.917434
958.803022	2606.518514
959.103045	2606.004316
959.403031	2605.790067
959.702979	2604.431476
960.002889	2606.586569
960.302762	2603.430807
960.602596	2603.934923
960.902393	2603.345107
961.202153	2602.825869
961.501875	2604.983482
961.801559	2601.489963
962.101205	2602.876280
962.400814	2601.089191
962.700385	2601.263111
962.999918	2600.078440
963.299414	2596.121134
963.598873	2598.790425
963.898293	2594.704570
964.197677	2601.696650
964.497022	2598.997112
964.796331	2600.753954
965.095601	2599.281937
965.394835	2600.348142
965.694030	2597.905702
965.993189	2601.124479
966.292309	2596.602564
966.591393	2597.426793
966.890439	2596.763881
967.189447	2598.258583
967.488419	2599.002153
967.787353	2598.457709
968.086249	2598.810590
968.385108	2600.373347
968.683930	2599.113059
968.982714	2600.421238
969.281462	2597.131885
969.580172	2597.837647
969.878844	2599.569283
970.177480	2598.218254
970.476078	2597.903182
970.774639	2599.254211
971.073162	2599.637339
971.371649	2597.394025
971.670098	2602.626743
971.968510	2598.523244
972.266885	2598.331680
972.565223	2599.145826
972.863524	2600.645570
973.161788	2601.926023
973.460014	2599.123141
973.758204	2601.197576
974.056356	2599.912082
974.354471	2600.650611
974.652550	2602.407453
974.950591	2602.329315
975.248595	2600.756475
975.546563	2601.883173
975.844493	2597.585589
976.142386	2597.731783
976.440243	2597.923347
976.738062	2597.119282
977.035845	2597.479725
977.333590	2600.799325
977.631299	2597.814962
977.928971	2595.276741
978.226606	2592.257090
978.524204	2595.327152
978.821765	2592.337748
979.119290	2598.152719
979.416777	2593.875300
979.714228	2596.779005
980.011642	2597.220106
980.309020	2598.959304
980.606360	2597.739344
980.903664	2599.687750
981.200931	2597.076433
981.498162	2596.963007
981.795356	2599.536516
982.092513	2599.667586
982.389633	2603.841661
982.686717	2605.671600
982.983764	2610.241406
983.280775	2615.106119
983.577749	2612.552775
983.874686	2614.773403
984.171587	2613.429936
984.468451	2608.570263
984.765279	2605.558174
985.062070	2606.536158
985.358824	2604.512135
985.655543	2602.220930
985.952224	2598.961824
986.248869	2599.914602
986.545478	2598.150198
986.842050	2595.657348
987.138586	2598.132554
987.435086	2598.440065
987.731549	2596.519385
988.027975	2595.927050
988.324366	2594.873448
988.620719	2593.356061
988.917037	2593.807244
989.213318	2591.838674
989.509563	2594.225660
989.805772	2592.562079
990.101944	2594.046699
990.398080	2594.172728
990.694180	2592.844384
990.990244	2594.439909
991.286271	2594.213057
991.582262	2595.062492
991.878217	2593.033427
992.174136	2594.218098
992.470019	2593.232553
992.765865	2591.193406
993.061676	2589.456729
993.357450	2591.790783
993.653188	2591.498396
993.948890	2593.207347
994.244556	2592.720876
994.540186	2593.903026
994.835780	2594.830599
995.131337	2593.096442
995.426859	2594.124837
995.722345	2598.099787
996.017795	2596.836978
996.313208	2596.622729
996.608586	2597.893100
996.903928	2598.596341
997.199234	2598.261104
997.494504	2597.348655
997.789738	2597.409149
998.084936	2597.106680
998.380099	2597.726742
998.675225	2597.943511
998.970316	2596.446288
999.265371	2596.516865
999.560390	2595.400249
999.855373	2596.854622
1000.150320	2593.005701
1000.445232	2592.604929
1000.740108	2593.061154
1001.034948	2593.023345
1001.329752	2592.957810
1001.624521	2593.766915
1001.919254	2592.660382
1002.213951	2593.015783
1002.508613	2590.356575
1002.803239	2591.039651
1003.097829	2592.771287
1003.392384	2592.846905
1003.686903	2592.352872
1003.981386	2593.330855
1004.275834	2594.447471
1004.570246	2593.003180
1004.864623	2592.967892
1005.158964	2593.300608
1005.453270	2591.929415
1005.747540	2592.403283
1006.041775	2591.397573
1006.335974	2592.312542
1006.630138	2592.214240
1006.924266	2590.621235
1007.218359	2590.984198
1007.512416	2586.880699
1007.806438	2588.481265
1008.100425	2589.439085
1008.394376	2586.656368
1008.688292	2589.618046
1008.982172	2589.139136
1009.276017	2589.975967
1009.569827	2591.231215
1009.863602	2590.230546
1010.157341	2591.251379
1010.451045	2591.294229
1010.744714	2590.802717
1011.038347	2590.492686
1011.331945	2591.269023
1011.625508	2591.195927
1011.919036	2593.129209
1012.212528	2590.744743
1012.505986	2588.438416
1012.799408	2591.314394
1013.092795	2591.377408
1013.386147	2589.948241
1013.679464	2590.243149
1013.972745	2589.791965
1014.265992	2591.568972
1014.559204	2590.001173
1014.852380	2590.691811
1015.145521	2588.574527
1015.438628	2588.781214
1015.731699	2591.942017
1016.024736	2587.170565
1016.317737	2587.873806
1016.610703	2589.771801
1016.903635	2590.898499
1017.196531	2589.935638
1017.489393	2588.982860
1017.782219	2591.848756
1018.075011	2589.625607
1018.367768	2588.582088
1018.660490	2591.863880
1018.953177	2591.863880
1019.245829	2591.863880
