Dividing Wavelength (nm)	Counts (n)	Blue Motor Position (mm): 24.500000	Red Motor Position (mm): 0.000000	
326.493990	2197.887624
326.888308	2197.887624
327.282561	2197.887624
327.676750	2156.721562
328.070874	2154.024545
328.464933	2154.574030
328.858929	2157.626449
329.252859	2163.396050
329.646726	2172.412153
330.040528	2182.645696
330.434265	2195.944259
330.827938	2214.412527
331.221547	2230.080433
331.615091	2250.338309
332.008571	2268.758686
332.401986	2288.164607
332.795338	2307.542803
333.188625	2323.861018
333.581847	2343.246775
333.975006	2361.994826
334.368100	2377.418236
334.761129	2398.429765
335.154095	2414.606828
335.546996	2439.361414
335.939833	2477.071765
336.332606	2489.261275
336.725315	2506.537310
337.117960	2514.590553
337.510540	2529.663603
337.903056	2540.091230
338.295508	2544.444266
338.687896	2558.042778
339.080220	2565.092832
339.472480	2569.161043
339.864676	2577.191601
340.256807	2582.058835
340.648875	2586.946234
341.040879	2587.614187
341.432818	2592.511668
341.824694	2595.662389
342.216506	2593.938314
342.608253	2593.867738
342.999937	2596.713470
343.391557	2597.018459
343.783113	2597.356217
344.174605	2594.477718
344.566033	2594.686926
344.957397	2593.673654
345.348697	2590.596029
345.739934	2589.638210
346.131106	2585.801892
346.522215	2586.192582
346.913260	2582.023547
347.304241	2582.867941
347.695159	2579.767631
348.086012	2579.669328
348.476802	2575.916189
348.867528	2571.263204
349.258191	2572.531055
349.648789	2569.246743
350.039324	2563.257852
350.429796	2567.530230
350.820203	2568.087277
351.210548	2563.734241
351.600828	2566.287586
351.991045	2561.894220
352.381198	2561.354817
352.771288	2565.526371
353.161314	2563.550239
353.551276	2563.812379
353.941175	2560.875907
354.331010	2562.214333
354.720782	2561.236349
355.110490	2560.838098
355.500135	2558.740978
355.889717	2560.815413
356.279235	2561.473284
356.668689	2560.946483
357.058080	2561.848850
357.447408	2558.935063
357.836672	2561.556463
358.225873	2561.183417
358.615010	2563.255332
359.004084	2562.509241
359.393095	2562.882286
359.782043	2564.518141
360.170927	2565.249108
360.559748	2564.951680
360.948505	2564.424879
361.337199	2565.055023
361.725830	2566.242215
362.114398	2566.176680
362.502903	2568.414953
362.891344	2567.187432
363.279722	2566.098542
363.668037	2567.643656
364.056289	2568.709860
364.444478	2570.975859
364.832603	2570.338153
365.220665	2570.940571
365.608665	2571.784964
365.996601	2570.249932
366.384474	2571.941240
366.772284	2571.432083
367.160031	2573.614903
367.547715	2573.892166
367.935336	2573.816549
368.322893	2571.953842
368.710388	2571.762279
369.097820	2570.507031
369.485189	2571.726991
369.872495	2573.476271
370.259738	2576.327043
370.646918	2575.401992
371.034035	2579.228228
371.421090	2575.638926
371.808081	2576.143041
372.195010	2575.142372
372.581875	2577.869637
372.968678	2579.434915
373.355418	2576.238823
373.742096	2578.225038
374.128710	2577.171437
374.515262	2576.803432
374.901751	2577.771334
375.288177	2579.301324
375.674540	2578.925758
376.060841	2578.151941
376.447079	2579.482806
376.833254	2580.186047
377.219367	2579.560944
377.605417	2577.317630
377.991404	2580.954823
378.377329	2581.428691
378.763191	2581.627817
379.148991	2582.537745
379.534727	2581.716037
379.920402	2582.454566
380.306013	2581.509350
380.691563	2584.692838
381.077049	2580.347364
381.462474	2585.995977
381.847835	2580.498598
382.233134	2582.313414
382.618371	2581.090934
383.003545	2584.266861
383.388657	2582.557910
383.773706	2583.387179
384.158693	2582.557910
384.543618	2588.327510
384.928480	2585.058322
385.313280	2585.643096
385.698017	2583.467838
386.082692	2588.856831
386.467305	2584.143352
386.851856	2587.531008
387.236344	2585.627972
387.620770	2587.054619
388.005133	2584.155955
388.389435	2585.779207
388.773674	2584.720565
389.157851	2587.893971
389.541965	2585.385997
389.926018	2591.384970
390.310008	2584.942375
390.693936	2589.403797
391.077802	2589.650813
391.461606	2590.958992
391.845348	2590.293560
392.229027	2590.076791
392.612645	2591.193406
392.996200	2590.333889
393.379694	2593.010742
393.763125	2592.327666
394.146494	2592.988057
394.529801	2591.982347
394.913047	2593.207347
395.296230	2591.999991
395.679351	2592.506627
396.062410	2593.116606
396.445408	2593.716504
396.828343	2592.695670
397.211217	2594.631473
397.594028	2594.487800
397.976778	2591.818509
398.359466	2595.226329
398.742092	2591.836153
399.124656	2595.740527
399.507158	2597.308326
399.889598	2595.183479
400.271977	2594.230701
400.654294	2595.173397
401.036549	2596.403439
401.418742	2596.501741
401.800874	2597.343614
402.182944	2595.664910
402.564952	2595.858994
402.946898	2598.074581
403.328783	2597.774632
403.710606	2597.595672
404.092367	2597.656165
404.474067	2598.760178
404.855705	2597.542739
405.237282	2599.392843
405.618797	2600.204469
406.000250	2600.877463
406.381642	2600.423759
406.762972	2596.935280
407.144240	2596.577358
407.525447	2596.738675
407.906593	2596.920157
408.287677	2602.798142
408.668700	2602.241095
409.049661	2601.051382
409.430560	2603.065323
409.811399	2605.356528
410.192176	2602.967021
410.572891	2602.271342
410.953545	2600.390991
411.334138	2606.463061
411.714669	2603.294696
412.095139	2603.183791
412.475547	2604.648246
412.855894	2605.079264
413.236180	2603.924840
413.616405	2605.417022
413.996568	2604.867536
414.376670	2604.736466
414.756711	2604.701178
415.136691	2605.865684
415.516609	2606.815942
415.896466	2604.068513
416.276262	2604.360900
416.655997	2608.020778
417.035670	2603.955087
417.415283	2608.971035
417.794834	2607.309975
418.174324	2607.057917
418.553753	2606.634460
418.933121	2607.519183
419.312428	2607.622527
419.691674	2608.088833
420.070859	2608.202259
420.449983	2606.926847
420.829045	2608.156889
421.208047	2609.518000
421.586988	2611.060593
421.965867	2612.066304
422.344686	2611.630244
422.723444	2611.751232
423.102141	2609.039091
423.480777	2612.411623
423.859352	2611.794081
424.237866	2612.761983
424.616319	2611.426077
424.994712	2613.752570
425.373044	2614.964967
425.751314	2609.192846
426.129524	2608.484564
426.507673	2610.886674
426.885762	2610.957250
427.263789	2612.822477
427.641756	2615.562344
428.019662	2615.060749
428.397508	2615.176696
428.775292	2614.755759
429.153016	2614.269288
429.530679	2612.346088
429.908282	2615.078393
430.285824	2617.288939
430.663305	2615.496809
431.040726	2614.649895
431.418086	2617.162910
431.795385	2616.363887
432.172624	2615.751387
432.549802	2616.235338
432.926920	2616.436984
433.303977	2619.930504
433.680974	2618.667695
434.057910	2618.067797
434.434786	2618.581995
434.811601	2623.451750
435.188355	2619.504526
435.565050	2618.483692
435.941683	2617.656943
436.318257	2621.647017
436.694770	2622.831688
437.071222	2622.100720
437.447614	2624.293622
437.823946	2624.028962
438.200218	2623.129116
438.576429	2623.547532
438.952580	2623.456791
439.328670	2626.547018
439.704700	2624.767491
440.080670	2625.916874
440.456580	2628.485342
440.832429	2628.003912
441.208218	2627.048613
441.583947	2629.057513
441.959616	2628.354272
442.335224	2629.130609
442.710773	2631.076495
443.086261	2629.400311
443.461689	2629.475928
443.837057	2633.450878
444.212365	2633.143368
444.587612	2630.524488
444.962800	2628.636576
445.337927	2629.574231
445.712995	2629.914509
446.088002	2635.769809
446.462949	2637.521610
446.837837	2638.076137
447.212664	2637.680406
447.587431	2642.658546
447.962139	2642.764410
448.336786	2648.032416
448.711374	2648.302117
449.085901	2647.185502
449.460369	2648.312200
449.834776	2648.463434
450.209124	2650.706748
450.583412	2655.795793
450.957640	2662.518171
451.331808	2663.208809
451.705917	2663.738131
452.079965	2664.033038
452.453954	2672.313133
452.827883	2672.971004
453.201752	2677.170285
453.575562	2681.001562
453.949311	2687.691173
454.323001	2697.027390
454.696632	2702.534851
455.070202	2713.486757
455.443713	2728.035527
455.817164	2738.148082
456.190556	2754.158787
456.563888	2774.381375
456.937160	2790.865948
457.310373	2793.832667
457.683526	2814.040132
458.056619	2821.614466
458.429653	2846.056501
458.802628	2855.488499
459.175542	2884.079403
459.548398	2933.981785
459.921194	2975.306644
460.293930	3015.419105
460.666607	3087.484920
461.039224	3181.131914
461.411782	3262.685181
461.784280	3300.824030
462.156719	3350.048377
462.529099	3380.118860
462.901419	3376.884959
463.273680	3411.142120
463.645882	3460.111889
464.018024	3500.892303
464.390106	3586.594439
464.762130	3721.140314
465.134094	3864.707335
465.505999	4169.286288
465.877845	4665.053522
466.249631	5100.722641
466.621358	5152.389426
466.993026	5088.606227
467.364634	5115.561277
467.736184	5072.305656
468.107674	5079.527109
468.479105	5217.062389
468.850477	5277.689826
469.221790	5329.507846
469.593043	5330.624462
469.964238	5377.325711
470.335373	5425.650212
470.706449	5626.139421
471.077467	5653.880890
471.448425	6159.337222
471.819324	7191.770571
472.190164	7847.226435
472.560945	7242.343426
472.931667	6817.527912
473.302330	6814.409958
473.672934	6821.931360
474.043479	7083.529436
474.413965	7182.837646
474.784393	7243.071873
475.154761	7606.657532
475.525070	7765.627798
475.895321	7806.176319
476.265513	8150.840008
476.635645	8500.587700
477.005719	8622.628993
477.375734	8862.585396
477.745691	9231.834792
478.115588	9567.462212
478.485427	9983.377569
478.855207	10567.274254
479.224928	11452.788215
479.594591	12636.970377
479.964194	12890.346331
480.333739	13316.389366
480.703226	13299.577118
481.072653	13422.321652
481.442022	13936.632771
481.811333	14590.208285
482.180584	14844.468961
482.549777	14592.743985
482.918912	14697.199213
483.287988	14983.637575
483.657005	15070.073199
484.025964	15136.329084
484.394864	15357.053484
484.763706	15433.931080
485.132489	15381.359408
485.501213	15656.482899
485.869879	15888.030657
486.238487	15897.646658
486.607036	16292.815146
486.975527	16285.359280
487.343959	16711.530864
487.712333	16939.789269
488.080648	16890.282618
488.448905	17449.452444
488.817104	17471.053788
489.185244	18142.001118
489.553326	18388.894148
489.921350	19197.671665
490.289315	20980.397585
490.657222	22512.704188
491.025070	23144.912771
491.392861	23229.004258
491.760593	22835.219567
492.128267	22475.419814
492.495883	21882.002909
492.863440	21427.386614
493.230939	20904.737428
493.598380	20993.028196
493.965763	20817.931279
494.333088	20645.513735
494.700354	20733.537322
495.067563	20824.441929
495.434713	20772.029053
495.801805	20979.253243
496.168839	21018.717916
496.535815	20989.874954
496.902733	21312.886887
497.269593	21121.300356
497.636395	21441.622833
498.003139	21546.967825
498.369825	21464.285340
498.736453	21714.588711
499.103023	21721.905946
499.469535	21855.483920
499.835989	22126.735805
500.202385	22265.533894
500.568723	21902.593502
500.935003	22226.467472
501.301226	21947.479936
501.667390	22747.962235
502.033497	23098.108178
502.399546	22894.528742
502.765537	22615.440382
503.131470	23028.462117
503.497345	23234.695721
503.863163	22546.258108
504.228923	23216.686199
504.594625	23448.052475
504.960269	23028.933465
505.325856	23578.257917
505.691385	23056.165778
506.056856	23680.558052
506.422270	23712.720614
506.787625	23360.901007
507.152924	23790.727428
507.518164	23840.639893
507.883347	23695.013561
508.248472	23423.600358
508.613540	24212.172931
508.978550	24047.400297
509.343503	24043.029617
509.708398	24354.139385
510.073236	24534.529514
510.438016	24760.668114
510.802738	24471.202539
511.167403	24724.558329
511.532010	24440.028044
511.896561	25242.153759
512.261053	25232.560443
512.625488	25091.350162
512.989866	25007.057028
513.354186	24871.455031
513.718449	24974.534024
514.082655	25370.504056
514.446803	25130.998837
514.810894	25572.107360
515.174927	25075.939355
515.538904	25113.203564
515.902822	25614.415244
516.266684	25378.761466
516.630488	25284.864935
516.994235	25298.430680
517.357925	25575.414357
517.721558	25779.112261
518.085133	25869.056528
518.448651	25806.407588
518.812112	25521.458887
519.175516	25702.763986
519.538863	25889.604271
519.902152	25666.195456
520.265385	25974.469575
520.628560	25754.241728
520.991678	25779.066890
521.354739	25863.793563
521.717743	25913.847179
522.080690	25711.961571
522.443580	26038.945933
522.806413	26052.264661
523.169189	26141.654401
523.531908	26201.518103
523.894569	25795.047348
524.257174	25874.503494
524.619722	26097.014984
524.982213	25762.781443
525.344647	25843.276067
525.707025	25955.340917
526.069345	25950.193899
526.431608	25908.811067
526.793815	26109.179288
527.155964	25539.760797
527.518057	25729.557718
527.880093	25641.168647
528.242072	25887.149229
528.603995	25580.591622
528.965860	25396.949949
529.327669	25437.347236
529.689421	25432.951349
530.051117	25263.235864
530.412755	25442.746311
530.774337	25248.813123
531.135862	25104.442038
531.497331	25326.686347
531.858743	24859.520099
532.220098	25347.934810
532.581396	25025.679051
532.942638	24982.609953
533.303824	25066.832510
533.664953	25094.059782
534.026025	24760.688278
534.387040	24983.056095
534.747999	25058.141561
535.108902	25215.092845
535.469748	24707.274733
535.830537	24893.736931
536.191270	25013.839901
536.551947	24907.101030
536.912567	24574.868827
537.273131	24870.507294
537.633638	24609.607418
537.994089	24810.671319
538.354483	24363.362176
538.714821	24863.237950
539.075103	24905.455093
539.435328	24690.127248
539.795497	24236.088165
540.155609	24655.310519
540.515665	24934.429125
540.875665	24186.140413
541.235609	24444.219763
541.595496	24436.083341
541.955328	24785.755416
542.315102	24705.769948
542.674821	24277.460915
543.034483	24145.629700
543.394090	24314.291585
543.753640	24092.639612
544.113134	24734.063424
544.472571	24332.248175
544.831953	24620.763492
545.191278	24236.630089
545.550548	24163.999665
545.909761	24382.939497
546.268918	24598.683238
546.628019	24562.306272
546.987064	24265.588997
547.346053	24029.594942
547.704986	24157.758717
548.063863	24313.835360
548.422684	24308.053157
548.781449	23872.943607
549.140158	24262.208904
549.498811	23848.799000
549.857408	23572.944541
550.215949	24026.078737
550.574434	23692.382079
550.932864	23918.964300
551.291237	24049.013466
551.649555	23935.002731
552.007817	23982.694567
552.366022	23857.784857
552.724173	23902.204984
553.082267	23830.857534
553.440305	24307.254134
553.798288	23586.507766
554.156215	24102.565644
554.514086	24188.918088
554.871902	23563.222676
555.229661	23850.840668
555.587365	23704.669891
555.945014	23545.291292
556.302606	23827.875691
556.660143	23738.178441
557.017625	24020.992213
557.375050	23555.144227
557.732421	23935.232103
558.089735	23748.979113
558.446994	23823.046266
558.804197	23826.247398
559.161345	23797.757318
559.518437	23519.271376
559.875474	23737.679367
560.232455	23912.811572
560.589381	23741.787907
560.946251	23709.340520
561.303065	24040.829153
561.659825	24125.132369
562.016528	23731.514035
562.373177	23468.375887
562.729770	23807.101096
563.086307	23693.901987
563.442789	23858.747717
563.799216	23687.298075
564.155587	23717.376119
564.511904	23685.604247
564.868164	23613.528350
565.224370	23605.001238
565.580520	23507.308718
565.936615	23648.226612
566.292654	23310.335714
566.648638	23621.808445
567.004567	23451.356952
567.360441	23399.861565
567.716260	23121.292445
568.072023	23446.310757
568.427732	23215.209141
568.783385	23002.177541
569.138982	23231.968457
569.494525	23272.839612
569.850013	23012.290096
570.205445	23117.955201
570.560823	22909.528695
570.916145	22677.665865
571.271412	22860.584132
571.626625	22621.709057
571.981782	22725.589594
572.336884	22526.663143
572.691931	22665.776304
573.046923	22400.067167
573.401860	22288.297224
573.756743	22290.666567
574.111570	22194.814067
574.466342	22134.970530
574.821059	22230.815468
575.175722	21931.449067
575.530330	21909.993916
575.884882	21935.366043
576.239380	21845.270542
576.593823	21743.819841
576.948211	21718.815718
577.302544	21560.389897
577.656823	21435.122265
578.011047	21528.980988
578.365216	21396.441492
578.719330	21277.598810
579.073389	21183.230931
579.427394	21328.804330
579.781344	21109.073037
580.135239	20995.049699
580.489080	20972.054476
580.842866	20732.667723
581.196597	20903.472098
581.550273	20902.335318
581.903895	20787.684356
582.257463	21098.927715
582.610975	20636.212806
582.964434	20935.483425
583.317837	20651.575723
583.671186	20747.385372
584.024481	20706.705781
584.377721	20480.572223
584.730906	20535.702281
585.084037	20570.145965
585.437113	20470.429421
585.790135	20675.400216
586.143103	20154.336472
586.496016	20151.268930
586.848874	20391.137112
587.201679	20331.235602
587.554428	19994.456278
587.907124	20335.828093
588.259765	20104.623133
588.612352	20185.377377
588.964884	19763.939436
589.317362	19940.314285
589.669786	19982.682663
590.022155	20043.703310
590.374470	20202.988648
590.726731	20020.345123
591.078937	19768.153840
591.431090	19871.794922
591.783188	19611.963771
592.135232	19593.676985
592.487222	19681.067908
592.839157	19720.530060
593.191038	19598.897100
593.542866	19488.044647
593.894639	19209.619200
594.246358	19417.476055
594.598022	19334.733077
594.949633	19086.257124
595.301190	19037.783909
595.652692	19212.444767
596.004141	19455.821592
596.355535	18782.046175
596.706876	18797.136869
597.058162	18685.770219
597.409395	18909.917563
597.760573	18995.733125
598.111698	18776.589126
598.462768	18716.191062
598.813785	18662.669131
599.164748	18494.934819
599.515657	18515.202778
599.866511	18327.324016
600.217312	18679.451132
600.568060	18214.147591
600.918753	18520.990023
601.269392	18422.536288
601.619978	18191.648922
601.970510	18417.512778
602.320988	18353.706894
602.671412	18565.359738
603.021783	18463.500704
603.372100	18202.179892
603.722363	18326.603131
604.072572	18277.656047
604.422728	18410.437519
604.772830	18172.709307
605.122878	18125.461092
605.472872	18111.353423
605.822813	18104.036188
606.172701	18078.757322
606.522534	18275.266540
606.872314	18289.669117
607.222041	18125.718191
607.571714	18343.047374
607.921333	18168.147062
608.270899	18239.698679
608.620411	18431.638092
608.969870	18189.569446
609.319276	18196.876598
609.668627	18227.005054
610.017926	18364.971353
610.367171	18483.511565
610.716362	18517.365433
611.065500	18340.060491
611.414585	18469.666036
611.763616	18460.717988
612.112594	18404.403258
612.461518	18373.057363
612.810389	18568.200429
613.159207	18425.762627
613.507971	18328.498604
613.856682	18606.840873
614.205340	18543.481131
614.553945	18682.811061
614.902496	18425.772709
615.250994	18665.469492
615.599439	18601.792157
615.947830	18578.365915
616.296169	18635.565368
616.644454	18601.391386
616.992686	18571.860306
617.340864	18786.336197
617.688990	18544.978353
618.037063	18714.023365
618.385082	18558.619716
618.733048	18846.603191
619.080961	18719.767760
619.428821	18764.550850
619.776628	18639.925966
620.124382	18570.451304
620.472083	18606.561089
620.819731	18627.854923
621.167326	18323.465012
621.514868	18360.033542
621.862357	18126.096278
622.209793	18133.342936
622.557176	17969.117267
622.904506	17798.280125
623.251783	17706.521043
623.599007	17471.326010
623.946179	17421.703412
624.293297	17365.209722
624.640363	17118.057072
624.987376	17131.096017
625.334336	16925.328719
625.681243	16772.606964
626.028097	16774.421779
626.374899	16713.580093
626.721647	16578.310812
627.068343	16419.164106
627.414987	16342.387333
627.761577	16314.093857
628.108115	16361.488265
628.454600	16075.198617
628.801032	16183.923703
629.147412	16103.789521
629.493739	16129.849766
629.840014	15936.030003
630.186236	16040.467588
630.532405	15800.755681
630.878521	16003.019376
631.224585	15896.792182
631.570597	15716.192846
631.916556	15748.332722
632.262462	15737.085908
632.608316	15655.404092
632.954117	15593.781028
633.299866	15585.276601
633.645562	15512.812535
633.991206	15268.243477
634.336797	15131.043434
634.682336	15104.307674
635.027823	14991.910108
635.373257	14872.336460
635.718639	14773.061017
636.063968	14728.963524
636.409245	14471.174039
636.754470	14496.649510
637.099642	14345.969422
637.444762	14116.072642
637.789829	14164.024097
638.134845	14006.152803
638.479808	14026.186348
638.824719	13981.688083
639.169577	13826.536491
639.514383	13874.044325
639.859137	13699.519579
640.203839	13778.832052
640.548489	13618.788021
640.893086	13603.478037
641.237632	13477.628151
641.582125	13629.495432
641.926566	13458.726345
642.270955	13468.460813
642.615292	13429.843054
642.959576	13445.831073
643.303809	13475.349550
643.647990	13406.575608
643.992118	13461.783805
644.336195	13238.609403
644.680219	13438.876802
645.024192	13360.582641
645.368112	13601.814456
645.711981	13664.251667
646.055797	13844.916538
646.399562	13803.498418
646.743274	14075.829111
647.086935	14346.760883
647.430544	14317.340709
647.774101	14345.919010
648.117606	14499.560777
648.461059	14461.762205
648.804460	14458.170383
649.147810	14193.066185
649.491108	14086.279423
649.834354	14102.201907
650.177548	13804.960353
650.520690	13617.628555
650.863781	13535.591338
651.206820	13583.250407
651.549807	13402.535124
651.892742	13215.392369
652.235626	13150.689160
652.578458	13151.704952
652.921238	12844.829753
653.263967	13039.589691
653.606644	12864.278525
653.949269	12837.603259
654.291843	12646.936738
654.634365	12799.487095
654.976836	12649.432109
655.319255	12662.138338
655.661622	12614.930453
656.003938	12533.460365
656.346203	12469.772948
656.688416	12536.943802
657.030577	12492.243891
657.372687	12413.218764
657.714746	12387.841595
658.056753	12580.461563
658.398708	12393.656566
658.740612	12401.782906
659.082465	12499.165396
659.424266	12456.323150
659.766016	12489.413283
660.107715	12395.478943
660.449362	12469.478041
660.790958	12430.958584
661.132503	12376.083104
661.473996	12437.476796
661.815438	12455.806431
662.156829	12467.365797
662.498168	12453.681585
662.839456	12448.582458
663.180693	12464.404119
663.521879	12554.388715
663.863013	12537.072352
664.204097	12497.685817
664.545129	12626.668779
664.886110	12604.722116
665.227040	12682.192048
665.567918	12694.515148
665.908746	12724.121845
666.249522	12714.352089
666.590248	12750.638314
666.930922	12871.794885
667.271545	12853.505579
667.612118	12940.082355
667.952639	12841.994104
668.293109	12847.695649
668.633528	12798.902321
668.973896	12781.654013
669.314213	12867.726674
669.654480	12601.344543
669.994695	12663.325529
670.334859	12692.032380
670.674973	12642.303918
671.015035	12681.476204
671.355047	12614.839712
671.695008	12588.275352
672.034918	12599.824635
672.374777	12634.021302
672.714585	12554.489538
673.054342	12580.544742
673.394049	12537.848690
673.733705	12624.659879
674.073310	12536.109492
674.412864	12562.099160
674.752368	12427.001278
675.091820	12439.982249
675.431223	12431.084613
675.770574	12301.143831
676.109875	12225.597100
676.449125	12189.285669
676.788324	12119.011984
677.127473	11959.653549
677.466571	11950.723145
677.805619	11850.063906
678.144616	11768.387131
678.483562	11740.945610
678.822458	11608.731268
679.161303	11589.499266
679.500098	11576.082235
679.838842	11530.525328
680.177535	11556.804863
680.516179	11610.934253
680.854771	11564.903477
681.193314	11776.309304
681.531805	11921.655852
681.870247	12329.258346
682.208638	12747.646389
682.546978	13068.634299
682.885268	13121.276548
683.223508	12809.566882
683.561697	12645.749547
683.899836	12550.396122
684.237925	12350.327849
684.575963	12267.433636
684.913951	12195.251874
685.251889	12139.126188
685.589776	12238.968760
685.927614	12169.098368
686.265401	12131.020012
686.603137	12171.233297
686.940824	12322.397336
687.278460	12441.071139
687.616046	12489.042759
687.953582	12657.114828
688.291068	12583.594640
688.628504	12815.916215
688.965889	12828.566991
689.303224	12795.784367
689.640510	12689.206813
689.977745	12382.137530
690.314930	12164.155517
690.652065	12074.687639
690.989150	11785.126283
691.326185	11557.470295
691.663170	11359.589883
692.000105	11108.679054
692.336990	11004.133085
692.673825	10746.295709
693.010610	10636.322938
693.347345	10425.801833
693.684030	10224.503519
694.020665	10169.426393
694.357251	9967.376946
694.693786	9918.959184
695.030272	9749.374769
695.366707	9637.335125
695.703093	9568.321728
696.039429	9562.504237
696.375716	9490.554369
696.711952	9357.140232
697.048139	9398.465091
697.384276	9350.962298
697.720363	9369.551553
698.056400	9300.865832
698.392388	9254.920756
698.728326	9214.737718
699.064214	9152.416454
699.400053	9199.026962
699.735842	9015.589456
700.071581	8974.163774
700.407270	8903.751458
700.742910	8821.086617
701.078501	8732.213596
701.414042	8605.698278
701.749533	8537.846868
702.084974	8399.363851
702.420366	8512.076489
702.755709	8397.365034
703.091002	8263.590455
703.426246	8286.497458
703.761440	8247.400789
704.096584	8191.297788
704.431679	8131.522306
704.766725	8117.691901
705.101721	8064.873211
705.436668	8107.891897
705.771565	8006.247112
706.106413	8086.741737
706.441212	8131.358469
706.775961	8085.302487
707.110661	8118.876572
707.445311	8272.364583
707.779913	8162.722007
708.114465	8295.430382
708.448967	8328.187800
708.783421	8467.358934
709.117825	8648.283425
709.452180	8685.507305
709.786485	8777.619268
710.120742	9056.206033
710.454949	9056.478255
710.789107	9158.286878
711.123216	9364.185245
711.457275	9532.960555
711.791286	9695.535246
712.125247	9689.642137
712.459159	9676.860291
712.793023	9932.199775
713.126837	9497.629628
713.460602	9649.101178
713.794318	9484.608328
714.127985	9515.122432
714.461602	9186.885343
714.795171	9138.422211
715.128691	8899.045541
715.462162	8645.954412
715.795584	8590.184127
716.128957	8446.186088
716.462281	8270.010364
716.795556	8321.314187
717.128782	8117.525542
717.461960	7848.993359
717.795088	7922.306860
718.128167	7831.039290
718.461198	7667.796646
718.794180	7609.488140
719.127113	7594.626819
719.459997	7444.120650
719.792833	7223.560087
720.125619	7283.149046
720.458357	7142.715103
720.791046	7127.513503
721.123686	7131.158258
721.456278	6971.099102
721.788821	6990.676423
722.121315	6883.221708
722.453761	6949.611184
722.786158	6894.029942
723.118506	6903.398927
723.450805	6866.064141
723.783056	6934.565860
724.115259	6843.199988
724.447412	6841.206212
724.779518	6886.110290
725.111574	6889.896196
725.443582	6966.408309
725.775542	6947.060360
726.107453	7139.196377
726.439315	7054.668830
726.771129	7107.427026
727.102895	7279.579909
727.434612	7391.521251
727.766281	7421.208606
728.097901	7505.015268
728.429473	7497.395564
728.760996	7467.763662
729.092471	7445.658202
729.423897	7394.664410
729.755276	7402.689927
730.086606	7332.093609
730.417887	7425.722959
730.749120	7618.847042
731.080305	7811.459448
731.411442	7936.507790
731.742530	7927.839526
732.073570	8035.936988
732.404562	8118.899257
732.735506	7964.574414
733.066401	8114.989842
733.397249	8045.812608
733.728048	7811.202350
734.058798	7479.673388
734.389501	7258.633915
734.720156	7077.923673
735.050762	6847.222829
735.381320	6742.573516
735.711831	6700.873092
736.042293	6591.162460
736.372707	6608.546879
736.703073	6471.825746
737.033391	6511.605491
737.363661	6518.148909
737.693883	6545.353495
738.024056	6627.814169
738.354182	6675.599267
738.684260	6707.905501
739.014290	6823.791546
739.344272	6932.947650
739.674207	6963.444110
740.004093	7029.793257
740.333931	7045.393107
740.663722	7056.027421
740.993464	7128.720860
741.323159	7126.906044
741.652806	6869.290480
741.982405	6879.145936
742.311956	6940.844617
742.641460	6783.994157
742.970915	6586.149033
743.300323	6580.192910
743.629683	6528.710126
743.958996	6392.634260
744.288260	6304.731661
744.617477	6251.600420
744.946647	6258.100988
745.275768	6090.379278
745.604842	6045.649120
745.933869	6029.819897
746.262847	5986.569318
746.591778	5977.409541
746.920662	5936.470331
747.249498	5925.226037
747.578286	5972.237318
747.907027	6049.795469
748.235720	6109.449963
748.564365	6078.489717
748.892963	6101.603408
749.221514	6258.932778
749.550017	6101.094251
749.878473	5975.481300
750.206881	6025.509711
750.535242	5969.041226
750.863555	5896.441049
751.191821	5915.184059
751.520039	5916.618267
751.848210	5826.139638
752.176334	5846.120251
752.504411	5892.587087
752.832440	5824.796170
753.160421	5751.525520
753.488356	5798.473786
753.816243	5836.620197
754.144082	5689.408422
754.471875	5649.023739
754.799620	5695.127611
755.127318	5709.479776
755.454969	5660.525131
755.782572	5629.264936
756.110129	5672.059291
756.437638	5657.387013
756.765100	5597.848465
757.092515	5597.850986
757.419882	5641.330938
757.747203	5625.847034
758.074477	5691.306417
758.401703	5681.284603
758.728882	5630.862982
759.056014	5679.008522
759.383099	5813.120858
759.710138	5826.116953
760.037129	5805.823788
760.364073	5813.118338
760.690970	5892.251850
761.017820	5875.376588
761.344623	5834.984342
761.671379	5929.682417
761.998088	6046.770777
762.324751	6284.098218
762.651366	6870.681838
762.977935	8163.226123
763.304456	9785.166961
763.630931	10703.718124
763.957359	10316.403753
764.283740	9388.617197
764.610074	8558.981905
764.936362	7570.351142
765.262602	6978.441543
765.588796	6439.385921
765.914943	6103.703048
766.241044	5943.331341
766.567097	5743.699128
766.893104	5484.750179
767.219064	5303.278723
767.544978	5244.471142
767.870845	5164.848638
768.196665	5060.083379
768.522438	4989.298017
768.848165	4956.316268
769.173846	4889.994848
769.499479	4849.058158
769.825066	4792.819046
770.150607	4731.493409
770.476101	4706.690932
770.801548	4709.652610
771.126949	4632.522957
771.452303	4576.099842
771.777611	4534.475035
772.102872	4553.860792
772.428087	4517.705637
772.753256	4474.969255
773.078378	4435.363430
773.403453	4364.419272
773.728482	4354.253785
774.053465	4300.920898
774.378401	4288.653250
774.703291	4292.449239
775.028135	4220.388465
775.352932	4172.124458
775.677683	4155.876819
776.002388	4180.654090
776.327046	4193.433415
776.651658	4114.443576
776.976224	4052.026529
777.300743	4060.863672
777.625216	4082.245726
777.949643	4077.005447
778.274024	4031.882079
778.598359	3987.275429
778.922647	4011.949356
779.246889	4002.600537
779.571086	3999.306142
779.895236	3983.373576
780.219339	3971.128613
780.543397	3960.995894
780.867409	4013.701157
781.191374	4028.980895
781.515294	3970.132985
781.839167	3958.707210
782.162995	3977.767813
782.486776	3966.442861
782.810511	3973.984427
783.134201	3972.872852
783.457844	3931.963889
783.781441	3868.541132
784.104993	3879.664438
784.428498	3897.973909
784.751958	3895.440729
785.075372	3873.552039
785.398739	3835.229188
785.722061	3846.914582
786.045337	3887.077455
786.368568	3926.562292
786.691752	3836.083663
787.014891	3880.980179
787.337983	4005.584900
787.661030	4164.403931
787.984031	4326.313190
788.306987	4498.892050
788.629897	4582.471861
788.952760	4533.066032
789.275579	4464.627328
789.598351	4405.171959
789.921078	4265.277419
790.243759	4067.364240
790.566395	4045.347001
790.888984	4044.298441
791.211529	3939.129889
791.534027	3876.972462
791.856480	3871.177656
792.178888	3809.945281
792.501249	3756.201539
792.823566	3766.059516
793.145836	3795.494813
793.468062	3743.981783
793.790241	3699.065102
794.112375	3731.928384
794.434464	3790.224287
794.756507	3816.869305
795.078505	3797.836429
795.400457	3832.839681
795.722364	3966.722645
796.044226	4070.877924
796.366042	4142.245539
796.687812	4129.030154
797.009538	4127.769866
797.331218	4091.334927
797.652852	4058.816964
797.974442	4043.151578
798.295986	4042.740724
798.617484	3964.060915
798.938938	3875.933984
799.260346	3916.411929
799.581709	3913.120056
799.903026	3840.930733
800.224299	3804.152995
800.545526	3795.343578
800.866708	3758.147425
801.187845	3698.651727
801.508936	3734.295205
801.829983	3732.377046
802.150984	3649.528203
802.471940	3641.903458
802.792851	3650.304541
803.113717	3651.496774
803.434538	3659.318124
803.755314	3602.587499
804.076045	3571.957449
804.396731	3592.084255
804.717372	3620.591980
805.037967	3602.133796
805.358518	3594.148608
805.679024	3621.562402
805.999485	3632.854587
806.319901	3640.315495
806.640272	3647.678100
806.960598	3665.914474
807.280879	3639.251811
807.601115	3651.464007
807.921306	3667.063857
808.241453	3711.720918
808.561554	3683.510622
808.881611	3622.195067
809.201623	3654.612207
809.521590	3667.028569
809.841513	3640.587717
810.161390	3668.727438
810.481223	3647.791526
810.801011	3589.092331
811.120755	3585.228286
811.440453	3620.405458
811.760107	3625.539873
812.079716	3583.403388
812.399281	3549.731001
812.718801	3568.675657
813.038276	3546.628171
813.357707	3543.905948
813.677093	3560.146025
813.996434	3510.573839
814.315731	3518.821167
814.634983	3519.839480
814.954191	3532.341541
815.273354	3564.551994
815.592473	3561.035789
815.911547	3567.218764
816.230577	3606.060854
816.549562	3654.047598
816.868502	3693.459339
817.187399	3722.297259
817.506250	3719.312896
817.825058	3693.023279
818.143821	3781.649284
818.462539	3882.442114
818.781213	3928.621604
819.099843	3983.938185
819.418429	4220.370821
819.736970	4464.133295
820.055466	4705.695305
820.373919	5068.555038
820.692327	5476.003777
821.010691	5905.903295
821.329011	7250.792400
821.647286	9954.854720
821.965517	14458.175424
822.283704	18483.801431
822.601847	20684.907832
822.919945	18914.406710
823.237999	16356.915938
823.556010	13879.251837
823.873976	11798.598766
824.191897	9717.607938
824.509775	8368.035601
824.827609	7240.561378
825.145398	6695.370672
825.463144	6574.781231
825.780845	6689.374220
826.098502	6869.668566
826.416116	7728.729073
826.733685	9033.752733
827.051210	10151.119442
827.368692	10222.855062
827.686129	8988.064756
828.003522	7472.305741
828.320872	6456.661955
828.638177	5763.553713
828.955439	5207.592582
829.272656	4715.301223
829.589830	4427.481586
829.906960	4253.637395
830.224046	4072.765836
830.541088	3944.912092
830.858086	3896.794279
831.175041	3822.638906
831.491952	3802.522182
831.808819	3818.495078
832.125642	3886.961508
832.442421	4030.468035
832.759157	4299.153973
833.075849	4839.416952
833.392497	5699.591553
833.709101	6463.787626
834.025662	6815.148488
834.342179	6465.496577
834.658653	5806.834539
834.975083	5161.203884
835.291469	4592.196246
835.607811	4175.660828
835.924110	4043.978327
836.240366	3844.197400
836.556578	3639.269455
836.872746	3531.613094
837.188871	3493.741426
837.504952	3425.741302
837.820990	3344.195597
838.136984	3299.147847
838.452935	3321.659119
838.768842	3318.500836
839.084706	3343.794826
839.400526	3490.298318
839.716303	3824.995645
840.032037	4342.102083
840.347727	4614.488229
840.663373	4344.615099
840.978977	3966.543684
841.294537	3658.569513
841.610054	3430.011159
841.925527	3325.596260
842.240957	3254.939448
842.556344	3203.091181
842.871687	3144.787716
843.186987	3094.776949
843.502244	3057.169941
843.817458	3023.414375
844.132629	2992.267606
844.447756	2999.421003
844.762840	2987.123109
845.077881	2952.991977
845.392879	2936.192331
845.707833	2933.427258
846.022745	2933.344079
846.337613	2933.283586
846.652438	2921.630958
846.967221	2918.311359
847.281960	2904.594379
847.596656	2899.366703
847.911309	2901.917526
848.225919	2895.280847
848.540485	2887.192316
848.855009	2887.991339
849.169490	2879.970863
849.483928	2871.811756
849.798323	2869.069368
850.112675	2868.063658
850.426984	2876.936088
850.741251	2878.289638
851.055474	2864.739017
851.369654	2859.067719
851.683792	2863.677854
851.997887	2872.434338
852.311938	2873.797970
852.625947	2864.925539
852.939914	2866.775643
853.253837	2871.058103
853.567718	2857.850280
853.881555	2854.881040
854.195350	2870.427959
854.509103	2864.310519
854.822812	2858.097297
855.136479	2853.835001
855.450103	2857.426823
855.763685	2851.102696
856.077224	2848.035153
856.390720	2860.375898
856.704173	2871.766385
857.017584	2860.264993
857.330953	2859.390352
857.644278	2869.071888
857.957561	2878.042622
858.270802	2880.245606
858.584000	2880.820298
858.897155	2866.745396
859.210268	2867.574666
859.523339	2862.778008
859.836367	2862.636856
860.149352	2858.896319
860.462295	2856.411031
860.775195	2865.076774
861.088054	2864.439068
861.400869	2847.089937
861.713642	2842.177333
862.026373	2856.920187
862.339062	2860.499406
862.651708	2866.266486
862.964312	2870.117928
863.276873	2860.814478
863.589392	2872.318392
863.901869	2883.983622
864.214303	2905.960532
864.526696	2922.747574
864.839045	2917.025864
865.151353	2914.230545
865.463619	2914.399423
865.775842	2916.892274
866.088023	2932.648400
866.400162	2941.125100
866.712258	2913.822211
867.024313	2900.793349
867.336325	2909.874988
867.648296	2929.979109
867.960224	2923.019796
868.272110	2912.214083
868.583954	2915.700041
868.895755	2930.213523
869.207515	2919.100299
869.519233	2918.543252
869.830909	2930.437854
870.142542	2938.798608
870.454134	2935.557146
870.765684	2943.648198
871.077191	2940.704164
871.388657	2949.566513
871.700081	2962.703759
872.011463	2976.738332
872.322803	2975.329329
872.634101	2972.140799
872.945357	2990.425064
873.256571	3016.487830
873.567744	3009.180677
873.878874	3004.310923
874.189963	3025.377905
874.501010	3029.183976
874.812015	3016.964219
875.122979	3019.605783
875.433900	3013.206039
875.744780	3017.402799
876.055618	3027.364119
876.366415	3022.706093
876.677169	3036.415511
876.987882	3031.066847
877.298554	3025.241793
877.609183	3047.576626
877.919771	3068.560428
878.230317	3096.463215
878.540822	3147.000782
878.851285	3184.189374
879.161707	3228.543966
879.472087	3324.726661
879.782425	3545.957698
880.092722	3974.080209
880.402977	4501.389942
880.713191	5121.950939
881.023363	6260.465289
881.333494	7535.189094
881.643583	8098.396884
881.953631	7812.281157
882.263637	7193.850047
882.573602	6612.209278
882.883526	6035.632348
883.193408	5465.576150
883.503248	5001.699256
883.813048	4696.059139
884.122806	4398.205085
884.432522	4084.549533
884.742197	3854.428422
885.051831	3657.024399
885.361424	3523.602701
885.670975	3450.508491
885.980485	3369.766850
886.289954	3292.337248
886.599382	3247.602048
886.908768	3208.306254
887.218113	3164.712876
887.527417	3112.683127
887.836680	3060.182031
888.145901	3056.136505
888.455082	3046.195349
888.764221	2996.600478
889.073319	2965.441106
889.382376	2962.923050
889.691392	2967.898668
890.000366	2966.114100
890.309300	2952.702110
890.618193	2967.371868
890.927044	2984.174034
891.235855	2982.470124
891.544625	2967.278607
891.853353	2979.851244
892.162041	2995.521671
892.470687	3036.924668
892.779293	3086.968202
893.087858	3133.740027
893.396381	3203.144113
893.704864	3321.966629
894.013306	3555.377094
894.321707	3855.774410
894.630068	4062.076070
894.938387	4063.396852
895.246665	4017.174512
895.554903	3898.840987
895.863100	3702.460319
896.171256	3532.701984
896.479371	3398.007394
896.787446	3277.377624
897.095480	3174.896007
897.403473	3108.599793
897.711425	3072.827765
898.019336	3062.727813
898.327207	3035.825696
898.635038	2999.660458
898.942827	2985.643530
899.250576	2973.416211
899.558284	2944.661470
899.865952	2922.820671
900.173579	2901.736045
900.481165	2897.635066
900.788711	2885.853890
901.096216	2860.459077
901.403681	2848.264526
901.711105	2856.935311
902.018489	2851.591687
902.325832	2851.042202
902.633135	2859.614684
902.940397	2890.630383
903.247619	2972.748258
903.554800	3160.780776
903.861941	3502.250894
904.169041	3923.434257
904.476101	4224.839804
904.783121	4188.324206
905.090100	3947.727577
905.397039	3673.745907
905.703938	3424.304573
906.010796	3240.524268
906.317614	3129.331538
906.624391	3035.051879
906.931129	2966.789615
907.237826	2905.647980
907.544483	2858.798017
907.851099	2831.182576
908.157675	2804.986220
908.464211	2789.822429
908.770707	2774.469595
909.077163	2759.789755
909.383578	2746.599576
909.689954	2734.710015
909.996289	2732.438975
910.302584	2735.509038
910.608839	2734.294120
910.915054	2728.837071
911.221229	2723.122923
911.527363	2726.792883
911.833458	2729.951166
912.139513	2734.730180
912.445527	2740.403998
912.751502	2750.892119
913.057436	2758.342944
913.363331	2768.868873
913.669186	2790.797893
913.975000	2825.281906
914.280775	2883.746687
914.586510	2952.750001
914.892205	3029.436033
915.197859	3156.798265
915.503475	3349.272039
915.809050	3559.399934
916.114585	3703.231615
916.420081	3727.393866
916.725536	3669.327335
917.030952	3554.613359
917.336328	3427.205757
917.641665	3295.419913
917.946961	3194.251517
918.252218	3126.362298
918.557435	3051.244065
918.862612	2988.600167
919.167750	2939.723660
919.472848	2903.397105
919.777906	2874.849051
920.082925	2848.067921
920.387904	2818.942655
920.692843	2803.705767
920.997743	2791.977523
921.302603	2777.378341
921.607423	2769.365427
921.912204	2754.781369
922.216946	2745.493043
922.521647	2736.567680
922.826310	2725.033520
923.130932	2722.959085
923.435516	2713.915255
923.740059	2705.708257
924.044564	2698.456557
924.349028	2693.523788
924.653454	2686.440967
924.957840	2681.225893
925.262186	2677.414781
925.566493	2670.941939
925.870761	2668.000426
926.174989	2664.350631
926.479178	2657.406441
926.783328	2651.306645
927.087438	2654.364105
927.391509	2654.497696
927.695541	2650.212715
927.999533	2644.367497
928.303486	2642.446817
928.607400	2639.873308
928.911275	2639.734677
929.215110	2637.360293
929.518906	2640.924389
929.822663	2638.640746
930.126381	2639.762403
930.430060	2639.843061
930.733699	2641.824235
931.037299	2641.030253
931.340861	2643.913793
931.644383	2641.988072
931.947866	2641.511683
932.251309	2637.559419
932.554714	2640.921868
932.858080	2639.848102
933.161407	2635.081692
933.464694	2635.300982
933.767943	2631.623460
934.071153	2632.581279
934.374323	2630.201855
934.677455	2631.063892
934.980548	2632.654376
935.283602	2629.995167
935.586617	2630.978192
935.889593	2630.499283
936.192530	2630.748820
936.495428	2629.314612
936.798287	2633.118162
937.101108	2637.135962
937.403890	2640.236271
937.706632	2644.183495
938.009336	2650.706748
938.312002	2657.270330
938.614628	2665.825168
938.917216	2675.121056
939.219765	2678.206242
939.522275	2675.607527
939.824747	2671.400684
940.127179	2672.678617
940.429573	2669.585869
940.731929	2664.975734
941.034246	2660.990702
941.336524	2658.553304
941.638763	2654.820329
941.940964	2654.641368
942.243126	2649.932931
942.545250	2651.266316
942.847335	2647.984525
943.149381	2642.527476
943.451389	2641.602424
943.753359	2639.013792
944.055290	2635.149747
944.357182	2637.637557
944.659036	2634.355765
944.960851	2634.048255
945.262628	2630.907616
945.564367	2632.152781
945.866067	2633.478605
946.167729	2633.163532
946.469352	2633.282000
946.770937	2633.803759
947.072484	2633.511372
947.373992	2630.849643
947.675462	2632.296454
947.976893	2625.712707
948.278286	2623.635752
948.579641	2625.284209
948.880958	2622.614918
949.182236	2624.918725
949.483476	2623.348406
949.784678	2625.453088
950.085841	2625.377470
950.386967	2624.744806
950.688054	2625.551390
950.989103	2625.344703
951.290114	2629.722945
951.591087	2628.238325
951.892021	2630.171608
952.192917	2633.730662
952.493776	2634.975827
952.794596	2636.531023
953.095378	2637.445993
953.396122	2634.272586
953.696828	2637.229223
953.997496	2632.004067
954.298126	2629.733027
954.598718	2627.081380
954.899272	2624.923767
955.199788	2623.502161
955.500266	2620.076697
955.800706	2620.066615
956.101108	2618.229114
956.401472	2614.796088
956.701798	2615.486727
957.002087	2612.356170
957.302337	2609.868361
957.602550	2609.908690
957.902724	2609.732249
958.202861	2605.338884
958.502960	2603.002309
958.803022	2604.991044
959.103045	2604.307968
959.403031	2604.161774
959.702979	2600.600199
960.002889	2601.555498
960.302762	2600.249839
960.602596	2601.328646
960.902393	2600.743872
961.202153	2599.319746
961.501875	2599.140785
961.801559	2600.292689
962.101205	2597.930908
962.400814	2600.028028
962.700385	2594.878490
962.999918	2595.173397
963.299414	2592.471339
963.598873	2595.170877
963.898293	2592.143664
964.197677	2594.684405
964.497022	2595.879159
964.796331	2598.601382
965.095601	2596.658017
965.394835	2597.336052
965.694030	2596.121134
965.993189	2595.564087
966.292309	2598.346803
966.591393	2596.950404
966.890439	2597.474684
967.189447	2597.588110
967.488419	2598.538367
967.787353	2592.849425
968.086249	2596.390836
968.385108	2593.897985
968.683930	2597.522575
968.982714	2594.006370
969.281462	2596.335383
969.580172	2596.103490
969.878844	2597.182297
970.177480	2596.678182
970.476078	2595.856473
970.774639	2594.964189
971.073162	2597.179776
971.371649	2597.520054
971.670098	2597.578027
971.968510	2599.314705
972.266885	2595.115424
972.565223	2598.296392
972.863524	2597.930908
973.161788	2594.855804
973.460014	2595.342276
973.758204	2598.354365
974.056356	2596.476535
974.354471	2595.254056
974.652550	2596.095928
974.950591	2596.988212
975.248595	2597.711618
975.546563	2597.051227
975.844493	2596.595002
976.142386	2595.410331
976.440243	2595.261617
976.738062	2594.823037
977.035845	2594.621391
977.333590	2594.550815
977.631299	2594.518047
977.928971	2591.763057
978.226606	2589.658375
978.524204	2591.090062
978.821765	2590.205340
979.119290	2593.479569
979.416777	2591.957141
979.714228	2593.676174
980.011642	2593.663572
980.309020	2594.641555
980.606360	2592.582244
980.903664	2593.938314
981.200931	2594.802872
981.498162	2596.363109
981.795356	2596.055599
982.092513	2596.852101
982.389633	2599.218923
982.686717	2603.234202
982.983764	2606.528596
983.280775	2611.002620
983.577749	2615.383383
983.874686	2611.368104
984.171587	2609.389451
984.468451	2604.204624
984.765279	2606.021960
985.062070	2601.739500
985.358824	2599.637339
985.655543	2599.037442
985.952224	2597.257914
986.248869	2595.990064
986.545478	2594.971751
986.842050	2592.234404
987.138586	2592.090732
987.435086	2591.306832
987.731549	2592.327666
988.027975	2591.969744
988.324366	2590.114599
988.620719	2588.680391
988.917037	2590.172572
989.213318	2590.512850
989.509563	2591.805906
989.805772	2592.501586
990.101944	2588.461101
990.398080	2589.227356
990.694180	2592.236925
990.990244	2590.187696
991.286271	2590.333889
991.582262	2591.841194
991.878217	2589.484455
992.174136	2592.496544
992.470019	2590.200299
992.765865	2589.088724
993.061676	2589.174424
993.357450	2587.667119
993.653188	2584.264340
993.948890	2591.571493
994.244556	2591.326997
994.540186	2591.929415
994.835780	2589.265165
995.131337	2592.551997
995.426859	2590.661564
995.722345	2592.539394
996.017795	2593.290526
996.313208	2594.928901
996.608586	2597.827565
996.903928	2597.139447
997.199234	2594.765064
997.494504	2595.682554
997.789738	2595.324632
998.084936	2593.262800
998.380099	2594.145002
998.675225	2592.867069
998.970316	2590.827923
999.265371	2594.003849
999.560390	2593.905547
999.855373	2590.933787
1000.150320	2592.191555
1000.445232	2590.827922
1000.740108	2591.067377
1001.034948	2588.151070
1001.329752	2588.428333
1001.624521	2588.244331
1001.919254	2591.200968
1002.213951	2590.636359
1002.508613	2590.817840
1002.803239	2589.759198
1003.097829	2590.285998
1003.392384	2590.056626
1003.686903	2589.713828
1003.981386	2590.575865
1004.275834	2588.234249
1004.570246	2587.876327
1004.864623	2588.572006
1005.158964	2587.662078
1005.453270	2590.462439
1005.747540	2588.037644
1006.041775	2588.965216
1006.335974	2588.294743
1006.630138	2584.445822
1006.924266	2588.655185
1007.218359	2589.784404
1007.512416	2586.285843
1007.806438	2583.354412
1008.100425	2585.698548
1008.394376	2584.786100
1008.688292	2587.704928
1008.982172	2587.662078
1009.276017	2589.252562
1009.569827	2586.845411
1009.863602	2586.984043
1010.157341	2585.864907
1010.451045	2588.413210
1010.744714	2586.437077
1011.038347	2588.791296
1011.331945	2588.851790
1011.625508	2585.983374
1011.919036	2586.656368
1012.212528	2588.239290
1012.505986	2587.329362
1012.799408	2587.715010
1013.092795	2586.996646
1013.386147	2589.532346
1013.679464	2583.543455
1013.972745	2587.573858
1014.265992	2587.994794
1014.559204	2587.893971
1014.852380	2587.324321
1015.145521	2588.410689
1015.438628	2589.547469
1015.731699	2588.466142
1016.024736	2587.057139
1016.317737	2589.073601
1016.610703	2586.338775
1016.903635	2586.343816
1017.196531	2587.727613
1017.489393	2590.086873
1017.782219	2584.897005
1018.075011	2587.417582
1018.367768	2588.730803
1018.660490	2586.961357
1018.953177	2586.961357
1019.245829	2586.961357
