Dividing Wavelength (nm)	Counts (n)	Blue Motor Position (mm): 1.400000	Red Motor Position (mm): 0.000000	
326.493990	2166.332522
326.888308	2166.332522
327.282561	2166.332522
327.676750	2126.535133
328.070874	2121.990533
328.464933	2120.881479
328.858929	2124.894237
329.252859	2130.626029
329.646726	2139.314458
330.040528	2151.148566
330.434265	2164.661379
330.827938	2182.030675
331.221547	2202.157482
331.615091	2216.597867
332.008571	2235.807183
332.401986	2253.418454
332.795338	2272.481578
333.188625	2288.807354
333.581847	2308.631692
333.975006	2327.593992
334.368100	2347.630058
334.761129	2363.214785
335.154095	2380.321941
335.546996	2397.693757
335.939833	2413.510377
336.332606	2429.218613
336.725315	2443.613627
337.117960	2452.591922
337.510540	2464.552060
337.903056	2476.189563
338.295508	2485.528301
338.687896	2494.680516
339.080220	2505.269459
339.472480	2509.141066
339.864676	2513.153824
340.256807	2521.764115
340.648875	2522.621111
341.040879	2527.823582
341.432818	2526.386853
341.824694	2532.043027
342.216506	2531.639735
342.608253	2536.670807
342.999937	2535.440765
343.391557	2531.377595
343.783113	2535.344983
344.174605	2534.581248
344.566033	2530.956659
344.957397	2533.232740
345.348697	2530.321473
345.739934	2527.621936
346.131106	2528.446164
346.522215	2525.376102
346.913260	2523.246214
347.304241	2519.077180
347.695159	2518.678929
348.086012	2516.428053
348.476802	2516.838907
348.867528	2511.785151
349.258191	2506.401198
349.648789	2507.611075
350.039324	2501.450785
350.429796	2507.984121
350.820203	2505.387927
351.210548	2506.895232
351.600828	2503.179901
351.991045	2502.383399
352.381198	2503.215189
352.771288	2501.216372
353.161314	2501.075219
353.551276	2500.946670
353.941175	2498.385764
354.331010	2501.095384
354.720782	2501.322236
355.110490	2498.446258
355.500135	2499.807369
355.889717	2496.008860
356.279235	2497.606906
356.668689	2499.477174
357.058080	2498.678151
357.447408	2501.801146
357.836672	2500.452637
358.225873	2499.683861
358.615010	2500.099756
359.004084	2500.810559
359.393095	2499.535147
359.782043	2501.899448
360.170927	2499.530106
360.559748	2501.213851
360.948505	2504.394819
361.337199	2504.049500
361.725830	2504.588904
362.114398	2506.955725
362.502903	2507.301044
362.891344	2505.080416
363.279722	2504.961949
363.668037	2507.792557
364.056289	2507.790036
364.444478	2509.269615
364.832603	2508.163082
365.220665	2507.689213
365.608665	2508.137876
365.996601	2507.147289
366.384474	2509.801457
366.772284	2511.349091
367.160031	2510.108967
367.547715	2512.833711
367.935336	2511.480161
368.322893	2511.568381
368.710388	2509.002434
369.097820	2508.886487
369.485189	2508.720129
369.872495	2514.388907
370.259738	2513.703310
370.646918	2513.993176
371.034035	2515.066942
371.421090	2513.012672
371.808081	2516.148269
372.195010	2512.251457
372.581875	2513.990656
372.968678	2515.397137
373.355418	2514.832528
373.742096	2515.077024
374.128710	2513.748680
374.515262	2516.743126
374.901751	2513.005110
375.288177	2516.049967
375.674540	2515.568537
376.060841	2517.590039
376.447079	2519.230935
376.833254	2518.704134
377.219367	2514.845131
377.605417	2517.504340
377.991404	2515.283712
378.377329	2516.702796
378.763191	2518.663805
379.148991	2516.503671
379.534727	2518.709176
379.920402	2519.619104
380.306013	2517.857221
380.691563	2520.826460
381.077049	2519.200688
381.462474	2517.496778
381.847835	2519.230935
382.233134	2519.082221
382.618371	2517.804288
383.003545	2521.892664
383.388657	2520.587005
383.773706	2521.007942
384.158693	2522.084228
384.543618	2522.147243
384.928480	2522.512726
385.313280	2519.558610
385.698017	2519.152797
386.082692	2520.503826
386.467305	2524.385515
386.851856	2522.847963
387.236344	2521.640607
387.620770	2519.145235
388.005133	2519.790503
388.389435	2518.356295
388.773674	2516.188599
389.157851	2522.830319
389.541965	2523.687315
389.926018	2525.287881
390.310008	2524.471214
390.693936	2524.289733
391.077802	2524.730834
391.461606	2528.647810
391.845348	2525.333252
392.229027	2527.032121
392.612645	2525.401307
392.996200	2524.945083
393.379694	2524.950124
393.763125	2527.286699
394.146494	2528.305012
394.529801	2527.541277
394.913047	2527.173273
395.296230	2527.069929
395.679351	2526.442306
396.062410	2524.884589
396.445408	2528.408356
396.828343	2528.383150
397.211217	2527.294261
397.594028	2526.772501
397.976778	2529.880373
398.359466	2530.729807
398.742092	2527.884076
399.124656	2528.947759
399.507158	2528.468849
399.889598	2529.613191
400.271977	2532.383305
400.654294	2528.584796
401.036549	2529.817358
401.418742	2528.214271
401.800874	2528.017666
402.182944	2530.553367
402.564952	2531.004550
402.946898	2530.916330
403.328783	2529.340969
403.710606	2532.862215
404.092367	2529.716535
404.474067	2530.326515
404.855705	2530.278624
405.237282	2534.823224
405.618797	2531.380116
406.000250	2535.597041
406.381642	2531.823737
406.762972	2530.359282
407.144240	2528.156298
407.525447	2530.422297
407.906593	2525.655886
408.287677	2530.634025
408.668700	2530.339118
409.049661	2532.952956
409.430560	2529.366175
409.811399	2536.007895
410.192176	2533.283151
410.572891	2535.639891
410.953545	2532.889941
411.334138	2534.082174
411.714669	2535.743234
412.095139	2533.147040
412.475547	2535.443286
412.855894	2535.496218
413.236180	2531.947246
413.616405	2533.189890
413.996568	2534.535878
414.376670	2534.954294
414.756711	2534.767771
415.136691	2536.237268
415.516609	2534.394726
415.896466	2533.326001
416.276262	2536.088553
416.655997	2537.119469
417.035670	2535.536547
417.415283	2537.053934
417.794834	2537.074099
418.174324	2536.746424
418.553753	2537.300951
418.933121	2535.919675
419.312428	2534.150230
419.691674	2538.793132
420.070859	2534.634181
420.449983	2536.759027
420.829045	2539.002340
421.208047	2538.115097
421.586988	2540.197094
421.965867	2537.590817
422.344686	2538.576363
422.723444	2538.168029
423.102141	2539.798843
423.480777	2538.122659
423.859352	2538.780530
424.237866	2536.617875
424.616319	2539.892104
424.994712	2538.183153
425.373044	2538.687268
425.751314	2535.072761
426.129524	2534.520755
426.507673	2537.742052
426.885762	2535.735673
427.263789	2538.780530
427.641756	2536.774150
428.019662	2538.599048
428.397508	2537.696682
428.775292	2538.576363
429.153016	2541.888401
429.530679	2539.614841
429.908282	2539.486291
430.285824	2541.190201
430.663305	2538.218441
431.040726	2540.320602
431.418086	2538.251208
431.795385	2540.161806
432.172624	2539.327495
432.549802	2539.380427
432.926920	2539.057793
433.303977	2540.199614
433.680974	2539.629964
434.057910	2540.494522
434.434786	2538.344470
434.811601	2544.131714
435.188355	2538.939326
435.565050	2541.901004
435.941683	2543.100798
436.318257	2543.801519
436.694770	2541.714481
437.071222	2543.496529
437.447614	2542.291693
437.823946	2544.852599
438.200218	2544.378731
438.576429	2543.904863
438.952580	2542.914276
439.328670	2545.321427
439.704700	2544.950902
440.080670	2543.259595
440.456580	2542.400078
440.832429	2543.483926
441.208218	2542.072403
441.583947	2545.460058
441.959616	2543.289842
442.335224	2541.684234
442.710773	2545.258412
443.086261	2543.231868
443.461689	2544.701365
443.837057	2544.792106
444.212365	2544.313196
444.587612	2540.174409
444.962800	2537.661393
445.337927	2542.447969
445.712995	2537.482433
446.088002	2543.461241
446.462949	2547.244627
446.837837	2546.180943
447.212664	2543.088196
447.587431	2544.865202
447.962139	2547.100954
448.336786	2548.058773
448.711374	2548.678835
449.085901	2546.740512
449.460369	2546.833773
449.834776	2544.093906
450.209124	2548.194884
450.583412	2545.520552
450.957640	2546.750594
451.331808	2545.008875
451.705917	2546.662374
452.079965	2544.887887
452.453954	2542.871426
452.827883	2545.051725
453.201752	2548.406613
453.575562	2546.236396
453.949311	2544.204811
454.323001	2547.287477
454.696632	2547.247148
455.070202	2547.781510
455.443713	2546.987528
455.817164	2546.533824
456.190556	2545.442414
456.563888	2546.312013
456.937160	2547.978115
457.310373	2545.644061
457.683526	2547.441232
458.056619	2546.238917
458.429653	2547.015254
458.802628	2547.504246
459.175542	2545.374359
459.548398	2548.283105
459.921194	2548.532642
460.293930	2548.129349
460.666607	2548.469627
461.039224	2550.402910
461.411782	2550.077755
461.784280	2545.210521
462.156719	2550.097920
462.529099	2548.857796
462.901419	2546.743032
463.273680	2547.216901
463.645882	2543.718340
464.018024	2545.291180
464.390106	2544.315717
464.762130	2546.508618
465.134094	2546.959802
465.505999	2546.064997
465.877845	2547.930224
466.249631	2548.000800
466.621358	2549.452652
466.993026	2551.103630
467.364634	2551.204453
467.736184	2547.484082
468.107674	2549.714792
468.479105	2550.604556
468.850477	2550.234031
469.221790	2551.554813
469.593043	2546.959802
469.964238	2548.668753
470.335373	2549.641696
470.706449	2551.716130
471.077467	2550.017262
471.448425	2549.787889
471.819324	2548.502395
472.190164	2549.780327
472.560945	2548.905687
472.931667	2550.120605
473.302330	2548.630944
473.672934	2547.431150
474.043479	2549.835780
474.413965	2550.735626
474.784393	2548.419216
475.154761	2551.869886
475.525070	2548.356201
475.895321	2550.337375
476.265513	2550.186140
476.635645	2548.802343
477.005719	2552.207643
477.375734	2552.321069
477.745691	2550.748229
478.115588	2552.021120
478.485427	2551.532128
478.855207	2550.705379
479.224928	2551.012889
479.594591	2551.010369
479.964194	2553.835936
480.333739	2551.539690
480.703226	2549.901315
481.072653	2553.974567
481.442022	2551.832077
481.811333	2549.707231
482.180584	2547.166489
482.549777	2546.627086
482.918912	2545.051725
483.287988	2551.002807
483.657005	2548.736808
484.025964	2552.661347
484.394864	2549.487940
484.763706	2550.680173
485.132489	2552.114382
485.501213	2554.854249
485.869879	2550.743188
486.238487	2550.259237
486.607036	2555.428940
486.975527	2548.003321
487.343959	2553.167983
487.712333	2554.597150
488.080648	2552.144628
488.448905	2549.041798
488.817104	2552.452139
489.185244	2552.636141
489.553326	2553.803168
489.921350	2554.360216
490.289315	2552.399207
490.657222	2553.341902
491.025070	2552.973898
491.392861	2552.310987
491.760593	2550.760832
492.128267	2551.733774
492.495883	2554.173693
492.863440	2553.331820
493.230939	2550.211346
493.598380	2552.817622
493.965763	2549.863506
494.333088	2550.465924
494.700354	2553.737633
495.067563	2553.004145
495.434713	2552.134546
495.801805	2554.372818
496.168839	2551.219577
496.535815	2552.878116
496.902733	2550.448280
497.269593	2552.484906
497.636395	2551.532128
498.003139	2552.479865
498.369825	2553.893909
498.736453	2552.520194
499.103023	2553.273847
499.469535	2556.054043
499.835989	2553.394835
500.202385	2548.983825
500.568723	2546.415357
500.935003	2552.250493
501.301226	2547.864689
501.667390	2550.113043
502.033497	2551.615307
502.399546	2553.604042
502.765537	2554.546738
503.131470	2554.695452
503.497345	2554.151008
503.863163	2553.858621
504.228923	2556.752243
504.594625	2553.422561
504.960269	2552.126984
505.325856	2552.996583
505.691385	2553.117571
506.056856	2552.275698
506.422270	2554.546738
506.787625	2550.415513
507.152924	2554.183775
507.518164	2556.185113
507.883347	2554.425751
508.248472	2554.836605
508.613540	2552.144628
508.978550	2553.601522
509.343503	2552.840308
509.708398	2554.445915
510.073236	2556.631255
510.438016	2554.335010
510.802738	2554.758467
511.167403	2553.757798
511.532010	2554.939948
511.896561	2553.866182
512.261053	2554.478683
512.625488	2552.767211
512.989866	2554.365257
513.354186	2554.009855
513.718449	2553.699824
514.082655	2554.662685
514.446803	2552.661347
514.810894	2557.185782
515.174927	2554.677808
515.538904	2556.752243
515.902822	2554.884496
516.266684	2554.627397
516.630488	2555.141594
516.994235	2555.121430
517.357925	2554.307283
517.721558	2554.536656
518.085133	2554.614794
518.448651	2552.605894
518.812112	2551.781665
519.175516	2554.715617
519.538863	2550.430636
519.902152	2553.218394
520.265385	2556.303580
520.628560	2554.145967
520.991678	2556.969013
521.354739	2554.413148
521.717743	2552.018600
522.080690	2554.856769
522.443580	2554.582026
522.806413	2555.686039
523.169189	2554.670247
523.531908	2554.703014
523.894569	2555.630586
524.257174	2555.572613
524.619722	2552.454659
524.982213	2554.594629
525.344647	2555.403734
525.707025	2556.253169
526.069345	2554.985319
526.431608	2556.190154
526.793815	2553.009186
527.155964	2555.960782
527.518057	2556.890875
527.880093	2554.972716
528.242072	2552.179917
528.603995	2555.406255
528.965860	2553.939279
529.327669	2553.606563
529.689421	2554.055226
530.051117	2556.888354
530.412755	2556.976574
530.774337	2557.747871
531.135862	2555.552448
531.497331	2555.532284
531.858743	2555.527243
532.220098	2555.275185
532.581396	2554.060267
532.942638	2555.096224
533.303824	2558.317521
533.664953	2552.903322
534.026025	2553.578837
534.387040	2555.653272
534.747999	2553.447767
535.108902	2555.630586
535.469748	2557.276523
535.830537	2558.383056
536.191270	2553.203271
536.551947	2555.146636
536.912567	2551.519525
537.273131	2551.433826
537.633638	2552.109340
537.994089	2556.721996
538.354483	2556.522871
538.714821	2555.993549
539.075103	2555.381049
539.435328	2554.329969
539.795497	2557.268961
540.155609	2556.122099
540.515665	2557.200906
540.875665	2556.477500
541.235609	2554.753426
541.595496	2556.880792
541.955328	2558.148643
542.315102	2556.674105
542.674821	2558.264589
543.034483	2557.488252
543.394090	2554.750905
543.753640	2555.910370
544.113134	2555.141594
544.472571	2557.294167
544.831953	2560.026472
545.191278	2558.022614
545.550548	2556.119578
545.909761	2555.970864
546.268918	2554.118240
546.628019	2556.049002
546.987064	2553.722510
547.346053	2557.614280
547.704986	2556.127140
548.063863	2558.204095
548.422684	2555.065977
548.781449	2558.304918
549.140158	2556.588406
549.498811	2555.333158
549.857408	2556.094372
550.215949	2557.483210
550.574434	2556.689229
550.932864	2557.019424
551.291237	2558.483879
551.649555	2557.185782
552.007817	2556.356513
552.366022	2555.388611
552.724173	2557.052192
553.082267	2554.995401
553.440305	2555.522202
553.798288	2558.216698
554.156215	2557.077397
554.514086	2554.312325
554.871902	2551.302756
555.229661	2553.200750
555.587365	2551.189330
555.945014	2559.660989
556.302606	2555.020607
556.660143	2559.363561
557.017625	2554.521532
557.375050	2557.241235
557.732421	2555.257541
558.089735	2556.961451
558.446994	2556.575803
558.804197	2557.082439
559.161345	2554.909701
559.518437	2555.953220
559.875474	2553.916594
560.232455	2555.920453
560.589381	2556.422048
560.946251	2556.842984
561.303065	2556.477500
561.659825	2558.108313
562.016528	2555.875082
562.373177	2557.498334
562.729770	2555.862479
563.086307	2556.913560
563.442789	2556.205278
563.799216	2558.809034
564.155587	2553.435164
564.511904	2555.449105
564.868164	2556.472459
565.224370	2555.741492
565.580520	2557.147974
565.936615	2555.859959
566.292654	2555.128992
566.648638	2557.397511
567.004567	2556.338868
567.360441	2555.968344
567.716260	2556.222922
568.072023	2556.366595
568.427732	2555.905329
568.783385	2558.312480
569.138982	2557.082439
569.494525	2557.173179
569.850013	2556.807696
570.205445	2557.707542
570.560823	2559.471946
570.916145	2556.197716
571.271412	2557.263920
571.626625	2555.645710
571.981782	2557.594116
572.336884	2554.932387
572.691931	2553.200750
573.046923	2554.944989
573.401860	2550.319731
573.756743	2554.808878
574.111570	2555.166800
574.466342	2558.085628
574.821059	2555.159238
575.175722	2557.279044
575.530330	2556.172510
575.884882	2555.398693
576.239380	2558.574620
576.593823	2559.295505
576.948211	2557.573951
577.302544	2556.406924
577.656823	2559.265258
578.011047	2558.834240
578.365216	2557.316852
578.719330	2556.227963
579.073389	2561.798438
579.427394	2560.049158
579.781344	2558.970351
580.135239	2559.618139
580.489080	2555.471790
580.842866	2559.199723
581.196597	2566.022925
581.550273	2557.634445
581.903895	2558.330124
582.257463	2555.877603
582.610975	2556.709393
582.964434	2558.577141
583.317837	2556.759805
583.671186	2557.586554
584.024481	2558.612429
584.377721	2554.314845
584.730906	2556.159908
585.084037	2556.661502
585.437113	2556.666543
585.790135	2557.069836
586.143103	2555.716286
586.496016	2559.325752
586.848874	2559.817265
587.201679	2562.927657
587.554428	2557.231153
587.907124	2559.361040
588.259765	2558.209137
588.612352	2557.561348
588.964884	2557.546225
589.317362	2559.908005
589.669786	2559.960937
590.022155	2553.427602
590.374470	2553.755277
590.726731	2551.065822
591.078937	2554.730740
591.431090	2557.165618
591.783188	2557.216029
592.135232	2559.030845
592.487222	2558.239383
592.839157	2558.551935
593.191038	2556.169990
593.542866	2555.882644
593.894639	2558.524209
594.246358	2559.466904
594.598022	2558.849363
594.949633	2560.056719
595.301190	2557.878941
595.652692	2559.189641
596.004141	2556.197716
596.355535	2558.735937
596.706876	2555.623025
597.058162	2556.681667
597.409395	2558.370453
597.760573	2558.899775
598.111698	2555.696121
598.462768	2556.235525
598.813785	2558.967830
599.164748	2561.180897
599.515657	2559.005639
599.866511	2559.091338
600.217312	2555.754095
600.568060	2557.533622
600.918753	2560.666699
601.269392	2559.456822
601.619978	2557.077397
601.970510	2557.533622
602.320988	2555.822150
602.671412	2559.756771
603.021783	2555.794424
603.372100	2560.787687
603.722363	2558.287274
604.072572	2556.444733
604.422728	2557.561348
604.772830	2557.715103
605.122878	2554.158569
605.472872	2558.093190
605.822813	2555.272664
606.172701	2558.922460
606.522534	2557.662171
606.872314	2557.306770
607.222041	2558.614949
607.571714	2555.892726
607.921333	2553.840977
608.270899	2556.545556
608.620411	2553.639331
608.969870	2559.713921
609.319276	2564.190466
609.668627	2564.447564
610.017926	2569.203893
610.367171	2570.133986
610.716362	2573.372927
611.065500	2568.387226
611.414585	2565.566701
611.763616	2564.898748
612.112594	2564.566032
612.461518	2562.073181
612.810389	2562.300033
613.159207	2561.135526
613.507971	2561.816082
613.856682	2563.230126
614.205340	2559.305588
614.553945	2562.688202
614.902496	2559.131668
615.250994	2556.893395
615.599439	2558.614949
615.947830	2559.784497
616.296169	2556.817778
616.644454	2558.783828
616.992686	2557.349620
617.340864	2556.081770
617.688990	2557.949517
618.037063	2557.992367
618.385082	2557.445402
618.733048	2560.003787
619.080961	2557.316852
619.428821	2558.803993
619.776628	2558.960268
620.124382	2559.585372
620.472083	2558.302398
620.819731	2559.562686
621.167326	2557.422717
621.514868	2558.569579
621.862357	2559.035886
622.209793	2559.504713
622.557176	2559.439178
622.904506	2560.278530
623.251783	2556.590926
623.599007	2560.772563
623.946179	2556.560679
624.293297	2563.293140
624.640363	2555.013045
624.987376	2558.244425
625.334336	2554.944989
625.681243	2556.537994
626.028097	2552.580688
626.374899	2557.248797
626.721647	2558.345248
627.068343	2557.843653
627.414987	2560.089487
627.761577	2556.797613
628.108115	2557.606719
628.454600	2558.312480
628.801032	2557.518498
629.147412	2556.590926
629.493739	2557.364743
629.840014	2558.748540
630.186236	2555.338199
630.532405	2559.265258
630.878521	2558.143602
631.224585	2555.267623
631.570597	2558.161246
631.916556	2555.721327
632.262462	2556.532953
632.608316	2555.496996
632.954117	2555.834753
633.299866	2556.265772
633.645562	2556.270813
633.991206	2554.881975
634.336797	2556.734599
634.682336	2557.629404
635.027823	2556.875751
635.373257	2557.820968
635.718639	2556.096893
636.063968	2559.623180
636.409245	2555.673436
636.754470	2557.324414
637.099642	2554.846687
637.444762	2557.750392
637.789829	2552.928528
638.134845	2558.309960
638.479808	2555.083621
638.824719	2558.899775
639.169577	2556.545556
639.514383	2558.085628
639.859137	2555.255020
640.203839	2557.480690
640.548489	2556.986657
640.893086	2556.590926
641.237632	2556.578323
641.582125	2558.163766
641.926566	2558.743499
642.270955	2555.060936
642.615292	2553.372149
642.959576	2555.116389
643.303809	2557.125288
643.647990	2554.398024
643.992118	2556.948848
644.336195	2559.023283
644.680219	2557.238714
645.024192	2557.170659
645.368112	2555.789383
645.711981	2558.294836
646.055797	2556.434650
646.399562	2558.660320
646.743274	2555.648230
647.086935	2555.464228
647.430544	2559.106462
647.774101	2557.037068
648.117606	2557.745350
648.461059	2557.074877
648.804460	2560.412121
649.147810	2554.607232
649.491108	2559.247614
649.834354	2556.525391
650.177548	2555.469269
650.520690	2558.312480
650.863781	2556.532953
651.206820	2556.144784
651.549807	2554.929866
651.892742	2557.788200
652.235626	2556.532953
652.578458	2555.683518
652.921238	2555.998591
653.263967	2558.010011
653.606644	2558.667882
653.949269	2557.939435
654.291843	2555.088662
654.634365	2556.069167
654.976836	2552.973898
655.319255	2555.509599
655.661622	2556.537994
656.003938	2556.056564
656.346203	2557.480690
656.688416	2558.493962
657.030577	2553.551110
657.372687	2555.991029
657.714746	2556.429609
658.056753	2555.202088
658.398708	2556.043961
658.740612	2557.649568
659.082465	2558.622511
659.424266	2554.599670
659.766016	2553.712427
660.107715	2554.652603
660.449362	2552.028682
660.790958	2559.257697
661.132503	2556.353992
661.473996	2553.924156
661.815438	2558.746019
662.156829	2558.549414
662.498168	2557.856256
662.839456	2555.388611
663.180693	2558.133519
663.521879	2556.633776
663.863013	2556.616132
664.204097	2554.161090
664.545129	2555.693601
664.886110	2555.156718
665.227040	2555.922973
665.567918	2556.966492
665.908746	2555.146636
666.249522	2556.716955
666.590248	2555.146636
666.930922	2556.905998
667.271545	2556.984136
667.612118	2556.865669
667.952639	2557.805844
668.293109	2558.476318
668.633528	2556.185113
668.973896	2557.412634
669.314213	2556.865669
669.654480	2555.721327
669.994695	2557.246276
670.334859	2555.522202
670.674973	2556.084290
671.015035	2557.228632
671.355047	2551.859803
671.695008	2557.725186
672.034918	2555.086142
672.374777	2556.790052
672.714585	2554.803837
673.054342	2556.669064
673.394049	2557.513457
673.733705	2555.459187
674.073310	2555.950700
674.412864	2555.406255
674.752368	2559.514795
675.091820	2556.454815
675.431223	2557.364743
675.770574	2558.269630
676.109875	2553.999773
676.449125	2554.937428
676.788324	2551.743857
677.127473	2552.230328
677.466571	2551.660678
677.805619	2556.442212
678.144616	2556.359033
678.483562	2557.929352
678.822458	2554.103117
679.161303	2556.341389
679.500098	2556.888354
679.838842	2556.510268
680.177535	2554.708055
680.516179	2556.283416
680.854771	2553.790565
681.193314	2555.441543
681.531805	2553.861141
681.870247	2555.658313
682.208638	2553.810730
682.546978	2557.150494
682.885268	2558.065464
683.223508	2556.364074
683.561697	2555.139074
683.899836	2556.038920
684.237925	2556.028838
684.575963	2555.532284
684.913951	2556.429609
685.251889	2554.700493
685.589776	2554.650082
685.927614	2555.181924
686.265401	2558.405742
686.603137	2555.655792
686.940824	2554.934907
687.278460	2555.373487
687.616046	2554.579506
687.953582	2557.609239
688.291068	2555.549928
688.628504	2558.327604
688.965889	2554.929866
689.303224	2553.997253
689.640510	2555.030689
689.977745	2555.580175
690.314930	2555.892726
690.652065	2555.983467
690.989150	2555.945658
691.326185	2555.441543
691.663170	2556.527912
692.000105	2557.140412
692.336990	2555.096224
692.673825	2557.021945
693.010610	2554.826522
693.347345	2552.918446
693.684030	2552.744526
694.020665	2553.130174
694.357251	2549.916438
694.693786	2555.015566
695.030272	2553.392314
695.366707	2556.225443
695.703093	2555.522202
696.039429	2553.478014
696.375716	2555.998591
696.711952	2553.319217
697.048139	2553.571275
697.384276	2556.177552
697.720363	2555.128992
698.056400	2556.585885
698.392388	2555.318035
698.728326	2555.675957
699.064214	2554.685370
699.400053	2557.286605
699.735842	2553.830894
700.071581	2555.446584
700.407270	2554.942469
700.742910	2556.842984
701.078501	2554.340051
701.414042	2557.989846
701.749533	2557.480690
702.084974	2554.042623
702.420366	2556.343910
702.755709	2553.840977
703.091002	2558.080587
703.426246	2557.014383
703.761440	2554.544218
704.096584	2555.073539
704.431679	2556.084290
704.766725	2556.749722
705.101721	2557.437840
705.436668	2555.557490
705.771565	2553.629248
706.106413	2558.267110
706.441212	2557.165618
706.775961	2557.808365
707.110661	2556.147305
707.445311	2553.747715
707.779913	2553.435164
708.114465	2558.519168
708.448967	2557.026986
708.783421	2554.269475
709.117825	2555.025648
709.452180	2558.022614
709.786485	2557.238714
710.120742	2552.124464
710.454949	2552.759649
710.789107	2557.362223
711.123216	2550.932231
711.457275	2555.338199
711.791286	2556.366595
712.125247	2555.474311
712.459159	2553.959444
712.793023	2555.131512
713.126837	2554.705535
713.460602	2555.650751
713.794318	2554.932387
714.127985	2553.954403
714.461602	2554.002294
714.795171	2552.371480
715.128691	2553.236038
715.462162	2552.731923
715.795584	2555.297870
716.128957	2555.439023
716.462281	2553.420040
716.795556	2555.202088
717.128782	2555.834753
717.461960	2553.054557
717.795088	2553.989691
718.128167	2556.472459
718.461198	2556.447253
718.794180	2552.535318
719.127113	2553.714948
719.459997	2555.794424
719.792833	2554.748384
720.125619	2552.719320
720.458357	2554.022458
720.791046	2555.524722
721.123686	2553.336861
721.456278	2555.330638
721.788821	2553.979608
722.121315	2556.953889
722.453761	2555.660833
722.786158	2557.634445
723.118506	2554.299722
723.450805	2554.004814
723.783056	2553.926676
724.115259	2554.413148
724.447412	2555.610422
724.779518	2553.538507
725.111574	2553.220915
725.443582	2556.069167
725.775542	2553.777962
726.107453	2556.558159
726.439315	2554.201419
726.771129	2555.358364
727.102895	2551.459032
727.434612	2550.796120
727.766281	2549.596325
728.097901	2554.271995
728.429473	2555.373487
728.760996	2554.728220
729.092471	2555.701162
729.423897	2553.417520
729.755276	2555.212171
730.086606	2555.779300
730.417887	2553.346944
730.749120	2556.694270
731.080305	2554.299722
731.411442	2556.129661
731.742530	2553.735113
732.073570	2553.727551
732.404562	2555.514640
732.735506	2554.982798
733.066401	2555.242417
733.397249	2556.101934
733.728048	2554.829043
734.058798	2554.052705
734.389501	2554.455998
734.720156	2555.827191
735.050762	2553.117571
735.381320	2555.612942
735.711831	2553.828374
736.042293	2554.650082
736.372707	2554.072870
736.703073	2554.534135
737.033391	2554.811399
737.363661	2555.479352
737.693883	2552.376522
738.024056	2555.118909
738.354182	2554.067829
738.684260	2557.049671
739.014290	2556.096893
739.344272	2553.780483
739.674207	2554.705535
740.004093	2556.785011
740.333931	2554.713096
740.663722	2555.560010
740.993464	2555.686039
741.323159	2555.466749
741.652806	2555.081101
741.982405	2555.209650
742.311956	2556.079249
742.641460	2557.021945
742.970915	2555.323076
743.300323	2550.481048
743.629683	2552.827705
743.958996	2551.343085
744.288260	2548.520039
744.617477	2553.732592
744.946647	2553.409958
745.275768	2552.850390
745.604842	2555.199568
745.933869	2553.631769
746.262847	2553.974567
746.591778	2553.394835
746.920662	2554.907181
747.249498	2557.717624
747.578286	2554.438353
747.907027	2553.503219
748.235720	2552.825184
748.564365	2554.768549
748.892963	2555.476831
749.221514	2553.362067
749.550017	2555.302911
749.878473	2555.628066
750.206881	2556.049002
750.535242	2554.637479
750.863555	2556.560679
751.191821	2554.733261
751.520039	2555.486913
751.848210	2552.404248
752.176334	2553.732592
752.504411	2555.774259
752.832440	2555.592778
753.160421	2552.628579
753.488356	2555.814588
753.816243	2554.261913
754.144082	2552.371480
754.471875	2553.619166
754.799620	2554.161090
755.127318	2554.198899
755.454969	2552.197561
755.782572	2554.859290
756.110129	2553.735112
756.437638	2554.430792
756.765100	2555.471790
757.092515	2555.915412
757.419882	2555.572613
757.747203	2550.899463
758.074477	2555.945658
758.401703	2554.251831
758.728882	2556.159908
759.056014	2554.042623
759.383099	2551.562375
759.710138	2550.667570
760.037129	2550.387786
760.364073	2552.265616
760.690970	2549.271171
761.017820	2551.469114
761.344623	2552.336192
761.671379	2554.864331
761.998088	2552.815102
762.324751	2551.229659
762.651366	2553.011707
762.977935	2551.562375
763.304456	2554.423230
763.630931	2552.517674
763.957359	2553.044474
764.283740	2553.170503
764.610074	2553.568754
764.936362	2554.403065
765.262602	2555.239897
765.588796	2552.447098
765.914943	2552.580688
766.241044	2553.417520
766.567097	2553.261244
766.893104	2555.877603
767.219064	2553.833415
767.544978	2551.814433
767.870845	2553.349464
768.196665	2554.193857
768.522438	2552.366439
768.848165	2552.011038
769.173846	2553.142777
769.499479	2551.859803
769.825066	2552.600853
770.150607	2555.585216
770.476101	2553.346944
770.801548	2554.135884
771.126949	2551.922818
771.452303	2552.389124
771.777611	2551.517005
772.102872	2552.621017
772.428087	2553.140256
772.753256	2553.714948
773.078378	2552.308466
773.403453	2550.513815
773.728482	2555.912891
774.053465	2554.438353
774.378401	2553.412479
774.703291	2551.267468
775.028135	2551.940462
775.352932	2554.400545
775.677683	2553.432643
776.002388	2550.044988
776.327046	2552.142108
776.651658	2551.814433
776.976224	2546.901828
777.300743	2552.389124
777.625216	2554.125802
777.949643	2553.775442
778.274024	2551.431305
778.598359	2551.574978
778.922647	2553.311656
779.246889	2553.578837
779.571086	2551.317879
779.895236	2555.658313
780.219339	2556.555638
780.543397	2554.216543
780.867409	2552.558003
781.191374	2553.382232
781.515294	2551.806871
781.839167	2553.372149
782.162995	2552.626059
782.486776	2556.878272
782.810511	2553.730071
783.134201	2551.821995
783.457844	2551.499361
783.781441	2556.721996
784.104993	2554.098076
784.428498	2554.347613
784.751958	2553.765359
785.075372	2553.266285
785.398739	2553.430123
785.722061	2551.075904
786.045337	2551.746377
786.368568	2553.218394
786.691752	2554.493806
787.014891	2551.017931
787.337983	2555.600339
787.661030	2552.215205
787.984031	2553.919115
788.306987	2551.940462
788.629897	2553.641851
788.952760	2553.921635
789.275579	2550.717982
789.598351	2553.470452
789.921078	2553.783003
790.243759	2552.742005
790.566395	2553.208312
790.888984	2552.303425
791.211529	2552.510112
791.534027	2552.522715
791.856480	2552.676470
792.178888	2548.267981
792.501249	2547.824360
792.823566	2549.676984
793.145836	2547.509287
793.468062	2551.423743
793.790241	2552.507592
794.112375	2554.728220
794.434464	2551.970709
794.756507	2552.200081
795.078505	2555.060936
795.400457	2553.354505
795.722364	2554.922304
796.044226	2552.550441
796.366042	2551.975750
796.687812	2553.919115
797.009538	2552.449618
797.331218	2553.185627
797.652852	2551.942982
797.974442	2554.597150
798.295986	2554.135884
798.617484	2553.530946
798.938938	2555.018086
799.260346	2550.120605
799.581709	2554.695452
799.903026	2552.094217
800.224299	2552.762170
800.545526	2552.658826
800.866708	2553.543549
801.187845	2550.324772
801.508936	2552.631100
801.829983	2553.808209
802.150984	2552.709238
802.471940	2553.069680
802.792851	2552.558003
803.113717	2550.803682
803.434538	2552.615976
803.755314	2554.251831
804.076045	2553.939279
804.396731	2553.152859
804.717372	2552.794937
805.037967	2552.900802
805.358518	2553.911553
805.679024	2552.381563
805.999485	2550.806202
806.319901	2551.138918
806.640272	2548.635985
806.960598	2552.280740
807.280879	2551.428785
807.601115	2552.326110
807.921306	2554.178734
808.241453	2550.342416
808.561554	2549.747560
808.881611	2552.459701
809.201623	2547.607590
809.521590	2553.238559
809.841513	2551.932900
810.161390	2551.030533
810.481223	2553.561193
810.801011	2554.085473
811.120755	2552.472303
811.440453	2553.357026
811.760107	2552.124464
812.079716	2551.242262
812.399281	2552.031202
812.718801	2552.074052
813.038276	2552.036244
813.357707	2549.921480
813.677093	2552.255534
813.996434	2552.762170
814.315731	2553.800647
814.634983	2552.043805
814.954191	2551.552293
815.273354	2551.975750
815.592473	2552.046326
815.911547	2554.942469
816.230577	2552.061449
816.549562	2553.140256
816.868502	2552.399207
817.187399	2551.247303
817.506250	2551.171686
817.825058	2552.643703
818.143821	2551.953065
818.462539	2550.211346
818.781213	2550.632282
819.099843	2552.300904
819.418429	2552.265616
819.736970	2552.316028
820.055466	2552.691594
820.373919	2550.428116
820.692327	2552.603373
821.010691	2553.273847
821.329011	2554.118240
821.647286	2552.295863
821.965517	2551.196892
822.283704	2551.111192
822.601847	2552.444577
822.919945	2552.983981
823.237999	2552.179917
823.556010	2553.999773
823.873976	2551.017931
824.191897	2547.121119
824.509775	2549.389638
824.827609	2548.628424
825.145398	2548.232693
825.463144	2549.959288
825.780845	2551.166645
826.098502	2551.176727
826.416116	2551.315359
826.733685	2552.537838
827.051210	2552.066491
827.368692	2552.187478
827.686129	2550.899463
828.003522	2552.953734
828.320872	2552.820143
828.638177	2553.853580
828.955439	2551.796789
829.272656	2552.414330
829.589830	2550.644885
829.906960	2549.903836
830.224046	2552.074052
830.541088	2549.772766
830.858086	2551.958106
831.175041	2553.725030
831.491952	2553.916594
831.808819	2549.331665
832.125642	2552.333672
832.442421	2549.734957
832.759157	2554.219063
833.075849	2550.420554
833.392497	2554.271995
833.709101	2551.675801
834.025662	2553.220915
834.342179	2553.878785
834.658653	2552.431974
834.975083	2552.542880
835.291469	2558.282233
835.607811	2549.165307
835.924110	2552.187478
836.240366	2553.135215
836.556578	2549.530790
836.872746	2552.258054
837.188871	2551.829556
837.504952	2555.234856
837.820990	2551.718651
838.136984	2550.055070
838.452935	2552.744526
838.768842	2552.074052
839.084706	2551.096068
839.400526	2551.396017
839.716303	2552.656306
840.032037	2551.375853
840.347727	2546.755635
840.663373	2550.559186
840.978977	2546.435522
841.294537	2550.360060
841.610054	2549.684545
841.925527	2552.777293
842.240957	2550.881819
842.556344	2550.818805
842.871687	2553.906512
843.186987	2549.805533
843.502244	2551.033054
843.817458	2554.050185
844.132629	2550.203784
844.447756	2553.074721
844.762840	2552.401727
845.077881	2550.173537
845.392879	2549.654298
845.707833	2553.104968
846.022745	2552.883158
846.337613	2552.066491
846.652438	2552.147149
846.967221	2550.533980
847.281960	2551.416182
847.596656	2550.697817
847.911309	2551.040616
848.225919	2551.479196
848.540485	2551.320400
848.855009	2549.533311
849.169490	2550.599515
849.483928	2551.549772
849.798323	2549.739998
850.112675	2554.455998
850.426984	2550.735626
850.741251	2551.738816
851.055474	2550.541542
851.369654	2553.767880
851.683792	2551.640513
851.997887	2552.522715
852.311938	2553.039433
852.625947	2551.511964
852.939914	2550.196222
853.253837	2552.358877
853.567718	2552.109340
853.881555	2549.472817
854.195350	2551.080945
854.509103	2552.399207
854.822812	2553.059598
855.136479	2550.831408
855.450103	2548.971222
855.763685	2548.862837
856.077224	2546.642209
856.390720	2548.608259
856.704173	2544.537527
857.017584	2552.991542
857.330953	2551.164124
857.644278	2552.172355
857.957561	2551.587581
858.270802	2550.302087
858.584000	2549.752601
858.897155	2553.455328
859.210268	2550.886861
859.523339	2550.402910
859.836367	2549.561037
860.149352	2551.564896
860.462295	2549.707231
860.775195	2548.865358
861.088054	2552.323589
861.400869	2550.715461
861.713642	2549.813095
862.026373	2550.402910
862.339062	2551.413661
862.651708	2549.540872
862.964312	2549.538352
863.276873	2551.146480
863.589392	2547.975594
863.901869	2548.678835
864.214303	2550.728064
864.526696	2549.505584
864.839045	2550.352498
865.151353	2549.901315
865.463619	2550.097920
865.775842	2552.318548
866.088023	2550.027344
866.400162	2551.816953
866.712258	2548.850234
867.024313	2550.080276
867.336325	2548.343598
867.648296	2551.358208
867.960224	2549.727395
868.272110	2552.326110
868.583954	2548.998948
868.895755	2551.166645
869.207515	2551.113713
869.519233	2549.629093
869.830909	2551.269988
870.142542	2549.024154
870.454134	2548.457024
870.765684	2551.612787
871.077191	2550.228990
871.388657	2547.484082
871.700081	2546.160779
872.011463	2550.627241
872.322803	2544.701365
872.634101	2550.208825
872.945357	2549.755122
873.256571	2549.190512
873.567744	2550.047508
873.878874	2549.041798
874.189963	2550.304607
874.501010	2550.397869
874.812015	2549.709751
875.122979	2549.109854
875.433900	2551.816953
875.744780	2549.077086
876.055618	2551.194371
876.366415	2551.786707
876.677169	2553.397355
876.987882	2548.885522
877.298554	2547.206818
877.609183	2550.002138
877.919771	2550.596994
878.230317	2548.731767
878.540822	2552.636141
878.851285	2555.683518
879.161707	2550.355019
879.472087	2550.430636
879.782425	2548.822508
880.092722	2549.273691
880.402977	2549.301418
880.713191	2551.103630
881.023363	2549.311500
881.333494	2547.594987
881.643583	2549.374514
881.953631	2551.706048
882.263637	2551.557334
882.573602	2548.547765
882.883526	2547.993238
883.193408	2551.302756
883.503248	2550.511295
883.813048	2552.270657
884.122806	2548.754452
884.432522	2548.890564
884.742197	2548.583053
885.051831	2549.999617
885.361424	2550.075235
885.670975	2547.184133
885.980485	2551.746377
886.289954	2549.545914
886.599382	2550.773435
886.908768	2548.613300
887.218113	2545.833104
887.527417	2548.300749
887.836680	2544.272867
888.145901	2549.969371
888.455082	2552.502550
888.764221	2553.339382
889.073319	2550.733105
889.382376	2550.072714
889.691392	2549.364432
890.000366	2548.109185
890.309300	2551.002807
890.618193	2552.116902
890.927044	2548.779658
891.235855	2549.762683
891.544625	2547.473999
891.853353	2548.091541
892.162041	2551.519525
892.470687	2549.853424
892.779293	2547.625234
893.087858	2549.770245
893.396381	2548.378887
893.704864	2547.726057
894.013306	2549.162786
894.321707	2549.067004
894.630068	2549.422405
894.938387	2546.737991
895.246665	2548.981304
895.554903	2547.549617
895.863100	2548.164638
896.171256	2551.272509
896.479371	2548.956099
896.787446	2549.314021
897.095480	2550.196223
897.403473	2548.988866
897.711425	2551.388455
898.019336	2549.921480
898.327207	2549.901315
898.635038	2549.465255
898.942827	2551.189330
899.250576	2551.670760
899.558284	2547.600028
899.865952	2550.596994
900.173579	2548.996428
900.481165	2549.251006
900.788711	2550.060111
901.096216	2549.142621
901.403681	2549.213197
901.711105	2549.976932
902.018489	2547.940306
902.325832	2545.250851
902.633135	2548.610780
902.940397	2545.961653
903.247619	2544.557692
903.554800	2548.303269
903.861941	2550.029864
904.169041	2549.303938
904.476101	2546.874102
904.783121	2547.620193
905.090100	2548.056253
905.397039	2550.181099
905.703938	2547.186654
906.010796	2550.617159
906.317614	2550.168496
906.624391	2549.349309
906.931129	2549.606408
907.237826	2549.732436
907.544483	2552.615976
907.851099	2549.921480
908.157675	2550.443239
908.464211	2549.314021
908.770707	2548.940975
909.077163	2547.844524
909.383578	2548.399051
909.689954	2551.683363
909.996289	2548.038609
910.302584	2548.993907
910.608839	2548.756973
910.915054	2550.216387
911.221229	2548.588094
911.527363	2549.714792
911.833458	2551.905174
912.139513	2549.734957
912.445527	2547.375697
912.751502	2549.810574
913.057436	2549.581202
913.363331	2550.687735
913.669186	2549.218239
913.975000	2548.764535
914.280775	2548.494833
914.586510	2549.571119
914.892205	2548.963660
915.197859	2550.667570
915.503475	2551.849721
915.809050	2551.128836
916.114585	2547.393341
916.420081	2550.465924
916.725536	2551.506923
917.030952	2549.664381
917.336328	2550.130687
917.641665	2547.491643
917.946961	2545.482744
918.252218	2545.117260
918.557435	2544.754297
918.862612	2549.082128
919.167750	2548.661191
919.472848	2550.266799
919.777906	2546.858979
920.082925	2549.281253
920.387904	2547.413506
920.692843	2550.591953
920.997743	2549.558517
921.302603	2549.770245
921.607423	2547.751263
921.912204	2549.140101
922.216946	2549.019113
922.521647	2551.819474
922.826310	2549.077086
923.130932	2550.660009
923.435516	2549.281253
923.740059	2548.940975
924.044564	2547.781510
924.349028	2549.067004
924.653454	2548.532642
924.957840	2550.488609
925.262186	2547.602549
925.566493	2547.799154
925.870761	2547.405944
926.174989	2550.145811
926.479178	2548.131870
926.783328	2545.495347
927.087438	2548.832590
927.391509	2547.957950
927.695541	2548.419216
927.999533	2546.183464
928.303486	2549.747560
928.607400	2551.151521
928.911275	2547.048022
929.215110	2550.355019
929.518906	2547.000131
929.822663	2549.107333
930.126381	2550.080276
930.430060	2548.066335
930.733699	2548.091541
931.037299	2549.868548
931.340861	2548.953578
931.644383	2549.906356
931.947866	2547.216901
932.251309	2550.896943
932.554714	2548.018444
932.858080	2544.570295
933.161407	2545.328988
933.464694	2547.965512
933.767943	2545.089534
934.071153	2547.988197
934.374323	2550.128167
934.677455	2547.751263
934.980548	2548.373845
935.283602	2548.162117
935.586617	2548.411654
935.889593	2547.539534
936.192530	2550.367622
936.495428	2547.242106
936.798287	2547.584905
937.101108	2548.759494
937.403890	2548.194884
937.706632	2549.921480
938.009336	2550.425595
938.312002	2550.400389
938.614628	2552.845349
938.917216	2548.643547
939.219765	2547.912580
939.522275	2550.062632
939.824747	2550.029864
940.127179	2546.173382
940.429573	2548.605738
940.731929	2549.349309
941.034246	2546.992569
941.336524	2549.266130
941.638763	2547.161448
941.940964	2549.906356
942.243126	2547.476520
942.545250	2550.513815
942.847335	2548.159596
943.149381	2547.491643
943.451389	2550.042467
943.753359	2550.092879
944.055290	2548.182282
944.357182	2550.483568
944.659036	2548.598177
944.960851	2548.280584
945.262628	2549.649257
945.564367	2549.929041
945.866067	2548.527601
946.167729	2548.913249
946.469352	2547.118598
946.770937	2546.070038
947.072484	2550.717982
947.373992	2546.992569
947.675462	2549.127498
947.976893	2546.806047
948.278286	2544.129194
948.579641	2546.271684
948.880958	2544.940820
949.182236	2548.010882
949.483476	2548.865358
949.784678	2546.362425
950.085841	2549.072045
950.386967	2547.544576
950.688054	2547.703372
950.989103	2549.550955
951.290114	2549.803013
951.591087	2549.913918
951.892021	2546.128011
952.192917	2548.222611
952.493776	2550.415513
952.794596	2550.405430
953.095378	2549.107333
953.396122	2546.092723
953.696828	2548.479710
953.997496	2548.973743
954.298126	2549.157745
954.598718	2549.341747
954.899272	2548.333516
955.199788	2547.942827
955.500266	2547.693290
955.800706	2547.879812
956.101108	2549.172868
956.401472	2547.002652
956.701798	2547.534493
957.002087	2546.564071
957.302337	2547.637837
957.602550	2548.026006
957.902724	2547.163968
958.202861	2545.170192
958.502960	2549.699669
958.803022	2549.848383
959.103045	2548.058773
959.403031	2548.971222
959.702979	2548.840152
960.002889	2549.026675
960.302762	2549.684545
960.602596	2549.717313
960.902393	2545.318906
961.202153	2549.765204
961.501875	2549.124977
961.801559	2550.168496
962.101205	2547.652960
962.400814	2549.034237
962.700385	2546.881664
962.999918	2544.194729
963.299414	2544.540048
963.598873	2544.464431
963.898293	2545.449976
964.197677	2548.008362
964.497022	2550.344937
964.796331	2549.994576
965.095601	2544.839997
965.394835	2546.949719
965.694030	2546.387631
965.993189	2546.919473
966.292309	2550.193702
966.591393	2548.081458
966.890439	2548.341078
967.189447	2548.444422
967.488419	2547.957950
967.787353	2548.363763
968.086249	2544.726571
968.385108	2546.528783
968.683930	2547.128680
968.982714	2549.160265
969.281462	2548.368804
969.580172	2546.367466
969.878844	2545.472661
970.177480	2547.453835
970.476078	2546.785882
970.774639	2549.195553
971.073162	2546.591798
971.371649	2547.232024
971.670098	2545.089534
971.968510	2547.312683
972.266885	2545.185316
972.565223	2550.110523
972.863524	2547.156407
973.161788	2548.121788
973.460014	2545.344112
973.758204	2546.866540
974.056356	2546.077600
974.354471	2549.873589
974.652550	2543.486447
974.950591	2548.099102
975.248595	2547.073228
975.546563	2546.435522
975.844493	2549.150183
976.142386	2548.842673
976.440243	2548.507436
976.738062	2546.475851
977.035845	2545.817980
977.333590	2547.912580
977.631299	2545.944009
977.928971	2544.580377
978.226606	2545.144986
978.524204	2544.698844
978.821765	2542.566436
979.119290	2547.194215
979.416777	2544.865202
979.714228	2547.952909
980.011642	2547.292518
980.309020	2548.719164
980.606360	2544.787064
980.903664	2546.717826
981.200931	2545.709596
981.498162	2546.826211
981.795356	2547.630275
982.092513	2546.150697
982.389633	2544.837476
982.686717	2546.846376
982.983764	2547.108516
983.280775	2546.586756
983.577749	2547.794113
983.874686	2547.592467
984.171587	2546.692621
984.468451	2547.877292
984.765279	2546.422919
985.062070	2547.093392
985.358824	2547.857127
985.655543	2546.763197
985.952224	2545.026519
986.248869	2547.529452
986.545478	2547.070707
986.842050	2546.929555
987.138586	2547.542055
987.435086	2550.576830
987.731549	2548.005841
988.027975	2547.317724
988.324366	2546.110367
988.620719	2549.596325
988.917037	2546.289328
989.213318	2546.536345
989.509563	2548.081458
989.805772	2549.084648
990.101944	2547.970553
990.398080	2546.337219
990.694180	2545.621375
990.990244	2547.131201
991.286271	2548.318393
991.582262	2547.100954
991.878217	2547.219421
992.174136	2546.248999
992.470019	2546.770758
992.765865	2545.807898
993.061676	2540.313040
993.357450	2542.634492
993.653188	2541.802701
993.948890	2546.884184
994.244556	2547.347971
994.540186	2546.405275
994.835780	2544.325799
995.131337	2545.906201
995.426859	2544.648433
995.722345	2547.786551
996.017795	2544.267826
996.313208	2547.015254
996.608586	2545.734801
996.903928	2547.814277
997.199234	2546.070038
997.494504	2547.181613
997.789738	2544.451828
998.084936	2546.385110
998.380099	2545.840666
998.675225	2549.666901
998.970316	2549.036757
999.265371	2548.237734
999.560390	2547.423588
999.855373	2548.038609
1000.150320	2546.949719
1000.445232	2547.605069
1000.740108	2546.997610
1001.034948	2548.081458
1001.329752	2545.356715
1001.624521	2545.273536
1001.919254	2546.637168
1002.213951	2548.512477
1002.508613	2544.083823
1002.803239	2549.888712
1003.097829	2546.433001
1003.392384	2547.423588
1003.686903	2545.966694
1003.981386	2547.259750
1004.275834	2547.153886
1004.570246	2546.027188
1004.864623	2544.734132
1005.158964	2546.496016
1005.453270	2547.335368
1005.747540	2548.174720
1006.041775	2545.157589
1006.335974	2545.747404
1006.630138	2544.610624
1006.924266	2549.987015
1007.218359	2547.121119
1007.512416	2543.733463
1007.806438	2542.964687
1008.100425	2544.371169
1008.394376	2543.466282
1008.688292	2548.257899
1008.982172	2545.485264
1009.276017	2548.051212
1009.569827	2547.040460
1009.863602	2546.390151
1010.157341	2548.409133
1010.451045	2546.392672
1010.744714	2548.769576
1011.038347	2549.543393
1011.331945	2543.882177
1011.625508	2546.047353
1011.919036	2545.034081
1012.212528	2546.566592
1012.505986	2546.032229
1012.799408	2547.602549
1013.092795	2546.669935
1013.386147	2547.768907
1013.679464	2546.354863
1013.972745	2547.310162
1014.265992	2546.236396
1014.559204	2545.462579
1014.852380	2545.576005
1015.145521	2547.446273
1015.438628	2548.489792
1015.731699	2545.563402
1016.024736	2545.286139
1016.317737	2546.158258
1016.610703	2546.916952
1016.903635	2546.238917
1017.196531	2544.577857
1017.489393	2547.506767
1017.782219	2546.019627
1018.075011	2548.101623
1018.367768	2546.450645
1018.660490	2547.947868
1018.953177	2547.947868
1019.245829	2547.947868
