Dividing Wavelength (nm)	Counts (n)	Blue Motor Position (mm): 41.900000	Red Motor Position (mm): 0.000000	
326.493990	2256.428023
326.888308	2256.428023
327.282561	2256.428023
327.676750	2215.559389
328.070874	2211.060159
328.464933	2214.145345
328.858929	2215.594677
329.252859	2221.807899
329.646726	2229.485577
330.040528	2240.906311
330.434265	2254.487179
330.827938	2274.772782
331.221547	2292.999074
331.615091	2310.572536
332.008571	2325.262458
332.401986	2346.190809
332.795338	2363.555063
333.188625	2383.853269
333.581847	2405.346228
333.975006	2422.753333
334.368100	2442.779316
334.761129	2459.024435
335.154095	2475.811477
335.546996	2506.532268
335.939833	2542.788247
336.332606	2560.341545
336.725315	2571.583318
337.117960	2584.697879
337.510540	2595.155753
337.903056	2605.606065
338.295508	2618.617283
338.687896	2621.974692
339.080220	2629.997688
339.472480	2638.396250
339.864676	2644.007054
340.256807	2647.445121
340.648875	2652.254382
341.040879	2654.255720
341.432818	2659.032213
341.824694	2657.421565
342.216506	2660.834426
342.608253	2659.082625
342.999937	2660.277378
343.391557	2664.794252
343.783113	2662.026659
344.174605	2662.936587
344.566033	2658.477687
344.957397	2659.203613
345.348697	2657.661020
345.739934	2656.362922
346.131106	2654.172541
346.522215	2654.464928
346.913260	2651.498209
347.304241	2651.631800
347.695159	2647.924031
348.086012	2646.764566
348.476802	2644.939668
348.867528	2639.462454
349.258191	2639.628812
349.648789	2636.291568
350.039324	2630.360651
350.429796	2637.002371
350.820203	2636.715025
351.210548	2636.341980
351.600828	2633.390384
351.991045	2631.444499
352.381198	2631.245373
352.771288	2630.375774
353.161314	2629.395270
353.551276	2633.251753
353.941175	2631.061371
354.331010	2629.342338
354.720782	2632.525827
355.110490	2630.479118
355.500135	2628.049282
355.889717	2629.385188
356.279235	2630.214457
356.668689	2630.388377
357.058080	2633.818882
357.447408	2630.602626
357.836672	2629.120527
358.225873	2630.244704
358.615010	2631.459622
359.004084	2632.878707
359.393095	2632.440127
359.782043	2635.270735
360.170927	2634.126393
360.559748	2632.205713
360.948505	2636.336939
361.337199	2635.469860
361.725830	2635.779891
362.114398	2636.871301
362.502903	2638.791981
362.891344	2635.754686
363.279722	2639.245685
363.668037	2644.022178
364.056289	2637.710653
364.444478	2640.097640
364.832603	2643.240799
365.220665	2644.231386
365.608665	2643.548309
365.996601	2642.618217
366.384474	2646.073927
366.772284	2644.291880
367.160031	2643.208032
367.547715	2649.194402
367.935336	2646.457055
368.322893	2645.451345
368.710388	2645.005203
369.097820	2645.519401
369.485189	2643.306334
369.872495	2651.377221
370.259738	2648.828918
370.646918	2651.329330
371.034035	2651.460400
371.421090	2652.483755
371.808081	2651.440236
372.195010	2650.747077
372.581875	2651.974598
372.968678	2652.045174
373.355418	2652.957623
373.742096	2652.108189
374.128710	2652.864362
374.515262	2654.487613
374.901751	2655.127840
375.288177	2656.831750
375.674540	2654.767397
376.060841	2658.835608
376.447079	2655.168169
376.833254	2658.598674
377.219367	2659.727893
377.605417	2659.616987
377.991404	2657.350989
378.377329	2660.579848
378.763191	2660.199241
379.148991	2659.851401
379.534727	2660.310146
379.920402	2660.257214
380.306013	2664.154026
380.691563	2664.605209
381.077049	2664.471618
381.462474	2667.798780
381.847835	2669.782474
382.233134	2673.200376
382.618371	2677.792867
383.003545	2684.300997
383.388657	2690.322655
383.773706	2701.261959
384.158693	2713.912735
384.543618	2726.550907
384.928480	2747.892632
385.313280	2769.705705
385.698017	2792.965589
386.082692	2832.142916
386.467305	2860.247349
386.851856	2897.413255
387.236344	2951.144394
387.620770	2987.962461
388.005133	3040.287117
388.389435	3088.984663
388.773674	3129.576034
389.157851	3198.450798
389.541965	3270.236829
389.926018	3296.864204
390.310008	3388.330899
390.693936	3457.956796
391.077802	3520.315869
391.461606	3564.322621
391.845348	3652.898215
392.229027	3731.237746
392.612645	3782.528965
392.996200	3888.683062
393.379694	3977.268738
393.763125	4092.990946
394.146494	4160.829753
394.529801	4252.296448
394.913047	4357.833004
395.296230	4366.944890
395.679351	4493.891226
396.062410	4582.970935
396.445408	4606.301395
396.828343	4697.810940
397.211217	4782.398981
397.594028	4714.439186
397.976778	4854.411864
398.359466	4922.250671
398.742092	4977.549608
399.124656	4917.325464
399.507158	5048.657604
399.889598	5136.814782
400.271977	5272.089104
400.654294	5277.145381
401.036549	5334.740564
401.418742	5270.954844
401.800874	5483.099201
402.182944	5550.096136
402.564952	5665.369680
402.946898	5733.745370
403.328783	5588.749183
403.710606	5602.196461
404.092367	5928.969094
404.474067	5953.522034
404.855705	5863.424012
405.237282	5803.935876
405.618797	6052.237908
406.000250	6040.093769
406.381642	6237.754891
406.762972	6265.766062
407.144240	6322.809238
407.525447	6305.797865
407.906593	6336.387586
408.287677	6489.941132
408.668700	6404.062556
409.049661	6521.390371
409.430560	6546.891047
409.811399	6404.952320
410.192176	6678.805441
410.572891	6689.543098
410.953545	6883.488890
411.334138	6616.499300
411.714669	6786.171935
412.095139	6584.762716
412.475547	6827.315312
412.855894	6897.014305
413.236180	7072.582570
413.616405	6756.550115
413.996568	6972.555996
414.376670	7004.685790
414.756711	6906.247179
415.136691	7004.950450
415.516609	7202.919082
415.896466	7193.411466
416.276262	7395.065182
416.655997	7376.329734
417.035670	7564.238743
417.415283	7903.261381
417.794834	7953.055378
418.174324	7811.623286
418.553753	7729.994402
418.933121	8040.617699
419.312428	8150.179617
419.691674	7925.185359
420.070859	8397.483501
420.449983	8084.027075
420.829045	8439.677958
421.208047	8220.662509
421.586988	8518.962706
421.965867	8534.383595
422.344686	8647.081110
422.723444	8688.002676
423.102141	8053.288640
423.480777	8804.365110
423.859352	8326.458684
424.237866	8947.760731
424.616319	8817.154517
424.994712	9230.534174
425.373044	8789.907081
425.751314	9250.333306
426.129524	9123.185323
426.507673	9242.159075
426.885762	9388.168534
427.263789	9304.490421
427.641756	9237.674968
428.019662	9320.702772
428.397508	9573.955218
428.775292	9260.319831
429.153016	9640.508531
429.530679	9471.055186
429.908282	9508.175722
430.285824	9222.354902
430.663305	9908.909644
431.040726	9351.330302
431.418086	9342.500721
431.795385	9669.588427
432.172624	9763.018652
432.549802	9668.630608
432.926920	9750.181353
433.303977	9624.817940
433.680974	9830.315535
434.057910	9922.324154
434.434786	9990.833435
434.811601	9824.130039
435.188355	10381.963959
435.565050	10125.394434
435.941683	10051.912055
436.318257	10533.601867
436.694770	10682.860350
437.071222	10743.893600
437.447614	10578.725235
437.823946	10485.509259
438.200218	10602.159039
438.576429	10435.869017
438.952580	10677.224340
439.328670	10713.697088
439.704700	10505.749492
440.080670	10498.724644
440.456580	11033.172651
440.832429	10808.503548
441.208218	10413.017467
441.583947	10730.113606
441.959616	10886.467513
442.335224	10696.776455
442.710773	10814.447068
443.086261	11037.656758
443.461689	10309.202465
443.837057	10979.333128
444.212365	11235.388456
444.587612	10875.840760
444.962800	11098.755542
445.337927	10849.473005
445.712995	10481.073044
446.088002	11545.880683
446.462949	11222.150386
446.837837	11187.963801
447.212664	11144.115845
447.587431	11701.367511
447.962139	12435.598966
448.336786	14718.331730
448.711374	15229.534977
449.085901	13064.883680
449.460369	12695.659490
449.834776	12144.144657
450.209124	13052.119479
450.583412	13459.686685
450.957640	14408.172219
451.331808	13490.616684
451.705917	12524.600537
452.079965	11802.525825
452.453954	12709.310935
452.827883	12353.128210
453.201752	12653.429744
453.575562	12180.123372
453.949311	12590.266607
454.323001	12567.183164
454.696632	12795.920478
455.070202	13081.224580
455.443713	13287.851394
455.817164	13769.064817
456.190556	13751.214091
456.563888	14116.705307
456.937160	14273.729687
457.310373	13623.251963
457.683526	13714.217063
458.056619	13259.431889
458.429653	13433.913786
458.802628	12826.036332
459.175542	13226.475346
459.548398	14172.984748
459.921194	14521.802348
460.293930	14594.447895
460.666607	15445.593790
461.039224	16512.554001
461.411782	17221.098257
461.784280	17045.414045
462.156719	17120.885159
462.529099	16802.243907
462.901419	15744.884573
463.273680	15516.505180
463.645882	15403.618622
464.018024	15129.153001
464.390106	15355.566344
464.762130	16077.396560
465.134094	16857.361363
465.505999	18895.830058
465.877845	22157.819560
466.249631	24969.044208
466.621358	24606.917962
466.993026	23192.644936
467.364634	22609.280093
467.736184	21125.648351
468.107674	20336.919503
468.479105	20467.981941
468.850477	19936.578790
469.221790	19528.174753
469.593043	18836.495678
469.964238	18266.943595
470.335373	17903.093275
470.706449	18398.855468
471.077467	17959.486143
471.448425	19825.751544
471.819324	23929.810342
472.190164	25822.589692
472.560945	22204.573741
472.931667	19881.068125
473.302330	19266.070041
473.672934	18858.540643
474.043479	19121.807341
474.413965	18941.195402
474.784393	18537.194812
475.154761	19271.411143
475.525070	19223.028669
475.895321	18912.962420
476.265513	19507.816053
476.635645	20106.906776
477.005719	19880.795902
477.375734	20050.098013
477.745691	20542.366686
478.115588	21081.898697
478.485427	21625.869444
478.855207	22708.943704
479.224928	24494.137269
479.594591	26710.026853
479.964194	26672.303899
480.333739	26896.040389
480.703226	26468.101880
481.072653	26181.111512
481.442022	26774.929188
481.811333	27685.913579
482.180584	27595.223222
482.549777	26639.057489
482.918912	26313.192264
483.287988	26425.110920
483.657005	26064.466774
484.025964	25842.345974
484.394864	25743.146148
484.763706	25395.112449
485.132489	24851.222360
485.501213	25027.498907
485.869879	24945.922956
486.238487	24779.431288
486.607036	24913.838532
486.975527	24638.805781
487.343959	24944.534118
487.712333	24866.476892
488.080648	24520.343707
488.448905	25030.599217
488.817104	24789.909327
489.185244	25483.428423
489.553326	25427.890031
489.921350	26474.078168
490.289315	28791.176478
490.657222	30533.893280
491.025070	31036.050177
491.392861	30790.868618
491.760593	29929.370714
492.128267	29021.239616
492.495883	27960.681670
492.863440	27099.448426
493.230939	26230.159419
493.598380	26074.208804
493.965763	25681.097106
494.333088	25206.449787
494.700354	25158.878938
495.067563	25011.725137
495.434713	24768.071048
495.801805	24941.254847
496.168839	24721.773091
496.535815	24582.115486
496.902733	24790.698267
497.269593	24484.609488
497.636395	24652.298429
498.003139	24602.403609
498.369825	24347.694270
498.736453	24563.637136
499.103023	24417.932667
499.469535	24419.336628
499.835989	24647.731144
500.202385	24668.510780
500.568723	24193.346742
500.935003	24387.332863
501.301226	24061.044180
501.667390	24906.851493
502.033497	25111.945796
502.399546	24843.025444
502.765537	24392.517689
503.131470	24781.241063
503.497345	24918.937659
503.863163	24148.298991
504.228923	24723.270314
504.594625	24965.308713
504.960269	24507.793754
505.325856	24978.314890
505.691385	24376.116295
506.056856	24993.428269
506.422270	24973.238448
506.787625	24499.349822
507.152924	24937.005155
507.518164	24973.616534
507.883347	24779.980774
508.248472	24460.311126
508.613540	25234.564302
508.978550	25042.115733
509.343503	25042.902153
509.708398	25257.108342
510.073236	25431.267604
510.438016	25642.733926
510.802738	25299.408663
511.167403	25548.890326
511.532010	25293.417252
511.896561	26052.899847
512.261053	26010.385276
512.625488	25845.549627
512.989866	25731.370013
513.354186	25571.023512
513.718449	25694.425917
514.082655	26070.538844
514.446803	25789.192048
514.810894	26279.572809
515.174927	25764.593738
515.538904	25779.699555
515.902822	26284.969364
516.266684	26037.355449
516.630488	25961.733100
516.994235	25900.122638
517.357925	26224.107513
517.721558	26397.533288
518.085133	26499.853588
518.448651	26393.449953
518.812112	26155.628480
519.175516	26371.306685
519.538863	26512.920258
519.902152	26318.190568
520.265385	26573.507366
520.628560	26373.895318
520.991678	26366.726797
521.354739	26421.443481
521.717743	26521.490220
522.080690	26282.897450
522.443580	26619.613759
522.806413	26596.280778
523.169189	26707.390330
523.531908	26762.835460
523.894569	26369.300306
524.257174	26471.033311
524.619722	26604.883508
524.982213	26311.450545
525.344647	26356.531063
525.707025	26519.889654
526.069345	26469.601623
526.431608	26451.529087
526.793815	26619.086958
527.155964	26111.430163
527.518057	26284.182944
527.880093	26198.180859
528.242072	26419.235455
528.603995	26149.584136
528.965860	25932.930467
529.327669	25988.652861
529.689421	25957.380063
530.051117	25813.187940
530.412755	25979.034340
530.774337	25759.983602
531.135862	25657.388560
531.497331	25844.944689
531.858743	25428.510093
532.220098	25888.883386
532.581396	25575.888226
532.942638	25483.725851
533.303824	25596.572080
533.664953	25589.965648
534.026025	25255.303608
534.387040	25498.173798
534.747999	25549.528032
535.108902	25709.504008
535.469748	25215.599481
535.830537	25383.757250
536.191270	25523.475349
536.551947	25346.825757
536.912567	24986.907537
537.273131	25404.000003
537.633638	25069.874847
537.994089	25301.707430
538.354483	24814.641227
538.714821	25304.969056
539.075103	25354.052251
539.435328	25129.078157
539.795497	24728.949174
540.155609	25068.554064
540.515665	25386.766818
540.875665	24606.522232
541.235609	24936.213693
541.595496	24869.819177
541.955328	25234.718057
542.315102	25155.524050
542.674821	24667.966336
543.034483	24558.991713
543.394090	24725.122938
543.753640	24538.680904
544.113134	25159.395657
544.472571	24747.800568
544.831953	25054.257352
545.191278	24705.177613
545.550548	24581.255969
545.909761	24786.370437
546.268918	25019.662434
546.628019	24995.169988
546.987064	24686.053996
547.346053	24426.447175
547.704986	24531.194791
548.063863	24691.997516
548.422684	24709.487799
548.781449	24218.930598
549.140158	24630.891170
549.498811	24204.165058
549.857408	23975.705007
550.215949	24368.292425
550.574434	24063.116094
550.932864	24268.769965
551.291237	24448.696308
551.649555	24293.007833
552.007817	24346.930535
552.366022	24192.212482
552.724173	24220.291709
553.082267	24201.762948
553.440305	24667.883157
553.798288	23915.243928
554.156215	24415.928808
554.514086	24540.629310
554.871902	23914.898609
555.229661	24207.799730
555.587365	24048.469022
555.945014	23939.325520
556.302606	24158.046062
556.660143	24141.294308
557.017625	24376.028075
557.375050	23903.697166
557.732421	24285.854436
558.089735	24109.892961
558.446994	24162.545292
558.804197	24196.835221
559.161345	24103.387352
559.518437	23895.069231
559.875474	24071.612959
560.232455	24247.284568
560.589381	24068.260592
560.946251	24054.619229
561.303065	24371.980029
561.659825	24462.493946
562.016528	24062.982504
562.373177	23797.659015
562.729770	24172.098279
563.086307	24016.162787
563.442789	24176.206819
563.799216	24029.514283
564.155587	24013.589278
564.511904	24012.434854
564.868164	23953.589465
565.224370	23903.989553
565.580520	23853.711605
565.936615	23963.278563
566.292654	23674.649820
566.648638	23921.794908
567.004567	23763.084261
567.360441	23704.480848
567.716260	23420.857971
568.072023	23740.242793
568.427732	23520.120811
568.783385	23289.329226
569.138982	23543.305077
569.494525	23571.159973
569.850013	23326.003620
570.205445	23410.616867
570.560823	23241.629828
570.916145	23002.424558
571.271412	23180.735210
571.626625	22936.634979
571.981782	23038.907388
572.336884	22854.010468
572.691931	22981.990240
573.046923	22726.313000
573.401860	22601.068053
573.756743	22632.068628
574.111570	22525.203729
574.466342	22440.688784
574.821059	22529.919728
575.175722	22231.238924
575.530330	22204.445192
575.884882	22212.795863
576.239380	22136.508082
576.593823	22029.595291
576.948211	21997.654540
577.302544	21853.434691
577.656823	21721.399310
578.011047	21828.322183
578.365216	21681.639729
578.719330	21564.959703
579.073389	21450.260850
579.427394	21613.619440
579.781344	21357.599401
580.135239	21250.411867
580.489080	21199.599557
580.842866	20988.639872
581.196597	21194.349196
581.550273	21151.431332
581.903895	21029.720234
582.257463	21345.732525
582.610975	20880.176926
582.964434	21211.542051
583.317837	20882.359746
583.671186	20964.954010
584.024481	20964.926284
584.377721	20713.821370
584.730906	20801.968465
585.084037	20792.186106
585.437113	20724.551466
585.790135	20922.537742
586.143103	20372.439473
586.496016	20399.278576
586.848874	20641.110287
587.201679	20546.119825
587.554428	20251.204764
587.907124	20586.749005
588.259765	20344.418219
588.612352	20418.918911
588.964884	19987.812037
589.317362	20155.667337
589.669786	20221.429188
590.022155	20220.206709
590.374470	20462.088832
590.726731	20215.200843
591.078937	20006.963380
591.431090	20083.891388
591.783188	19859.416369
592.135232	19821.411110
592.487222	19916.031047
592.839157	19926.199055
593.191038	19805.849068
593.542866	19701.625733
593.894639	19412.228214
594.246358	19624.987592
594.598022	19518.399955
594.949633	19274.561864
595.301190	19247.856352
595.652692	19409.629499
596.004141	19639.604417
596.355535	18977.388366
596.706876	18998.261263
597.058162	18887.786897
597.409395	19122.989492
597.760573	19172.412964
598.111698	18955.655952
598.462768	18889.185817
598.813785	18879.148880
599.164748	18671.778496
599.515657	18725.345797
599.866511	18522.754427
600.217312	18873.706955
600.568060	18390.106546
600.918753	18691.585190
601.269392	18596.861909
601.619978	18392.327174
601.970510	18581.819106
602.320988	18523.775260
602.671412	18732.627744
603.021783	18663.427825
603.372100	18358.271659
603.722363	18522.245270
604.072572	18465.610427
604.422728	18616.260269
604.772830	18363.718626
605.122878	18320.639446
605.472872	18310.791552
605.822813	18284.033107
606.172701	18271.299152
606.522534	18453.168860
606.872314	18488.527513
607.222041	18319.837902
607.571714	18531.079892
607.921333	18353.404425
608.270899	18430.259336
608.620411	18597.393751
608.969870	18378.942910
609.319276	18388.488335
609.668627	18409.063805
610.017926	18540.683290
610.367171	18649.902409
610.716362	18716.107882
611.065500	18527.956898
611.414585	18680.116565
611.763616	18654.005908
612.112594	18594.011136
612.461518	18555.123676
612.810389	18737.321058
613.159207	18597.693699
613.507971	18521.254683
613.856682	18775.936296
614.205340	18703.099185
614.553945	18858.316312
614.902496	18601.068752
615.250994	18804.028126
615.599439	18760.417104
615.947830	18745.233149
616.296169	18817.576227
616.644454	18779.946534
616.992686	18749.059385
617.340864	18969.027612
617.688990	18718.923367
618.037063	18893.891735
618.385082	18750.554087
618.733048	19030.317961
619.080961	18911.034178
619.428821	18943.683211
619.776628	18815.249735
620.124382	18747.357995
620.472083	18802.364545
620.819731	18809.278488
621.167326	18507.973764
621.514868	18532.199028
621.862357	18315.570565
622.209793	18314.007808
622.557176	18154.334301
622.904506	17972.666240
623.251783	17916.321263
623.599007	17657.052200
623.946179	17611.878421
624.293297	17538.834622
624.640363	17267.968385
624.987376	17295.235986
625.334336	17102.477386
625.681243	16938.680215
626.028097	16965.045450
626.374899	16877.301647
626.721647	16751.655928
627.068343	16575.765029
627.414987	16516.239085
627.761577	16486.060217
628.108115	16511.170205
628.454600	16236.818009
628.801032	16339.060171
629.147412	16280.557581
629.493739	16289.069569
629.840014	16101.452946
630.186236	16200.246959
630.532405	15959.355422
630.878521	16163.633058
631.224585	16066.326186
631.570597	15885.338681
631.916556	15915.250367
632.262462	15892.683642
632.608316	15811.687423
632.954117	15758.122643
633.299866	15739.404839
633.645562	15651.562733
633.991206	15421.723926
634.336797	15288.682835
634.682336	15253.364511
635.027823	15135.091480
635.373257	15002.128527
635.718639	14922.453091
636.063968	14858.261558
636.409245	14611.340802
636.754470	14651.982584
637.099642	14495.227905
637.444762	14270.405046
637.789829	14304.541220
638.134845	14142.894101
638.479808	14171.396785
638.824719	14092.906019
639.169577	13968.828100
639.514383	13996.446061
639.859137	13830.168643
640.203839	13928.435855
640.548489	13767.759158
640.893086	13759.726079
641.237632	13631.877377
641.582125	13787.603660
641.926566	13604.584570
642.270955	13618.417496
642.615292	13575.729005
642.959576	13585.027413
643.303809	13608.882153
643.647990	13539.667111
643.992118	13614.429943
644.336195	13373.185526
644.680219	13607.243778
645.024192	13502.430628
645.368112	13749.631169
645.711981	13794.948621
646.055797	13988.223939
646.399562	13964.149909
646.743274	14224.991812
647.086935	14489.866638
647.430544	14464.181959
647.774101	14507.787940
648.117606	14634.560356
648.461059	14616.107213
648.804460	14605.470378
649.147810	14321.855063
649.491108	14235.442124
649.834354	14246.290687
650.177548	13926.928550
650.520690	13733.063417
650.863781	13659.064319
651.206820	13718.877610
651.549807	13547.448132
651.892742	13341.138911
652.235626	13268.039660
652.578458	13275.661884
652.921238	12967.740646
653.263967	13170.410154
653.606644	12999.227692
653.949269	12979.042912
654.291843	12780.214764
654.634365	12950.711628
654.976836	12794.352680
655.319255	12791.723718
655.661622	12751.409611
656.003938	12670.914987
656.346203	12597.667021
656.688416	12679.724403
657.030577	12629.302782
657.372687	12534.317361
657.714746	12524.219930
658.056753	12716.242521
658.398708	12519.738344
658.740612	12530.733101
659.082465	12643.052529
659.424266	12606.070625
659.766016	12632.040129
660.107715	12541.611911
660.449362	12627.324129
660.790958	12573.058629
661.132503	12511.843897
661.473996	12587.524220
661.815438	12598.776075
662.156829	12620.402625
662.498168	12597.714912
662.839456	12597.601486
663.180693	12610.224535
663.521879	12712.111296
663.863013	12684.730269
664.204097	12649.656441
664.545129	12784.630814
664.886110	12752.085125
665.227040	12851.705887
665.567918	12849.129857
665.908746	12874.204557
666.249522	12869.990152
666.590248	12919.627873
666.930922	13037.258157
667.271545	13003.968898
667.612118	13086.520312
667.952639	12989.107576
668.293109	13010.759332
668.633528	12962.424749
668.973896	12942.996142
669.314213	13003.885719
669.654480	12743.358888
669.994695	12835.032271
670.334859	12853.031710
670.674973	12798.930047
671.015035	12827.208400
671.355047	12777.825257
671.695008	12750.318201
672.034918	12759.208276
672.374777	12801.228813
672.714585	12713.285885
673.054342	12747.664033
673.394049	12704.955378
673.733705	12799.605562
674.073310	12699.793236
674.412864	12718.364847
674.752368	12572.229359
675.091820	12606.675563
675.431223	12592.416659
675.770574	12451.281996
676.109875	12371.150335
676.449125	12337.835870
676.788324	12280.470059
677.127473	12106.267947
677.466571	12103.626382
677.805619	11994.223262
678.144616	11926.707088
678.483562	11892.752397
678.822458	11763.237593
679.161303	11749.034142
679.500098	11728.441028
679.838842	11691.900224
680.177535	11721.333001
680.516179	11784.402877
680.854771	11727.001779
681.193314	11940.880292
681.531805	12113.227260
681.870247	12547.502499
682.208638	12953.244808
682.546978	13254.113472
682.885268	13280.773614
683.223508	12995.615706
683.561697	12832.763751
683.899836	12739.774627
684.237925	12532.406764
684.575963	12444.168928
684.913951	12365.378214
685.251889	12316.093373
685.589776	12424.261411
685.927614	12335.206908
686.265401	12317.444402
686.603137	12368.549099
686.940824	12505.519770
687.278460	12641.560348
687.616046	12678.532170
687.953582	12837.832632
688.291068	12775.932303
688.628504	13014.479703
688.965889	13017.756453
689.303224	12977.243221
689.640510	12861.253832
689.977745	12540.165100
690.314930	12322.278869
690.652065	12236.080179
690.989150	11943.284923
691.326185	11712.377391
691.663170	11500.538024
692.000105	11275.601740
692.336990	11152.640436
692.673825	10889.141845
693.010610	10779.403487
693.347345	10571.047558
693.684030	10371.231343
694.020665	10320.277880
694.357251	10120.265060
694.693786	10048.905007
695.030272	9896.024455
695.366707	9780.967680
695.703093	9717.237413
696.039429	9709.504283
696.375716	9614.967525
696.711952	9488.300973
697.048139	9539.037666
697.384276	9490.574533
697.720363	9515.850879
698.056400	9448.261608
698.392388	9394.066684
698.728326	9357.493113
699.064214	9296.424575
699.400053	9341.684054
699.735842	9154.087596
700.071581	9112.969425
700.407270	9039.159371
700.742910	8963.015263
701.078501	8865.491621
701.414042	8736.301971
701.749533	8679.281480
702.084974	8540.259060
702.420366	8660.364550
702.755709	8532.382257
703.091002	8403.517762
703.426246	8434.024304
703.761440	8385.944300
704.096584	8345.148762
704.431679	8275.059080
704.766725	8259.202130
705.101721	8213.264616
705.436668	8260.817820
705.771565	8153.511819
706.106413	8237.930982
706.441212	8272.611599
706.775961	8235.637257
707.110661	8279.283567
707.445311	8412.533866
707.779913	8312.383783
708.114465	8435.970190
708.448967	8476.753124
708.783421	8632.174418
709.117825	8805.249832
709.452180	8842.241819
709.786485	8930.598123
710.120742	9220.028409
710.454949	9220.512360
710.789107	9328.884565
711.123216	9548.729284
711.457275	9722.144976
711.791286	9862.954486
712.125247	9868.116627
712.459159	9851.959729
712.793023	10086.002858
713.126837	9660.526953
713.460602	9817.243823
713.794318	9650.626127
714.127985	9678.107977
714.461602	9336.191717
714.795171	9295.681005
715.128691	9036.238022
715.462162	8797.068040
715.795584	8741.083506
716.128957	8574.054955
716.462281	8408.316940
716.795556	8457.120351
717.128782	8250.163341
717.461960	7997.651945
717.795088	8062.405566
718.128167	7966.303530
718.461198	7810.252092
718.794180	7754.154132
719.127113	7740.399344
719.459997	7574.747028
719.792833	7353.904161
720.125619	7424.810510
720.458357	7266.495594
720.791046	7271.191429
721.123686	7254.686691
721.456278	7097.367403
721.788821	7111.233097
722.121315	7017.697008
722.453761	7087.005312
722.786158	7019.506782
723.118506	7031.078751
723.450805	6995.256312
723.783056	7055.288892
724.115259	6983.540670
724.447412	6974.605225
724.779518	7023.973244
725.111574	7023.242277
725.443582	7105.836542
725.775542	7085.069508
726.107453	7276.073787
726.439315	7186.069026
726.771129	7257.010663
727.102895	7434.363497
727.434612	7542.314765
727.766281	7579.132832
728.097901	7651.969944
728.429473	7657.058988
728.760996	7647.372411
729.092471	7614.312524
729.423897	7549.939510
729.755276	7553.541415
730.086606	7472.590566
730.417887	7579.110147
730.749120	7796.058723
731.080305	7984.124009
731.411442	8092.105524
731.742530	8077.831497
732.073570	8189.460287
732.404562	8277.667877
732.735506	8134.229406
733.066401	8262.851926
733.397249	8187.597581
733.728048	7950.068494
734.058798	7610.803881
734.389501	7381.859879
734.720156	7205.510236
735.050762	6979.222922
735.381320	6892.683954
735.711831	6831.149110
736.042293	6725.940229
736.372707	6744.186685
736.703073	6609.613083
737.033391	6643.106510
737.363661	6660.296844
737.693883	6700.184974
738.024056	6776.306397
738.354182	6817.669064
738.684260	6846.222160
739.014290	6975.633620
739.344272	7079.524239
739.674207	7110.323169
740.004093	7188.461053
740.333931	7196.284924
740.663722	7205.235493
740.993464	7280.900691
741.323159	7262.709688
741.652806	7009.588312
741.982405	7044.311780
742.311956	7085.477842
742.641460	6908.354381
742.970915	6720.034517
743.300323	6709.695111
743.629683	6665.196846
743.958996	6529.113418
744.288260	6440.091683
744.617477	6390.645525
744.946647	6380.616149
745.275768	6216.501386
745.604842	6181.253638
745.933869	6158.848230
746.262847	6115.101097
746.591778	6101.961329
746.920662	6060.767541
747.249498	6059.774433
747.578286	6108.978616
747.907027	6180.789852
748.235720	6244.477269
748.564365	6216.677826
748.892963	6254.292396
749.221514	6398.240023
749.550017	6211.251024
749.878473	6099.833963
750.206881	6161.676317
750.535242	6108.724037
750.863555	6034.803078
751.191821	6044.421599
751.520039	6046.977464
751.848210	5954.797446
752.176334	5987.529658
752.504411	6026.563312
752.832440	5954.240398
753.160421	5887.324122
753.488356	5936.122491
753.816243	5960.715760
754.144082	5811.784952
754.471875	5786.987517
754.799620	5825.295245
755.127318	5840.708573
755.454969	5795.991017
755.782572	5763.379793
756.110129	5803.792203
756.437638	5784.782012
756.765100	5723.894956
757.092515	5731.890226
757.419882	5787.327794
757.747203	5762.306027
758.074477	5824.700388
758.401703	5804.790351
758.728882	5761.799391
759.056014	5828.483774
759.383099	5945.690601
759.710138	5956.594617
760.037129	5944.092556
760.364073	5949.688236
760.690970	6035.856679
761.017820	6010.066136
761.344623	5968.769004
761.671379	6076.906795
761.998088	6200.911618
762.324751	6461.970290
762.651366	7098.347908
762.977935	8457.432902
763.304456	10114.651735
763.630931	10975.148971
763.957359	10522.952429
764.283740	9565.050020
764.610074	8699.766209
764.936362	7697.118518
765.262602	7105.287056
765.588796	6573.694862
765.914943	6244.515078
766.241044	6073.267082
766.567097	5862.861923
766.893104	5602.430874
767.219064	5426.580305
767.544978	5361.120922
767.870845	5284.782729
768.196665	5179.059651
768.522438	5105.690698
768.848165	5072.398918
769.173846	5002.284029
769.499479	4956.749807
769.825066	4910.943363
770.150607	4852.377758
770.476101	4827.764324
770.801548	4821.094878
771.126949	4733.283019
771.452303	4683.115977
771.777611	4644.800687
772.102872	4664.050333
772.428087	4628.230414
772.753256	4583.684258
773.078378	4536.655334
773.403453	4464.213953
773.728482	4453.244402
774.053465	4404.367895
774.378401	4393.922624
774.703291	4388.526069
775.028135	4316.614010
775.352932	4268.506278
775.677683	4256.805760
776.002388	4272.403090
776.327046	4281.121766
776.651658	4211.193400
776.976224	4149.547651
777.300743	4152.738701
777.625216	4176.996733
777.949643	4166.740506
778.274024	4128.863796
778.598359	4087.591870
778.922647	4114.362917
779.246889	4103.743727
779.571086	4095.088066
779.895236	4078.492587
780.219339	4065.549425
780.543397	4058.333013
780.867409	4119.031026
781.191374	4127.784989
781.515294	4062.189496
781.839167	4058.748908
782.162995	4078.522834
782.486776	4065.562027
782.810511	4079.841096
783.134201	4068.533788
783.457844	4018.104605
783.781441	3967.534270
784.104993	3974.332266
784.428498	3992.195595
784.751958	3988.699555
785.075372	3967.788849
785.398739	3932.442798
785.722061	3943.366979
786.045337	3988.127384
786.368568	4016.746014
786.691752	3924.770162
787.014891	3986.415912
787.337983	4113.604224
787.661030	4281.945995
787.984031	4441.884162
788.306987	4607.833906
788.629897	4690.254250
788.952760	4642.973268
789.275579	4578.239812
789.598351	4509.160881
789.921078	4359.781410
790.243759	4160.350843
790.566395	4150.109739
790.888984	4139.780415
791.211529	4033.691853
791.534027	3976.358810
791.856480	3957.893064
792.178888	3896.670771
792.501249	3852.893391
792.823566	3867.147253
793.145836	3888.577198
793.468062	3832.814475
793.790241	3792.369298
794.112375	3825.235100
794.434464	3891.496026
794.756507	3907.000095
795.078505	3889.532497
795.400457	3928.419958
795.722364	4075.011670
796.044226	4176.069161
796.366042	4249.014657
796.687812	4223.272005
797.009538	4229.160073
797.331218	4189.750853
797.652852	4165.354188
797.974442	4145.981034
798.295986	4141.781753
798.617484	4055.600707
798.938938	3971.725990
799.260346	4016.254502
799.581709	4007.104807
799.903026	3930.043209
800.224299	3896.360740
800.545526	3890.480234
800.866708	3850.617310
801.187845	3795.877941
801.508936	3828.274916
801.829983	3815.704799
802.150984	3739.520361
802.471940	3735.119434
802.792851	3742.345928
803.113717	3741.027666
803.434538	3743.669231
803.755314	3682.310827
804.076045	3662.259637
804.396731	3685.849717
804.717372	3708.267728
805.037967	3691.067311
805.358518	3678.865198
805.679024	3710.090105
805.999485	3725.662229
806.319901	3731.646079
806.640272	3742.643356
806.960598	3752.193822
807.280879	3730.156418
807.601115	3745.907503
807.921306	3763.349896
808.241453	3800.261224
808.561554	3771.693005
808.881611	3702.982078
809.201623	3748.533944
809.521590	3757.862600
809.841513	3727.449318
810.161390	3757.686159
810.481223	3732.440061
810.801011	3678.570291
811.120755	3680.107843
811.440453	3713.094633
811.760107	3708.182028
812.079716	3664.311387
812.399281	3637.699136
812.718801	3660.480110
813.038276	3634.840802
813.357707	3634.288795
813.677093	3644.847492
813.996434	3592.764811
814.315731	3609.105711
814.634983	3611.848099
814.954191	3626.243114
815.273354	3653.488030
815.592473	3644.532420
815.911547	3657.473062
816.230577	3700.605174
816.549562	3750.641147
816.868502	3793.727889
817.187399	3818.116991
817.506250	3813.632885
817.825058	3790.080614
818.143821	3886.623751
818.462539	3987.020851
818.781213	4030.599105
819.099843	4096.015638
819.418429	4360.250237
819.736970	4600.347792
820.055466	4859.243810
820.373919	5229.655191
820.692327	5643.052492
821.010691	6126.804136
821.329011	7601.104701
821.647286	10470.899995
821.965517	15192.676581
822.283704	19211.786896
822.601847	21220.074204
822.919945	19305.154107
823.237999	16657.179664
823.556010	14140.746569
823.873976	11996.481699
824.191897	9881.979800
824.509775	8538.885346
824.827609	7410.231493
825.145398	6876.106120
825.463144	6761.324088
825.780845	6871.022116
826.098502	7091.958245
826.416116	8027.304012
826.733685	9401.094053
827.051210	10498.860755
827.368692	10456.797368
827.686129	9127.797979
828.003522	7615.925694
828.320872	6597.998265
828.638177	5884.155757
828.955439	5311.468077
829.272656	4808.875121
829.589830	4534.454870
829.906960	4356.902911
830.224046	4165.129857
830.541088	4044.074109
830.858086	3994.844721
831.175041	3914.909665
831.491952	3904.645876
831.808819	3914.012340
832.125642	3993.334896
832.442421	4151.556550
832.759157	4442.731076
833.075849	5023.212380
833.392497	5918.894348
833.709101	6703.960798
834.025662	7014.473190
834.342179	6602.484892
834.658653	5924.051448
834.975083	5266.816057
835.291469	4681.858209
835.607811	4278.268473
835.924110	4135.233294
836.240366	3931.709311
836.556578	3728.999473
836.872746	3621.264974
837.188871	3574.016760
837.504952	3507.859178
837.820990	3424.901950
838.136984	3381.427039
838.452935	3410.466606
838.768842	3400.104514
839.084706	3427.394800
839.400526	3596.177672
839.716303	3955.856437
840.032037	4502.365405
840.347727	4742.989761
840.663373	4437.198410
840.978977	4046.982855
841.294537	3735.162284
841.610054	3509.870598
841.925527	3402.073085
842.240957	3333.037003
842.556344	3277.448200
842.871687	3216.755228
843.186987	3166.983916
843.502244	3130.294398
843.817458	3096.117896
844.132629	3065.170252
844.447756	3074.604772
844.762840	3055.791186
845.077881	3024.891433
845.392879	3006.239164
845.707833	3003.504338
846.022745	3002.004595
846.337613	3000.595592
846.652438	2990.866165
846.967221	2989.454642
847.281960	2975.112560
847.596656	2971.969400
847.911309	2971.377065
848.225919	2965.413380
848.540485	2956.513223
848.855009	2959.933645
849.169490	2948.291101
849.483928	2938.377672
849.798323	2940.918413
850.112675	2937.649225
850.426984	2945.236161
850.741251	2946.642643
851.055474	2933.449944
851.369654	2928.118923
851.683792	2935.088319
851.997887	2942.975204
852.311938	2943.749021
852.625947	2932.363575
852.939914	2935.776436
853.253837	2940.366407
853.567718	2927.080446
853.881555	2926.720003
854.195350	2942.067796
854.509103	2934.397681
854.822812	2929.061619
855.136479	2924.655651
855.450103	2925.144643
855.763685	2919.070052
856.077224	2918.094589
856.390720	2931.604881
856.704173	2937.147630
857.017584	2929.848039
857.330953	2931.352824
857.644278	2939.791715
857.957561	2944.013682
858.270802	2952.732357
858.584000	2950.547017
858.897155	2933.611261
859.210268	2936.252825
859.523339	2933.858277
859.836367	2932.353493
860.149352	2927.070363
860.462295	2922.583737
860.775195	2931.125972
861.088054	2928.323090
861.400869	2911.531007
861.713642	2913.436563
862.026373	2926.470466
862.339062	2931.423400
862.651708	2935.337856
862.964312	2939.680810
863.276873	2930.778132
863.589392	2943.040739
863.901869	2955.247893
864.214303	2978.172540
864.526696	2991.937411
864.839045	2987.055053
865.151353	2984.494147
865.463619	2984.542038
865.775842	2986.704693
866.088023	3006.866788
866.400162	3011.008096
866.712258	2982.828046
867.024313	2972.619709
867.336325	2982.510453
867.648296	3005.760254
867.960224	2998.077536
868.272110	2980.383086
868.583954	2986.863489
868.895755	3000.189779
869.207515	2986.112357
869.519233	2995.481342
869.830909	3006.697909
870.142542	3013.097654
870.454134	3012.669156
870.765684	3013.873992
871.077191	3013.684948
871.388657	3024.830939
871.700081	3039.697302
872.011463	3046.938920
872.322803	3048.370607
872.634101	3048.685679
872.945357	3064.633370
873.256571	3091.235538
873.567744	3085.468458
873.878874	3077.566450
874.189963	3102.260542
874.501010	3100.274327
874.812015	3093.241918
875.122979	3091.230497
875.433900	3091.898450
875.744780	3096.700149
876.055618	3103.442693
876.366415	3096.586723
876.677169	3110.664145
876.987882	3106.162395
877.298554	3102.651231
877.609183	3126.087556
877.919771	3151.137049
878.230317	3180.350536
878.540822	3232.707959
878.851285	3267.265069
879.161707	3317.031340
879.472087	3428.801282
879.782425	3676.790763
880.092722	4134.169611
880.402977	4676.292775
880.713191	5337.324155
881.023363	6547.677467
881.333494	7850.019234
881.643583	8372.562557
881.953631	8048.489461
882.263637	7372.816049
882.573602	6766.206445
882.883526	6174.674932
883.193408	5602.950113
883.503248	5148.449765
883.813048	4837.740768
884.122806	4511.389071
884.432522	4185.067621
884.742197	3947.447793
885.051831	3753.678442
885.361424	3621.252372
885.670975	3548.624468
885.980485	3454.289356
886.289954	3374.944115
886.599382	3330.173628
886.908768	3294.149542
887.218113	3249.394179
887.527417	3189.550641
887.836680	3138.692961
888.145901	3135.771612
888.455082	3121.653861
888.764221	3069.795511
889.073319	3042.081768
889.382376	3038.084133
889.691392	3047.006975
890.000366	3041.940616
890.309300	3029.123482
890.618193	3041.484391
890.927044	3059.239335
891.235855	3057.613563
891.544625	3046.666697
891.853353	3056.864952
892.162041	3074.960173
892.470687	3118.278808
892.779293	3169.590193
893.087858	3218.658264
893.396381	3294.920839
893.704864	3423.853390
894.013306	3680.485929
894.321707	3991.903208
894.630068	4188.384700
894.938387	4173.173018
895.246665	4132.034682
895.554903	4001.491483
895.863100	3799.235349
896.171256	3627.395017
896.479371	3483.394458
896.787446	3356.959799
897.095480	3251.511463
897.403473	3187.191381
897.711425	3153.284581
898.019336	3142.703199
898.327207	3109.383692
898.635038	3072.452199
898.942827	3060.958368
899.250576	3049.225083
899.558284	3018.784075
899.865952	2997.505365
900.173579	2975.989720
900.481165	2966.126703
900.788711	2953.942234
901.096216	2928.791918
901.403681	2920.713468
901.711105	2926.404931
902.018489	2919.370001
902.325832	2920.262285
902.633135	2937.374482
902.940397	2972.470995
903.247619	3058.213460
903.554800	3268.220368
903.861941	3634.747540
904.169041	4080.647680
904.476101	4368.716855
904.783121	4303.310405
905.090100	4042.362637
905.397039	3760.486520
905.703938	3508.943026
906.010796	3321.916218
906.317614	3209.012016
906.624391	3108.506532
906.931129	3036.778474
907.237826	2971.959318
907.544483	2926.236053
907.851099	2897.395611
908.157675	2873.566077
908.464211	2852.357943
908.770707	2840.135665
909.077163	2825.216371
909.383578	2810.992755
909.689954	2799.955149
909.996289	2799.977834
910.302584	2802.337094
910.608839	2799.367854
910.915054	2791.455763
911.221229	2787.735392
911.527363	2789.552728
911.833458	2796.859880
912.139513	2802.306847
912.445527	2804.618216
912.751502	2815.912921
913.057436	2822.131184
913.363331	2838.615758
913.669186	2864.474356
913.975000	2899.281003
914.280775	2965.405818
914.586510	3035.656817
914.892205	3118.215794
915.197859	3254.856269
915.503475	3457.961837
915.809050	3682.386444
916.114585	3828.985719
916.420081	3842.516176
916.725536	3778.528810
917.030952	3650.178512
917.336328	3515.294879
917.641665	3382.732698
917.946961	3282.302831
918.252218	3205.397508
918.557435	3125.878348
918.862612	3063.899882
919.167750	3015.761904
919.472848	2974.449648
919.777906	2948.608693
920.082925	2921.484765
920.387904	2889.049981
920.692843	2870.831251
920.997743	2859.770960
921.302603	2846.674042
921.607423	2834.592917
921.912204	2822.660506
922.216946	2809.613999
922.521647	2798.707463
922.826310	2792.529529
923.130932	2786.548200
923.435516	2776.614606
923.740059	2767.243101
924.044564	2760.435023
924.349028	2752.948910
924.653454	2748.313569
924.957840	2741.099677
925.262186	2734.657083
925.566493	2732.043245
925.870761	2726.354302
926.174989	2724.862121
926.479178	2719.203426
926.783328	2713.650595
927.087438	2713.953064
927.391509	2711.916438
927.695541	2708.183463
927.999533	2703.969059
928.303486	2701.708101
928.607400	2702.489480
928.911275	2701.451002
929.215110	2703.185159
929.518906	2696.477904
929.822663	2697.140816
930.126381	2699.066537
930.430060	2700.994778
930.733699	2700.389840
931.037299	2703.280941
931.340861	2701.458564
931.644383	2702.393698
931.947866	2701.909747
932.251309	2701.360262
932.554714	2700.450333
932.858080	2697.949921
933.161407	2695.802390
933.464694	2695.257945
933.767943	2688.926256
934.071153	2696.177956
934.374323	2696.303984
934.677455	2694.242152
934.980548	2693.382636
935.283602	2692.492872
935.586617	2689.120340
935.889593	2691.582944
936.192530	2692.210567
936.495428	2690.796524
936.798287	2692.505475
937.101108	2697.833975
937.403890	2700.951928
937.706632	2708.632126
938.009336	2710.441900
938.312002	2723.087635
938.614628	2729.714232
938.917216	2739.708319
939.219765	2739.118504
939.522275	2736.476939
939.824747	2736.209758
940.127179	2730.540981
940.429573	2727.581823
940.731929	2725.356154
941.034246	2721.156873
941.336524	2719.281564
941.638763	2716.957592
941.940964	2712.695296
942.243126	2712.428115
942.545250	2711.404761
942.847335	2710.976263
943.149381	2704.788246
943.451389	2699.835313
943.753359	2696.787935
944.055290	2696.853470
944.357182	2695.278110
944.659036	2696.114941
944.960851	2693.649817
945.262628	2693.261648
945.564367	2692.976823
945.866067	2692.807944
946.167729	2694.922708
946.469352	2691.855166
946.770937	2693.117975
947.072484	2690.375587
947.373992	2691.945907
947.675462	2690.289888
947.976893	2688.490196
948.278286	2685.589012
948.579641	2685.662109
948.880958	2683.857376
949.182236	2683.852334
949.483476	2684.056501
949.784678	2683.907787
950.085841	2685.034485
950.386967	2683.771676
950.688054	2686.814012
950.989103	2688.124712
951.290114	2686.579599
951.591087	2689.816019
951.892021	2692.979343
952.192917	2692.427337
952.493776	2693.569158
952.794596	2699.489994
953.095378	2697.735672
953.396122	2696.036803
953.696828	2693.130578
953.997496	2690.771318
954.298126	2689.894157
954.598718	2685.684794
954.899272	2683.612880
955.199788	2680.270595
955.500266	2680.598270
955.800706	2679.663136
956.101108	2676.230110
956.401472	2675.421005
956.701798	2672.156857
957.002087	2669.076712
957.302337	2666.374654
957.602550	2669.527896
957.902724	2666.135199
958.202861	2665.991526
958.502960	2663.140754
958.803022	2664.723676
959.103045	2662.256031
959.403031	2661.333500
959.702979	2660.670588
960.002889	2659.412821
960.302762	2661.046154
960.602596	2661.525064
960.902393	2658.092038
961.202153	2660.302584
961.501875	2660.640342
961.801559	2657.635814
962.101205	2662.329128
962.400814	2657.270330
962.700385	2657.804692
962.999918	2653.804537
963.299414	2655.039620
963.598873	2654.217912
963.898293	2652.209012
964.197677	2656.771256
964.497022	2655.213539
964.796331	2656.138591
965.095601	2656.551966
965.394835	2657.736637
965.694030	2655.931904
965.993189	2658.081956
966.292309	2654.873262
966.591393	2656.632624
966.890439	2654.822850
967.189447	2655.208498
967.488419	2653.466780
967.787353	2656.191523
968.086249	2654.296049
968.385108	2655.510967
968.683930	2656.536842
968.982714	2654.260761
969.281462	2654.704383
969.580172	2655.226142
969.878844	2654.129691
970.177480	2655.405103
970.476078	2656.660351
970.774639	2656.917449
971.073162	2654.391831
971.371649	2656.816626
971.670098	2659.937101
971.968510	2656.892244
972.266885	2656.602377
972.565223	2658.167656
972.863524	2656.032727
973.161788	2654.369146
973.460014	2657.295536
973.758204	2656.650268
974.056356	2655.019455
974.354471	2655.384939
974.652550	2653.915442
974.950591	2657.451812
975.248595	2656.781338
975.546563	2657.978612
975.844493	2656.229332
976.142386	2654.041471
976.440243	2654.732109
976.738062	2655.876451
977.035845	2654.134732
977.333590	2655.326965
977.631299	2654.253200
977.928971	2652.937458
978.226606	2650.512663
978.524204	2651.047026
978.821765	2648.750780
979.119290	2651.268837
979.416777	2652.158600
979.714228	2653.718837
980.011642	2650.885709
980.309020	2652.289670
980.606360	2654.187665
980.903664	2655.437871
981.200931	2655.737819
981.498162	2653.378559
981.795356	2657.731596
982.092513	2657.509785
982.389633	2659.518685
982.686717	2662.492966
982.983764	2667.955056
983.280775	2669.714418
983.577749	2673.492763
983.874686	2669.250632
984.171587	2668.479336
984.468451	2664.665703
984.765279	2664.002791
985.062070	2661.245280
985.358824	2661.983809
985.655543	2659.193530
985.952224	2656.211688
986.248869	2659.064981
986.545478	2655.810916
986.842050	2651.742705
987.138586	2651.425112
987.435086	2654.525422
987.731549	2651.031902
988.027975	2648.977632
988.324366	2649.746408
988.620719	2650.681542
988.917037	2649.801861
989.213318	2651.795637
989.509563	2651.294042
989.805772	2650.943682
990.101944	2650.704227
990.398080	2649.635503
990.694180	2648.985194
990.990244	2651.596512
991.286271	2648.163486
991.582262	2650.593322
991.878217	2649.595173
992.174136	2649.791778
992.470019	2651.467962
992.765865	2646.782210
993.061676	2646.091572
993.357450	2646.668784
993.653188	2645.615182
993.948890	2647.795482
994.244556	2648.551655
994.540186	2652.909732
994.835780	2651.551141
995.131337	2652.138436
995.426859	2651.659526
995.722345	2650.898312
996.017795	2654.301091
996.313208	2654.820329
996.608586	2653.968374
996.903928	2656.219250
997.199234	2653.933086
997.494504	2656.481390
997.789738	2652.186327
998.084936	2653.209681
998.380099	2652.876965
998.675225	2654.046512
998.970316	2652.506440
999.265371	2651.687252
999.560390	2651.036943
999.855373	2649.106182
1000.150320	2651.785555
1000.445232	2647.442601
1000.740108	2648.932262
1001.034948	2651.581388
1001.329752	2650.714310
1001.624521	2647.843372
1001.919254	2648.375214
1002.213951	2649.320431
1002.508613	2647.861017
1002.803239	2648.279432
1003.097829	2647.447642
1003.392384	2649.764052
1003.686903	2648.501243
1003.981386	2649.098620
1004.275834	2645.466468
1004.570246	2649.254896
1004.864623	2647.150214
1005.158964	2649.277581
1005.453270	2645.620224
1005.747540	2648.198774
1006.041775	2648.138280
1006.335974	2646.673825
1006.630138	2647.303969
1006.924266	2646.736839
1007.218359	2647.903866
1007.512416	2644.677528
1007.806438	2643.974287
1008.100425	2645.763897
1008.394376	2642.623258
1008.688292	2646.527631
1008.982172	2649.552324
1009.276017	2648.712972
1009.569827	2646.951088
1009.863602	2646.401602
1010.157341	2646.318423
1010.451045	2648.166006
1010.744714	2647.404792
1011.038347	2649.229690
1011.331945	2648.760863
1011.625508	2646.953609
1011.919036	2645.849596
1012.212528	2644.795995
1012.505986	2646.600728
1012.799408	2647.961840
1013.092795	2648.115595
1013.386147	2647.094761
1013.679464	2647.462765
1013.972745	2646.177271
1014.265992	2645.063176
1014.559204	2646.966212
1014.852380	2647.203146
1015.145521	2645.015285
1015.438628	2645.716006
1015.731699	2646.152065
1016.024736	2647.553506
1016.317737	2645.143835
1016.610703	2645.970584
1016.903635	2647.664412
1017.196531	2646.147024
1017.489393	2645.973104
1017.782219	2645.163999
1018.075011	2645.680717
1018.367768	2645.030409
1018.660490	2645.312713
1018.953177	2645.312713
1019.245829	2645.312713
