Dividing Wavelength (nm)	Counts (n)	Blue Motor Position (mm): 12.600000	Red Motor Position (mm): 0.000000	
326.493990	2166.438386
326.888308	2166.438386
327.282561	2166.438386
327.676750	2124.367437
328.070874	2121.178907
328.464933	2123.439864
328.858929	2124.770729
329.252859	2131.921606
329.646726	2138.858233
330.040528	2152.431540
330.434265	2164.807573
330.827938	2181.556806
331.221547	2198.613550
331.615091	2215.584595
332.008571	2234.035218
332.401986	2252.758063
332.795338	2275.639861
333.188625	2291.506892
333.581847	2308.954326
333.975006	2327.203303
334.368100	2345.956395
334.761129	2361.452902
335.154095	2378.285315
335.546996	2400.030332
335.939833	2426.118303
336.332606	2440.530962
336.725315	2452.906994
337.117960	2465.275465
337.510540	2476.239975
337.903056	2486.886892
338.295508	2497.395177
338.687896	2508.175685
339.080220	2515.059380
339.472480	2522.855525
339.864676	2527.574045
340.256807	2531.760723
340.648875	2534.399767
341.040879	2539.221631
341.432818	2541.275901
341.824694	2544.837476
342.216506	2542.553833
342.608253	2542.291693
342.999937	2546.972405
343.391557	2545.414688
343.783113	2544.466951
344.174605	2545.583567
344.566033	2544.282949
344.957397	2542.896632
345.348697	2541.502753
345.739934	2538.737680
346.131106	2537.694161
346.522215	2537.905889
346.913260	2537.144675
347.304241	2536.295241
347.695159	2530.263500
348.086012	2532.037986
348.476802	2527.745444
348.867528	2521.378467
349.258191	2518.510050
349.648789	2519.389731
350.039324	2516.365039
350.429796	2518.401665
350.820203	2520.057684
351.210548	2517.277488
351.600828	2515.639113
351.991045	2513.451252
352.381198	2511.293638
352.771288	2513.022754
353.161314	2511.359173
353.551276	2514.182219
353.941175	2511.369256
354.331010	2511.643998
354.720782	2511.028978
355.110490	2509.786333
355.500135	2510.187105
355.889717	2512.029647
356.279235	2509.446055
356.668689	2510.751714
357.058080	2509.546878
357.447408	2509.433453
357.836672	2509.927486
358.225873	2511.787671
358.615010	2512.493433
359.004084	2513.698269
359.393095	2511.918741
359.782043	2512.884122
360.170927	2513.055522
360.559748	2514.318331
360.948505	2513.327744
361.337199	2517.148938
361.725830	2515.989473
362.114398	2518.510050
362.502903	2517.562313
362.891344	2518.694052
363.279722	2518.174813
363.668037	2520.304701
364.056289	2520.309742
364.444478	2520.014834
364.832603	2522.545494
365.220665	2521.101203
365.608665	2519.324196
365.996601	2518.845287
366.384474	2521.254958
366.772284	2522.106913
367.160031	2522.643796
367.547715	2521.862417
367.935336	2522.588343
368.322893	2521.854856
368.710388	2517.186747
369.097820	2521.035668
369.485189	2518.444515
369.872495	2523.536080
370.259738	2525.534898
370.646918	2525.411390
371.034035	2525.744106
371.421090	2523.523477
371.808081	2525.202182
372.195010	2525.108920
372.581875	2528.695701
372.968678	2527.639580
373.355418	2528.211751
373.742096	2527.629497
374.128710	2529.535053
374.515262	2529.565300
374.901751	2525.897861
375.288177	2527.160670
375.674540	2526.215454
376.060841	2528.302491
376.447079	2528.766278
376.833254	2527.168232
377.219367	2528.000022
377.605417	2529.595547
377.991404	2529.184693
378.377329	2530.389529
378.763191	2529.376257
379.148991	2531.042358
379.534727	2527.805938
379.920402	2531.748120
380.306013	2531.775846
380.691563	2530.079498
381.077049	2530.956659
381.462474	2531.881711
381.847835	2530.954138
382.233134	2533.283151
382.618371	2533.280631
383.003545	2534.760209
383.388657	2530.530681
383.773706	2533.295754
384.158693	2530.576052
384.543618	2533.431865
384.928480	2533.812472
385.313280	2532.957997
385.698017	2534.087215
386.082692	2535.889428
386.467305	2533.930940
386.851856	2536.607792
387.236344	2534.775333
387.620770	2530.944056
388.005133	2528.257121
388.389435	2533.273069
388.773674	2528.403314
389.157851	2534.470343
389.541965	2538.493184
389.926018	2537.016126
390.310008	2537.522762
390.693936	2534.760209
391.077802	2539.393030
391.461606	2536.859850
391.845348	2537.681558
392.229027	2538.210879
392.612645	2535.372710
392.996200	2539.796322
393.379694	2537.719367
393.763125	2536.091074
394.146494	2538.281455
394.529801	2535.750796
394.913047	2539.188863
395.296230	2539.698020
395.679351	2540.136600
396.062410	2540.960829
396.445408	2540.003009
396.828343	2537.958822
397.211217	2537.384130
397.594028	2541.429656
397.976778	2539.524100
398.359466	2540.330684
398.742092	2539.448483
399.124656	2540.577701
399.507158	2541.308668
399.889598	2541.122146
400.271977	2542.664739
400.654294	2543.158772
401.036549	2538.972093
401.418742	2540.567619
401.800874	2540.285314
402.182944	2541.686755
402.564952	2540.834800
402.946898	2545.155069
403.328783	2541.464944
403.710606	2540.570139
404.092367	2542.082485
404.474067	2541.767413
404.855705	2544.222455
405.237282	2543.539379
405.618797	2543.612476
406.000250	2543.700696
406.381642	2546.995090
406.762972	2541.621220
407.144240	2539.284645
407.525447	2542.238761
407.906593	2543.972918
408.287677	2548.696479
408.668700	2543.751107
409.049661	2543.257074
409.430560	2547.973074
409.811399	2545.490305
410.192176	2546.674977
410.572891	2547.342929
410.953545	2544.724050
411.334138	2548.671273
411.714669	2547.471479
412.095139	2543.970398
412.475547	2547.640357
412.855894	2547.410985
413.236180	2546.072559
413.616405	2543.801519
413.996568	2546.564071
414.376670	2548.018444
414.756711	2548.285625
415.136691	2548.656150
415.516609	2549.054401
415.896466	2547.796633
416.276262	2546.828732
416.655997	2548.449463
417.035670	2547.526932
417.415283	2549.724875
417.794834	2547.610111
418.174324	2546.901828
418.553753	2545.061807
418.933121	2550.435677
419.312428	2547.602549
419.691674	2550.854093
420.070859	2549.046839
420.449983	2549.702189
420.829045	2551.048178
421.208047	2550.798640
421.586988	2547.930224
421.965867	2552.469783
422.344686	2551.766542
422.723444	2548.817467
423.102141	2550.412992
423.480777	2551.897612
423.859352	2548.633465
424.237866	2551.504402
424.616319	2551.653116
424.994712	2551.554813
425.373044	2551.693445
425.751314	2550.866696
426.129524	2547.741181
426.507673	2549.835780
426.885762	2546.911911
427.263789	2551.486758
427.641756	2547.975594
428.019662	2552.799978
428.397508	2551.118754
428.775292	2551.249824
429.153016	2553.024310
429.530679	2549.954247
429.908282	2551.033054
430.285824	2552.321069
430.663305	2556.837943
431.040726	2551.726213
431.418086	2549.598846
431.795385	2555.839794
432.172624	2551.522046
432.549802	2553.115051
432.926920	2550.518856
433.303977	2552.898281
433.680974	2553.316697
434.057910	2553.127653
434.434786	2552.268137
434.811601	2554.269475
435.188355	2552.454659
435.565050	2552.159752
435.941683	2554.418189
436.318257	2554.221584
436.694770	2555.461708
437.071222	2552.217725
437.447614	2554.798796
437.823946	2551.030533
438.200218	2558.113355
438.576429	2554.642520
438.952580	2555.454146
439.328670	2551.804351
439.704700	2558.229301
440.080670	2554.796275
440.456580	2554.193857
440.832429	2555.529763
441.208218	2555.071018
441.583947	2557.463046
441.959616	2555.638148
442.335224	2553.896429
442.710773	2554.771070
443.086261	2555.794424
443.461689	2557.294167
443.837057	2554.743343
444.212365	2556.311142
444.587612	2554.839125
444.962800	2550.838970
445.337927	2553.230997
445.712995	2551.879968
446.088002	2555.834753
446.462949	2557.294167
446.837837	2556.243087
447.212664	2553.271326
447.587431	2558.347768
447.962139	2556.220401
448.336786	2559.038406
448.711374	2557.402552
449.085901	2560.535629
449.460369	2556.326266
449.834776	2556.613611
450.209124	2558.695608
450.583412	2559.817265
450.957640	2558.138560
451.331808	2557.609239
451.705917	2558.612429
452.079965	2557.954558
452.453954	2559.088818
452.827883	2559.045968
453.201752	2559.648386
453.575562	2556.353992
453.949311	2557.115206
454.323001	2558.864487
454.696632	2556.409445
455.070202	2557.768036
455.443713	2557.783159
455.817164	2559.277861
456.190556	2559.088818
456.563888	2560.049158
456.937160	2559.900444
457.310373	2560.220557
457.683526	2560.996895
458.056619	2559.870197
458.429653	2560.074363
458.802628	2557.505896
459.175542	2561.059909
459.548398	2561.488407
459.921194	2561.133006
460.293930	2560.409600
460.666607	2557.667212
461.039224	2560.054199
461.411782	2559.812223
461.784280	2560.606205
462.156719	2563.285578
462.529099	2565.365054
462.901419	2563.381360
463.273680	2558.957748
463.645882	2559.749209
464.018024	2558.990515
464.390106	2559.948335
464.762130	2561.725341
465.134094	2563.207441
465.505999	2560.959086
465.877845	2560.543191
466.249631	2565.125600
466.621358	2563.678788
466.993026	2565.360013
467.364634	2569.103070
467.736184	2564.155177
468.107674	2565.808676
468.479105	2562.272307
468.850477	2568.064592
469.221790	2566.960580
469.593043	2564.291289
469.964238	2564.056875
470.335373	2564.394632
470.706449	2565.561659
471.077467	2564.235836
471.448425	2565.269273
471.819324	2564.878583
472.190164	2567.051320
472.560945	2566.837071
472.931667	2566.784139
473.302330	2565.339849
473.672934	2565.289437
474.043479	2565.213820
474.413965	2566.756413
474.784393	2565.904458
475.154761	2567.210117
475.525070	2566.496793
475.895321	2568.364541
476.265513	2567.515107
476.635645	2566.567370
477.005719	2565.954869
477.375734	2569.594582
477.745691	2567.457133
478.115588	2570.222206
478.485427	2568.654407
478.855207	2567.837740
479.224928	2566.469067
479.594591	2570.411249
479.964194	2571.762279
480.333739	2571.298492
480.703226	2568.740107
481.072653	2573.151117
481.442022	2570.985941
481.811333	2569.445868
482.180584	2567.341187
482.549777	2567.560477
482.918912	2565.170970
483.287988	2569.929819
483.657005	2573.551888
484.025964	2571.548030
484.394864	2571.858061
484.763706	2568.886300
485.132489	2569.269428
485.501213	2573.506518
485.869879	2570.769171
486.238487	2571.837896
486.607036	2571.958884
486.975527	2572.568863
487.343959	2567.462174
487.712333	2573.672876
488.080648	2574.252609
488.448905	2572.354614
488.817104	2574.766806
489.185244	2572.261353
489.553326	2572.717577
489.921350	2574.234965
490.289315	2574.691189
490.657222	2574.388720
491.025070	2575.888463
491.392861	2577.519276
491.760593	2575.901066
492.128267	2576.130438
492.495883	2576.299317
492.863440	2573.556929
493.230939	2573.201528
493.598380	2577.879719
493.965763	2576.843762
494.333088	2573.839234
494.700354	2572.158009
495.067563	2573.776220
495.434713	2573.705643
495.801805	2574.492063
496.168839	2574.144224
496.535815	2573.617423
496.902733	2575.439800
497.269593	2576.760583
497.636395	2571.452248
498.003139	2575.371745
498.369825	2572.475602
498.736453	2575.109605
499.103023	2576.745459
499.469535	2578.207394
499.835989	2576.155644
500.202385	2572.485684
500.568723	2571.250602
500.935003	2572.636919
501.301226	2571.033832
501.667390	2574.857547
502.033497	2578.540110
502.399546	2575.331416
502.765537	2574.960891
503.131470	2577.040367
503.497345	2575.638926
503.863163	2576.891653
504.228923	2573.282187
504.594625	2578.451890
504.960269	2573.670355
505.325856	2577.839390
505.691385	2577.206725
506.056856	2577.090778
506.422270	2578.540110
506.787625	2576.894173
507.152924	2577.292424
507.518164	2580.642271
507.883347	2577.408371
508.248472	2575.752352
508.613540	2580.531366
508.978550	2579.528176
509.343503	2580.899370
509.708398	2583.432550
510.073236	2581.887436
510.438016	2580.332240
510.802738	2582.449525
511.167403	2579.581108
511.532010	2581.610173
511.896561	2585.965730
512.261053	2585.010431
512.625488	2583.152766
512.989866	2582.028588
513.354186	2586.495051
513.718449	2583.757704
514.082655	2588.231728
514.446803	2586.419433
514.810894	2586.192582
515.174927	2589.005545
515.538904	2588.844228
515.902822	2588.108220
516.266684	2591.226174
516.630488	2590.129723
516.994235	2593.308170
517.357925	2592.080649
517.721558	2594.336566
518.085133	2593.260279
518.448651	2591.861359
518.812112	2590.205340
519.175516	2593.782039
519.538863	2590.827922
519.902152	2595.813624
520.265385	2598.140116
520.628560	2599.365117
520.991678	2597.020980
521.354739	2602.039449
521.717743	2596.975610
522.080690	2601.520210
522.443580	2603.468616
522.806413	2603.947525
523.169189	2602.911568
523.531908	2606.059769
523.894569	2603.534151
524.257174	2603.329984
524.619722	2606.815942
524.982213	2609.565891
525.344647	2606.853751
525.707025	2611.456324
526.069345	2611.879781
526.431608	2609.631426
526.793815	2614.107971
527.155964	2613.578650
527.518057	2613.132508
527.880093	2611.133690
528.242072	2615.368259
528.603995	2617.102416
528.965860	2617.077211
529.327669	2615.136366
529.689421	2617.987139
530.051117	2618.403034
530.412755	2619.184413
530.774337	2623.587861
531.135862	2619.166769
531.497331	2621.909157
531.858743	2621.984774
532.220098	2623.698766
532.581396	2623.421503
532.942638	2623.605505
533.303824	2625.821092
533.664953	2626.352934
534.026025	2625.811010
534.387040	2628.850825
534.747999	2627.525002
535.108902	2628.533233
535.469748	2630.290075
535.830537	2629.657410
536.191270	2633.337452
536.551947	2629.559107
536.912567	2629.642287
537.273131	2632.339304
537.633638	2632.588841
537.994089	2634.456588
538.354483	2636.251239
538.714821	2636.689820
539.075103	2637.438431
539.435328	2639.969090
539.795497	2639.669142
540.155609	2639.346508
540.515665	2638.171919
540.875665	2642.015799
541.235609	2638.580252
541.595496	2642.262815
541.955328	2644.128042
542.315102	2645.748773
542.674821	2643.271046
543.034483	2644.952271
543.394090	2647.525780
543.753640	2648.924700
544.113134	2650.089207
544.472571	2650.210194
544.831953	2650.684063
545.191278	2654.772438
545.550548	2651.853610
545.909761	2652.473672
546.268918	2657.262768
546.628019	2657.023314
546.987064	2656.050371
547.346053	2655.707572
547.704986	2654.490134
548.063863	2658.334014
548.422684	2661.025990
548.781449	2658.480207
549.140158	2661.895589
549.498811	2662.578665
549.857408	2658.477687
550.215949	2660.937770
550.574434	2660.095897
550.932864	2664.257369
551.291237	2663.430620
551.649555	2667.302226
552.007817	2672.194666
552.366022	2667.927329
552.724173	2671.418328
553.082267	2673.147444
553.440305	2671.136024
553.798288	2672.547547
554.156215	2677.029133
554.514086	2675.332784
554.871902	2673.089471
555.229661	2675.010151
555.587365	2673.709533
555.945014	2679.973167
556.302606	2681.465348
556.660143	2683.776717
557.017625	2686.327541
557.375050	2686.516584
557.732421	2687.799558
558.089735	2687.151770
558.446994	2691.303160
558.804197	2692.946576
559.161345	2693.919519
559.518437	2693.440609
559.875474	2699.747092
560.232455	2696.034283
560.589381	2703.638863
560.946251	2702.335725
561.303065	2703.669110
561.659825	2709.141283
562.016528	2708.173381
562.373177	2709.295038
562.729770	2708.034749
563.086307	2712.854092
563.442789	2716.904660
563.799216	2721.146791
564.155587	2719.316852
564.511904	2725.025958
564.868164	2723.536297
565.224370	2729.517627
565.580520	2729.759602
565.936615	2733.537947
566.292654	2731.697926
566.648638	2741.238309
567.004567	2741.573546
567.360441	2744.741911
567.716260	2743.400964
568.072023	2752.956471
568.427732	2753.614342
568.783385	2753.475710
569.138982	2759.489807
569.494525	2765.377874
569.850013	2768.485746
570.205445	2771.661673
570.560823	2772.637136
570.916145	2774.850202
571.271412	2780.425719
571.626625	2787.203550
571.981782	2795.042544
572.336884	2792.174128
572.691931	2797.966413
573.046923	2797.404325
573.401860	2802.957156
573.756743	2817.374856
574.111570	2818.703200
574.466342	2823.101607
574.821059	2830.249963
575.175722	2832.974706
575.530330	2842.414267
575.884882	2846.981552
576.239380	2853.998838
576.593823	2862.057123
576.948211	2862.972092
577.302544	2867.173894
577.656823	2874.070193
578.011047	2880.054042
578.365216	2889.352450
578.719330	2898.424007
579.073389	2902.446848
579.427394	2920.816812
579.781344	2921.013417
580.135239	2927.561876
580.489080	2936.542692
580.842866	2937.180398
581.196597	2963.890951
581.550273	2964.566466
581.903895	2980.708240
582.257463	2995.735920
582.610975	2996.376147
582.964434	3016.399610
583.317837	3027.515354
583.671186	3043.455482
584.024481	3060.900395
584.377721	3061.510375
584.730906	3075.678538
585.084037	3087.633634
585.437113	3102.462188
585.790135	3116.635392
586.143103	3124.615539
586.496016	3126.135447
586.848874	3157.597288
587.201679	3166.971313
587.554428	3174.243178
587.907124	3203.577652
588.259765	3215.366390
588.612352	3244.108529
588.964884	3242.139958
589.317362	3264.444543
589.669786	3281.849127
590.022155	3302.873259
590.374470	3329.515757
590.726731	3342.763910
591.078937	3350.315558
591.431090	3371.508569
591.783188	3379.203890
592.135232	3393.641755
592.487222	3429.386056
592.839157	3442.558591
593.191038	3463.814616
593.542866	3472.319043
593.894639	3489.829491
594.246358	3524.235366
594.598022	3536.961759
594.949633	3548.629509
595.301190	3560.904719
595.652692	3593.379832
596.004141	3626.157414
596.355535	3614.784571
596.706876	3640.295330
597.058162	3657.707476
597.409395	3682.948533
597.760573	3719.295252
598.111698	3728.704566
598.462768	3754.850510
598.813785	3770.888941
599.164748	3783.552320
599.515657	3815.782937
599.866511	3824.786438
600.217312	3874.338459
600.568060	3861.662478
600.918753	3925.465842
601.269392	3951.929379
601.619978	3954.618834
601.970510	4010.507586
602.320988	4027.029968
602.671412	4072.944797
603.021783	4092.938013
603.372100	4102.659879
603.722363	4150.235768
604.072572	4178.793905
604.422728	4211.024522
604.772830	4236.709201
605.122878	4246.115994
605.472872	4294.448056
605.822813	4328.125484
606.172701	4357.099516
606.522534	4409.146909
606.872314	4443.635963
607.222041	4452.200883
607.571714	4513.256818
607.921333	4544.212023
608.270899	4581.093105
608.620411	4656.602028
608.969870	4644.029390
609.319276	4690.690310
609.668627	4743.027569
610.017926	4804.922856
610.367171	4850.507490
610.716362	4918.409312
611.065500	4916.826389
611.414585	4978.371316
611.763616	5018.831617
612.112594	5059.085230
612.461518	5083.053396
612.810389	5159.184902
613.159207	5165.919883
613.507971	5200.776942
613.856682	5314.674251
614.205340	5343.635680
614.553945	5433.640441
614.902496	5404.651285
615.250994	5519.261918
615.599439	5543.600609
615.947830	5589.409574
616.296169	5629.355677
616.644454	5685.209141
616.992686	5710.606474
617.340864	5813.640097
617.688990	5827.785575
618.037063	5928.812818
618.385082	5945.647752
618.733048	6046.914450
619.080961	6067.522687
619.428821	6141.433564
619.776628	6180.699111
620.124382	6201.196443
620.472083	6265.672801
620.819731	6330.804508
621.167326	6293.726822
621.514868	6340.949830
621.862357	6341.781621
622.209793	6380.555656
622.557176	6389.533951
622.904506	6371.622731
623.251783	6396.974694
623.599007	6410.195120
623.946179	6442.035047
624.293297	6462.620599
624.640363	6453.501152
624.987376	6486.109855
625.334336	6470.091589
625.681243	6478.845553
626.028097	6512.833012
626.374899	6577.561427
626.721647	6554.591410
627.068343	6556.018056
627.414987	6584.939156
627.761577	6648.447612
628.108115	6709.135543
628.454600	6658.401370
628.801032	6714.685853
629.147412	6742.399596
629.493739	6792.876670
629.840014	6806.162631
630.186236	6858.492328
630.532405	6835.378638
630.878521	6947.294774
631.224585	6952.172090
631.570597	6967.492157
631.916556	6995.770509
632.262462	7034.373145
632.608316	7076.091213
632.954117	7090.473625
633.299866	7137.994062
633.645562	7163.827455
633.991206	7111.825432
634.336797	7082.314518
634.682336	7134.646736
635.027823	7122.951259
635.373257	7144.580330
635.718639	7123.183152
636.063968	7150.541494
636.409245	7103.336129
636.754470	7154.196331
637.099642	7146.775752
637.444762	7083.153870
637.789829	7156.023749
638.134845	7133.489791
638.479808	7175.845566
638.824719	7202.054525
639.169577	7171.207704
639.514383	7233.617189
639.859137	7198.636622
640.203839	7266.316633
640.548489	7223.121507
640.893086	7280.842718
641.237632	7233.082827
641.582125	7362.849688
641.926566	7319.941907
642.270955	7358.428596
642.615292	7381.257462
642.959576	7415.197030
643.303809	7484.454922
643.647990	7473.162737
643.992118	7562.902838
644.336195	7472.441852
644.680219	7601.429856
645.024192	7632.627036
645.368112	7763.828106
645.711981	7843.775765
646.055797	7945.876775
646.399562	7979.299625
646.743274	8124.520143
647.086935	8324.669075
647.430544	8343.427208
647.774101	8373.984162
648.117606	8516.570678
648.461059	8510.919545
648.804460	8586.080628
649.147810	8484.869382
649.491108	8444.532590
649.834354	8512.948609
650.177548	8401.765961
650.520690	8345.002569
650.863781	8336.351949
651.206820	8383.091007
651.549807	8331.136875
651.892742	8280.382538
652.235626	8277.493957
652.578458	8315.418557
652.921238	8175.206425
653.263967	8313.606263
653.606644	8256.963858
653.949269	8264.258407
654.291843	8219.709731
654.634365	8311.168865
654.976836	8279.228114
655.319255	8317.528280
655.661622	8330.395825
656.003938	8310.473185
656.346203	8300.128738
656.688416	8370.228502
657.030577	8381.573619
657.372687	8375.171354
657.714746	8379.899956
658.056753	8512.867951
658.398708	8472.828586
658.740612	8483.664546
659.082465	8580.535359
659.424266	8560.935353
659.766016	8619.732850
660.107715	8601.756096
660.449362	8666.008122
660.790958	8684.650309
661.132503	8675.808125
661.473996	8733.819203
661.815438	8789.145867
662.156829	8817.046132
662.498168	8844.817849
662.839456	8860.337041
663.180693	8897.520592
663.521879	8990.928132
663.863013	9008.357921
664.204097	9017.250516
664.545129	9126.056260
664.886110	9121.110888
665.227040	9214.208397
665.567918	9248.720136
665.908746	9303.580493
666.249522	9305.559146
666.590248	9358.846663
666.930922	9464.804155
667.271545	9481.540786
667.612118	9555.101302
667.952639	9537.878200
668.293109	9555.232372
668.633528	9569.095546
668.973896	9572.926822
669.314213	9685.888998
669.654480	9517.511939
669.994695	9577.781454
670.334859	9635.792532
670.674973	9625.057394
671.015035	9682.965129
671.355047	9668.970886
671.695008	9664.670781
672.034918	9700.304177
672.374777	9747.532227
672.714585	9711.651815
673.054342	9755.164534
673.394049	9752.459955
673.733705	9825.385287
674.073310	9808.394078
674.412864	9849.025778
674.752368	9782.863154
675.091820	9790.361870
675.431223	9831.543056
675.770574	9762.254917
676.109875	9724.163958
676.449125	9729.615966
676.788324	9698.232263
677.127473	9610.962328
677.466571	9619.076065
677.805619	9584.995345
678.144616	9542.765599
678.483562	9537.726966
678.822458	9459.127816
679.161303	9462.376839
679.500098	9483.461465
679.838842	9466.198034
680.177535	9500.455195
680.516179	9565.138240
680.854771	9543.834324
681.193314	9741.313964
681.531805	9845.020581
681.870247	10179.498618
682.208638	10485.685700
682.546978	10741.257076
682.885268	10836.368526
683.223508	10622.159817
683.561697	10526.103151
683.899836	10459.859868
684.237925	10325.281225
684.575963	10284.717581
684.913951	10245.205017
685.251889	10190.755514
685.589776	10305.867742
685.927614	10264.414334
686.265401	10224.019568
686.603137	10283.704309
686.940824	10421.685731
687.278460	10512.144196
687.616046	10564.284850
687.953582	10709.512930
688.291068	10644.121603
688.628504	10828.264871
688.965889	10842.722900
689.303224	10863.590757
689.640510	10809.746192
689.977745	10586.796122
690.314930	10419.039125
690.652065	10383.083095
690.989150	10165.070836
691.326185	10007.764150
691.663170	9862.483138
692.000105	9674.962297
692.336990	9624.588567
692.673825	9422.135829
693.010610	9344.265125
693.347345	9183.230507
693.684030	9021.585909
694.020665	8993.405859
694.357251	8840.648815
694.693786	8828.217329
695.030272	8678.648815
695.366707	8595.205116
695.703093	8543.424905
696.039429	8555.553921
696.375716	8518.307356
696.711952	8396.225733
697.048139	8443.768855
697.384276	8409.095799
697.720363	8422.167511
698.056400	8379.869709
698.392388	8350.315945
698.728326	8327.721493
699.064214	8279.288608
699.400053	8336.054521
699.735842	8184.956016
700.071581	8163.546236
700.407270	8106.621527
700.742910	8048.086169
701.078501	7980.343143
701.414042	7885.272023
701.749533	7829.466450
702.084974	7718.344296
702.420366	7822.723907
702.755709	7731.148827
703.091002	7620.810572
703.426246	7651.987588
703.761440	7616.276054
704.096584	7587.700273
704.431679	7530.896552
704.766725	7532.078702
705.101721	7487.741754
705.436668	7538.715381
705.771565	7446.852955
706.106413	7521.063781
706.441212	7574.883140
706.775961	7538.758231
707.110661	7565.057931
707.445311	7720.564924
707.779913	7625.672765
708.114465	7750.625324
708.448967	7795.269783
708.783421	7911.115498
709.117825	8086.338444
709.452180	8122.836398
709.786485	8197.800876
710.120742	8459.918191
710.454949	8454.446019
710.789107	8542.716622
711.123216	8721.039878
711.457275	8861.325107
711.791286	9017.169858
712.125247	9003.636880
712.459159	9006.759875
712.793023	9251.006300
713.126837	8864.959779
713.460602	9007.785750
713.794318	8854.784210
714.127985	8907.088702
714.461602	8642.423084
714.795171	8600.916744
715.128691	8400.160353
715.462162	8161.686050
715.795584	8126.052654
716.128957	8017.231787
716.462281	7852.829677
716.795556	7906.845641
717.128782	7727.564566
717.461960	7473.177861
717.795088	7547.461783
718.128167	7460.564894
718.461198	7313.428737
718.794180	7260.781446
719.127113	7258.898575
719.459997	7132.637836
719.792833	6907.754484
720.125619	6976.929197
720.458357	6845.206367
720.791046	6830.186249
721.123686	6841.271747
721.456278	6701.301590
721.788821	6712.266099
722.121315	6612.829340
722.453761	6667.505694
722.786158	6629.618903
723.118506	6642.998125
723.450805	6616.461491
723.783056	6687.589651
724.115259	6583.265493
724.447412	6585.337407
724.779518	6628.474561
725.111574	6633.331712
725.443582	6717.685340
725.775542	6691.304982
726.107453	6868.965325
726.439315	6783.981554
726.771129	6836.031467
727.102895	6992.050138
727.434612	7107.928621
727.766281	7128.090715
728.097901	7211.128602
728.429473	7201.610903
728.760996	7174.817170
729.092471	7155.229767
729.423897	7122.089222
729.755276	7140.557489
730.086606	7083.398366
730.417887	7175.596029
730.749120	7336.585277
731.080305	7531.935029
731.411442	7666.526275
731.742530	7672.570619
732.073570	7769.237264
732.404562	7859.015173
732.735506	7703.349384
733.066401	7845.504881
733.397249	7785.865510
733.728048	7569.378200
734.058798	7255.016887
734.389501	7049.993160
734.720156	6883.546863
735.050762	6647.764536
735.381320	6551.483538
735.711831	6515.139340
736.042293	6407.704790
736.372707	6432.066166
736.703073	6297.275794
737.033391	6335.520508
737.363661	6344.100552
737.693883	6358.861050
738.024056	6440.575633
738.354182	6493.953891
738.684260	6534.976280
739.014290	6627.153778
739.344272	6735.102526
739.674207	6757.583552
740.004093	6819.473798
740.333931	6842.705955
740.663722	6849.070412
740.993464	6924.138234
741.323159	6927.798111
741.652806	6689.908582
741.982405	6682.672006
742.311956	6752.953252
742.641460	6617.119362
742.970915	6420.872283
743.300323	6415.755512
743.629683	6361.248036
743.958996	6237.742288
744.288260	6152.506458
744.617477	6096.073262
744.946647	6111.292505
745.275768	5954.603361
745.604842	5906.442698
745.933869	5888.725563
746.262847	5843.917267
746.591778	5832.988045
746.920662	5799.519825
747.249498	5785.097084
747.578286	5830.704403
747.907027	5907.390435
748.235720	5962.011337
748.564365	5931.963539
748.892963	5949.778977
749.221514	6109.449963
749.550017	5971.455939
749.878473	5834.727243
750.206881	5881.622577
750.535242	5826.343805
750.863555	5762.001037
751.191821	5785.545747
751.520039	5787.642867
751.848210	5700.375452
752.176334	5712.638059
752.504411	5769.093941
752.832440	5695.951840
753.160421	5621.657835
753.488356	5668.507798
753.816243	5707.554055
754.144082	5564.418054
754.471875	5526.596797
754.799620	5569.935597
755.127318	5585.820272
755.454969	5534.955030
755.782572	5499.367004
756.110129	5544.485331
756.437638	5536.437129
756.765100	5476.759950
757.092515	5468.812571
757.419882	5514.384602
757.747203	5498.560420
758.074477	5558.933278
758.401703	5560.022167
758.728882	5505.474362
759.056014	5548.911464
759.383099	5686.338359
759.710138	5695.704823
760.037129	5673.362429
760.364073	5678.615312
760.690970	5766.444815
761.017820	5754.620788
761.344623	5698.270771
761.671379	5795.086130
761.998088	5908.761629
762.324751	6129.657429
762.651366	6682.664444
762.977935	7917.169924
763.304456	9494.093259
763.630931	10423.951730
763.957359	10100.226474
764.283740	9190.658647
764.610074	8396.185404
764.936362	7435.210411
765.262602	6839.862744
765.588796	6308.827598
765.914943	5969.585671
766.241044	5811.149767
766.567097	5634.119567
766.893104	5371.845977
767.219064	5195.826528
767.544978	5132.010562
767.870845	5066.483124
768.196665	4957.868943
768.522438	4881.026635
768.848165	4850.872974
769.173846	4792.113284
769.499479	4753.949229
769.825066	4699.230025
770.150607	4637.364985
770.476101	4613.124597
770.801548	4609.484883
771.126949	4544.206982
771.452303	4492.421729
771.777611	4447.323567
772.102872	4460.070125
772.428087	4426.586781
772.753256	4388.982294
773.078378	4349.124411
773.403453	4277.625726
773.728482	4267.775311
774.053465	4221.205132
774.378401	4205.885065
774.703291	4211.279100
775.028135	4145.582783
775.352932	4095.660237
775.677683	4080.753545
776.002388	4102.027214
776.327046	4114.657825
776.651658	4038.957338
776.976224	3976.845282
777.300743	3983.318123
777.625216	3999.964013
777.949643	4004.674971
778.274024	3955.599339
778.598359	3908.318357
778.922647	3929.758384
779.246889	3923.146911
779.571086	3925.342333
779.895236	3911.834562
780.219339	3894.094741
780.543397	3880.932288
780.867409	3931.109413
781.191374	3949.396199
781.515294	3891.443094
781.839167	3882.056466
782.162995	3903.178900
782.486776	3889.144328
782.810511	3892.330337
783.134201	3901.777460
783.457844	3860.568547
783.781441	3799.038744
784.104993	3801.256852
784.428498	3820.173782
784.751958	3821.834842
785.075372	3801.808858
785.398739	3764.952983
785.722061	3771.682923
786.045337	3813.945436
786.368568	3854.246941
786.691752	3763.211264
787.014891	3808.811021
787.337983	3923.328392
787.661030	4074.489911
787.984031	4236.144591
788.306987	4408.720932
788.629897	4489.530628
788.952760	4444.722332
789.275579	4377.697671
789.598351	4318.670800
789.921078	4191.255637
790.243759	3997.640041
790.566395	3965.041420
790.888984	3968.819765
791.211529	3862.164073
791.534027	3808.087615
791.856480	3796.003970
792.178888	3736.994743
792.501249	3685.108667
792.823566	3693.534956
793.145836	3725.299266
793.468062	3680.143131
793.790241	3631.654792
794.112375	3657.198319
794.434464	3714.203687
794.756507	3740.377357
795.078505	3728.603743
795.400457	3754.167434
795.722364	3881.837176
796.044226	3982.990448
796.366042	4057.508784
796.687812	4047.154254
797.009538	4057.440729
797.331218	4008.705374
797.652852	3984.903566
797.974442	3963.748364
798.295986	3962.745174
798.617484	3888.642733
798.938938	3800.667037
799.260346	3835.635001
799.581709	3838.077440
799.903026	3768.577572
800.224299	3731.512488
800.545526	3725.851273
800.866708	3690.215356
801.187845	3621.297742
801.508936	3659.981036
801.829983	3666.869773
802.150984	3589.233483
802.471940	3573.081626
802.792851	3586.433122
803.113717	3584.109150
803.434538	3588.232814
803.755314	3535.081408
804.076045	3504.688292
804.396731	3522.954913
804.717372	3548.984911
805.037967	3537.213816
805.358518	3529.286602
805.679024	3548.866443
805.999485	3560.521591
806.319901	3562.580902
806.640272	3583.249633
806.960598	3601.150771
807.280879	3568.196748
807.601115	3578.326947
807.921306	3594.425871
808.241453	3634.742499
808.561554	3617.247175
808.881611	3552.450704
809.201623	3583.133687
809.521590	3597.044751
809.841513	3568.405956
810.161390	3596.613732
810.481223	3581.147472
810.801011	3524.086652
811.120755	3511.902183
811.440453	3548.206052
811.760107	3553.695869
812.079716	3516.154396
812.399281	3481.254488
812.718801	3504.108559
813.038276	3477.264415
813.357707	3471.552787
813.677093	3494.479955
813.996434	3444.633026
814.315731	3449.500260
814.634983	3453.349181
814.954191	3463.050882
815.273354	3493.199502
815.592473	3495.644462
815.911547	3494.076663
816.230577	3527.993546
816.549562	3581.465065
816.868502	3623.536014
817.187399	3644.960918
817.506250	3644.918068
817.825058	3615.155096
818.143821	3699.017211
818.462539	3800.609064
818.781213	3846.871732
819.099843	3896.753950
819.418429	4118.511787
819.736970	4353.134649
820.055466	4585.708281
820.373919	4939.466211
820.692327	5339.660730
821.010691	5728.812601
821.329011	6977.478683
821.647286	9529.489720
821.965517	13838.857071
822.283704	17795.043704
822.601847	20110.826273
822.919945	18430.486188
823.237999	15977.921992
823.556010	13567.796750
823.873976	11562.907180
824.191897	9527.405203
824.509775	8178.606683
824.827609	7073.225318
825.145398	6520.324167
825.463144	6404.438122
825.780845	6523.656369
826.098502	6681.008425
826.416116	7459.997764
826.733685	8720.792862
827.051210	9841.688378
827.368692	9980.448658
827.686129	8803.132548
828.003522	7323.851322
828.320872	6321.067520
828.638177	5648.748996
828.955439	5107.150112
829.272656	4625.036843
829.589830	4335.730065
829.906960	4161.144825
830.224046	3988.770131
830.541088	3860.238352
830.858086	3817.791837
831.175041	3745.211824
831.491952	3720.870613
831.808819	3733.060123
832.125642	3797.372643
832.442421	3932.452881
832.759157	4186.297662
833.075849	4697.183316
833.392497	5513.310836
833.709101	6267.217914
834.025662	6635.476723
834.342179	6329.496329
834.658653	5686.010684
834.975083	5062.283843
835.291469	4507.691384
835.607811	4092.900205
835.924110	3959.886840
836.240366	3768.534722
836.556578	3564.700708
836.872746	3458.067701
837.188871	3424.972526
837.504952	3361.713607
837.820990	3281.871812
838.136984	3231.006570
838.452935	3252.960795
838.768842	3254.412647
839.084706	3270.065430
839.400526	3415.563212
839.716303	3724.734657
840.032037	4214.944019
840.347727	4502.660313
840.663373	4262.030916
840.978977	3897.704207
841.294537	3593.770521
841.610054	3368.753578
841.925527	3261.021600
842.240957	3192.066177
842.556344	3143.739156
842.871687	3086.227152
843.186987	3036.964997
843.502244	3002.357476
843.817458	2969.050572
844.132629	2935.042948
844.447756	2946.771193
844.762840	2933.263421
845.077881	2901.912485
845.392879	2883.938251
845.707833	2880.510267
846.022745	2874.954915
846.337613	2878.519011
846.652438	2869.623895
846.967221	2865.901003
847.281960	2852.408354
847.596656	2845.302848
847.911309	2848.025071
848.225919	2840.785974
848.540485	2835.633915
848.855009	2837.388237
849.169490	2831.106959
849.483928	2819.202274
849.798323	2815.194557
850.112675	2813.392344
850.426984	2821.934579
850.741251	2824.850887
851.055474	2812.580718
851.369654	2809.513176
851.683792	2812.046356
851.997887	2819.532470
852.311938	2821.831236
852.625947	2812.265646
852.939914	2814.019968
853.253837	2822.607573
853.567718	2805.979327
853.881555	2799.715694
854.195350	2816.832932
854.509103	2814.377890
854.822812	2807.106025
855.136479	2806.080151
855.450103	2804.434214
855.763685	2797.311063
856.077224	2793.136988
856.390720	2808.348670
856.704173	2818.763694
857.017584	2811.995945
857.330953	2807.529482
857.644278	2813.803198
857.957561	2822.058088
858.270802	2826.423727
858.584000	2825.118068
858.897155	2814.430822
859.210268	2813.329330
859.523339	2812.880667
859.836367	2811.595173
860.149352	2807.332877
860.462295	2801.969090
860.775195	2808.157106
861.088054	2814.907211
861.400869	2794.447688
861.713642	2788.383180
862.026373	2802.926909
862.339062	2806.155768
862.651708	2811.204483
862.964312	2820.144970
863.276873	2810.849082
863.589392	2817.125319
863.901869	2829.967658
864.214303	2850.139835
864.526696	2865.790097
864.839045	2862.830940
865.151353	2862.730117
865.463619	2857.383973
865.775842	2860.501927
866.088023	2874.957436
866.400162	2886.007645
866.712258	2859.859180
867.024313	2846.278311
867.336325	2852.196626
867.648296	2874.355018
867.960224	2864.870087
868.272110	2853.499764
868.583954	2859.531505
868.895755	2875.133876
869.207515	2861.704242
869.519233	2861.585775
869.830909	2870.843854
870.142542	2886.317676
870.454134	2882.821636
870.765684	2885.054867
871.077191	2885.556462
871.388657	2892.878738
871.700081	2906.114287
872.011463	2913.522263
872.322803	2916.995618
872.634101	2917.688776
872.945357	2931.277206
873.256571	2958.128912
873.567744	2953.438119
873.878874	2940.258022
874.189963	2963.795169
874.501010	2966.257773
874.812015	2958.789303
875.122979	2956.472893
875.433900	2953.654888
875.744780	2957.140846
876.055618	2965.708287
876.366415	2962.426496
876.677169	2973.655666
876.987882	2972.912096
877.298554	2964.185859
877.609183	2980.536841
877.919771	3005.425018
878.230317	3027.585930
878.540822	3080.878488
878.851285	3117.104219
879.161707	3151.663850
879.472087	3242.964187
879.782425	3444.343160
880.092722	3848.469778
880.402977	4349.373948
880.713191	4939.123413
881.023363	6014.162073
881.333494	7239.822849
881.643583	7819.651323
881.953631	7544.668984
882.263637	6970.695810
882.573602	6432.688748
882.883526	5866.128591
883.193408	5306.938600
883.503248	4850.003375
883.813048	4562.022420
884.122806	4288.408754
884.432522	3986.544462
884.742197	3760.536932
885.051831	3575.183787
885.361424	3435.674896
885.670975	3372.458826
885.980485	3290.945889
886.289954	3217.967626
886.599382	3175.062365
886.908768	3140.278404
887.218113	3094.378698
887.527417	3044.703168
887.836680	2994.291629
888.145901	2993.762308
888.455082	2982.999445
888.764221	2932.915581
889.073319	2902.610685
889.382376	2903.734862
889.691392	2907.180491
890.000366	2907.581263
890.309300	2891.963768
890.618193	2905.211920
890.927044	2925.658840
891.235855	2923.375198
891.544625	2911.188208
891.853353	2916.269691
892.162041	2936.111673
892.470687	2968.065027
892.779293	3019.593181
893.087858	3066.438103
893.396381	3125.248203
893.704864	3238.187694
894.013306	3457.142649
894.321707	3744.992534
894.630068	3948.584573
894.938387	3953.550110
895.246665	3904.963469
895.554903	3801.115700
895.863100	3611.147379
896.171256	3450.662246
896.479371	3321.207936
896.787446	3205.644525
897.095480	3104.776078
897.403473	3042.989176
897.711425	3006.140862
898.019336	2993.074191
898.327207	2972.745738
898.635038	2941.399843
898.942827	2922.102306
899.250576	2911.747776
899.558284	2885.339692
899.865952	2864.214737
900.173579	2845.015502
900.481165	2838.638443
900.788711	2826.680826
901.096216	2803.930098
901.403681	2791.062553
901.711105	2798.253759
902.018489	2796.605302
902.325832	2795.874335
902.633135	2804.860191
902.940397	2830.953204
903.247619	2903.744945
903.554800	3076.472519
903.861941	3391.610170
904.169041	3793.107827
904.476101	4098.170731
904.783121	4078.878235
905.090100	3851.481868
905.397039	3585.679469
905.703938	3348.392358
906.010796	3169.141530
906.317614	3064.575396
906.624391	2975.173053
906.931129	2909.494381
907.237826	2849.875175
907.544483	2803.040335
907.851099	2775.734925
908.157675	2754.201636
908.464211	2736.252608
908.770707	2720.231821
909.077163	2713.191850
909.383578	2697.473532
909.689954	2686.957685
909.996289	2686.511543
910.302584	2685.825946
910.608839	2687.282840
910.915054	2682.072807
911.221229	2674.964780
911.527363	2675.736077
911.833458	2682.410564
912.139513	2684.472396
912.445527	2688.399455
912.751502	2699.190045
913.057436	2706.615665
913.363331	2717.098744
913.669186	2734.843606
913.975000	2767.520365
914.280775	2823.729230
914.586510	2887.671226
914.892205	2959.558079
915.197859	3074.819021
915.503475	3254.291660
915.809050	3452.933286
916.114585	3593.594081
916.420081	3622.338740
916.725536	3571.029876
917.030952	3462.191365
917.336328	3343.472192
917.641665	3216.616596
917.946961	3122.962040
918.252218	3058.369736
918.557435	2983.173365
918.862612	2928.532298
919.167750	2877.964484
919.472848	2841.872343
919.777906	2818.859476
920.082925	2794.145219
920.387904	2764.929212
920.692843	2749.049577
920.997743	2739.902403
921.302603	2725.847667
921.607423	2718.522870
921.912204	2705.844368
922.216946	2697.130734
922.521647	2685.929290
922.826310	2682.932324
923.130932	2674.490912
923.435516	2665.991526
923.740059	2657.368633
924.044564	2649.953095
924.349028	2643.828093
924.653454	2641.584780
924.957840	2636.271404
925.262186	2626.589868
925.566493	2627.411576
925.870761	2620.807664
926.174989	2618.579474
926.479178	2612.600666
926.783328	2607.945160
927.087438	2606.321909
927.391509	2606.160592
927.695541	2604.592793
927.999533	2601.207658
928.303486	2595.475866
928.607400	2597.081474
928.911275	2596.872266
929.215110	2594.371854
929.518906	2596.713470
929.822663	2594.308839
930.126381	2594.717173
930.430060	2596.663058
930.733699	2594.563417
931.037299	2597.925867
931.340861	2599.450816
931.644383	2598.871083
931.947866	2597.774632
932.251309	2593.736668
932.554714	2594.271031
932.858080	2593.305650
933.161407	2589.111410
933.464694	2592.108376
933.767943	2586.789958
934.071153	2590.127202
934.374323	2586.091758
934.677455	2586.563106
934.980548	2587.228539
935.283602	2586.207705
935.586617	2588.128385
935.889593	2584.917170
936.192530	2584.564289
936.495428	2586.628641
936.798287	2588.317428
937.101108	2593.134250
937.403890	2593.645927
937.706632	2596.791607
938.009336	2606.468102
938.312002	2613.513115
938.614628	2622.998046
938.917216	2629.533902
939.219765	2627.829992
939.522275	2630.219499
939.824747	2626.589868
940.127179	2623.113992
940.429573	2622.047788
940.731929	2616.804988
941.034246	2616.638630
941.336524	2614.977570
941.638763	2608.958432
941.940964	2609.260902
942.243126	2606.606734
942.545250	2604.519696
942.847335	2601.860488
943.149381	2599.060127
943.451389	2595.264138
943.753359	2592.967892
944.055290	2592.625094
944.357182	2592.922522
944.659036	2591.823550
944.960851	2589.902871
945.262628	2587.591502
945.564367	2586.820205
945.866067	2589.418920
946.167729	2591.165680
946.469352	2591.263982
946.770937	2588.665267
947.072484	2589.691142
947.373992	2589.323138
947.675462	2583.306521
947.976893	2581.264854
948.278286	2583.135122
948.579641	2582.373907
948.880958	2575.517938
949.182236	2583.054463
949.483476	2578.585480
949.784678	2580.133115
950.085841	2579.830645
950.386967	2582.542786
950.688054	2580.871644
950.989103	2580.589339
951.290114	2582.114288
951.591087	2585.476738
951.892021	2586.406831
952.192917	2591.296750
952.493776	2591.006883
952.794596	2592.604929
953.095378	2591.735330
953.396122	2589.618046
953.696828	2589.320617
953.997496	2591.652151
954.298126	2586.298446
954.598718	2584.062694
954.899272	2583.225863
955.199788	2581.544638
955.500266	2579.513053
955.800706	2575.006261
956.101108	2574.555078
956.401472	2570.199521
956.701798	2569.105591
957.002087	2568.780436
957.302337	2569.660118
957.602550	2567.260528
957.902724	2562.075702
958.202861	2565.193655
958.502960	2564.238357
958.803022	2562.925136
959.103045	2557.342058
959.403031	2560.696946
959.702979	2561.813562
960.002889	2558.478838
960.302762	2560.580999
960.602596	2560.822975
960.902393	2561.543860
961.202153	2558.733417
961.501875	2557.112686
961.801559	2559.605536
962.101205	2557.142932
962.400814	2559.668551
962.700385	2555.877603
962.999918	2556.497665
963.299414	2553.467931
963.598873	2554.854249
963.898293	2552.381563
964.197677	2555.915412
964.497022	2556.621173
964.796331	2555.285267
965.095601	2560.152501
965.394835	2555.600339
965.694030	2555.534804
965.993189	2557.052192
966.292309	2554.955072
966.591393	2553.568754
966.890439	2554.186296
967.189447	2554.728220
967.488419	2554.241748
967.787353	2554.924825
968.086249	2556.868190
968.385108	2555.449105
968.683930	2553.185627
968.982714	2556.550597
969.281462	2555.817109
969.580172	2555.471790
969.878844	2554.730740
970.177480	2555.169321
970.476078	2555.232335
970.774639	2556.679146
971.073162	2553.997253
971.371649	2556.641338
971.670098	2557.667212
971.968510	2555.408776
972.266885	2557.309291
972.565223	2555.930535
972.863524	2555.517160
973.161788	2558.667882
973.460014	2555.731409
973.758204	2554.786193
974.056356	2556.769887
974.354471	2555.439022
974.652550	2557.354661
974.950591	2558.504044
975.248595	2559.474466
975.546563	2556.817778
975.844493	2552.739485
976.142386	2557.979764
976.440243	2555.134033
976.738062	2557.364743
977.035845	2555.958261
977.333590	2554.944989
977.631299	2552.081614
977.928971	2551.925338
978.226606	2547.839483
978.524204	2553.036913
978.821765	2549.208156
979.119290	2555.534804
979.416777	2550.523897
979.714228	2552.479865
980.011642	2552.545400
980.309020	2553.052036
980.606360	2553.669578
980.903664	2554.347613
981.200931	2553.467931
981.498162	2553.954403
981.795356	2557.268961
982.092513	2557.551266
982.389633	2557.490772
982.686717	2562.294992
982.983764	2564.162739
983.280775	2568.848492
983.577749	2572.389902
983.874686	2568.954356
984.171587	2566.532082
984.468451	2566.658110
984.765279	2563.091494
985.062070	2560.354147
985.358824	2561.501010
985.655543	2561.765671
985.952224	2557.788200
986.248869	2553.389793
986.545478	2554.478683
986.842050	2552.081614
987.138586	2554.478683
987.435086	2553.417520
987.731549	2553.619166
988.027975	2551.411141
988.324366	2552.767211
988.620719	2554.458518
988.917037	2551.809392
989.213318	2552.280740
989.509563	2550.574309
989.805772	2551.766542
990.101944	2554.491286
990.398080	2550.841490
990.694180	2550.589432
990.990244	2551.554813
991.286271	2551.010369
991.582262	2551.199412
991.878217	2551.060780
992.174136	2551.075904
992.470019	2550.954916
992.765865	2549.755122
993.061676	2548.507436
993.357450	2549.936603
993.653188	2545.545758
993.948890	2551.713610
994.244556	2553.475493
994.540186	2555.403734
994.835780	2550.576830
995.131337	2551.728733
995.426859	2553.450287
995.722345	2552.560524
996.017795	2553.528425
996.313208	2554.834084
996.608586	2554.743343
996.903928	2557.079918
997.199234	2557.677295
997.494504	2555.212171
997.789738	2553.604042
998.084936	2554.781152
998.380099	2553.208312
998.675225	2555.229815
998.970316	2554.592109
999.265371	2553.414999
999.560390	2553.135215
999.855373	2553.379711
1000.150320	2552.744526
1000.445232	2551.005328
1000.740108	2550.823846
1001.034948	2550.695297
1001.329752	2550.095399
1001.624521	2551.648075
1001.919254	2549.182951
1002.213951	2553.740154
1002.508613	2548.948537
1002.803239	2553.488096
1003.097829	2552.492468
1003.392384	2552.288301
1003.686903	2553.203271
1003.981386	2552.290822
1004.275834	2551.451470
1004.570246	2548.235214
1004.864623	2550.992725
1005.158964	2550.085317
1005.453270	2552.419371
1005.747540	2547.592467
1006.041775	2551.607746
1006.335974	2548.709082
1006.630138	2550.622200
1006.924266	2551.491799
1007.218359	2549.533311
1007.512416	2544.575336
1007.806438	2546.470810
1008.100425	2544.605583
1008.394376	2545.535676
1008.688292	2548.187323
1008.982172	2549.555996
1009.276017	2547.345450
1009.569827	2548.078938
1009.863602	2550.090358
1010.157341	2549.455173
1010.451045	2552.487427
1010.744714	2548.625903
1011.038347	2549.314021
1011.331945	2549.782848
1011.625508	2550.929710
1011.919036	2551.050698
1012.212528	2549.535831
1012.505986	2547.678166
1012.799408	2551.050698
1013.092795	2549.775286
1013.386147	2548.187323
1013.679464	2550.226469
1013.972745	2549.208156
1014.265992	2547.320244
1014.559204	2548.794782
1014.852380	2549.742519
1015.145521	2547.519370
1015.438628	2549.155224
1015.731699	2549.951727
1016.024736	2549.344268
1016.317737	2545.485264
1016.610703	2548.935934
1016.903635	2551.824515
1017.196531	2549.349309
1017.489393	2548.439380
1017.782219	2548.704041
1018.075011	2547.778989
1018.367768	2552.363919
1018.660490	2549.533311
1018.953177	2549.533311
1019.245829	2549.533311
