Dividing Wavelength (nm)	Counts (n)	Blue Motor Position (mm): 29.500000	Red Motor Position (mm): 0.000000	
326.493990	2213.056456
326.888308	2213.056456
327.282561	2213.056456
327.676750	2172.830569
328.070874	2168.409477
328.464933	2171.313182
328.858929	2172.462565
329.252859	2179.484892
329.646726	2186.552590
330.040528	2197.917871
330.434265	2210.404809
330.827938	2230.455999
331.221547	2247.613566
331.615091	2266.452358
332.008571	2282.223608
332.401986	2298.614919
332.795338	2318.386325
333.188625	2337.368789
333.581847	2357.367047
333.975006	2378.852444
334.368100	2394.616132
334.761129	2412.991138
335.154095	2431.247677
335.546996	2459.342027
335.939833	2494.665392
336.332606	2508.420181
336.725315	2522.376615
337.117960	2536.229706
337.510540	2548.010882
337.903056	2556.227963
338.295508	2567.817576
338.687896	2576.188412
339.080220	2583.724937
339.472480	2588.254413
339.864676	2593.976123
340.256807	2599.349993
340.648875	2606.281580
341.040879	2605.827876
341.432818	2610.072527
341.824694	2612.310800
342.216506	2613.084617
342.608253	2614.087806
342.999937	2612.895573
343.391557	2613.152672
343.783113	2614.037395
344.174605	2612.968670
344.566033	2611.224431
344.957397	2611.632764
345.348697	2611.247116
345.739934	2607.289810
346.131106	2606.586569
346.522215	2603.806373
346.913260	2603.206476
347.304241	2602.059613
347.695159	2600.789242
348.086012	2595.932091
348.476802	2599.382761
348.867528	2592.259610
349.258191	2589.323138
349.648789	2586.389187
350.039324	2585.088569
350.429796	2589.368508
350.820203	2586.966399
351.210548	2586.573189
351.600828	2584.634865
351.991045	2586.376584
352.381198	2581.771490
352.771288	2583.099834
353.161314	2582.459607
353.551276	2580.501119
353.941175	2579.515573
354.331010	2579.833166
354.720782	2578.731674
355.110490	2581.756366
355.500135	2579.810481
355.889717	2579.684452
356.279235	2579.586149
356.668689	2580.969946
357.058080	2580.047415
357.447408	2580.007086
357.836672	2581.595049
358.225873	2580.725450
358.615010	2582.550348
359.004084	2582.855338
359.393095	2582.136973
359.782043	2582.832652
360.170927	2582.668815
360.559748	2583.046902
360.948505	2586.129567
361.337199	2590.041502
361.725830	2584.166038
362.114398	2584.483630
362.502903	2587.004207
362.891344	2587.467993
363.279722	2586.001018
363.668037	2588.040164
364.056289	2588.670309
364.444478	2589.121492
364.832603	2588.942531
365.220665	2592.730958
365.608665	2592.403283
365.996601	2590.485124
366.384474	2592.176431
366.772284	2589.255082
367.160031	2593.328335
367.547715	2592.514188
367.935336	2591.011925
368.322893	2590.235587
368.710388	2589.207192
369.097820	2591.876482
369.485189	2587.442788
369.872495	2592.637697
370.259738	2594.707090
370.646918	2594.437389
371.034035	2598.611464
371.421090	2597.656165
371.808081	2596.970568
372.195010	2596.221957
372.581875	2595.480907
372.968678	2592.554518
373.355418	2596.748758
373.742096	2595.480907
374.128710	2597.565425
374.515262	2598.452668
374.901751	2597.545260
375.288177	2598.112390
375.674540	2597.585589
376.060841	2600.544747
376.447079	2598.944180
376.833254	2599.463419
377.219367	2600.428800
377.605417	2601.419387
377.991404	2599.289499
378.377329	2603.536671
378.763191	2599.196238
379.148991	2600.975765
379.534727	2600.937957
379.920402	2601.316043
380.306013	2602.069696
380.691563	2604.270159
381.077049	2601.303440
381.462474	2603.740838
381.847835	2601.137082
382.233134	2602.052052
382.618371	2603.801332
383.003545	2605.379213
383.388657	2604.998606
383.773706	2604.544902
384.158693	2607.743514
384.543618	2605.051538
384.928480	2605.308637
385.313280	2605.472474
385.698017	2607.511621
386.082692	2606.337032
386.467305	2609.923813
386.851856	2607.297372
387.236344	2610.687548
387.620770	2606.042125
388.005133	2605.719491
388.389435	2605.406939
388.773674	2606.059769
389.157851	2609.941457
389.541965	2609.112187
389.926018	2609.601179
390.310008	2610.644698
390.693936	2608.960953
391.077802	2610.919441
391.461606	2611.249637
391.845348	2610.967332
392.229027	2612.101592
392.612645	2610.057404
392.996200	2616.074021
393.379694	2612.036057
393.763125	2614.682662
394.146494	2612.018413
394.529801	2614.170985
394.913047	2615.607714
395.296230	2618.050153
395.679351	2615.259875
396.062410	2615.491768
396.445408	2615.431274
396.828343	2617.319186
397.211217	2614.289452
397.594028	2619.350771
397.976778	2615.355657
398.359466	2614.909514
398.742092	2618.387911
399.124656	2615.869854
399.507158	2619.023096
399.889598	2618.576954
400.271977	2617.755246
400.654294	2620.752212
401.036549	2620.515277
401.418742	2618.314814
401.800874	2619.993518
402.182944	2621.039557
402.564952	2621.190792
402.946898	2622.078035
403.328783	2619.607870
403.710606	2621.347068
404.092367	2619.610390
404.474067	2619.968312
404.855705	2621.921759
405.237282	2624.981740
405.618797	2623.368571
406.000250	2627.305712
406.381642	2624.301184
406.762972	2622.342696
407.144240	2622.524177
407.525447	2623.396297
407.906593	2624.560803
408.287677	2627.164559
408.668700	2626.683129
409.049661	2628.704632
409.430560	2627.376288
409.811399	2627.903088
410.192176	2632.629170
410.572891	2630.005250
410.953545	2628.112296
411.334138	2630.612709
411.714669	2632.309057
412.095139	2632.495580
412.475547	2633.481125
412.855894	2633.581948
413.236180	2632.540950
413.616405	2636.591517
413.996568	2633.889459
414.376670	2634.436424
414.756711	2636.271404
415.136691	2633.839047
415.516609	2637.241826
415.896466	2637.902217
416.276262	2638.378606
416.655997	2639.273411
417.035670	2638.509676
417.415283	2644.029740
417.794834	2642.678710
418.174324	2641.171405
418.553753	2642.086375
418.933121	2644.430511
419.312428	2643.669297
419.691674	2645.920172
420.070859	2647.069555
420.449983	2646.593166
420.829045	2646.252888
421.208047	2647.379586
421.586988	2652.025010
421.965867	2648.763383
422.344686	2651.077273
422.723444	2654.641368
423.102141	2650.948723
423.480777	2654.500216
423.859352	2655.052222
424.237866	2655.188334
424.616319	2658.525577
424.994712	2664.017915
425.373044	2666.157884
425.751314	2665.595796
426.129524	2668.542350
426.507673	2678.359997
426.885762	2682.435770
427.263789	2694.368181
427.641756	2699.384129
428.019662	2708.790922
428.397508	2724.468911
428.775292	2734.679768
429.153016	2751.340782
429.530679	2765.750920
429.908282	2787.770680
430.285824	2800.164357
430.663305	2841.776561
431.040726	2854.412213
431.418086	2886.441184
431.795385	2929.172525
432.172624	2972.286993
432.549802	3010.355266
432.926920	3060.502144
433.303977	3091.328800
433.680974	3165.532064
434.057910	3227.606312
434.434786	3293.907567
434.811601	3342.438755
435.188355	3462.488793
435.565050	3506.440093
435.941683	3573.525247
436.318257	3719.196950
436.694770	3812.271773
437.071222	3912.653749
437.447614	3980.548009
437.823946	4050.385634
438.200218	4172.510106
438.576429	4221.497519
438.952580	4370.529150
439.328670	4490.158251
439.704700	4539.717835
440.080670	4637.062516
440.456580	4885.379672
440.832429	4939.587199
441.208218	4928.224438
441.583947	5127.055108
441.959616	5288.377072
442.335224	5344.570814
442.710773	5510.434858
443.086261	5710.248552
443.461689	5558.073762
443.837057	5911.506537
444.212365	6160.637840
444.587612	6134.375949
444.962800	6370.022165
445.337927	6391.764661
445.712995	6307.438760
446.088002	6958.365148
446.462949	6912.314207
446.837837	7031.383741
447.212664	7174.802047
447.587431	7564.311840
447.962139	8090.187365
448.336786	9440.334394
448.711374	9992.867541
449.085901	8917.251668
449.460369	8813.267788
449.834776	8630.175601
450.209124	9292.321076
450.583412	9671.889714
450.957640	10450.125400
451.331808	10072.399304
451.705917	9510.151854
452.079965	9151.345209
452.453954	9924.285163
452.827883	9770.000650
453.201752	10095.946534
453.575562	9841.975724
453.949311	10270.292319
454.323001	10342.501807
454.696632	10621.277615
455.070202	10944.778539
455.443713	11244.772563
455.817164	11720.410470
456.190556	11829.440545
456.563888	12219.618291
456.937160	12478.191675
457.310373	12006.392607
457.683526	12162.244919
458.056619	11874.067360
458.429653	12051.616798
458.802628	11676.081084
459.175542	12042.003318
459.548398	12975.017551
459.921194	13343.362060
460.293930	13443.726392
460.666607	14323.989991
461.039224	15296.002591
461.411782	16001.837226
461.784280	16026.022161
462.156719	16136.257073
462.529099	15919.159782
462.901419	14968.763650
463.273680	14819.883254
463.645882	14720.718717
464.018024	14510.573177
464.390106	14756.586526
464.762130	15496.171686
465.134094	16225.881226
465.505999	18122.925392
465.877845	21282.425715
466.249631	24114.089721
466.621358	23927.932513
466.993026	22563.387948
467.364634	22064.923697
467.736184	20672.146151
468.107674	19897.086391
468.479105	20042.276663
468.850477	19535.640702
469.221790	19135.146234
469.593043	18478.074680
469.964238	17940.233976
470.335373	17632.000186
470.706449	18041.848514
471.077467	17577.023883
471.448425	19390.715090
471.819324	23341.215302
472.190164	25455.815503
472.560945	22019.669259
472.931667	19613.624831
473.302330	18967.623651
473.672934	18452.395043
474.043479	18845.428602
474.413965	18652.070105
474.784393	18306.867013
475.154761	18952.096897
475.525070	18984.761053
475.895321	18629.984810
476.265513	19200.555205
476.635645	19776.577608
477.005719	19577.691486
477.375734	19771.027298
477.745691	20248.326265
478.115588	20756.913153
478.485427	21263.203795
478.855207	22305.331283
479.224928	24038.253123
479.594591	26249.794713
479.964194	26359.704470
480.333739	26563.173001
480.703226	26119.753108
481.072653	25802.717463
481.442022	26342.383065
481.811333	27239.595024
482.180584	27187.860182
482.549777	26247.606852
482.918912	25876.797219
483.287988	25985.033313
483.657005	25691.691091
484.025964	25394.293261
484.394864	25365.140268
484.763706	25049.259048
485.132489	24477.332582
485.501213	24645.399610
485.869879	24562.505397
486.238487	24346.857438
486.607036	24502.573640
486.975527	24183.929867
487.343959	24524.822772
487.712333	24482.451874
488.080648	24146.774042
488.448905	24609.599856
488.817104	24364.128432
489.185244	25013.963409
489.553326	24998.776933
489.921350	25969.539327
490.289315	28212.026039
490.657222	30023.834375
491.025070	30519.773008
491.392861	30326.585911
491.760593	29487.702622
492.128267	28593.253216
492.495883	27564.210043
492.863440	26684.962236
493.230939	25805.248123
493.598380	25645.519163
493.965763	25255.898465
494.333088	24811.394724
494.700354	24732.591407
495.067563	24622.865653
495.434713	24372.489185
495.801805	24510.460525
496.168839	24346.996070
496.535815	24163.384644
496.902733	24373.285688
497.269593	24045.885430
497.636395	24230.331167
498.003139	24214.506985
498.369825	23964.702689
498.736453	24156.942050
499.103023	24035.770355
499.469535	24059.373038
499.835989	24255.204220
500.202385	24297.260046
500.568723	23797.210352
500.935003	24068.157248
501.301226	23652.388085
501.667390	24480.994981
502.033497	24730.990841
502.399546	24448.436688
502.765537	24026.461865
503.131470	24414.146760
503.497345	24552.891917
503.863163	23772.990129
504.228923	24391.973245
504.594625	24573.414454
504.960269	24092.410239
505.325856	24584.041206
505.691385	23996.572863
506.056856	24610.900474
506.422270	24577.192799
506.787625	24165.214583
507.152924	24560.055396
507.518164	24590.040179
507.883347	24405.541510
508.248472	24099.583801
508.613540	24862.307857
508.978550	24649.946731
509.343503	24637.522808
509.708398	24911.383490
510.073236	25076.289715
510.438016	25272.085610
510.802738	24944.166114
511.167403	25203.674631
511.532010	24890.739965
511.896561	25672.461610
512.261053	25644.538659
512.625488	25486.677447
512.989866	25373.783327
513.354186	25244.883543
513.718449	25323.835574
514.082655	25707.911004
514.446803	25451.008763
514.810894	25904.115232
515.174927	25389.292437
515.538904	25409.081486
515.902822	25907.845686
516.266684	25652.685163
516.630488	25572.931589
516.994235	25551.804113
517.357925	25842.182136
517.721558	26027.925970
518.085133	26115.911749
518.448651	26044.891974
518.812112	25766.693378
519.175516	25967.124614
519.538863	26122.616484
519.902152	25886.723251
520.265385	26191.082915
520.628560	25981.297818
520.991678	25998.223492
521.354739	26063.735807
521.717743	26131.725849
522.080690	25909.579843
522.443580	26261.318791
522.806413	26251.175989
523.169189	26337.530954
523.531908	26394.034727
523.894569	25985.847459
524.257174	26064.103811
524.619722	26262.074964
524.982213	25941.253412
525.344647	26028.041917
525.707025	26141.210780
526.069345	26150.126060
526.431608	26093.531547
526.793815	26271.701047
527.155964	25727.818520
527.518057	25903.464923
527.880093	25820.653889
528.242072	26060.088532
528.603995	25763.935867
528.965860	25566.680558
529.327669	25603.428049
529.689421	25598.147440
530.051117	25430.977738
530.412755	25606.460303
530.774337	25409.799850
531.135862	25282.578771
531.497331	25492.860422
531.858743	25029.296079
532.220098	25511.222825
532.581396	25192.740369
532.942638	25130.676203
533.303824	25232.636060
533.664953	25246.751291
534.026025	24911.191926
534.387040	25148.103472
534.747999	25205.880136
535.108902	25380.873710
535.469748	24867.170050
535.830537	25056.843464
536.191270	25166.077706
536.551947	25055.704163
536.912567	24709.618869
537.273131	25035.133735
537.633638	24745.259827
537.994089	24955.712877
538.354483	24496.894780
538.714821	24993.667724
539.075103	25035.380751
539.435328	24829.953732
539.795497	24394.145982
540.155609	24781.241063
540.515665	25077.552524
540.875665	24320.403984
541.235609	24605.103147
541.595496	24573.074176
541.955328	24928.830924
542.315102	24846.418141
542.674821	24388.479725
543.034483	24269.074955
543.394090	24443.309835
543.753640	24238.886005
544.113134	24867.812798
544.472571	24462.516631
544.831953	24750.638738
545.191278	24373.943558
545.550548	24288.440548
545.909761	24505.573126
546.268918	24736.155503
546.628019	24693.653535
546.987064	24396.832917
547.346053	24164.055118
547.704986	24281.934939
548.063863	24433.156951
548.422684	24437.046201
548.781449	23986.455268
549.140158	24390.312185
549.498811	23957.201452
549.857408	23706.272978
550.215949	24142.907477
550.574434	23812.522857
550.932864	24039.089955
551.291237	24182.412479
551.649555	24045.565317
552.007817	24108.390697
552.366022	23967.308965
552.724173	24029.688203
553.082267	23949.909423
553.440305	24426.109418
553.798288	23693.594476
554.156215	24215.530340
554.514086	24307.400327
554.871902	23676.507485
555.229661	23958.219765
555.587365	23816.979237
555.945014	23670.861393
556.302606	23928.786988
556.660143	23861.810218
557.017625	24121.190187
557.375050	23660.204394
557.732421	24054.576380
558.089735	23862.427760
558.446994	23926.508387
558.804197	23949.397746
559.161345	23911.405090
559.518437	23646.898268
559.875474	23853.126831
560.232455	24042.268403
560.589381	23851.682540
560.946251	23836.145704
561.303065	24152.752851
561.659825	24247.440843
562.016528	23849.116593
562.373177	23579.921498
562.729770	23933.071969
563.086307	23814.592251
563.442789	23981.220029
563.799216	23807.176713
564.155587	23815.250121
564.511904	23791.317243
564.868164	23728.562440
565.224370	23711.868659
565.580520	23618.347693
565.936615	23752.192848
566.292654	23435.588222
566.648638	23731.483788
567.004567	23560.717222
567.360441	23516.229040
567.716260	23234.138673
568.072023	23563.779723
568.427732	23317.970541
568.783385	23110.547225
569.138982	23344.648328
569.494525	23377.269634
569.850013	23130.865596
570.205445	23221.772723
570.560823	23006.588551
570.916145	22781.243933
571.271412	22958.485861
571.626625	22706.665103
571.981782	22831.267302
572.336884	22643.499445
572.691931	22771.131378
573.046923	22508.457016
573.401860	22382.488663
573.756743	22397.123133
574.111570	22300.542187
574.466342	22234.651786
574.821059	22325.553872
575.175722	22036.221888
575.530330	22007.232733
575.884882	22041.005943
576.239380	21949.551850
576.593823	21839.954645
576.948211	21809.284265
577.302544	21664.005773
577.656823	21533.991895
578.011047	21635.737503
578.365216	21498.575268
578.719330	21388.413454
579.073389	21274.770723
579.427394	21429.783683
579.781344	21189.098834
580.135239	21080.774520
580.489080	21042.118952
580.842866	20830.077939
581.196597	21012.431597
581.550273	20984.362453
581.903895	20877.658870
582.257463	21196.826923
582.610975	20710.486647
582.964434	21026.433402
583.317837	20737.227447
583.671186	20824.699028
584.024481	20803.004422
584.377721	20566.352496
584.730906	20621.454828
585.084037	20648.041874
585.437113	20560.991229
585.790135	20752.323182
586.143103	20224.186700
586.496016	20236.411498
586.848874	20485.368880
587.201679	20411.853734
587.554428	20087.140412
587.907124	20413.403889
588.259765	20198.698626
588.612352	20276.196284
588.964884	19839.052628
589.317362	20015.145173
589.669786	20060.810465
590.022155	20107.433577
590.374470	20285.139291
590.726731	20094.447564
591.078937	19850.846407
591.431090	19947.548341
591.783188	19699.064827
592.135232	19672.991979
592.487222	19765.406412
592.839157	19801.886721
593.191038	19677.435756
593.542866	19556.324556
593.894639	19279.560168
594.246358	19502.318675
594.598022	19409.717720
594.949633	19158.915275
595.301190	19112.287122
595.652692	19281.367422
596.004141	19523.032776
596.355535	18851.447740
596.706876	18877.369353
597.058162	18760.522968
597.409395	18990.860849
597.760573	19063.279545
598.111698	18850.613429
598.462768	18780.070042
598.813785	18738.707375
599.164748	18563.434018
599.515657	18603.294421
599.866511	18402.341426
600.217312	18754.609695
600.568060	18277.517416
600.918753	18586.101566
601.269392	18488.472060
601.619978	18264.707844
601.970510	18477.847828
602.320988	18420.824817
602.671412	18634.156365
603.021783	18543.236635
603.372100	18263.966794
603.722363	18411.649917
604.072572	18337.615531
604.422728	18483.491400
604.772830	18246.184124
605.122878	18195.021453
605.472872	18185.334876
605.822813	18172.895829
606.172701	18149.283065
606.522534	18346.056943
606.872314	18370.564513
607.222041	18195.215538
607.571714	18422.125434
607.921333	18240.785048
608.270899	18311.923291
608.620411	18498.186363
608.969870	18264.433101
609.319276	18278.155122
609.668627	18293.923851
610.017926	18436.079348
610.367171	18553.944046
610.716362	18601.227548
611.065500	18413.457170
611.414585	18544.943065
611.763616	18530.149799
612.112594	18471.390110
612.461518	18453.728428
612.810389	18633.148134
613.159207	18495.995982
613.507971	18393.708450
613.856682	18688.459674
614.205340	18608.824567
614.553945	18761.727804
614.902496	18501.027054
615.250994	18736.736284
615.599439	18676.915432
615.947830	18659.326846
616.296169	18708.770483
616.644454	18672.741357
616.992686	18646.640782
617.340864	18857.348410
617.688990	18613.321276
618.037063	18796.282393
618.385082	18648.165732
618.733048	18911.593746
619.080961	18790.419531
619.428821	18832.150203
619.776628	18713.922542
620.124382	18638.048136
620.472083	18668.857147
620.819731	18692.013688
621.167326	18393.506804
621.514868	18429.283873
621.862357	18199.273667
622.209793	18215.901913
622.557176	18039.126291
622.904506	17874.880458
623.251783	17769.714427
623.599007	17541.261937
623.946179	17484.911920
624.293297	17434.704548
624.640363	17189.480140
624.987376	17205.337089
625.334336	16995.191550
625.681243	16837.363105
626.028097	16852.471443
626.374899	16777.980834
626.721647	16645.002757
627.068343	16475.733414
627.414987	16417.498004
627.761577	16377.556943
628.108115	16429.059891
628.454600	16143.085315
628.801032	16249.277221
629.147412	16173.904409
629.493739	16195.611618
629.840014	16005.154305
630.186236	16101.120230
630.532405	15870.716814
630.878521	16067.573872
631.224585	15961.760053
631.570597	15778.196518
631.916556	15811.453010
632.262462	15799.384487
632.608316	15703.337904
632.954117	15651.764379
633.299866	15641.291382
633.645562	15563.806327
633.991206	15322.519060
634.336797	15198.100862
634.682336	15153.937834
635.027823	15054.513677
635.373257	14936.780050
635.718639	14831.122506
636.063968	14781.058808
636.409245	14533.049162
636.754470	14556.087235
637.099642	14405.487805
637.444762	14175.442311
637.789829	14222.476276
638.134845	14062.401998
638.479808	14093.725207
638.824719	14034.262277
639.169577	13890.894382
639.514383	13934.102112
639.859137	13758.579217
640.203839	13844.230941
640.548489	13674.931351
640.893086	13662.890555
641.237632	13539.467986
641.582125	13683.050129
641.926566	13517.765818
642.270955	13530.731666
642.615292	13487.952434
642.959576	13500.409126
643.303809	13530.673693
643.647990	13463.951501
643.992118	13528.324515
644.336195	13301.613744
644.680219	13507.539838
645.024192	13432.051079
645.368112	13674.948995
645.711981	13723.149988
646.055797	13900.074323
646.399562	13873.499881
646.743274	14147.884843
647.086935	14420.412141
647.430544	14382.827818
647.774101	14415.570112
648.117606	14562.103852
648.461059	14526.999777
648.804460	14524.164128
649.147810	14248.143311
649.491108	14151.779135
649.834354	14165.682637
650.177548	13858.187376
650.520690	13671.054704
650.863781	13585.725613
651.206820	13635.070948
651.549807	13467.001399
651.892742	13273.574847
652.235626	13207.901215
652.578458	13214.419427
652.921238	12898.893607
653.263967	13102.039505
653.606644	12926.967793
653.949269	12901.678845
654.291843	12705.877909
654.634365	12856.363913
654.976836	12710.311604
655.319255	12726.413049
655.661622	12671.293073
656.003938	12600.903442
656.346203	12522.757996
656.688416	12594.644849
657.030577	12555.187738
657.372687	12474.002476
657.714746	12446.046758
658.056753	12634.366621
658.398708	12451.602109
658.740612	12462.236423
659.082465	12556.821072
659.424266	12518.785566
659.766016	12550.363354
660.107715	12461.460085
660.449362	12529.886187
660.790958	12494.557781
661.132503	12432.176023
661.473996	12499.760252
661.815438	12516.355730
662.156829	12534.216538
662.498168	12509.431705
662.839456	12512.378260
663.180693	12528.129345
663.521879	12617.524126
663.863013	12596.217689
664.204097	12572.201632
664.545129	12693.602699
664.886110	12658.002071
665.227040	12755.167791
665.567918	12754.136875
665.908746	12779.871965
666.249522	12778.757870
666.590248	12822.071464
666.930922	12943.293570
667.271545	12911.879620
667.612118	13004.621727
667.952639	12902.939133
668.293109	12922.201382
668.633528	12868.891180
668.973896	12854.513810
669.314213	12931.708998
669.654480	12669.737877
669.994695	12733.004358
670.334859	12755.681988
670.674973	12706.346736
671.015035	12739.711613
671.355047	12685.030217
671.695008	12653.848160
672.034918	12666.940037
672.374777	12705.305738
672.714585	12619.210392
673.054342	12652.479487
673.394049	12605.138011
673.733705	12701.144266
674.073310	12607.295625
674.412864	12630.195066
674.752368	12491.722132
675.091820	12511.039833
675.431223	12499.546003
675.770574	12363.250847
676.109875	12288.732511
676.449125	12246.041499
676.788324	12190.261132
677.127473	12028.876153
677.466571	12012.381498
677.805619	11912.846436
678.144616	11833.302069
678.483562	11806.435240
678.822458	11675.004797
679.161303	11654.114256
679.500098	11644.084880
679.838842	11588.775861
680.177535	11616.623195
680.516179	11682.276662
680.854771	11627.809515
681.193314	11844.826147
681.531805	11997.850372
681.870247	12417.120617
682.208638	12823.800580
682.546978	13144.959888
682.885268	13192.903782
683.223508	12884.677554
683.561697	12730.695509
683.899836	12631.362093
684.237925	12426.114035
684.575963	12340.295953
684.913951	12265.926331
685.251889	12214.030172
685.589776	12309.033237
685.927614	12232.223697
686.265401	12202.985004
686.603137	12250.669278
686.940824	12402.690314
687.278460	12525.462575
687.616046	12566.759707
687.953582	12740.109864
688.291068	12667.492043
688.628504	12897.862692
688.965889	12907.861820
689.303224	12874.428888
689.640510	12771.760749
689.977745	12460.910600
690.314930	12225.760937
690.652065	12136.693831
690.989150	11852.208917
691.326185	11634.652881
691.663170	11417.104408
692.000105	11174.229177
692.336990	11067.079452
692.673825	10813.862294
693.010610	10691.790754
693.347345	10488.022274
693.684030	10282.658270
694.020665	10231.341844
694.357251	10032.783397
694.693786	9972.188728
695.030272	9813.795674
695.366707	9690.887302
695.703093	9624.923804
696.039429	9619.524728
696.375716	9545.034118
696.711952	9416.600642
697.048139	9457.136560
697.384276	9411.312471
697.720363	9423.567516
698.056400	9359.549904
698.392388	9312.208428
698.728326	9273.326008
699.064214	9212.824600
699.400053	9258.537783
699.735842	9072.307478
700.071581	9029.661837
700.407270	8957.293553
700.742910	8882.744970
701.078501	8783.900546
701.414042	8664.261362
701.749533	8600.084953
702.084974	8458.088252
702.420366	8576.104184
702.755709	8455.280330
703.091002	8317.949217
703.426246	8350.404165
703.761440	8297.293089
704.096584	8249.891119
704.431679	8191.050771
704.766725	8173.111825
705.101721	8120.890513
705.436668	8169.880446
705.771565	8060.436996
706.106413	8140.677042
706.441212	8189.130092
706.775961	8141.894480
707.110661	8181.623814
707.445311	8326.410793
707.779913	8219.389618
708.114465	8352.047581
708.448967	8385.440184
708.783421	8530.998460
709.117825	8709.251140
709.452180	8752.534487
709.786485	8834.644801
710.120742	9118.739026
710.454949	9121.690621
710.789107	9218.624448
711.123216	9438.091081
711.457275	9595.980019
711.791286	9757.433053
712.125247	9756.056818
712.459159	9741.785312
712.793023	9989.215225
713.126837	9561.183455
713.460602	9710.179798
713.794318	9545.497904
714.127985	9578.124252
714.461602	9248.241227
714.795171	9199.455460
715.128691	8958.137946
715.462162	8706.559164
715.795584	8651.706369
716.128957	8505.596086
716.462281	8332.818100
716.795556	8383.385914
717.128782	8174.364552
717.461960	7909.625837
717.795088	7980.738874
718.128167	7890.741675
718.461198	7717.073925
718.794180	7665.293713
719.127113	7657.442116
719.459997	7499.684248
719.792833	7271.410719
720.125619	7334.213414
720.458357	7194.833072
720.791046	7181.085845
721.123686	7180.755650
721.456278	7017.833119
721.788821	7035.083948
722.121315	6930.994203
722.453761	6995.604151
722.786158	6940.524504
723.118506	6947.640093
723.450805	6917.504075
723.783056	6985.027810
724.115259	6894.604634
724.447412	6891.310240
724.779518	6939.312107
725.111574	6937.701458
725.443582	7021.855960
725.775542	7000.816704
726.107453	7193.318205
726.439315	7099.537620
726.771129	7167.426839
727.102895	7338.117788
727.434612	7444.584436
727.766281	7474.581822
728.097901	7558.764050
728.429473	7548.028913
728.760996	7523.397835
729.092471	7500.531162
729.423897	7446.598377
729.755276	7459.271838
730.086606	7388.438585
730.417887	7484.560786
730.749120	7682.680653
731.080305	7874.393213
731.411442	8001.614292
731.742530	7994.342428
732.073570	8103.682534
732.404562	8188.930966
732.735506	8038.008902
733.066401	8180.837394
733.397249	8105.414170
733.728048	7861.576079
734.058798	7533.641460
734.389501	7308.138046
734.720156	7128.302444
735.050762	6893.603965
735.381320	6805.860162
735.711831	6749.515185
736.042293	6640.648947
736.372707	6663.555950
736.703073	6523.779878
737.033391	6558.347069
737.363661	6573.909111
737.693883	6605.350788
738.024056	6685.008580
738.354182	6723.767492
738.684260	6761.298882
739.014290	6875.929679
739.344272	6987.228274
739.674207	7017.036617
740.004093	7087.106135
740.333931	7103.283197
740.663722	7112.962213
740.993464	7184.891916
741.323159	7176.095103
741.652806	6925.343069
741.982405	6934.351611
742.311956	6997.028277
742.641460	6828.426887
742.970915	6637.384800
743.300323	6630.372555
743.629683	6579.141829
743.958996	6446.831705
744.288260	6355.528847
744.617477	6306.150745
744.946647	6310.612167
745.275768	6137.970291
745.604842	6095.158292
745.933869	6082.474749
746.262847	6037.575713
746.591778	6026.054155
746.920662	5985.104863
747.249498	5975.045240
747.578286	6022.578280
747.907027	6095.145689
748.235720	6158.452499
748.564365	6132.828314
748.892963	6156.592314
749.221514	6309.603936
749.550017	6141.824253
749.878473	6020.140882
750.206881	6070.131484
750.535242	6016.801118
750.863555	5945.551970
751.191821	5963.183405
751.520039	5968.942923
751.848210	5874.499427
752.176334	5898.676801
752.504411	5942.161794
752.832440	5870.685794
753.160421	5805.503675
753.488356	5850.138051
753.816243	5877.728286
754.144082	5728.338733
754.471875	5701.474424
754.799620	5744.155353
755.127318	5758.764617
755.454969	5706.606318
755.782572	5674.317728
756.110129	5723.116097
756.437638	5708.267379
756.765100	5641.396473
757.092515	5646.109952
757.419882	5691.334143
757.747203	5672.475186
758.074477	5742.519498
758.401703	5724.361262
758.728882	5672.253376
759.056014	5730.357715
759.383099	5861.868816
759.710138	5874.741402
760.037129	5855.700964
760.364073	5863.373600
760.690970	5943.648934
761.017820	5923.512045
761.344623	5880.732813
761.671379	5982.135623
761.998088	6100.595177
762.324751	6348.952662
762.651366	6945.021213
762.977935	8260.603571
763.304456	9893.231656
763.630931	10795.462083
763.957359	10401.460622
764.283740	9457.101272
764.610074	8623.337275
764.936362	7624.997250
765.262602	7021.800507
765.588796	6487.271841
765.914943	6149.058309
766.241044	5987.345656
766.567097	5787.153875
766.893104	5523.506570
767.219064	5347.187173
767.544978	5283.882883
767.870845	5207.562335
768.196665	5109.131285
768.522438	5030.025499
768.848165	4993.809850
769.173846	4928.773924
769.499479	4887.456627
769.825066	4832.066949
770.150607	4775.192652
770.476101	4749.800360
770.801548	4743.294751
771.126949	4673.487373
771.452303	4614.112663
771.777611	4572.480294
772.102872	4590.739353
772.428087	4555.695772
772.753256	4512.329246
773.078378	4468.030107
773.403453	4399.072163
773.728482	4380.679513
774.053465	4333.098583
774.378401	4329.980629
774.703291	4327.641534
775.028135	4254.320472
775.352932	4206.119479
775.677683	4197.491544
776.002388	4216.045511
776.327046	4224.804516
776.651658	4146.767454
776.976224	4089.401644
777.300743	4092.194443
777.625216	4114.078092
777.949643	4111.154223
778.274024	4059.994073
778.598359	4015.329450
778.922647	4042.087895
779.246889	4034.256462
779.571086	4028.184392
779.895236	4011.165457
780.219339	4003.187831
780.543397	3993.586953
780.867409	4048.359090
781.191374	4059.333682
781.515294	3998.706245
781.839167	3986.302486
782.162995	4010.560518
782.486776	3997.831605
782.810511	4005.789066
783.134201	4002.653469
783.457844	3959.959937
783.781441	3903.229312
784.104993	3906.717790
784.428498	3927.257972
784.751958	3922.544493
785.075372	3904.182090
785.398739	3864.329248
785.722061	3876.337277
786.045337	3922.660439
786.368568	3950.825366
786.691752	3863.404197
787.014891	3911.552257
787.337983	4042.385323
787.661030	4200.279302
787.984031	4361.979353
788.306987	4538.039131
788.629897	4617.654073
788.952760	4575.210078
789.275579	4506.705839
789.598351	4441.803504
789.921078	4300.505003
790.243759	4101.515537
790.566395	4080.761106
790.888984	4071.510589
791.211529	3972.008294
791.534027	3908.008326
791.856480	3897.489958
792.178888	3833.903364
792.501249	3791.769400
792.823566	3796.170328
793.145836	3829.187365
793.468062	3776.529992
793.790241	3728.737333
794.112375	3757.915532
794.434464	3824.413392
794.756507	3850.443390
795.078505	3829.618383
795.400457	3859.903115
795.722364	3998.988550
796.044226	4103.216926
796.366042	4179.199718
796.687812	4156.118795
797.009538	4162.805885
797.331218	4124.498157
797.652852	4095.589660
797.974442	4071.946649
798.295986	4071.618974
798.617484	3993.216429
798.938938	3906.899272
799.260346	3948.723205
799.581709	3940.554015
799.903026	3871.820403
800.224299	3830.699711
800.545526	3826.800378
800.866708	3786.700520
801.187845	3726.511664
801.508936	3761.439298
801.829983	3756.700614
802.150984	3680.715302
802.471940	3671.527799
802.792851	3680.090199
803.113717	3678.736649
803.434538	3684.816280
803.755314	3622.837814
804.076045	3600.969289
804.396731	3620.435705
804.717372	3644.471926
805.037967	3631.296871
805.358518	3622.747074
805.679024	3647.413439
805.999485	3659.887775
806.319901	3664.684432
806.640272	3676.571473
806.960598	3693.403886
807.280879	3672.631812
807.601115	3679.422246
807.921306	3696.274823
808.241453	3736.863673
808.561554	3710.236299
808.881611	3648.514932
809.201623	3682.837628
809.521590	3695.183413
809.841513	3666.123682
810.161390	3698.964279
810.481223	3676.034590
810.801011	3621.882516
811.120755	3612.876494
811.440453	3649.316475
811.760107	3650.579284
812.079716	3609.718212
812.399281	3575.032553
812.718801	3602.199331
813.038276	3572.017943
813.357707	3569.787232
813.677093	3588.605859
813.996434	3533.982437
814.315731	3542.345711
814.634983	3550.492216
814.954191	3563.100141
815.273354	3593.412599
815.592473	3586.420519
815.911547	3596.459977
816.230577	3636.073364
816.549562	3685.869882
816.868502	3729.087693
817.187399	3751.288935
817.506250	3749.385899
817.825058	3719.207032
818.143821	3813.542144
818.462539	3917.399995
818.781213	3960.973209
819.099843	4016.234337
819.418429	4262.282974
819.736970	4509.947301
820.055466	4753.755145
820.373919	5118.674189
820.692327	5533.601480
821.010691	5974.064736
821.329011	7360.601334
821.647286	10105.176887
821.965517	14673.876315
822.283704	18708.775524
822.601847	20859.987105
822.919945	19057.847702
823.237999	16469.129502
823.556010	13973.798678
823.873976	11884.358875
824.191897	9784.688052
824.509775	8430.329139
824.827609	7307.026471
825.145398	6756.290496
825.463144	6640.991746
825.780845	6755.078098
826.098502	6948.371060
826.416116	7822.900347
826.733685	9146.606524
827.051210	10264.217729
827.368692	10306.820520
827.686129	9049.720588
828.003522	7529.449741
828.320872	6515.005749
828.638177	5810.202030
828.955439	5249.051031
829.272656	4747.967900
829.589830	4464.776042
829.906960	4286.515801
830.224046	4104.061319
830.541088	3976.343687
830.858086	3932.152932
831.175041	3853.294162
831.491952	3836.842357
831.808819	3846.491125
832.125642	3920.822939
832.442421	4070.373809
832.759157	4346.510572
833.075849	4898.688318
833.392497	5766.832983
833.709101	6543.195882
834.025662	6881.656430
834.342179	6513.657241
834.658653	5850.183421
834.975083	5200.441705
835.291469	4622.158344
835.607811	4211.634501
835.924110	4068.506061
836.240366	3874.950959
836.556578	3668.954290
836.872746	3554.988925
837.188871	3516.482071
837.504952	3449.928758
837.820990	3369.421531
838.136984	3323.294973
838.452935	3349.274560
838.768842	3344.671986
839.084706	3365.910368
839.400526	3524.366436
839.716303	3864.490565
840.032037	4389.839290
840.347727	4655.838293
840.663373	4375.109038
840.978977	3992.987056
841.294537	3684.213862
841.610054	3457.359419
841.925527	3345.718026
842.240957	3279.893159
842.556344	3225.352916
842.871687	3163.984430
843.186987	3114.876029
843.502244	3078.930082
843.817458	3044.463713
844.132629	3013.029598
844.447756	3023.489992
844.762840	3008.396778
845.077881	2975.692292
845.392879	2957.425671
845.707833	2953.831329
846.022745	2952.218159
846.337613	2952.833180
846.652438	2939.622837
846.967221	2940.167281
847.281960	2925.401742
847.596656	2919.700197
847.911309	2920.963006
848.225919	2913.824732
848.540485	2907.356931
848.855009	2908.891963
849.169490	2897.488873
849.483928	2889.864128
849.798323	2888.611401
850.112675	2888.525701
850.426984	2898.217319
850.741251	2893.617267
851.055474	2883.902963
851.369654	2878.854248
851.683792	2884.434805
851.997887	2891.900754
852.311938	2892.699777
852.625947	2882.884650
852.939914	2884.288611
853.253837	2892.079715
853.567718	2877.699823
853.881555	2876.626058
854.195350	2889.586864
854.509103	2884.139897
854.822812	2876.762169
855.136479	2876.726881
855.450103	2877.694782
855.763685	2870.092722
856.077224	2867.693133
856.390720	2881.079917
856.704173	2889.639796
857.017584	2882.627551
857.330953	2876.729401
857.644278	2888.576113
857.957561	2899.384347
858.270802	2899.127248
858.584000	2900.158164
858.897155	2886.950341
859.210268	2884.449928
859.523339	2883.229969
859.836367	2884.013868
860.149352	2876.759648
860.462295	2875.819473
860.775195	2880.863147
861.088054	2879.625544
861.400869	2866.573997
861.713642	2863.395549
862.026373	2876.749566
862.339062	2878.627396
862.651708	2883.978580
862.964312	2887.915722
863.276873	2880.361553
863.589392	2889.874210
863.901869	2904.700243
864.214303	2925.099272
864.526696	2940.600820
864.839045	2934.561518
865.151353	2934.778288
865.463619	2934.710232
865.775842	2935.577311
866.088023	2952.676904
866.400162	2959.248048
866.712258	2931.831733
867.024313	2921.356216
867.336325	2929.711928
867.648296	2954.176648
867.960224	2945.180709
868.272110	2930.629418
868.583954	2933.376847
868.895755	2949.238838
869.207515	2934.606888
869.519233	2943.363373
869.830909	2950.138683
870.142542	2960.044551
870.454134	2962.174438
870.765684	2963.333904
871.077191	2963.490179
871.388657	2971.742548
871.700081	2985.242758
872.011463	2995.060405
872.322803	2996.403873
872.634101	2994.326918
872.945357	3014.738549
873.256571	3039.520862
873.567744	3031.205478
873.878874	3021.032430
874.189963	3047.604352
874.501010	3046.538148
874.812015	3036.896941
875.122979	3037.970707
875.433900	3035.591282
875.744780	3042.089330
876.055618	3050.558468
876.366415	3046.732232
876.677169	3053.358829
876.987882	3055.715568
877.298554	3048.534445
877.609183	3067.035479
877.919771	3093.118409
878.230317	3120.701083
878.540822	3171.490708
878.851285	3210.536965
879.161707	3253.207812
879.472087	3355.891074
879.782425	3585.109819
880.092722	4026.147766
880.402977	4556.106626
880.713191	5184.118449
881.023363	6343.977043
881.333494	7627.989175
881.643583	8178.798247
881.953631	7873.773151
882.263637	7244.004486
882.573602	6659.959087
882.883526	6080.811168
883.193408	5506.623745
883.503248	5047.251122
883.813048	4737.893154
884.122806	4436.918626
884.432522	4120.185450
884.742197	3882.961353
885.051831	3687.430119
885.361424	3551.631516
885.670975	3482.948316
885.980485	3394.481107
886.289954	3317.845486
886.599382	3271.668517
886.908768	3232.614698
887.218113	3188.300435
887.527417	3131.292547
887.836680	3083.464600
888.145901	3077.523600
888.455082	3065.114800
888.764221	3015.847603
889.073319	2986.903818
889.382376	2985.124291
889.691392	2988.033037
890.000366	2987.511278
890.309300	2974.651294
890.618193	2990.210815
890.927044	3003.169101
891.235855	3002.186076
891.544625	2988.423726
891.853353	3004.225223
892.162041	3018.131246
892.470687	3060.587844
892.779293	3110.979218
893.087858	3160.064932
893.396381	3229.514388
893.704864	3355.820498
894.013306	3590.468566
894.321707	3899.685381
894.630068	4102.569138
894.938387	4099.584775
895.246665	4051.683731
895.554903	3933.869445
895.863100	3730.297570
896.171256	3559.299111
896.479371	3423.404727
896.787446	3299.452836
897.095480	3197.273689
897.403473	3133.097280
897.711425	3094.315683
898.019336	3087.878130
898.327207	3055.985270
898.635038	3023.505116
898.942827	3009.145389
899.250576	2995.090652
899.558284	2965.753658
899.865952	2944.205245
900.173579	2920.927718
900.481165	2915.871440
900.788711	2903.921385
901.096216	2878.639998
901.403681	2866.468132
901.711105	2874.844010
902.018489	2871.423587
902.325832	2871.600027
902.633135	2881.016902
902.940397	2915.354722
903.247619	2998.536281
903.554800	3191.763708
903.861941	3541.904610
904.169041	3967.113334
904.476101	4269.012914
904.783121	4224.681008
905.090100	3978.143379
905.397039	3701.111810
905.703938	3453.442442
906.010796	3265.102414
906.317614	3153.201402
906.624391	3058.589026
906.931129	2986.074549
907.237826	2927.408121
907.544483	2876.744525
907.851099	2846.701768
908.157675	2823.257882
908.464211	2806.959832
908.770707	2792.524488
909.077163	2780.397992
909.383578	2765.478697
909.689954	2753.914291
909.996289	2749.510843
910.302584	2753.009403
910.608839	2751.345823
910.915054	2745.009092
911.221229	2740.784605
911.527363	2742.682600
911.833458	2748.547982
912.139513	2753.916811
912.445527	2758.103489
912.751502	2765.788728
913.057436	2774.139400
913.363331	2785.837397
913.669186	2810.377734
913.975000	2844.864268
914.280775	2904.188566
914.586510	2975.586428
914.892205	3055.650033
915.197859	3182.419929
915.503475	3378.631719
915.809050	3590.854214
916.114585	3740.553798
916.420081	3760.741098
916.725536	3698.366902
917.030952	3580.663521
917.336328	3451.544448
917.641665	3322.029644
917.946961	3219.865620
918.252218	3148.868530
918.557435	3068.494893
918.862612	3013.919362
919.167750	2962.837350
919.472848	2923.173552
919.777906	2895.626166
920.082925	2869.150026
920.387904	2839.550892
920.692843	2819.938282
920.997743	2810.271870
921.302603	2795.460960
921.607423	2787.188427
921.912204	2774.041097
922.216946	2762.980806
922.521647	2753.326996
922.826310	2744.915831
923.130932	2737.069275
923.435516	2727.717935
923.740059	2722.228118
924.044564	2715.662015
924.349028	2711.823177
924.653454	2704.536189
924.957840	2697.213913
925.262186	2691.048582
925.566493	2687.928107
925.870761	2684.457273
926.174989	2680.351253
926.479178	2674.122907
926.783328	2669.908503
927.087438	2668.055879
927.391509	2667.531599
927.695541	2664.438851
927.999533	2658.870897
928.303486	2658.727224
928.607400	2656.975423
928.911275	2658.618839
929.215110	2655.790752
929.518906	2653.086172
929.822663	2657.020793
930.126381	2653.663385
930.430060	2653.509629
930.733699	2655.309321
931.037299	2656.158756
931.340861	2656.962820
931.644383	2660.864673
931.947866	2657.474497
932.251309	2657.703869
932.554714	2655.984836
932.858080	2656.073056
933.161407	2651.820843
933.464694	2650.961326
933.767943	2646.424288
934.071153	2648.362611
934.374323	2646.262971
934.677455	2648.390338
934.980548	2647.656850
935.283602	2647.243475
935.586617	2644.811118
935.889593	2646.875471
936.192530	2647.581232
936.495428	2648.899494
936.798287	2646.283135
937.101108	2650.684063
937.403890	2653.928045
937.706632	2659.737975
938.009336	2668.696105
938.312002	2677.064421
938.614628	2687.524815
938.917216	2689.127902
939.219765	2693.357430
939.522275	2692.742409
939.824747	2687.928107
940.127179	2686.105730
940.429573	2682.019875
940.731929	2678.455779
941.034246	2675.012671
941.336524	2677.316478
941.638763	2671.146106
941.940964	2671.365396
942.243126	2667.788698
942.545250	2667.234171
942.847335	2664.340548
943.149381	2659.319559
943.451389	2658.636483
943.753359	2654.170021
944.055290	2652.622386
944.357182	2651.294042
944.659036	2649.953095
944.960851	2650.056439
945.262628	2649.196922
945.564367	2648.909577
945.866067	2647.361942
946.167729	2650.346305
946.469352	2650.512663
946.770937	2648.856644
947.072484	2647.810605
947.373992	2647.745070
947.675462	2645.085861
947.976893	2641.085706
948.278286	2639.391878
948.579641	2639.591004
948.880958	2637.340128
949.182236	2641.846920
949.483476	2642.479585
949.784678	2640.420273
950.085841	2641.355407
950.386967	2639.999337
950.688054	2642.887918
950.989103	2641.461272
951.290114	2642.025881
951.591087	2646.031078
951.892021	2647.946716
952.192917	2649.922848
952.493776	2652.158600
952.794596	2651.682211
953.095378	2653.239928
953.396122	2649.355719
953.696828	2650.941162
953.997496	2648.294556
954.298126	2645.607621
954.598718	2643.268525
954.899272	2640.042187
955.199788	2636.069758
955.500266	2638.857516
955.800706	2636.830972
956.101108	2630.368213
956.401472	2630.337966
956.701798	2625.843777
957.002087	2626.189096
957.302337	2625.470732
957.602550	2625.352265
957.902724	2622.090638
958.202861	2622.446039
958.502960	2618.886985
958.803022	2622.375463
959.103045	2618.418157
959.403031	2617.931686
959.702979	2616.832715
960.002889	2616.111830
960.302762	2615.511932
960.602596	2615.194340
960.902393	2615.025461
961.202153	2614.942282
961.501875	2616.646192
961.801559	2613.334154
962.101205	2616.237858
962.400814	2614.347426
962.700385	2611.917590
962.999918	2612.714092
963.299414	2608.562702
963.598873	2609.497836
963.898293	2607.559512
964.197677	2612.061262
964.497022	2613.550923
964.796331	2611.095882
965.095601	2611.773917
965.394835	2611.496653
965.694030	2611.116046
965.993189	2612.767024
966.292309	2612.237703
966.591393	2611.274842
966.890439	2611.867178
967.189447	2612.875409
967.488419	2612.217538
967.787353	2612.265429
968.086249	2612.109153
968.385108	2611.189143
968.683930	2612.623351
968.982714	2609.865840
969.281462	2609.991869
969.580172	2609.946498
969.878844	2609.802826
970.177480	2612.119236
970.476078	2610.488422
970.774639	2611.287445
971.073162	2611.015223
971.371649	2613.170316
971.670098	2613.354318
971.968510	2612.867847
972.266885	2612.220059
972.565223	2611.045470
972.863524	2611.095882
973.161788	2614.380193
973.460014	2612.182250
973.758204	2609.732249
974.056356	2611.887343
974.354471	2610.954729
974.652550	2611.151334
974.950591	2612.094030
975.248595	2612.502363
975.546563	2611.665532
975.844493	2611.184102
976.142386	2610.672425
976.440243	2610.790892
976.738062	2612.885491
977.035845	2610.019595
977.333590	2611.431118
977.631299	2610.127980
977.928971	2606.417691
978.226606	2604.058431
978.524204	2607.136055
978.821765	2605.538009
979.119290	2609.296190
979.416777	2609.197887
979.714228	2609.878443
980.011642	2611.274842
980.309020	2609.550768
980.606360	2607.579677
980.903664	2609.777620
981.200931	2607.700664
981.498162	2611.524380
981.795356	2610.511108
982.092513	2612.850203
982.389633	2613.371962
982.686717	2619.585185
982.983764	2623.454270
983.280775	2626.776391
983.577749	2627.497276
983.874686	2627.887965
984.171587	2625.120372
984.468451	2623.958386
984.765279	2621.110134
985.062070	2620.046450
985.358824	2616.563013
985.655543	2612.784668
985.952224	2612.436828
986.248869	2612.320882
986.545478	2612.656119
986.842050	2606.604213
987.138586	2607.683020
987.435086	2608.882815
987.731549	2605.565736
988.027975	2606.752927
988.324366	2608.784512
988.620719	2608.315685
988.917037	2607.408277
989.213318	2603.120776
989.509563	2607.620006
989.805772	2606.745366
990.101944	2606.092536
990.398080	2604.791919
990.694180	2609.772579
990.990244	2604.819645
991.286271	2608.018257
991.582262	2604.222268
991.878217	2605.958946
992.174136	2606.989862
992.470019	2603.612289
992.765865	2602.775457
993.061676	2603.420725
993.357450	2603.050200
993.653188	2600.761516
993.948890	2606.783174
994.244556	2604.693616
994.540186	2606.258894
994.835780	2607.625047
995.131337	2609.298710
995.426859	2607.879625
995.722345	2606.168154
996.017795	2610.359873
996.313208	2611.496653
996.608586	2608.940788
996.903928	2610.828700
997.199234	2609.707044
997.494504	2608.340891
997.789738	2609.699482
998.084936	2610.899277
998.380099	2610.818618
998.675225	2607.844337
998.970316	2606.523555
999.265371	2606.410129
999.560390	2606.785695
999.855373	2606.395006
1000.150320	2607.433483
1000.445232	2606.160592
1000.740108	2603.408122
1001.034948	2606.430294
1001.329752	2606.039604
1001.624521	2606.944491
1001.919254	2602.352000
1002.213951	2604.870057
1002.508613	2607.609924
1002.803239	2605.069182
1003.097829	2605.293513
1003.392384	2604.703698
1003.686903	2603.841661
1003.981386	2606.044645
1004.275834	2604.300406
1004.570246	2604.786877
1004.864623	2607.070520
1005.158964	2601.825200
1005.453270	2604.199583
1005.747540	2601.797473
1006.041775	2602.183122
1006.335974	2603.677824
1006.630138	2604.013060
1006.924266	2602.798142
1007.218359	2604.388626
1007.512416	2601.053903
1007.806438	2599.591968
1008.100425	2602.457864
1008.394376	2597.313367
1008.688292	2605.565736
1008.982172	2605.127155
1009.276017	2603.196393
1009.569827	2602.737648
1009.863602	2601.686568
1010.157341	2603.420725
1010.451045	2605.868205
1010.744714	2602.697319
1011.038347	2603.420725
1011.331945	2601.374016
1011.625508	2603.816455
1011.919036	2602.180601
1012.212528	2605.429625
1012.505986	2603.287134
1012.799408	2601.353852
1013.092795	2601.706732
1013.386147	2600.771598
1013.679464	2602.541043
1013.972745	2603.266970
1014.265992	2604.224789
1014.559204	2603.715632
1014.852380	2600.771598
1015.145521	2601.401743
1015.438628	2602.437700
1015.731699	2602.551126
1016.024736	2601.608430
1016.317737	2600.638008
1016.610703	2603.466095
1016.903635	2604.315530
1017.196531	2604.928030
1017.489393	2601.754623
1017.782219	2603.692947
1018.075011	2602.697319
1018.367768	2602.909048
1018.660490	2601.868049
1018.953177	2601.868049
1019.245829	2601.868049
