Dividing Wavelength (nm)	Counts (n)	Blue Motor Position (mm): 45.700000	Red Motor Position (mm): 0.000000	
326.493990	2267.518562
326.888308	2267.518562
327.282561	2267.518562
327.676750	2230.072871
328.070874	2227.796790
328.464933	2229.175546
328.858929	2229.639332
329.252859	2234.816597
329.646726	2242.516959
330.040528	2258.459608
330.434265	2271.914448
330.827938	2289.384567
331.221547	2305.972483
331.615091	2321.968064
332.008571	2340.511949
332.401986	2360.240504
332.795338	2377.773638
333.188625	2402.452606
333.581847	2420.825091
333.975006	2437.423090
334.368100	2458.807665
334.761129	2475.561940
335.154095	2491.217243
335.546996	2518.734381
335.939833	2560.298695
336.332606	2576.407702
336.725315	2586.452201
337.117960	2601.558018
337.510540	2609.417177
337.903056	2622.642644
338.295508	2631.338635
338.687896	2639.336425
339.080220	2646.278094
339.472480	2656.400731
339.864676	2658.749909
340.256807	2664.204437
340.648875	2667.329953
341.040879	2669.260715
341.432818	2676.525017
341.824694	2673.248267
342.216506	2675.859585
342.608253	2676.451921
342.999937	2678.365038
343.391557	2676.131807
343.783113	2677.896211
344.174605	2675.509225
344.566033	2674.034687
344.957397	2674.412774
345.348697	2672.497135
345.739934	2671.254491
346.131106	2670.163081
346.522215	2670.163081
346.913260	2666.662000
347.304241	2663.816268
347.695159	2662.311484
348.086012	2660.673109
348.476802	2660.090856
348.867528	2654.051553
349.258191	2652.332520
349.648789	2652.145997
350.039324	2649.479227
350.429796	2652.342602
350.820203	2653.139105
351.210548	2650.878147
351.600828	2648.682725
351.991045	2647.815646
352.381198	2645.731129
352.771288	2650.555513
353.161314	2648.546613
353.551276	2646.172230
353.941175	2645.796664
354.331010	2645.368166
354.720782	2645.617703
355.110490	2647.074597
355.500135	2644.533855
355.889717	2645.763897
356.279235	2647.913949
356.668689	2648.521408
357.058080	2644.271715
357.447408	2645.584936
357.836672	2644.788433
358.225873	2647.200625
358.615010	2647.624082
359.004084	2648.203815
359.393095	2648.234062
359.782043	2651.104999
360.170927	2651.430153
360.559748	2650.794968
360.948505	2652.493837
361.337199	2654.230514
361.725830	2653.557520
362.114398	2653.040802
362.502903	2654.550628
362.891344	2654.911070
363.279722	2655.629435
363.668037	2654.008704
364.056289	2656.504075
364.444478	2656.350320
364.832603	2657.396359
365.220665	2660.267296
365.608665	2658.986843
365.996601	2660.191679
366.384474	2659.241421
366.772284	2662.989519
367.160031	2659.538849
367.547715	2661.948521
367.935336	2662.571103
368.322893	2661.217554
368.710388	2660.625218
369.097820	2661.013387
369.485189	2659.170845
369.872495	2663.102945
370.259738	2663.150836
370.646918	2665.794921
371.034035	2669.066630
371.421090	2666.359531
371.808081	2666.546053
372.195010	2668.779284
372.581875	2673.954029
372.968678	2669.346414
373.355418	2672.945798
373.742096	2676.688855
374.128710	2680.557940
374.515262	2687.239990
374.901751	2691.398942
375.288177	2701.130889
375.674540	2709.567260
376.060841	2721.340875
376.447079	2733.273286
376.833254	2752.843045
377.219367	2767.711929
377.605417	2789.693880
377.991404	2811.910245
378.377329	2842.739421
378.763191	2864.207175
379.148991	2898.255128
379.534727	2937.697116
379.920402	2970.507466
380.306013	2999.501662
380.691563	3054.450239
381.077049	3081.831266
381.462474	3124.575209
381.847835	3182.392203
382.233134	3227.419789
382.618371	3263.708535
383.003545	3329.084739
383.388657	3360.907022
383.773706	3428.105603
384.158693	3467.537508
384.543618	3510.888911
384.928480	3570.583734
385.313280	3632.920122
385.698017	3666.595030
386.082692	3758.346550
386.467305	3769.643776
386.851856	3812.952329
387.236344	3901.233015
387.620770	3933.234260
388.005133	3990.514370
388.389435	4041.510682
388.773674	4058.315369
389.157851	4136.347389
389.541965	4206.298440
389.926018	4172.253008
390.310008	4277.381230
390.693936	4336.597143
391.077802	4373.168194
391.461606	4372.469994
391.845348	4441.269141
392.229027	4503.892875
392.612645	4503.552597
392.996200	4608.091004
393.379694	4670.049306
393.763125	4775.805152
394.146494	4797.242658
394.529801	4860.645250
394.913047	4946.791008
395.296230	4887.421339
395.679351	4999.584492
396.062410	5053.207245
396.445408	5026.960478
396.828343	5087.328295
397.211217	5140.913240
397.594028	5022.211711
397.976778	5141.913909
398.359466	5189.507442
398.742092	5211.638108
399.124656	5133.452332
399.507158	5251.475826
399.889598	5314.649045
400.271977	5436.650009
400.654294	5429.491571
401.036549	5475.456812
401.418742	5395.617538
401.800874	5606.010093
402.182944	5660.535213
402.564952	5764.022540
402.946898	5821.216951
403.328783	5661.165358
403.710606	5685.919944
404.092367	6006.428943
404.474067	6028.133631
404.855705	5927.030770
405.237282	5858.579463
405.618797	6118.619822
406.000250	6092.799032
406.381642	6299.481299
406.762972	6318.367982
407.144240	6374.528956
407.525447	6359.765937
407.906593	6377.924173
408.287677	6539.183123
408.668700	6453.677592
409.049661	6566.115488
409.430560	6595.039108
409.811399	6454.373271
410.192176	6727.755044
410.572891	6744.123671
410.953545	6935.833711
411.334138	6658.971021
411.714669	6836.550706
412.095139	6629.394571
412.475547	6871.894236
412.855894	6942.286388
413.236180	7132.751262
413.616405	6792.841382
413.996568	7006.843404
414.376670	7064.511683
414.756711	6950.337110
415.136691	7056.110600
415.516609	7256.861949
415.896466	7239.144814
416.276262	7441.716020
416.655997	7431.472395
417.035670	7610.146011
417.415283	7951.195192
417.794834	8012.500664
418.174324	7871.292903
418.553753	7793.407077
418.933121	8093.297757
419.312428	8196.558232
419.691674	7972.773851
420.070859	8456.422151
420.449983	8137.775858
420.829045	8499.314808
421.208047	8267.449458
421.586988	8576.638547
421.965867	8605.761293
422.344686	8693.555507
422.723444	8766.609388
423.102141	8106.069520
423.480777	8867.419862
423.859352	8398.572390
424.237866	9011.097788
424.616319	8878.825473
424.994712	9299.426582
425.373044	8843.250050
425.751314	9324.919697
426.129524	9204.552067
426.507673	9293.472980
426.885762	9447.530641
427.263789	9367.736737
427.641756	9307.875556
428.019662	9388.954954
428.397508	9658.588629
428.775292	9320.294439
429.153016	9715.969563
429.530679	9540.837358
429.908282	9556.943844
430.285824	9280.580229
430.663305	9966.540115
431.040726	9421.699769
431.418086	9401.008353
431.795385	9731.357685
432.172624	9828.069701
432.549802	9731.287109
432.926920	9806.579262
433.303977	9674.004478
433.680974	9885.937106
434.057910	9989.038784
434.434786	10055.634947
434.811601	9874.513851
435.188355	10444.494432
435.565050	10184.796871
435.941683	10102.764695
436.318257	10584.610782
436.694770	10753.277707
437.071222	10812.249125
437.447614	10631.128029
437.823946	10561.000538
438.200218	10652.913376
438.576429	10495.702472
438.952580	10741.299926
439.328670	10770.273958
439.704700	10568.915150
440.080670	10552.871677
440.456580	11084.673079
440.832429	10860.760149
441.208218	10470.489141
441.583947	10766.389749
441.959616	10940.460791
442.335224	10759.112843
442.710773	10863.379028
443.086261	11096.502147
443.461689	10356.493529
443.837057	11052.192925
444.212365	11289.212855
444.587612	10924.949161
444.962800	11135.742488
445.337927	10880.007274
445.712995	10553.400999
446.088002	11590.578073
446.462949	11285.051383
446.837837	11247.943449
447.212664	11189.468585
447.587431	11764.825556
447.962139	12523.753623
448.336786	14814.201873
448.711374	15309.356607
449.085901	13119.852422
449.460369	12773.089093
449.834776	12207.315355
450.209124	13142.509888
450.583412	13559.526737
450.957640	14489.952337
451.331808	13544.322617
451.705917	12612.389711
452.079965	11854.699247
452.453954	12774.049433
452.827883	12424.483222
453.201752	12715.118344
453.575562	12262.773089
453.949311	12679.600895
454.323001	12665.281497
454.696632	12900.279925
455.070202	13169.285976
455.443713	13365.898538
455.817164	13863.200803
456.190556	13837.306917
456.563888	14191.783211
456.937160	14335.342670
457.310373	13696.827603
457.683526	13805.149396
458.056619	13326.454030
458.429653	13542.482596
458.802628	12905.240420
459.175542	13313.014314
459.548398	14257.111524
459.921194	14625.904695
460.293930	14700.019739
460.666607	15541.075764
461.039224	16600.960716
461.411782	17324.358732
461.784280	17108.604909
462.156719	17219.664048
462.529099	16891.142135
462.901419	15847.777044
463.273680	15604.148161
463.645882	15511.829510
464.018024	15232.531943
464.390106	15457.304390
464.762130	16173.612022
465.134094	16967.588712
465.505999	19024.092136
465.877845	22301.694091
466.249631	25112.243224
466.621358	24729.768361
466.993026	23305.483603
467.364634	22719.729253
467.736184	21243.906258
468.107674	20455.280754
468.479105	20579.444373
468.850477	20038.125273
469.221790	19630.986565
469.593043	18951.244942
469.964238	18369.352115
470.335373	18008.859204
470.706449	18516.626904
471.077467	18103.448894
471.448425	19970.654470
471.819324	24128.215034
472.190164	25953.808406
472.560945	22278.159464
472.931667	19980.245265
473.302330	19375.193378
473.672934	19001.061624
474.043479	19223.668896
474.413965	19035.553199
474.784393	18628.316188
475.154761	19393.550739
475.525070	19313.121650
475.895321	19044.536535
476.265513	19642.044336
476.635645	20231.660210
477.005719	19997.266721
477.375734	20182.113230
477.745691	20657.128554
478.115588	21201.011080
478.485427	21772.118358
478.855207	22870.061502
479.224928	24653.064685
479.594591	26888.375315
479.964194	26786.092824
480.333739	27039.481381
480.703226	26605.029701
481.072653	26324.615518
481.442022	26949.963091
481.811333	27870.760088
482.180584	27759.401000
482.549777	26803.736862
482.918912	26478.713509
483.287988	26611.661339
483.657005	26232.075057
484.025964	26027.051330
484.394864	25893.871607
484.763706	25547.549379
485.132489	25023.176118
485.501213	25191.270872
485.869879	25108.540497
486.238487	24953.209944
486.607036	25080.975467
486.975527	24835.161244
487.343959	25115.993843
487.712333	25030.805904
488.080648	24688.493914
488.448905	25208.753594
488.817104	24959.218999
489.185244	25676.829770
489.553326	25618.909433
489.921350	26670.287438
490.289315	29016.183339
490.657222	30728.048279
491.025070	31251.274678
491.392861	30973.519704
491.760593	30128.874377
492.128267	29210.234994
492.495883	28143.058013
492.863440	27296.948231
493.230939	26428.213750
493.598380	26250.024085
493.965763	25870.601641
494.333088	25364.913417
494.700354	25343.115467
495.067563	25187.391704
495.434713	24929.937457
495.801805	25120.074657
496.168839	24879.258737
496.535815	24746.663788
496.902733	24985.312011
497.269593	24679.934035
497.636395	24833.905997
498.003139	24759.067547
498.369825	24508.917932
498.736453	24721.047165
499.103023	24591.665952
499.469535	24590.191414
499.835989	24822.175232
500.202385	24841.351781
500.568723	24369.588001
500.935003	24554.570621
501.301226	24249.018725
501.667390	25090.427631
502.033497	25290.211078
502.399546	25025.336252
502.765537	24563.017074
503.131470	24936.175885
503.497345	25092.141623
503.863163	24328.840355
504.228923	24871.129877
504.594625	25118.015345
504.960269	24669.478682
505.325856	25166.077706
505.691385	24556.014912
506.056856	25168.794888
506.422270	25140.405630
506.787625	24669.816439
507.152924	25102.672593
507.518164	25138.585773
507.883347	24960.373423
508.248472	24632.829493
508.613540	25404.534365
508.978550	25208.042791
509.343503	25230.135648
509.708398	25425.901296
510.073236	25595.596617
510.438016	25808.988659
510.802738	25472.728574
511.167403	25712.682456
511.532010	25463.780526
511.896561	26214.161317
512.261053	26177.703692
512.625488	26013.823342
512.989866	25906.532465
513.354186	25727.659724
513.718449	25863.546546
514.082655	26243.289104
514.446803	25955.794621
514.810894	26452.701155
515.174927	25945.702231
515.538904	25975.941592
515.902822	26467.615409
516.266684	26225.753450
516.630488	26133.278524
516.994235	26081.410092
517.357925	26412.697079
517.721558	26566.495121
518.085133	26695.641921
518.448651	26563.566211
518.812112	26338.642529
519.175516	26576.892501
519.538863	26705.885545
519.902152	26502.303588
520.265385	26755.954285
520.628560	26570.643991
520.991678	26543.179784
521.354739	26604.321419
521.717743	26693.060850
522.080690	26468.903424
522.443580	26801.387684
522.806413	26777.187625
523.169189	26886.810036
523.531908	26925.793279
523.894569	26560.869193
524.257174	26666.967838
524.619722	26783.360518
524.982213	26508.521852
525.344647	26542.166512
525.707025	26700.481428
526.069345	26649.926217
526.431608	26632.892158
526.793815	26800.243343
527.155964	26296.715252
527.518057	26463.963093
527.880093	26372.040173
528.242072	26601.654648
528.603995	26321.817678
528.965860	26100.843740
529.327669	26153.324672
529.689421	26135.965459
530.051117	25983.568858
530.412755	26158.368347
530.774337	25935.340139
531.135862	25815.264895
531.497331	26006.501067
531.858743	25605.953667
532.220098	26051.455556
532.581396	25754.135864
532.942638	25648.639637
533.303824	25779.782734
533.664953	25763.121721
534.026025	25442.743791
534.387040	25673.709295
534.747999	25716.526336
535.108902	25879.985749
535.469748	25393.063220
535.830537	25532.403232
536.191270	25683.186665
536.551947	25511.303483
536.912567	25124.891479
537.273131	25582.590440
537.633638	25228.015843
537.994089	25466.459899
538.354483	24950.638955
538.714821	25470.946526
539.075103	25509.322310
539.435328	25274.079386
539.795497	24872.188519
540.155609	25213.923297
540.515665	25533.590424
540.875665	24748.493727
541.235609	25093.795122
541.595496	25014.878379
541.955328	25379.200047
542.315102	25311.983822
542.674821	24822.167670
543.034483	24697.426839
543.394090	24875.659353
543.753640	24684.241701
544.113134	25311.288143
544.472571	24886.956579
544.831953	25204.710588
545.191278	24857.183525
545.550548	24736.019392
545.909761	24926.932929
546.268918	25176.139849
546.628019	25139.707430
546.987064	24830.609082
547.346053	24561.580345
547.704986	24675.525546
548.063863	24828.375851
548.422684	24845.198181
548.781449	24343.268137
549.140158	24770.977273
549.498811	24341.213867
549.857408	24104.178813
550.215949	24490.462267
550.574434	24197.409912
550.932864	24373.588157
551.291237	24592.222999
551.649555	24411.172479
552.007817	24485.121165
552.366022	24331.043339
552.724173	24347.633776
553.082267	24320.898017
553.440305	24806.862727
553.798288	24032.763307
554.156215	24525.679768
554.514086	24657.334542
554.871902	24040.866962
555.229661	24324.285672
555.587365	24167.223483
555.945014	24085.261883
556.302606	24284.521051
556.660143	24279.527788
557.017625	24509.565720
557.375050	24025.791391
557.732421	24410.948148
558.089735	24238.845676
558.446994	24296.163595
558.804197	24329.999820
559.161345	24224.473347
559.518437	24032.609552
559.875474	24179.624721
560.232455	24362.401836
560.589381	24175.795965
560.946251	24197.162896
561.303065	24483.266020
561.659825	24581.437450
562.016528	24188.177039
562.373177	23916.627725
562.729770	24280.205823
563.086307	24113.320945
563.442789	24287.880980
563.799216	24137.586539
564.155587	24134.549244
564.511904	24107.611839
564.868164	24075.376180
565.224370	24033.930334
565.580520	23974.132167
565.936615	24087.600978
566.292654	23796.746566
566.648638	24029.398337
567.004567	23863.415826
567.360441	23801.069356
567.716260	23524.894783
568.072023	23842.603422
568.427732	23628.913952
568.783385	23388.231623
569.138982	23635.628769
569.494525	23668.333254
569.850013	23426.793929
570.205445	23524.022664
570.560823	23349.094625
570.916145	23113.035035
571.271412	23304.641731
571.626625	23051.563205
571.981782	23149.094408
572.336884	22958.248926
572.691931	23107.270475
573.046923	22846.637780
573.401860	22720.127504
573.756743	22744.017532
574.111570	22642.556749
574.466342	22559.990211
574.821059	22640.920895
575.175722	22345.668076
575.530330	22315.867295
575.884882	22318.309734
576.239380	22231.669943
576.593823	22133.012042
576.948211	22107.370213
577.302544	21963.639355
577.656823	21811.855254
578.011047	21924.346081
578.365216	21801.208337
578.719330	21668.106752
579.073389	21555.363867
579.427394	21721.421995
579.781344	21469.533181
580.135239	21358.587467
580.489080	21295.066408
580.842866	21074.107594
581.196597	21296.583796
581.550273	21244.680076
581.903895	21128.836881
582.257463	21436.362389
582.610975	20979.608645
582.964434	21306.920682
583.317837	20974.431380
583.671186	21056.594626
584.024481	21056.352650
584.377721	20808.574898
584.730906	20907.275649
585.084037	20878.621730
585.437113	20809.721760
585.790135	21014.448059
586.143103	20466.489759
586.496016	20486.185547
586.848874	20728.221426
587.201679	20648.369549
587.554428	20335.805407
587.907124	20679.276863
588.259765	20428.907957
588.612352	20503.852271
588.964884	20065.090405
589.317362	20245.122612
589.669786	20305.876077
590.022155	20305.926489
590.374470	20546.999507
590.726731	20291.783532
591.078937	20101.802608
591.431090	20174.659884
591.783188	19951.467838
592.135232	19904.796836
592.487222	19997.450723
592.839157	20006.282825
593.191038	19888.282016
593.542866	19786.354926
593.894639	19477.614500
594.246358	19699.150527
594.598022	19586.873948
594.949633	19347.676239
595.301190	19331.400874
595.652692	19499.969497
596.004141	19706.087154
596.355535	19053.106497
596.706876	19078.360157
597.058162	18965.224062
597.409395	19209.402430
597.760573	19252.635366
598.111698	19016.701804
598.462768	18977.058170
598.813785	18939.405792
599.164748	18743.292305
599.515657	18796.675603
599.866511	18595.982227
600.217312	18947.935424
600.568060	18459.422411
600.918753	18772.036964
601.269392	18664.990582
601.619978	18470.412126
601.970510	18650.386360
602.320988	18595.478112
602.671412	18804.837231
603.021783	18745.452439
603.372100	18442.753836
603.722363	18591.679603
604.072572	18544.537253
604.422728	18701.271767
604.772830	18440.097148
605.122878	18407.611952
605.472872	18375.013331
605.822813	18365.515797
606.172701	18357.550774
606.522534	18528.662659
606.872314	18549.371719
607.222041	18398.134583
607.571714	18620.424262
607.921333	18432.346374
608.270899	18513.037603
608.620411	18664.047887
608.969870	18461.985838
609.319276	18460.811249
609.668627	18489.482811
610.017926	18611.481255
610.367171	18734.934072
610.716362	18784.014745
611.065500	18590.225230
611.414585	18746.228777
611.763616	18727.543740
612.112594	18662.838010
612.461518	18631.781982
612.810389	18822.859356
613.159207	18675.977777
613.507971	18601.562785
613.856682	18839.913580
614.205340	18757.790663
614.553945	18924.375592
614.902496	18667.178443
615.250994	18870.190750
615.599439	18828.593669
615.947830	18818.914653
616.296169	18893.687568
616.644454	18844.067491
616.992686	18825.815993
617.340864	19039.984373
617.688990	18787.972051
618.037063	18956.906158
618.385082	18817.878696
618.733048	19097.466130
619.080961	18978.333582
619.428821	19013.845990
619.776628	18877.649137
620.124382	18814.712852
620.472083	18868.678404
620.819731	18876.038488
621.167326	18572.011541
621.514868	18611.118292
621.862357	18397.111229
622.209793	18391.523110
622.557176	18228.091423
622.904506	18064.921876
623.251783	17994.751535
623.599007	17739.318790
623.946179	17670.922935
624.293297	17608.037061
624.640363	17338.927666
624.987376	17368.446143
625.334336	17161.693300
625.681243	17014.680651
626.028097	17031.545831
626.374899	16938.299608
626.721647	16805.747509
627.068343	16649.617933
627.414987	16578.991368
627.761577	16550.324847
628.108115	16580.836430
628.454600	16302.877289
628.801032	16405.694143
629.147412	16350.425452
629.493739	16350.848909
629.840014	16162.665157
630.186236	16259.626710
630.532405	16017.028743
630.878521	16217.369238
631.224585	16129.955630
631.570597	15946.911334
631.916556	15965.825743
632.262462	15946.588700
632.608316	15870.794952
632.954117	15810.212886
633.299866	15797.322655
633.645562	15716.059255
633.991206	15474.935826
634.336797	15343.969169
634.682336	15325.248845
635.027823	15187.857238
635.373257	15056.734306
635.718639	14966.162415
636.063968	14921.780097
636.409245	14665.276107
636.754470	14702.202558
637.099642	14552.818047
637.444762	14330.049458
637.789829	14372.760634
638.134845	14194.366802
638.479808	14229.314601
638.824719	14141.618689
639.169577	14007.274460
639.514383	14036.472823
639.859137	13883.468762
640.203839	13970.902535
640.548489	13822.977437
640.893086	13808.332885
641.237632	13674.863296
641.582125	13840.422350
641.926566	13649.924707
642.270955	13664.370134
642.615292	13626.006953
642.959576	13634.929795
643.303809	13662.772088
643.647990	13591.328856
643.992118	13660.496007
644.336195	13423.876848
644.680219	13655.447292
645.024192	13563.904979
645.368112	13808.917659
645.711981	13844.414943
646.055797	14034.862174
646.399562	14008.323020
646.743274	14277.097178
647.086935	14539.305234
647.430544	14517.265309
647.774101	14560.964551
648.117606	14692.732751
648.461059	14672.789946
648.804460	14647.569054
649.147810	14375.019071
649.491108	14289.080001
649.834354	14300.021825
650.177548	13976.074758
650.520690	13782.547383
650.863781	13715.764697
651.206820	13762.904527
651.549807	13589.677878
651.892742	13371.196791
652.235626	13316.817864
652.578458	13319.366168
652.921238	13021.358358
653.263967	13219.508472
653.606644	13051.746433
653.949269	13030.437476
654.291843	12819.538284
654.634365	12986.229077
654.976836	12836.272394
655.319255	12834.288700
655.661622	12792.497535
656.003938	12721.911299
656.346203	12643.871717
656.688416	12724.608316
657.030577	12675.751974
657.372687	12576.796644
657.714746	12573.260275
658.056753	12755.356834
658.398708	12561.489181
658.740612	12573.419071
659.082465	12684.798324
659.424266	12657.409735
659.766016	12686.960979
660.107715	12597.304058
660.449362	12664.611024
660.790958	12612.432561
661.132503	12563.029253
661.473996	12637.799647
661.815438	12650.170638
662.156829	12676.054443
662.498168	12642.765183
662.839456	12640.879792
663.180693	12655.484015
663.521879	12753.557142
663.863013	12726.687792
664.204097	12697.244933
664.545129	12831.730315
664.886110	12811.600987
665.227040	12901.394020
665.567918	12894.187690
665.908746	12913.059250
666.249522	12913.240731
666.590248	12966.293834
666.930922	13074.330803
667.271545	13047.050598
667.612118	13134.877581
667.952639	13027.755582
668.293109	13065.380234
668.633528	13000.651818
668.973896	12979.345382
669.314213	13049.913974
669.654480	12794.839151
669.994695	12885.295095
670.334859	12901.426787
670.674973	12841.021161
671.015035	12876.349567
671.355047	12821.985764
671.695008	12788.031073
672.034918	12806.743836
672.374777	12848.257738
672.714585	12759.717432
673.054342	12792.994089
673.394049	12742.791758
673.733705	12846.614322
674.073310	12737.415367
674.412864	12759.629212
674.752368	12604.233124
675.091820	12663.058348
675.431223	12629.391002
675.770574	12494.393943
676.109875	12414.768918
676.449125	12363.949047
676.788324	12323.624857
677.127473	12151.371151
677.466571	12144.721869
677.805619	12031.847913
678.144616	11964.689662
678.483562	11945.646703
678.822458	11809.147381
679.161303	11784.803649
679.500098	11773.728234
679.838842	11728.241903
680.177535	11766.685742
680.516179	11829.291831
680.854771	11772.243614
681.193314	11990.679331
681.531805	12153.380050
681.870247	12604.422167
682.208638	13015.712266
682.546978	13303.725988
682.885268	13322.978154
683.223508	13029.046117
683.561697	12891.306671
683.899836	12788.721711
684.237925	12588.335845
684.575963	12492.712719
684.913951	12404.684090
685.251889	12364.513656
685.589776	12465.036784
685.927614	12377.988660
686.265401	12357.040145
686.603137	12424.410125
686.940824	12566.467320
687.278460	12701.953371
687.616046	12722.843912
687.953582	12885.360630
688.291068	12829.814676
688.628504	13061.221282
688.965889	13067.096747
689.303224	13017.816947
689.640510	12898.901169
689.977745	12583.652613
690.314930	12364.846372
690.652065	12271.620314
690.989150	11970.181999
691.326185	11746.311918
691.663170	11550.178266
692.000105	11309.788325
692.336990	11178.504076
692.673825	10923.958574
693.010610	10817.963273
693.347345	10610.386202
693.684030	10420.985011
694.020665	10356.541420
694.357251	10153.206480
694.693786	10078.882228
695.030272	9932.119116
695.366707	9817.465634
695.703093	9753.163196
696.039429	9743.431248
696.375716	9646.452051
696.711952	9522.792547
697.048139	9578.293131
697.384276	9529.824957
697.720363	9551.937978
698.056400	9482.249068
698.392388	9427.292929
698.728326	9394.164987
699.064214	9332.796500
699.400053	9369.158343
699.735842	9187.434829
700.071581	9147.851689
700.407270	9077.565402
700.742910	8995.263524
701.078501	8903.103670
701.414042	8760.013038
701.749533	8713.359680
702.084974	8569.059172
702.420366	8696.300416
702.755709	8567.183863
703.091002	8435.483718
703.426246	8460.858366
703.761440	8414.000841
704.096584	8378.478351
704.431679	8308.834810
704.766725	8295.516082
705.101721	8249.497909
705.436668	8295.238818
705.771565	8185.230759
706.106413	8278.754245
706.441212	8298.775188
706.775961	8270.068337
707.110661	8317.729926
707.445311	8448.535266
707.779913	8344.800922
708.114465	8471.747259
708.448967	8501.301023
708.783421	8675.488012
709.117825	8842.796346
709.452180	8876.299855
709.786485	8963.410993
710.120742	9247.031350
710.454949	9258.885623
710.789107	9363.666006
711.123216	9585.338143
711.457275	9763.414382
711.791286	9901.937728
712.125247	9906.953676
712.459159	9895.041430
712.793023	10120.161717
713.126837	9696.704793
713.460602	9860.438950
713.794318	9687.718937
714.127985	9705.451195
714.461602	9366.224391
714.795171	9328.445984
715.128691	9069.139113
715.462162	8831.763781
715.795584	8773.114997
716.128957	8603.155016
716.462281	8435.735776
716.795556	8489.623190
717.128782	8276.543699
717.461960	8032.040176
717.795088	8089.683250
718.128167	8001.795774
718.461198	7834.336205
718.794180	7783.874255
719.127113	7776.410826
719.459997	7596.897858
719.792833	7381.748974
720.125619	7458.903834
720.458357	7299.714278
720.791046	7298.421222
721.123686	7285.316742
721.456278	7118.139478
721.788821	7136.484237
722.121315	7047.306225
722.453761	7120.087884
722.786158	7049.189096
723.118506	7057.239819
723.450805	7020.451998
723.783056	7085.573624
724.115259	7005.205029
724.447412	7004.542117
724.779518	7058.553039
725.111574	7057.131434
725.443582	7127.490818
725.775542	7108.344516
726.107453	7308.818601
726.439315	7209.732202
726.771129	7289.684902
727.102895	7468.411450
727.434612	7572.528921
727.766281	7612.437215
728.097901	7683.880448
728.429473	7691.595933
728.760996	7680.704521
729.092471	7651.417937
729.423897	7584.579799
729.755276	7576.534118
730.086606	7504.249013
730.417887	7610.511494
730.749120	7832.952408
731.080305	8026.043724
731.411442	8128.371585
731.742530	8103.221268
732.073570	8213.904842
732.404562	8302.742576
732.735506	8171.856578
733.066401	8299.458264
733.397249	8212.757980
733.728048	7968.582132
734.058798	7639.828325
734.389501	7407.910042
734.720156	7236.682210
735.050762	7012.983529
735.381320	6929.267608
735.711831	6866.580860
736.042293	6753.296050
736.372707	6768.870695
736.703073	6639.529811
737.033391	6677.628331
737.363661	6686.770464
737.693883	6724.707667
738.024056	6807.276726
738.354182	6846.229722
738.684260	6873.499843
739.014290	7005.371387
739.344272	7116.317101
739.674207	7143.786348
740.004093	7224.775005
740.333931	7225.248873
740.663722	7240.765545
740.993464	7314.134498
741.323159	7283.408665
741.652806	7041.496295
741.982405	7083.915084
742.311956	7121.484283
742.641460	6937.429236
742.970915	6744.887406
743.300323	6737.257619
743.629683	6696.888059
743.958996	6559.829169
744.288260	6467.523121
744.617477	6422.671975
744.946647	6404.309572
745.275768	6251.575214
745.604842	6202.139139
745.933869	6184.520306
746.262847	6141.005066
746.591778	6129.586852
746.920662	6088.937508
747.249498	6089.297951
747.578286	6136.402493
747.907027	6209.963009
748.235720	6274.401558
748.564365	6246.695377
748.892963	6290.490401
749.221514	6423.549136
749.550017	6235.415795
749.878473	6129.617099
750.206881	6190.143713
750.535242	6141.642772
750.863555	6070.065949
751.191821	6076.090128
751.520039	6070.408747
751.848210	5980.726621
752.176334	6013.254666
752.504411	6053.064658
752.832440	5978.533719
753.160421	5913.465025
753.488356	5958.827848
753.816243	5984.010932
754.144082	5836.766390
754.471875	5812.838553
754.799620	5859.156675
755.127318	5866.423498
755.454969	5827.157951
755.782572	5789.591273
756.110129	5834.485268
756.437638	5809.415610
756.765100	5755.361838
757.092515	5764.110760
757.419882	5823.853475
757.747203	5791.088495
758.074477	5849.417166
758.401703	5826.734494
758.728882	5794.657632
759.056014	5862.398137
759.383099	5973.714376
759.710138	5983.257280
760.037129	5974.170600
760.364073	5977.291074
760.690970	6060.835596
761.017820	6033.285691
761.344623	6001.370146
761.671379	6107.098265
761.998088	6234.016875
762.324751	6495.239385
762.651366	7147.214332
762.977935	8518.791306
763.304456	10180.350573
763.630931	11026.629234
763.957359	10568.718545
764.283740	9605.117110
764.610074	8724.346875
764.936362	7720.229687
765.262602	7134.745038
765.588796	6601.786692
765.914943	6280.047651
766.241044	6099.201298
766.567097	5885.380757
766.893104	5632.153517
767.219064	5457.961487
767.544978	5391.385489
767.870845	5308.602181
768.196665	5205.326583
768.522438	5133.706910
768.848165	5097.004790
769.173846	5029.087844
769.499479	4980.017253
769.825066	4932.920273
770.150607	4878.639649
770.476101	4854.915979
770.801548	4843.706973
771.126949	4761.311834
771.452303	4706.312846
771.777611	4670.727341
772.102872	4694.569478
772.428087	4651.321419
772.753256	4610.253659
773.078378	4553.891039
773.403453	4488.078775
773.728482	4474.671827
774.053465	4427.806740
774.378401	4421.686779
774.703291	4415.135800
775.028135	4337.761650
775.352932	4291.158703
775.677683	4276.612454
776.002388	4292.497130
776.327046	4300.542811
776.651658	4231.952872
776.976224	4169.976927
777.300743	4173.777957
777.625216	4196.095145
777.949643	4185.145758
778.274024	4147.780726
778.598359	4109.341928
778.922647	4135.921412
779.246889	4124.044453
779.571086	4112.011219
779.895236	4098.074949
780.219339	4089.222683
780.543397	4085.658587
780.867409	4142.008605
781.191374	4149.852640
781.515294	4080.138524
781.839167	4079.397474
782.162995	4104.618367
782.486776	4091.196295
782.810511	4102.836319
783.134201	4086.863423
783.457844	4038.874159
783.781441	3989.352384
784.104993	3996.294053
784.428498	4015.833565
784.751958	4007.273686
785.075372	3987.638392
785.398739	3951.836117
785.722061	3965.245587
786.045337	4009.227133
786.368568	4033.812841
786.691752	3944.675158
787.014891	4005.365609
787.337983	4143.911641
787.661030	4306.534223
787.984031	4463.135146
788.306987	4630.118326
788.629897	4718.701482
788.952760	4670.639121
789.275579	4603.833750
789.598351	4533.381104
789.921078	4377.392681
790.243759	4180.880942
790.566395	4172.300898
790.888984	4164.706400
791.211529	4057.675142
791.534027	3994.718692
791.856480	3974.914520
792.178888	3917.470572
792.501249	3877.010271
792.823566	3886.764903
793.145836	3907.738624
793.468062	3857.024616
793.790241	3815.732525
794.112375	3843.123635
794.434464	3912.605858
794.756507	3934.030762
795.078505	3908.872884
795.400457	3951.359728
795.722364	4099.398252
796.044226	4201.927760
796.366042	4273.607926
796.687812	4246.080706
797.009538	4248.631529
797.331218	4211.581569
797.652852	4187.966284
797.974442	4167.284950
798.295986	4164.053571
798.617484	4075.145261
798.938938	3994.128877
799.260346	4039.970610
799.581709	4027.798744
799.903026	3952.557002
800.224299	3918.758586
800.545526	3910.491094
800.866708	3869.940053
801.187845	3817.648164
801.508936	3849.654449
801.829983	3835.377902
802.150984	3761.711521
802.471940	3755.621807
802.792851	3760.219339
803.113717	3765.608333
803.434538	3761.318311
803.755314	3703.463508
804.076045	3687.349460
804.396731	3705.853015
804.717372	3731.739340
805.037967	3712.540106
805.358518	3703.826472
805.679024	3730.796645
805.999485	3747.061927
806.319901	3753.885129
806.640272	3764.053137
806.960598	3773.956483
807.280879	3748.095364
807.601115	3766.261162
807.921306	3782.148358
808.241453	3820.206549
808.561554	3792.999442
808.881611	3724.490161
809.201623	3771.161163
809.521590	3776.242647
809.841513	3749.847165
810.161390	3782.523924
810.481223	3750.184922
810.801011	3701.258004
811.120755	3701.769681
811.440453	3731.610791
811.760107	3729.390163
812.079716	3683.586239
812.399281	3659.247548
812.718801	3686.005993
813.038276	3655.023061
813.357707	3653.530880
813.677093	3668.689629
813.996434	3612.954632
814.315731	3629.824854
814.634983	3632.841984
814.954191	3645.994355
815.273354	3674.807069
815.592473	3664.979340
815.911547	3680.629602
816.230577	3724.444791
816.549562	3776.519910
816.868502	3816.158503
817.187399	3837.608612
817.506250	3836.151719
817.825058	3814.850323
818.143821	3910.780960
818.462539	4012.110673
818.781213	4053.760686
819.099843	4119.308289
819.418429	4390.131677
819.736970	4634.282319
820.055466	4891.250095
820.373919	5259.738277
820.692327	5675.693963
821.010691	6177.485376
821.329011	7677.674787
821.647286	10589.130177
821.965517	15347.359345
822.283704	19351.144553
822.601847	21332.862459
822.919945	19400.676410
823.237999	16719.367338
823.556010	14202.009192
823.873976	12035.868234
824.191897	9918.545810
824.509775	8582.040143
824.827609	7455.248997
825.145398	6924.438182
825.463144	6802.197763
825.780845	6908.271202
826.098502	7146.576627
826.416116	8104.184129
826.733685	9473.419487
827.051210	10571.647455
827.368692	10500.105920
827.686129	9163.411210
828.003522	7658.394894
828.320872	6629.583614
828.638177	5905.061422
828.955439	5335.980688
829.272656	4831.630889
829.589830	4565.037030
829.906960	4384.803177
830.224046	4189.478630
830.541088	4069.279878
830.858086	4016.085623
831.175041	3939.966721
831.491952	3930.864917
831.808819	3942.772123
832.125642	4022.155172
832.442421	4179.613092
832.759157	4475.029749
833.075849	5065.139656
833.392497	5963.102747
833.709101	6754.377378
834.025662	7057.070940
834.342179	6630.496063
834.658653	5951.145130
834.975083	5287.842710
835.291469	4702.095921
835.607811	4301.021721
835.924110	4160.509640
836.240366	3954.069348
836.556578	3750.401692
836.872746	3640.870022
837.188871	3596.001232
837.504952	3530.869524
837.820990	3446.069755
838.136984	3404.144999
838.452935	3428.947476
838.768842	3422.036054
839.084706	3446.029426
839.400526	3619.147690
839.716303	3989.617045
840.032037	4543.108011
840.347727	4770.030510
840.663373	4455.649033
840.978977	4063.961461
841.294537	3752.544182
841.610054	3527.360881
841.925527	3422.101589
842.240957	3351.270857
842.556344	3292.269192
842.871687	3235.538567
843.186987	3185.812626
843.502244	3148.064466
843.817458	3113.948457
844.132629	3084.611462
844.447756	3090.943152
844.762840	3074.917323
845.077881	3041.131510
845.392879	3025.302287
845.707833	3021.221473
846.022745	3021.302132
846.337613	3020.687111
846.652438	3006.239164
846.967221	3005.306551
847.281960	2991.181237
847.596656	2987.385249
847.911309	2989.000938
848.225919	2981.403920
848.540485	2977.174392
848.855009	2977.002992
849.169490	2963.520426
849.483928	2956.780404
849.798323	2958.380970
850.112675	2952.586164
850.426984	2966.318267
850.741251	2963.767443
851.055474	2952.810495
851.369654	2943.922941
851.683792	2950.534414
851.997887	2960.624283
852.311938	2961.173769
852.625947	2949.506019
852.939914	2951.099023
853.253837	2954.527008
853.567718	2942.173660
853.881555	2944.059052
854.195350	2958.486834
854.509103	2951.151955
854.822812	2945.215997
855.136479	2941.495625
855.450103	2942.130811
855.763685	2936.023453
856.077224	2935.360541
856.390720	2946.935030
856.704173	2955.225208
857.017584	2944.527879
857.330953	2945.793209
857.644278	2957.647482
857.957561	2966.792135
858.270802	2969.176601
858.584000	2966.794656
858.897155	2951.671194
859.210268	2952.129939
859.523339	2949.478292
859.836367	2948.326389
860.149352	2946.098199
860.462295	2939.509411
860.775195	2948.331430
861.088054	2945.382355
861.400869	2927.640014
861.713642	2927.632452
862.026373	2945.861264
862.339062	2943.355811
862.651708	2948.880916
862.964312	2954.101030
863.276873	2946.322530
863.589392	2960.568831
863.901869	2973.849751
864.214303	2996.706342
864.526696	3008.820235
864.839045	3005.064575
865.151353	3003.532064
865.463619	3006.365193
865.775842	3005.830831
866.088023	3024.210877
866.400162	3028.977288
866.712258	2997.870849
867.024313	2990.732575
867.336325	3000.467043
867.648296	3020.427492
867.960224	3012.321316
868.272110	2996.524861
868.583954	3002.924605
868.895755	3019.091586
869.207515	3004.121879
869.519233	3013.581605
869.830909	3024.205836
870.142542	3030.648431
870.454134	3030.724048
870.765684	3032.906868
871.077191	3033.093391
871.388657	3042.752241
871.700081	3059.788821
872.011463	3067.486663
872.322803	3064.073802
872.634101	3064.381312
872.945357	3084.036771
873.256571	3112.017695
873.567744	3102.704163
873.878874	3098.797269
874.189963	3122.014303
874.501010	3119.700414
874.812015	3111.911831
875.122979	3109.938219
875.433900	3107.074844
875.744780	3113.688838
876.055618	3124.023203
876.366415	3117.565485
876.677169	3131.758854
876.987882	3125.323821
877.298554	3123.269551
877.609183	3148.361894
877.919771	3168.869308
878.230317	3199.842157
878.540822	3251.899632
878.851285	3293.353040
879.161707	3342.680731
879.472087	3456.159624
879.782425	3709.669169
880.092722	4172.580683
880.402977	4715.525555
880.713191	5383.362493
881.023363	6610.747343
881.333494	7921.964061
881.643583	8440.582846
881.953631	8104.922658
882.263637	7426.282527
882.573602	6800.821528
882.883526	6212.077773
883.193408	5634.880782
883.503248	5183.523593
883.813048	4865.751939
884.122806	4534.202812
884.432522	4209.325653
884.742197	3964.418837
885.051831	3773.936319
885.361424	3646.017040
885.670975	3571.498704
885.980485	3476.493118
886.289954	3396.973958
886.599382	3353.635158
886.908768	3315.914724
887.218113	3270.710698
887.527417	3211.043601
887.836680	3162.530057
888.145901	3155.210301
888.455082	3140.434679
888.764221	3087.658840
889.073319	3059.471228
889.382376	3056.895198
889.691392	3063.405849
890.000366	3061.646486
890.309300	3049.726678
890.618193	3060.207237
890.927044	3077.304310
891.235855	3074.277097
891.544625	3065.142526
891.853353	3079.464444
892.162041	3094.920622
892.470687	3137.228506
892.779293	3190.808409
893.087858	3240.660380
893.396381	3314.558654
893.704864	3447.839200
894.013306	3704.005433
894.321707	4019.551416
894.630068	4212.264646
894.938387	4199.913819
895.246665	4161.217922
895.554903	4024.196840
895.863100	3821.761745
896.171256	3648.608193
896.479371	3505.376409
896.787446	3374.616440
897.095480	3271.996192
897.403473	3208.938919
897.711425	3172.826613
898.019336	3160.158194
898.327207	3128.716517
898.635038	3092.125302
898.942827	3080.180288
899.250576	3065.316446
899.558284	3035.949204
899.865952	3015.940865
900.173579	2993.192658
900.481165	2986.966833
900.788711	2968.743062
901.096216	2949.551389
901.403681	2941.241047
901.711105	2945.460493
902.018489	2943.373455
902.325832	2941.576284
902.633135	2952.775207
902.940397	2990.619149
903.247619	3081.385124
903.554800	3293.194244
903.861941	3666.741223
904.169041	4119.139411
904.476101	4409.081374
904.783121	4332.680167
905.090100	4067.422213
905.397039	3780.197432
905.703938	3526.876930
906.010796	3340.003878
906.317614	3225.357957
906.624391	3126.558903
906.931129	3053.653737
907.237826	2988.741319
907.544483	2945.886470
907.851099	2912.566964
908.157675	2890.141391
908.464211	2870.420397
908.770707	2856.426154
909.077163	2842.623475
909.383578	2827.205106
909.689954	2817.657160
909.996289	2817.972232
910.302584	2814.395534
910.608839	2817.619352
910.915054	2808.595686
911.221229	2802.228709
911.527363	2805.480253
911.833458	2813.341933
912.139513	2818.599856
912.445527	2821.337203
912.751502	2828.641835
913.057436	2838.920747
913.363331	2855.954806
913.669186	2877.382231
913.975000	2917.008220
914.280775	2981.935761
914.586510	3052.353119
914.892205	3137.271355
915.197859	3276.351749
915.503475	3486.535097
915.809050	3711.756207
916.114585	3858.557127
916.420081	3865.443343
916.725536	3799.865493
917.030952	3671.361441
917.336328	3538.882438
917.641665	3405.425452
917.946961	3302.447282
918.252218	3226.877865
918.557435	3147.043632
918.862612	3082.340423
919.167750	3030.587937
919.472848	2995.065447
919.777906	2965.685602
920.082925	2936.159564
920.387904	2904.110428
920.692843	2889.528891
920.997743	2876.454658
921.302603	2863.665251
921.607423	2852.037830
921.912204	2836.306909
922.216946	2826.380877
922.521647	2815.847386
922.826310	2808.303299
923.130932	2802.296765
923.435516	2790.656740
923.740059	2784.267078
924.044564	2775.296345
924.349028	2769.962804
924.653454	2764.505755
924.957840	2758.305136
925.262186	2751.227356
925.566493	2746.753332
925.870761	2742.612024
926.174989	2741.679410
926.479178	2734.752865
926.783328	2728.879921
927.087438	2729.676423
927.391509	2727.319683
927.695541	2722.800289
927.999533	2721.038406
928.303486	2717.050853
928.607400	2717.358363
928.911275	2718.850545
929.215110	2716.536655
929.518906	2714.893239
929.822663	2714.684031
930.126381	2717.141594
930.430060	2714.056408
930.733699	2713.501881
931.037299	2716.985318
931.340861	2720.549414
931.644383	2718.742160
931.947866	2715.369628
932.251309	2716.226624
932.554714	2716.289639
932.858080	2712.024823
933.161407	2711.215717
933.464694	2710.189843
933.767943	2705.708257
934.071153	2710.086499
934.374323	2708.400233
934.677455	2709.587425
934.980548	2704.604244
935.283602	2705.126004
935.586617	2706.368648
935.889593	2707.835624
936.192530	2705.713298
936.495428	2709.748742
936.798287	2709.095912
937.101108	2713.007848
937.403890	2716.488764
937.706632	2718.986656
938.009336	2729.260528
938.312002	2740.545151
938.614628	2745.808115
938.917216	2753.006883
939.219765	2752.931266
939.522275	2752.507809
939.824747	2746.486150
940.127179	2745.442632
940.429573	2744.918352
940.731929	2741.893659
941.034246	2738.329563
941.336524	2733.527864
941.638763	2733.285889
941.940964	2729.797411
942.243126	2728.058212
942.545250	2727.496124
942.847335	2725.648541
943.149381	2718.933724
943.451389	2715.936758
943.753359	2713.486757
944.055290	2713.300235
944.357182	2709.504246
944.659036	2710.996427
944.960851	2709.983155
945.262628	2706.305634
945.564367	2707.757486
945.866067	2708.385110
946.167729	2708.385110
946.469352	2711.230841
946.770937	2708.508618
947.072484	2707.959132
947.373992	2708.390151
947.675462	2703.732125
947.976893	2702.010571
948.278286	2700.231043
948.579641	2700.941846
948.880958	2698.176773
949.182236	2699.752134
949.483476	2699.235415
949.784678	2697.390353
950.085841	2699.089222
950.386967	2700.473019
950.688054	2700.563759
950.989103	2699.109387
951.290114	2701.720704
951.591087	2701.614840
951.892021	2705.156251
952.192917	2708.170861
952.493776	2709.801674
952.794596	2710.656149
953.095378	2713.834597
953.396122	2710.933413
953.696828	2707.243288
953.997496	2708.669935
954.298126	2701.148533
954.598718	2704.392516
954.899272	2700.946887
955.199788	2698.960672
955.500266	2696.666947
955.800706	2694.728624
956.101108	2691.807275
956.401472	2688.795186
956.701798	2686.302335
957.002087	2685.853672
957.302337	2685.289063
957.602550	2680.562982
957.902724	2681.447704
958.202861	2679.582477
958.502960	2680.066428
958.803022	2679.048115
959.103045	2674.866478
959.403031	2676.701458
959.702979	2675.458813
960.002889	2674.344718
960.302762	2674.130469
960.602596	2675.534431
960.902393	2674.634585
961.202153	2674.284224
961.501875	2673.954029
961.801559	2673.056703
962.101205	2673.407064
962.400814	2674.047290
962.700385	2673.091992
962.999918	2670.710046
963.299414	2670.059737
963.598873	2669.124603
963.898293	2667.690395
964.197677	2671.556960
964.497022	2671.625016
964.796331	2670.732732
965.095601	2670.825993
965.394835	2671.519152
965.694030	2668.880107
965.993189	2670.846157
966.292309	2672.971004
966.591393	2672.242557
966.890439	2670.208452
967.189447	2669.502690
967.488419	2670.029491
967.787353	2670.331960
968.086249	2668.360869
968.385108	2668.096208
968.683930	2669.195180
968.982714	2669.853050
969.281462	2669.684172
969.580172	2669.527896
969.878844	2669.381702
970.177480	2670.757937
970.476078	2670.208452
970.774639	2671.574604
971.073162	2670.934378
971.371649	2669.606034
971.670098	2670.218534
971.968510	2670.526044
972.266885	2671.930006
972.565223	2670.737773
972.863524	2671.246929
973.161788	2671.730880
973.460014	2669.001095
973.758204	2670.833555
974.056356	2672.325736
974.354471	2669.550581
974.652550	2670.765499
974.950591	2672.308092
975.248595	2672.867660
975.546563	2670.954542
975.844493	2670.823472
976.142386	2668.665858
976.440243	2669.676610
976.738062	2668.670900
977.035845	2670.183246
977.333590	2669.487567
977.631299	2670.279028
977.928971	2665.719304
978.226606	2665.232833
978.524204	2666.770385
978.821765	2666.830878
979.119290	2669.936229
979.416777	2668.428924
979.714228	2668.431445
980.011642	2669.011177
980.309020	2667.924809
980.606360	2668.907834
980.903664	2667.763492
981.200931	2666.596465
981.498162	2669.182577
981.795356	2669.215344
982.092513	2672.867660
982.389633	2675.317661
982.686717	2678.080213
982.983764	2683.660771
983.280775	2684.041378
983.577749	2685.009279
983.874686	2683.368384
984.171587	2681.969463
984.468451	2680.212621
984.765279	2678.037363
985.062070	2677.689524
985.358824	2671.309944
985.655543	2674.443021
985.952224	2668.812052
986.248869	2672.393792
986.545478	2667.256856
986.842050	2667.380364
987.138586	2668.149140
987.435086	2667.080416
987.731549	2665.547905
988.027975	2666.611588
988.324366	2667.183759
988.620719	2666.160405
988.917037	2664.022956
989.213318	2666.046979
989.509563	2665.857936
989.805772	2667.539161
990.101944	2663.269303
990.398080	2664.733758
990.694180	2665.862977
990.990244	2666.067144
991.286271	2664.559839
991.582262	2663.050013
991.878217	2665.847853
992.174136	2666.286434
992.470019	2664.930363
992.765865	2662.843326
993.061676	2662.064467
993.357450	2662.445075
993.653188	2661.462050
993.948890	2663.997750
994.244556	2664.494304
994.540186	2664.874911
994.835780	2664.332987
995.131337	2665.411794
995.426859	2668.537309
995.722345	2667.413132
996.017795	2669.633760
996.313208	2667.524037
996.608586	2669.084274
996.903928	2670.858760
997.199234	2672.081240
997.494504	2668.186949
997.789738	2670.790705
998.084936	2669.356497
998.380099	2669.343894
998.675225	2665.910868
998.970316	2666.069664
999.265371	2664.728717
999.560390	2664.721156
999.855373	2666.694767
1000.150320	2666.029335
1000.445232	2664.660662
1000.740108	2665.003460
1001.034948	2664.723676
1001.329752	2664.912719
1001.624521	2665.147133
1001.919254	2661.620846
1002.213951	2663.261742
1002.508613	2662.059426
1002.803239	2661.961124
1003.097829	2662.825682
1003.392384	2662.429951
1003.686903	2662.132523
1003.981386	2661.825013
1004.275834	2662.639159
1004.570246	2662.578665
1004.864623	2662.775270
1005.158964	2662.102276
1005.453270	2663.024807
1005.747540	2661.893068
1006.041775	2663.448264
1006.335974	2663.312153
1006.630138	2661.567914
1006.924266	2662.828202
1007.218359	2662.936587
1007.512416	2661.920795
1007.806438	2658.815444
1008.100425	2660.965496
1008.394376	2657.088849
1008.688292	2660.743685
1008.982172	2658.535660
1009.276017	2662.114879
1009.569827	2662.256031
1009.863602	2664.716114
1010.157341	2662.339210
1010.451045	2660.229487
1010.744714	2660.723521
1011.038347	2662.346772
1011.331945	2661.378871
1011.625508	2664.166629
1011.919036	2661.656134
1012.212528	2663.972544
1012.505986	2660.005156
1012.799408	2661.134375
1013.092795	2660.194199
1013.386147	2662.036741
1013.679464	2661.257883
1013.972745	2662.470280
1014.265992	2663.256700
1014.559204	2662.258552
1014.852380	2662.185455
1015.145521	2662.921464
1015.438628	2663.423058
1015.731699	2662.550939
1016.024736	2661.104128
1016.317737	2659.122954
1016.610703	2662.986999
1016.903635	2664.068326
1017.196531	2660.731082
1017.489393	2660.244611
1017.782219	2660.831905
1018.075011	2660.640342
1018.367768	2656.698159
1018.660490	2660.809220
1018.953177	2660.809220
1019.245829	2660.809220
