Dividing Wavelength (nm)	Counts (n)	Blue Motor Position (mm): 11.600000	Red Motor Position (mm): 0.000000	
326.493990	2163.796821
326.888308	2163.796821
327.282561	2163.796821
327.676750	2121.405759
328.070874	2118.018103
328.464933	2119.948865
328.858929	2122.597992
329.252859	2128.738117
329.646726	2137.106432
330.040528	2148.166724
330.434265	2164.167346
330.827938	2180.689728
331.221547	2196.024918
331.615091	2211.337423
332.008571	2232.333828
332.401986	2250.416447
332.795338	2273.593152
333.188625	2290.271810
333.581847	2307.109263
333.975006	2326.101811
334.368100	2341.517659
334.761129	2363.562625
335.154095	2377.864378
335.546996	2397.950856
335.939833	2425.115113
336.332606	2437.660025
336.725315	2451.495471
337.117960	2463.427883
337.510540	2473.116980
337.903056	2486.849083
338.295508	2494.183962
338.687896	2503.300889
339.080220	2511.805315
339.472480	2519.934176
339.864676	2522.611029
340.256807	2529.061185
340.648875	2531.861546
341.040879	2533.837678
341.432818	2538.999820
341.824694	2540.796991
342.216506	2542.334543
342.608253	2541.492670
342.999937	2541.369162
343.391557	2546.042312
343.783113	2542.808412
344.174605	2541.742207
344.566033	2541.104502
344.957397	2537.164840
345.348697	2539.650129
345.739934	2536.219623
346.131106	2532.007739
346.522215	2533.769623
346.913260	2531.405322
347.304241	2527.390043
347.695159	2526.785104
348.086012	2523.823426
348.476802	2524.566996
348.867528	2518.983918
349.258191	2517.673218
349.648789	2514.809843
350.039324	2510.653412
350.429796	2515.860924
350.820203	2512.952178
351.210548	2515.245903
351.600828	2514.802281
351.991045	2511.349091
352.381198	2507.364059
352.771288	2507.928668
353.161314	2511.031498
353.551276	2509.156189
353.941175	2506.759120
354.331010	2508.563853
354.720782	2507.091837
355.110490	2507.911024
355.500135	2504.752741
355.889717	2508.629388
356.279235	2509.246930
356.668689	2509.052845
357.058080	2509.037722
357.447408	2509.221724
357.836672	2507.485047
358.225873	2508.702485
358.615010	2511.036539
359.004084	2513.118536
359.393095	2512.105264
359.782043	2511.623834
360.170927	2511.805315
360.559748	2510.081241
360.948505	2512.982425
361.337199	2514.252796
361.725830	2511.921262
362.114398	2512.775738
362.502903	2513.816736
362.891344	2513.894874
363.279722	2512.498474
363.668037	2514.454442
364.056289	2513.640295
364.444478	2518.701614
364.832603	2515.460152
365.220665	2516.347395
365.608665	2517.592560
365.996601	2517.597601
366.384474	2517.365708
366.772284	2518.845287
367.160031	2520.133302
367.547715	2520.443333
367.935336	2519.770338
368.322893	2518.154649
368.710388	2515.750018
369.097820	2515.744977
369.485189	2517.418640
369.872495	2521.426357
370.259738	2520.224042
370.646918	2521.685977
371.034035	2523.049609
371.421090	2521.703621
371.808081	2522.467356
372.195010	2521.693539
372.581875	2523.074815
372.968678	2521.748991
373.355418	2523.886441
373.742096	2525.350896
374.128710	2523.102541
374.515262	2526.384332
374.901751	2523.984743
375.288177	2521.733868
375.674540	2523.374763
376.060841	2527.374919
376.447079	2524.249404
376.833254	2525.907943
377.219367	2527.609333
377.605417	2526.210413
377.991404	2527.342152
378.377329	2526.223015
378.763191	2524.894671
379.148991	2526.795186
379.534727	2528.153777
379.920402	2526.573376
380.306013	2528.713345
380.691563	2527.755526
381.077049	2529.030938
381.462474	2527.732841
381.847835	2528.975485
382.233134	2529.189734
382.618371	2527.248890
383.003545	2531.352389
383.388657	2527.619415
383.773706	2528.090763
384.158693	2530.412214
384.543618	2531.024714
384.928480	2529.635877
385.313280	2529.608150
385.698017	2530.520599
386.082692	2530.639066
386.467305	2530.999509
386.851856	2532.983203
387.236344	2530.971782
387.620770	2528.297450
388.005133	2526.893489
388.389435	2529.298119
388.773674	2527.581606
389.157851	2532.348017
389.541965	2527.541277
389.926018	2535.289531
390.310008	2530.820548
390.693936	2533.515044
391.077802	2534.888759
391.461606	2532.814324
391.845348	2531.695188
392.229027	2534.954294
392.612645	2532.189221
392.996200	2535.173584
393.379694	2530.565969
393.763125	2537.744572
394.146494	2534.182997
394.529801	2538.195756
394.913047	2534.480425
395.296230	2534.956814
395.679351	2535.271887
396.062410	2539.309851
396.445408	2536.638039
396.828343	2537.535365
397.211217	2537.111908
397.594028	2539.032587
397.976778	2536.292720
398.359466	2536.421270
398.742092	2536.305323
399.124656	2538.573842
399.507158	2535.279448
399.889598	2538.843544
400.271977	2538.800694
400.654294	2538.226003
401.036549	2539.118287
401.418742	2536.990920
401.800874	2538.853626
402.182944	2538.583925
402.564952	2539.735828
402.946898	2538.178112
403.328783	2538.379758
403.710606	2539.463606
404.092367	2540.686086
404.474067	2539.491332
404.855705	2540.824718
405.237282	2538.226003
405.618797	2542.082485
406.000250	2540.585263
406.381642	2540.663401
406.762972	2536.602751
407.144240	2537.127031
407.525447	2538.410005
407.906593	2535.481094
408.287677	2540.633154
408.668700	2540.328164
409.049661	2542.528628
409.430560	2540.290355
409.811399	2544.159441
410.192176	2544.671118
410.572891	2547.209339
410.953545	2542.281611
411.334138	2542.974770
411.714669	2540.547454
412.095139	2543.494008
412.475547	2544.993752
412.855894	2542.725232
413.236180	2541.512835
413.616405	2543.141128
413.996568	2540.136600
414.376670	2544.257743
414.756711	2543.733463
415.136691	2542.773123
415.516609	2544.759338
415.896466	2544.829914
416.276262	2544.892929
416.655997	2547.721016
417.035670	2543.960315
417.415283	2543.514173
417.794834	2545.076931
418.174324	2544.098947
418.553753	2543.317568
418.933121	2543.335212
419.312428	2544.308155
419.691674	2544.323278
420.070859	2546.732950
420.449983	2546.143135
420.829045	2546.329658
421.208047	2545.152548
421.586988	2544.124153
421.965867	2545.654143
422.344686	2544.136756
422.723444	2548.270502
423.102141	2546.354863
423.480777	2545.944009
423.859352	2548.305790
424.237866	2547.383259
424.616319	2548.280584
424.994712	2546.138094
425.373044	2545.593649
425.751314	2547.514329
426.129524	2543.476364
426.507673	2545.754966
426.885762	2543.902342
427.263789	2545.996941
427.641756	2548.104144
428.019662	2546.354863
428.397508	2548.802343
428.775292	2548.494833
429.153016	2549.513146
429.530679	2547.589946
429.908282	2546.995090
430.285824	2547.839483
430.663305	2550.806202
431.040726	2546.243958
431.418086	2547.416026
431.795385	2549.077086
432.172624	2548.227652
432.549802	2550.975081
432.926920	2548.819988
433.303977	2550.344937
433.680974	2549.593805
434.057910	2549.195553
434.434786	2549.482899
434.811601	2551.937941
435.188355	2550.029864
435.565050	2549.553475
435.941683	2550.990204
436.318257	2549.339226
436.694770	2548.870399
437.071222	2550.075235
437.447614	2549.999617
437.823946	2553.442726
438.200218	2548.744370
438.576429	2551.080945
438.952580	2550.869217
439.328670	2553.430123
439.704700	2551.252344
440.080670	2549.205636
440.456580	2554.304763
440.832429	2551.146480
441.208218	2548.404092
441.583947	2553.324258
441.959616	2552.810061
442.335224	2550.755791
442.710773	2552.038764
443.086261	2552.673950
443.461689	2553.236038
443.837057	2553.460370
444.212365	2553.631769
444.587612	2548.726726
444.962800	2551.496840
445.337927	2549.717313
445.712995	2549.815615
446.088002	2552.462221
446.462949	2554.322407
446.837837	2551.567416
447.212664	2557.011862
447.587431	2552.857952
447.962139	2553.490617
448.336786	2553.535987
448.711374	2551.890050
449.085901	2552.643703
449.460369	2557.886503
449.834776	2554.027499
450.209124	2556.550597
450.583412	2554.335010
450.957640	2552.744526
451.331808	2556.066646
451.705917	2552.719320
452.079965	2551.590102
452.453954	2554.392983
452.827883	2552.847869
453.201752	2553.462890
453.575562	2554.455997
453.949311	2553.999773
454.323001	2553.664536
454.696632	2554.501368
455.070202	2556.477500
455.443713	2553.301573
455.817164	2557.430278
456.190556	2555.817109
456.563888	2557.359702
456.937160	2555.255020
457.310373	2554.992880
457.683526	2555.355843
458.056619	2556.343910
458.429653	2554.766028
458.802628	2556.790052
459.175542	2553.810730
459.548398	2556.757284
459.921194	2556.472459
460.293930	2557.064795
460.666607	2555.456667
461.039224	2558.040258
461.411782	2558.746019
461.784280	2556.059084
462.156719	2556.608570
462.529099	2559.857594
462.901419	2556.974054
463.273680	2557.642007
463.645882	2552.416851
464.018024	2555.396173
464.390106	2552.774773
464.762130	2557.720145
465.134094	2556.764846
465.505999	2556.628735
465.877845	2556.779969
466.249631	2558.562017
466.621358	2559.298026
466.993026	2560.454971
467.364634	2561.957234
467.736184	2560.074363
468.107674	2561.647203
468.479105	2561.382543
468.850477	2558.057902
469.221790	2557.034548
469.593043	2557.621842
469.964238	2559.043447
470.335373	2558.874569
470.706449	2558.171328
471.077467	2560.107131
471.448425	2557.931873
471.819324	2561.102759
472.190164	2562.841957
472.560945	2559.708880
472.931667	2561.329611
473.302330	2562.123593
473.672934	2559.134188
474.043479	2559.633263
474.413965	2562.027811
474.784393	2561.468243
475.154761	2560.749878
475.525070	2559.315670
475.895321	2560.230639
476.265513	2561.871535
476.635645	2562.126113
477.005719	2562.887327
477.375734	2564.364385
477.745691	2563.512430
478.115588	2561.150650
478.485427	2562.988150
478.855207	2562.242060
479.224928	2564.152657
479.594591	2564.646690
479.964194	2563.751885
480.333739	2564.503017
480.703226	2564.578634
481.072653	2565.463357
481.442022	2565.546536
481.811333	2564.258521
482.180584	2562.047975
482.549777	2565.150805
482.918912	2561.652245
483.287988	2563.802297
483.657005	2564.918912
484.025964	2565.707853
484.394864	2568.994685
484.763706	2568.147771
485.132489	2568.235992
485.501213	2562.506720
485.869879	2567.414283
486.238487	2567.709191
486.607036	2564.223233
486.975527	2567.389078
487.343959	2566.675754
487.712333	2566.617781
488.080648	2566.640466
488.448905	2567.280693
488.817104	2565.153326
489.185244	2564.750034
489.553326	2569.304716
489.921350	2568.767833
490.289315	2566.070816
490.657222	2570.456620
491.025070	2569.934860
491.392861	2570.953173
491.760593	2569.960066
492.128267	2571.616085
492.495883	2571.951322
492.863440	2568.500652
493.230939	2570.592731
493.598380	2571.512742
493.965763	2573.420818
494.333088	2568.687175
494.700354	2568.475446
495.067563	2570.302865
495.434713	2567.666341
495.801805	2567.096691
496.168839	2568.908986
496.535815	2571.119532
496.902733	2567.996537
497.269593	2566.441341
497.636395	2567.981413
498.003139	2569.113152
498.369825	2569.264387
498.736453	2569.745817
499.103023	2570.658266
499.469535	2570.244891
499.835989	2570.370920
500.202385	2567.744479
500.568723	2566.542164
500.935003	2566.776577
501.301226	2563.986299
501.667390	2567.338666
502.033497	2570.630540
502.399546	2571.926116
502.765537	2570.688513
503.131470	2571.863102
503.497345	2570.587690
503.863163	2572.896538
504.228923	2569.816393
504.594625	2573.095664
504.960269	2568.379664
505.325856	2571.197669
505.691385	2569.534089
506.056856	2569.483677
506.422270	2569.929819
506.787625	2571.240519
507.152924	2570.905283
507.518164	2569.443348
507.883347	2570.202042
508.248472	2572.621795
508.613540	2569.614747
508.978550	2569.808832
509.343503	2573.284707
509.708398	2573.514080
510.073236	2573.345201
510.438016	2574.119018
510.802738	2574.943247
511.167403	2575.558267
511.532010	2573.904769
511.896561	2577.118505
512.261053	2573.892166
512.625488	2574.035839
512.989866	2574.734039
513.354186	2574.608010
513.718449	2579.127404
514.082655	2574.804615
514.446803	2575.729667
514.810894	2579.011458
515.174927	2578.504822
515.538904	2576.299317
515.902822	2576.629513
516.266684	2579.248392
516.630488	2581.181675
516.994235	2577.189081
517.357925	2582.252920
517.721558	2583.321644
518.085133	2581.153948
518.448651	2580.307034
518.812112	2580.286870
519.175516	2581.423650
519.538863	2579.485326
519.902152	2585.418764
520.265385	2585.408682
520.628560	2586.051429
520.991678	2584.271902
521.354739	2585.350709
521.717743	2585.506985
522.080690	2587.422623
522.443580	2587.601584
522.806413	2591.062336
523.169189	2589.701225
523.531908	2592.367995
523.894569	2588.564444
524.257174	2593.071236
524.619722	2591.362285
524.982213	2594.873448
525.344647	2595.856473
525.707025	2596.025352
526.069345	2595.213726
526.431608	2595.599375
526.793815	2597.278079
527.155964	2598.435024
527.518057	2598.195569
527.880093	2599.571804
528.242072	2599.009715
528.603995	2602.130189
528.965860	2599.912082
529.327669	2600.728749
529.689421	2605.560695
530.051117	2603.458533
530.412755	2603.531630
530.774337	2604.738987
531.135862	2604.859974
531.497331	2605.734614
531.858743	2605.512804
532.220098	2609.097064
532.581396	2610.044801
532.942638	2609.454986
533.303824	2610.453134
533.664953	2612.522528
534.026025	2608.557661
534.387040	2613.566047
534.747999	2613.109822
535.108902	2613.772734
535.469748	2612.683845
535.830537	2612.910697
536.191270	2619.323045
536.551947	2611.950357
536.912567	2614.062601
537.273131	2616.484875
537.633638	2617.097375
537.994089	2621.236162
538.354483	2619.852366
538.714821	2621.677263
539.075103	2620.321193
539.435328	2622.120885
539.795497	2622.093159
540.155609	2625.672378
540.515665	2623.507202
540.875665	2622.428395
541.235609	2623.940742
541.595496	2624.220526
541.955328	2624.954013
542.315102	2627.915691
542.674821	2627.971144
543.034483	2627.038531
543.394090	2629.501134
543.753640	2630.375774
544.113134	2631.779736
544.472571	2629.770836
544.831953	2632.135137
545.191278	2632.964407
545.550548	2630.423665
545.909761	2634.063378
546.268918	2632.203193
546.628019	2635.295941
546.987064	2634.741414
547.346053	2634.839716
547.704986	2633.405508
548.063863	2637.267032
548.422684	2636.684778
548.781449	2636.954480
549.140158	2635.729480
549.498811	2636.712505
549.857408	2635.177473
550.215949	2639.717032
550.574434	2637.254429
550.932864	2640.644605
551.291237	2639.565798
551.649555	2641.559574
552.007817	2640.634522
552.366022	2642.535037
552.724173	2639.286014
553.082267	2642.235089
553.440305	2642.424132
553.798288	2641.446148
554.156215	2645.204328
554.514086	2640.221148
554.871902	2639.212917
555.229661	2641.166364
555.587365	2639.497742
555.945014	2645.703403
556.302606	2647.034267
556.660143	2649.615338
557.017625	2647.387148
557.375050	2646.542755
557.732421	2648.932262
558.089735	2647.971922
558.446994	2648.039977
558.804197	2650.953764
559.161345	2648.884371
559.518437	2648.390338
559.875474	2650.043836
560.232455	2651.137767
560.589381	2653.638179
560.946251	2650.404279
561.303065	2652.967705
561.659825	2656.398211
562.016528	2652.332520
562.373177	2653.643220
562.729770	2651.692293
563.086307	2654.631286
563.442789	2655.021976
563.799216	2656.483910
564.155587	2656.894764
564.511904	2662.016577
564.868164	2657.933242
565.224370	2658.651606
565.580520	2658.838129
565.936615	2660.564724
566.292654	2656.607418
566.648638	2660.529436
567.004567	2661.336021
567.360441	2663.491114
567.716260	2660.279899
568.072023	2664.461536
568.427732	2662.329128
568.783385	2665.149654
569.138982	2666.190652
569.494525	2666.102432
569.850013	2668.189469
570.205445	2667.193842
570.560823	2665.270641
570.916145	2669.341373
571.271412	2666.651917
571.626625	2671.531754
571.981782	2673.207938
572.336884	2669.762309
572.691931	2672.550067
573.046923	2667.987823
573.401860	2671.935047
573.756743	2677.634071
574.111570	2676.204904
574.466342	2678.302024
574.821059	2681.989628
575.175722	2679.244720
575.530330	2682.002231
575.884882	2686.385514
576.239380	2685.011800
576.593823	2685.699917
576.948211	2689.092614
577.302544	2685.581450
577.656823	2688.739733
578.011047	2690.095803
578.365216	2691.764425
578.719330	2694.448840
579.073389	2696.021680
579.427394	2700.878832
579.781344	2698.292720
580.135239	2700.626774
580.489080	2699.981506
580.842866	2699.873121
581.196597	2714.716799
581.550273	2707.137424
581.903895	2712.347457
582.257463	2718.749722
582.610975	2716.445915
582.964434	2722.631410
583.317837	2724.088304
583.671186	2730.667010
584.024481	2735.985427
584.377721	2733.643811
584.730906	2735.481312
585.084037	2739.967938
585.437113	2741.535737
585.790135	2748.991604
586.143103	2748.545462
586.496016	2750.445977
586.848874	2758.436206
587.201679	2758.610125
587.554428	2759.051226
587.907124	2767.711929
588.259765	2771.565891
588.612352	2779.115019
588.964884	2781.910338
589.317362	2786.243210
589.669786	2792.453912
590.022155	2796.151598
590.374470	2801.659059
590.726731	2805.185346
591.078937	2806.622075
591.431090	2813.679690
591.783188	2815.106337
592.135232	2821.153201
592.487222	2829.760971
592.839157	2836.395129
593.191038	2842.058866
593.542866	2841.431242
593.894639	2847.246213
594.246358	2859.445805
594.598022	2861.729448
594.949633	2866.039634
595.301190	2870.120448
595.652692	2879.749052
596.004141	2886.791544
596.355535	2886.141235
596.706876	2893.271947
597.058162	2899.341497
597.409395	2906.220151
597.760573	2915.274063
598.111698	2919.639703
598.462768	2927.410641
598.813785	2936.431786
599.164748	2934.690068
599.515657	2944.109463
599.866511	2951.582974
600.217312	2968.105356
600.568060	2963.205354
600.918753	2984.000114
601.269392	2992.938080
601.619978	2993.207781
601.970510	3014.015144
602.320988	3018.005217
602.671412	3034.658669
603.021783	3043.740308
603.372100	3048.872202
603.722363	3063.138668
604.072572	3074.937488
604.422728	3088.656988
604.772830	3094.550097
605.122878	3098.640993
605.472872	3116.519446
605.822813	3129.046713
606.172701	3142.244454
606.522534	3157.098213
606.872314	3172.839216
607.222041	3177.013292
607.571714	3199.315356
607.921333	3212.008982
608.270899	3230.840212
608.620411	3256.774428
608.969870	3255.738471
609.319276	3278.375772
609.668627	3301.507107
610.017926	3328.026096
610.367171	3346.360773
610.716362	3374.046790
611.065500	3379.609703
611.414585	3403.265318
611.763616	3418.615631
612.112594	3440.693364
612.461518	3451.557051
612.810389	3483.482678
613.159207	3488.796054
613.507971	3504.559742
613.856682	3556.128226
614.205340	3571.856626
614.553945	3616.196094
614.902496	3606.441462
615.250994	3656.542969
615.599439	3674.965866
615.947830	3696.438661
616.296169	3720.089234
616.644454	3749.708533
616.992686	3764.564814
617.340864	3815.636743
617.688990	3837.641380
618.037063	3888.100809
618.385082	3903.181421
618.733048	3950.850572
619.080961	3969.449909
619.428821	4013.534799
619.776628	4041.976989
620.124382	4059.265626
620.472083	4093.293415
620.819731	4128.110144
621.167326	4120.271150
621.514868	4143.054644
621.862357	4151.705264
622.209793	4174.045138
622.557176	4180.475129
622.904506	4173.747710
623.251783	4190.892674
623.599007	4204.566804
623.946179	4220.138928
624.293297	4235.590064
624.640363	4240.371599
624.987376	4255.603445
625.334336	4255.681583
625.681243	4268.473511
626.028097	4287.556799
626.374899	4334.232842
626.721647	4325.536852
627.068343	4335.641845
627.414987	4357.585987
627.761577	4399.946803
628.108115	4443.023463
628.454600	4420.653343
628.801032	4454.698775
629.147412	4480.380933
629.493739	4515.303527
629.840014	4531.699880
630.186236	4570.395777
630.532405	4571.618256
630.878521	4636.364316
631.224585	4651.528107
631.570597	4671.085263
631.916556	4694.183830
632.262462	4722.081575
632.608316	4758.909725
632.954117	4775.341366
633.299866	4816.532634
633.645562	4832.850849
633.991206	4818.097912
634.336797	4807.629956
634.682336	4850.086554
635.027823	4846.371223
635.373257	4868.980798
635.718639	4856.582080
636.063968	4880.303230
636.409245	4871.861818
636.754470	4899.570520
637.099642	4905.090583
637.444762	4878.997571
637.789829	4925.933234
638.134845	4921.562553
638.479808	4951.703612
638.824719	4968.430161
639.169577	4963.399089
639.514383	4996.027958
639.859137	4996.542155
640.203839	5046.081574
640.548489	5030.219583
640.893086	5076.391512
641.237632	5043.596285
641.582125	5133.338906
641.926566	5121.519921
642.270955	5148.842975
642.615292	5172.896840
642.959576	5203.907498
643.303809	5249.890383
643.647990	5251.692595
643.992118	5315.203572
644.336195	5267.131129
644.680219	5345.054765
645.024192	5380.960383
645.368112	5458.881498
645.711981	5522.430283
646.055797	5591.610037
646.399562	5626.003310
646.743274	5720.464450
647.086935	5856.936047
647.430544	5886.542743
647.774101	5918.372589
648.117606	6017.743813
648.461059	6015.777763
648.804460	6075.437298
649.147810	6025.855030
649.491108	5999.739332
649.834354	6055.628084
650.177548	5990.146017
650.520690	5968.670701
650.863781	5972.696063
651.206820	6001.894426
651.549807	5983.070757
651.892742	5959.727694
652.235626	5964.421008
652.578458	5997.682542
652.921238	5927.797026
653.263967	6024.413260
653.606644	5994.834290
653.949269	6007.394324
654.291843	5996.283621
654.634365	6065.470937
654.976836	6055.471809
655.319255	6086.258135
655.661622	6104.534838
656.003938	6110.705211
656.346203	6112.341065
656.688416	6160.284959
657.030577	6176.202402
657.372687	6189.415266
657.714746	6201.312389
658.056753	6281.791890
658.398708	6274.492299
658.740612	6294.427542
659.082465	6364.923037
659.424266	6361.641246
659.766016	6411.664616
660.107715	6407.309059
660.449362	6455.358817
660.790958	6485.099104
661.132503	6491.004816
661.473996	6537.476692
661.815438	6579.739206
662.156829	6610.938907
662.498168	6633.951774
662.839456	6656.939436
663.180693	6690.362286
663.521879	6768.593432
663.863013	6788.745444
664.204097	6814.354506
664.545129	6884.287912
664.886110	6892.895683
665.227040	6961.714994
665.567918	6998.727146
665.908746	7049.355454
666.249522	7054.605816
666.590248	7108.155472
666.930922	7188.239242
667.271545	7219.401135
667.612118	7281.377080
667.952639	7275.325175
668.293109	7292.865870
668.633528	7317.141546
668.973896	7322.596075
669.314213	7426.685819
669.654480	7309.224414
669.994695	7359.512444
670.334859	7415.975888
670.674973	7417.911691
671.015035	7469.923796
671.355047	7468.197201
671.695008	7473.434960
672.034918	7505.370669
672.374777	7555.666261
672.714585	7550.456229
673.054342	7588.292609
673.394049	7593.805111
673.733705	7662.909248
674.073310	7655.339955
674.412864	7697.811676
674.752368	7660.053434
675.091820	7674.453490
675.431223	7727.534319
675.770574	7678.841814
676.109875	7659.203999
676.449125	7672.288314
676.788324	7662.934453
677.127473	7607.547296
677.466571	7625.571942
677.805619	7609.997297
678.144616	7586.311435
678.483562	7602.004547
678.822458	7549.642082
679.161303	7562.164308
679.500098	7587.564162
679.838842	7578.185095
680.177535	7624.409956
680.516179	7665.381933
680.854771	7660.660893
681.193314	7823.477559
681.531805	7900.183756
681.870247	8166.187801
682.208638	8403.898369
682.546978	8615.006769
682.885268	8701.666724
683.223508	8539.397023
683.561697	8488.627562
683.899836	8452.124567
684.237925	8354.661419
684.575963	8340.064758
684.913951	8334.544695
685.251889	8282.625852
685.589776	8402.779233
685.927614	8375.756128
686.265401	8345.113474
686.603137	8400.603975
686.940824	8515.539762
687.278460	8594.446423
687.616046	8657.155856
687.953582	8774.549206
688.291068	8722.675732
688.628504	8883.140701
688.965889	8900.953618
689.303224	8928.609388
689.640510	8895.229387
689.977745	8735.097136
690.314930	8614.376624
690.652065	8607.823124
690.989150	8445.296324
691.326185	8326.645207
691.663170	8226.666523
692.000105	8091.505627
692.336990	8063.134013
692.673825	7911.473420
693.010610	7855.587189
693.347345	7735.695947
693.684030	7617.397711
694.020665	7611.756659
694.357251	7489.755695
694.693786	7497.715677
695.030272	7370.315637
695.366707	7320.556928
695.703093	7288.941332
696.039429	7305.932541
696.375716	7288.084336
696.711952	7188.022473
697.048139	7232.301448
697.384276	7229.601910
697.720363	7233.342446
698.056400	7206.828497
698.392388	7192.199069
698.728326	7171.910945
699.064214	7144.645865
699.400053	7204.466717
699.735842	7081.278561
700.071581	7073.681542
700.407270	7035.577981
700.742910	6994.192628
701.078501	6954.876669
701.414042	6880.933025
701.749533	6844.467838
702.084974	6758.075064
702.420366	6851.124682
702.755709	6790.552698
703.091002	6705.163113
703.426246	6735.830973
703.761440	6714.154011
704.096584	6689.222985
704.431679	6654.958262
704.766725	6660.790877
705.101721	6628.104036
705.436668	6675.561458
705.771565	6614.934021
706.106413	6676.085738
706.441212	6730.414253
706.775961	6697.568615
707.110661	6726.782102
707.445311	6862.850406
707.779913	6780.377129
708.114465	6897.326857
708.448967	6933.643329
708.783421	7025.278903
709.117825	7180.793458
709.452180	7213.019034
709.786485	7279.975640
710.120742	7501.070565
710.454949	7500.818507
710.789107	7575.228459
711.123216	7722.669606
711.457275	7854.657096
711.791286	7987.247004
712.125247	7970.908624
712.459159	7985.757343
712.793023	8192.419445
713.126837	7875.938327
713.460602	8012.016713
713.794318	7880.538380
714.127985	7934.181298
714.461602	7730.692602
714.795171	7697.983075
715.128691	7530.195831
715.462162	7342.937131
715.795584	7324.967938
716.128957	7239.800164
716.462281	7096.868329
716.795556	7167.472209
717.128782	7017.414703
717.461960	6802.565768
717.795088	6871.969853
718.128167	6812.159083
718.461198	6691.461257
718.794180	6652.866183
719.127113	6656.163098
719.459997	6550.301388
719.792833	6355.624629
720.125619	6414.326345
720.458357	6301.391896
720.791046	6303.851979
721.123686	6324.868550
721.456278	6196.432553
721.788821	6209.050561
722.121315	6119.864987
722.453761	6177.135016
722.786158	6144.853987
723.118506	6163.400392
723.450805	6146.608308
723.783056	6206.058636
724.115259	6116.648731
724.447412	6125.203569
724.779518	6164.549775
725.111574	6172.040930
725.443582	6248.328711
725.775542	6228.509414
726.107453	6393.614765
726.439315	6326.035577
726.771129	6361.842892
727.102895	6505.412433
727.434612	6606.364060
727.766281	6623.609847
728.097901	6705.818463
728.429473	6695.360590
728.760996	6674.631365
729.092471	6670.401837
729.423897	6645.642210
729.755276	6669.935530
730.086606	6619.818899
730.417887	6705.238731
730.749120	6848.364650
731.080305	7024.752103
731.411442	7153.457802
731.742530	7150.170969
732.073570	7264.121211
732.404562	7349.911567
732.735506	7203.949998
733.066401	7333.046387
733.397249	7297.271838
733.728048	7119.331711
734.058798	6838.330233
734.389501	6669.345715
734.720156	6524.246184
735.050762	6309.871117
735.381320	6221.252673
735.711831	6193.390216
736.042293	6099.987718
736.372707	6132.692203
736.703073	6008.135374
737.033391	6040.494541
737.363661	6053.326798
737.693883	6065.717954
738.024056	6139.376773
738.354182	6188.845616
738.684260	6219.997426
739.014290	6303.879706
739.344272	6400.732874
739.674207	6421.063847
740.004093	6475.720037
740.333931	6499.980590
740.663722	6515.504823
740.993464	6586.154074
741.323159	6603.435149
741.652806	6373.273709
741.982405	6370.019644
742.311956	6449.395132
742.641460	6335.742318
742.970915	6155.052241
743.300323	6160.486605
743.629683	6106.180775
743.958996	5997.957284
744.288260	5923.575059
744.617477	5875.754674
744.946647	5895.687396
745.275768	5746.386063
745.604842	5709.905754
745.933869	5697.557447
746.262847	5654.833668
746.591778	5652.189583
746.920662	5617.115755
747.249498	5604.212922
747.578286	5651.756044
747.907027	5721.855809
748.235720	5780.103821
748.564365	5748.725159
748.892963	5762.921048
749.221514	5921.772847
749.550017	5789.550943
749.878473	5664.270708
750.206881	5713.268203
750.535242	5662.163506
750.863555	5606.975474
751.191821	5627.301407
751.520039	5632.327437
751.848210	5545.571700
752.176334	5560.342281
752.504411	5622.860150
752.832440	5551.248039
753.160421	5478.758767
753.488356	5524.666035
753.816243	5561.688269
754.144082	5425.985448
754.471875	5390.518411
754.799620	5445.071257
755.127318	5453.076609
755.454969	5402.902005
755.782572	5374.180031
756.110129	5416.195528
756.437638	5415.058747
756.765100	5361.244430
757.092515	5346.531823
757.419882	5392.121497
757.747203	5377.199682
758.074477	5439.084887
758.401703	5432.543990
758.728882	5378.626329
759.056014	5421.062762
759.383099	5560.485954
759.710138	5565.605245
760.037129	5545.022214
760.364073	5553.831631
760.690970	5638.255834
761.017820	5630.081603
761.344623	5575.286781
761.671379	5664.575698
761.998088	5776.713645
762.324751	5993.846223
762.651366	6530.217431
762.977935	7705.885084
763.304456	9210.853509
763.630931	10097.867214
763.957359	9808.744438
764.283740	8960.474521
764.610074	8211.812763
764.936362	7286.629963
765.262602	6710.902467
765.588796	6194.411050
765.914943	5857.851016
766.241044	5714.031938
766.567097	5540.724631
766.893104	5291.182474
767.219064	5119.430363
767.544978	5058.722267
767.870845	4994.757587
768.196665	4885.548550
768.522438	4823.431453
768.848165	4791.626813
769.173846	4733.290581
769.499479	4697.349674
769.825066	4645.750944
770.150607	4589.529476
770.476101	4561.422523
770.801548	4561.185588
771.126949	4500.522864
771.452303	4448.077220
771.777611	4403.369747
772.102872	4416.297786
772.428087	4384.767889
772.753256	4348.128783
773.078378	4310.786436
773.403453	4242.849326
773.728482	4232.048654
774.053465	4188.546017
774.378401	4170.927184
774.703291	4178.448586
775.028135	4111.761682
775.352932	4066.434147
775.677683	4051.499729
776.002388	4073.239705
776.327046	4083.037187
776.651658	4011.052031
776.976224	3946.941157
777.300743	3956.158907
777.625216	3977.730004
777.949643	3977.490549
778.274024	3935.190227
778.598359	3881.552350
778.922647	3903.932553
779.246889	3902.596647
779.571086	3898.351996
779.895236	3886.180130
780.219339	3867.381667
780.543397	3858.957899
780.867409	3905.434817
781.191374	3922.277312
781.515294	3869.408211
781.839167	3858.542004
782.162995	3880.259294
782.486776	3866.927963
782.810511	3875.616392
783.134201	3878.101681
783.457844	3838.009384
783.781441	3779.174077
784.104993	3783.267494
784.428498	3796.520688
784.751958	3803.298519
785.075372	3786.566930
785.398739	3745.937750
785.722061	3753.131477
786.045337	3793.304432
786.368568	3832.776666
786.691752	3750.011002
787.014891	3790.229328
787.337983	3903.418355
787.661030	4050.942681
787.984031	4208.045200
788.306987	4381.990213
788.629897	4459.379487
788.952760	4420.441614
789.275579	4350.586345
789.598351	4297.472748
789.921078	4175.829706
790.243759	3980.091785
790.566395	3951.616827
790.888984	3949.491981
791.211529	3849.404912
791.534027	3785.372176
791.856480	3786.030047
792.178888	3724.371694
792.501249	3672.127696
792.823566	3674.852440
793.145836	3711.577246
793.468062	3667.242818
793.790241	3618.762042
794.112375	3644.073675
794.434464	3702.339331
794.756507	3726.703228
795.078505	3718.002196
795.400457	3738.444075
795.722364	3867.091801
796.044226	3967.758602
796.366042	4036.459446
796.687812	4028.335627
797.009538	4039.511865
797.331218	3991.595698
797.652852	3963.599650
797.974442	3947.530972
798.295986	3953.726550
798.617484	3874.194786
798.938938	3782.375210
799.260346	3820.874502
799.581709	3822.651509
799.903026	3755.296652
800.224299	3719.171744
800.545526	3711.695713
800.866708	3678.315712
801.187845	3613.652832
801.508936	3650.370076
801.829983	3656.374090
802.150984	3576.280238
802.471940	3559.931776
802.792851	3574.790577
803.113717	3576.146647
803.434538	3579.514138
803.755314	3527.711241
804.076045	3495.946931
804.396731	3511.811442
804.717372	3540.364538
805.037967	3529.720141
805.358518	3517.555837
805.679024	3538.572407
805.999485	3551.429870
806.319901	3552.211249
806.640272	3570.072057
806.960598	3585.941609
807.280879	3559.833474
807.601115	3567.952252
807.921306	3582.846341
808.241453	3623.372177
808.561554	3605.256790
808.881611	3541.518962
809.201623	3571.276893
809.521590	3587.290118
809.841513	3556.718041
810.161390	3586.596959
810.481223	3571.725556
810.801011	3515.821680
811.120755	3501.797190
811.440453	3535.184752
811.760107	3547.948953
812.079716	3507.097963
812.399281	3471.457006
812.718801	3492.498782
813.038276	3467.585399
813.357707	3467.655976
813.677093	3485.743636
813.996434	3436.983075
814.315731	3437.880400
814.634983	3442.772840
814.954191	3452.615693
815.273354	3485.171465
815.592473	3486.058708
815.911547	3484.989983
816.230577	3514.243799
816.549562	3570.598858
816.868502	3612.652163
817.187399	3640.000423
817.506250	3634.649238
817.825058	3604.407356
818.143821	3685.690921
818.462539	3791.217394
818.781213	3835.491328
819.099843	3888.829256
819.418429	4106.919654
819.736970	4340.809028
820.055466	4567.804623
820.373919	4921.789405
820.692327	5318.881094
821.010691	5708.176638
821.329011	6947.120854
821.647286	9456.856776
821.965517	13692.449361
822.283704	17558.495122
822.601847	19860.056596
822.919945	18250.741327
823.237999	15854.575040
823.556010	13476.617400
823.873976	11493.084678
824.191897	9476.466864
824.509775	8138.290055
824.827609	7044.213477
825.145398	6491.450958
825.463144	6376.883175
825.780845	6497.061762
826.098502	6642.919987
826.416116	7421.632063
826.733685	8673.373248
827.051210	9782.774934
827.368692	9925.091748
827.686129	8773.717415
828.003522	7293.881662
828.320872	6300.829807
828.638177	5622.323267
828.955439	5092.929017
829.272656	4609.668886
829.589830	4319.424453
829.906960	4151.677538
830.224046	3976.542812
830.541088	3852.028833
830.858086	3808.753048
831.175041	3738.000453
831.491952	3715.796691
831.808819	3721.231055
832.125642	3789.780665
832.442421	3922.821756
832.759157	4174.352648
833.075849	4673.283206
833.392497	5496.964895
833.709101	6242.622125
834.025662	6605.875068
834.342179	6309.309028
834.658653	5667.386142
834.975083	5051.563829
835.291469	4492.681349
835.607811	4084.743618
835.924110	3949.350828
836.240366	3762.702107
836.556578	3556.939851
836.872746	3447.597224
837.188871	3416.029519
837.504952	3355.291177
837.820990	3274.486522
838.136984	3225.768811
838.452935	3246.704723
838.768842	3246.782861
839.084706	3265.661982
839.400526	3407.910741
839.716303	3712.761917
840.032037	4196.004404
840.347727	4486.770596
840.663373	4250.529524
840.978977	3886.275912
841.294537	3588.431939
841.610054	3361.900130
841.925527	3254.752925
842.240957	3184.806916
842.556344	3136.023670
842.871687	3083.144487
843.186987	3035.122455
843.502244	2997.520488
843.817458	2962.940694
844.132629	2929.195210
844.447756	2940.633588
844.762840	2928.131526
845.077881	2899.517937
845.392879	2877.238558
845.707833	2874.786036
846.022745	2870.717825
846.337613	2875.590100
846.652438	2862.956969
846.967221	2861.018645
847.281960	2847.457941
847.596656	2842.658763
847.911309	2841.668176
848.225919	2839.213134
848.540485	2830.809531
848.855009	2832.273986
849.169490	2822.778973
849.483928	2817.337047
849.798323	2813.011737
850.112675	2809.961839
850.426984	2820.170176
850.741251	2817.276553
851.055474	2809.331695
851.369654	2802.248874
851.683792	2807.584935
851.997887	2816.084320
852.311938	2816.434681
852.625947	2809.011582
852.939914	2811.179278
853.253837	2817.833601
853.567718	2800.267700
853.881555	2796.701084
854.195350	2812.134576
854.509103	2810.395378
854.822812	2801.936322
855.136479	2801.643935
855.450103	2803.095787
855.763685	2795.518933
856.077224	2788.337810
856.390720	2803.821714
856.704173	2813.104998
857.017584	2803.947742
857.330953	2804.177115
857.644278	2810.221458
857.957561	2820.303766
858.270802	2820.026503
858.584000	2820.684373
858.897155	2809.644246
859.210268	2810.292035
859.523339	2807.111067
859.836367	2807.917651
860.149352	2801.099491
860.462295	2796.854839
860.775195	2802.957156
861.088054	2807.884884
861.400869	2790.263530
861.713642	2784.428395
862.026373	2800.975982
862.339062	2804.358597
862.651708	2807.075778
862.964312	2812.069041
863.276873	2804.535037
863.589392	2811.232210
863.901869	2824.555979
864.214303	2843.697241
864.526696	2862.352030
864.839045	2857.988912
865.151353	2857.426823
865.463619	2853.799713
865.775842	2854.697038
866.088023	2871.486601
866.400162	2881.067314
866.712258	2855.937162
867.024313	2842.008454
867.336325	2848.370390
867.648296	2867.594830
867.960224	2866.510982
868.272110	2849.928107
868.583954	2853.275433
868.895755	2869.855788
869.207515	2859.387832
869.519233	2856.854652
869.830909	2868.378730
870.142542	2875.393495
870.454134	2878.531614
870.765684	2882.103271
871.077191	2881.193343
871.388657	2883.950854
871.700081	2899.102042
872.011463	2908.854154
872.322803	2909.610327
872.634101	2907.697209
872.945357	2925.195054
873.256571	2948.142387
873.567744	2948.066769
873.878874	2935.642846
874.189963	2958.950620
874.501010	2961.478759
874.812015	2950.357974
875.122979	2951.015844
875.433900	2948.512911
875.744780	2950.766307
876.055618	2959.986578
876.366415	2954.993315
876.677169	2969.597537
876.987882	2966.068730
877.298554	2956.455249
877.609183	2975.241109
877.919771	2993.520333
878.230317	3018.894981
878.540822	3071.333063
878.851285	3107.765482
879.161707	3142.781337
879.472087	3230.784759
879.782425	3430.316149
880.092722	3835.307326
880.402977	4332.342410
880.713191	4914.673817
881.023363	5972.174303
881.333494	7196.864657
881.643583	7760.669823
881.953631	7491.855336
882.263637	6933.834893
882.573602	6394.043263
882.883526	5841.525239
883.193408	5289.045025
883.503248	4830.783976
883.813048	4543.680182
884.122806	4274.545581
884.432522	3974.932164
884.742197	3751.518308
885.051831	3562.326324
885.361424	3425.330448
885.670975	3359.639172
885.980485	3280.717388
886.289954	3209.944629
886.599382	3169.012981
886.908768	3130.972434
887.218113	3089.264447
887.527417	3038.923485
887.836680	2990.591423
888.145901	2982.898622
888.455082	2978.250678
888.764221	2927.851742
889.073319	2898.176990
889.382376	2897.433420
889.691392	2898.474418
890.000366	2897.632546
890.309300	2889.002090
890.618193	2898.522309
890.927044	2914.510329
891.235855	2918.878488
891.544625	2901.577248
891.853353	2908.735687
892.162041	2927.932401
892.470687	2963.931280
892.779293	3016.061852
893.087858	3056.771690
893.396381	3121.850466
893.704864	3229.234604
894.013306	3449.933799
894.321707	3727.724061
894.630068	3935.800207
894.938387	3942.719191
895.246665	3893.225142
895.554903	3787.174389
895.863100	3599.706480
896.171256	3440.897531
896.479371	3310.447593
896.787446	3192.986188
897.095480	3095.059254
897.403473	3033.088349
897.711425	2997.308760
898.019336	2988.569920
898.327207	2965.141157
898.635038	2933.581014
898.942827	2917.587953
899.250576	2908.937333
899.558284	2877.067158
899.865952	2858.039323
900.173579	2840.730522
900.481165	2834.648369
900.788711	2821.904332
901.096216	2799.788791
901.403681	2783.485699
901.711105	2792.766463
902.018489	2789.623304
902.325832	2790.855866
902.633135	2799.647638
902.940397	2826.867348
903.247619	2900.805952
903.554800	3070.108063
903.861941	3379.811349
904.169041	3781.349335
904.476101	4081.272783
904.783121	4065.125968
905.090100	3836.658355
905.397039	3577.538006
905.703938	3337.881552
906.010796	3161.211795
906.317614	3056.323028
906.624391	2971.369503
906.931129	2895.815210
907.237826	2842.174812
907.544483	2798.142854
907.851099	2769.733431
908.157675	2748.553023
908.464211	2730.672051
908.770707	2716.488764
909.077163	2707.331508
909.383578	2692.565969
909.689954	2681.309072
909.996289	2680.000893
910.302584	2678.387724
910.608839	2680.694052
910.915054	2675.264729
911.221229	2668.504542
911.527363	2670.959583
911.833458	2676.976201
912.139513	2679.073321
912.445527	2682.072807
912.751502	2692.255938
913.057436	2699.043852
913.363331	2713.562375
913.669186	2729.074005
913.975000	2760.591299
914.280775	2814.498877
914.586510	2882.151162
914.892205	2954.839559
915.197859	3070.123186
915.503475	3244.017788
915.809050	3439.796039
916.114585	3581.830548
916.420081	3610.880197
916.725536	3560.655182
917.030952	3448.151751
917.336328	3330.095490
917.641665	3206.468754
917.946961	3110.258332
918.252218	3046.102088
918.557435	2974.671459
918.862612	2919.909404
919.167750	2872.683875
919.472848	2835.820438
919.777906	2811.615337
920.082925	2786.994342
920.387904	2758.789086
920.692843	2743.400964
920.997743	2734.031980
921.302603	2723.884137
921.607423	2713.690924
921.912204	2701.052751
922.216946	2691.519929
922.521647	2682.269412
922.826310	2674.584173
923.130932	2670.079902
923.435516	2658.117244
923.740059	2654.210350
924.044564	2645.842034
924.349028	2640.768113
924.653454	2635.454737
924.957840	2630.363172
925.262186	2625.493417
925.566493	2621.021913
925.870761	2616.033692
926.174989	2611.708382
926.479178	2608.580346
926.783328	2602.334356
927.087438	2603.077926
927.391509	2601.484922
927.695541	2597.399067
927.999533	2595.922008
928.303486	2592.607450
928.607400	2593.340938
928.911275	2592.030238
929.215110	2592.710793
929.518906	2589.860021
929.822663	2589.817171
930.126381	2589.348344
930.430060	2590.943869
930.733699	2590.245669
931.037299	2590.464959
931.340861	2593.509816
931.644383	2593.116606
931.947866	2592.080649
932.251309	2589.832295
932.554714	2589.013107
932.858080	2586.502612
933.161407	2585.290215
933.464694	2587.853642
933.767943	2581.292580
934.071153	2587.909094
934.374323	2586.716862
934.677455	2583.109916
934.980548	2582.441963
935.283602	2583.505647
935.586617	2581.927765
935.889593	2582.651171
936.192530	2581.935327
936.495428	2583.268712
936.798287	2584.140832
937.101108	2588.778693
937.403890	2588.960175
937.706632	2595.501072
938.009336	2600.690940
938.312002	2609.555809
938.614628	2616.366408
938.917216	2622.950155
939.219765	2625.256483
939.522275	2624.351596
939.824747	2622.312449
940.127179	2620.583333
940.429573	2616.996552
940.731929	2615.706017
941.034246	2612.081427
941.336524	2609.984307
941.638763	2605.371651
941.940964	2602.520879
942.243126	2601.636156
942.545250	2603.904676
942.847335	2598.762699
943.149381	2596.461412
943.451389	2592.597367
943.753359	2586.689135
944.055290	2587.054619
944.357182	2587.813312
944.659036	2586.187540
944.960851	2586.386666
945.262628	2583.092272
945.564367	2584.037488
945.866067	2585.176789
946.167729	2586.061512
946.469352	2587.248703
946.770937	2583.203177
947.072484	2585.194433
947.373992	2584.218970
947.675462	2581.889957
947.976893	2574.754203
948.278286	2577.859554
948.579641	2577.015161
948.880958	2574.557598
949.182236	2577.330233
949.483476	2574.489543
949.784678	2576.657239
950.085841	2573.806467
950.386967	2579.134966
950.688054	2576.493402
950.989103	2577.874678
951.290114	2582.071438
951.591087	2582.126891
951.892021	2582.106726
952.192917	2586.598394
952.493776	2589.842377
952.794596	2585.592684
953.095378	2589.232397
953.396122	2587.762901
953.696828	2585.990935
953.997496	2585.880030
954.298126	2583.392221
954.598718	2580.637230
954.899272	2579.283680
955.199788	2576.695048
955.500266	2577.612538
955.800706	2571.185067
956.101108	2568.029304
956.401472	2568.450241
956.701798	2566.128789
957.002087	2565.496124
957.302337	2564.382029
957.602550	2562.463870
957.902724	2562.224416
958.202861	2560.661658
958.502960	2559.492110
958.803022	2556.933725
959.103045	2558.614949
959.403031	2556.664023
959.702979	2558.630073
960.002889	2555.665874
960.302762	2553.404917
960.602596	2555.527243
960.902393	2555.421378
961.202153	2555.708724
961.501875	2554.304763
961.801559	2553.780483
962.101205	2550.546583
962.400814	2555.005483
962.700385	2553.505740
962.999918	2549.485420
963.299414	2551.998435
963.598873	2552.142108
963.898293	2547.118598
964.197677	2553.283929
964.497022	2552.850390
964.796331	2552.250493
965.095601	2551.421223
965.394835	2552.928528
965.694030	2551.227138
965.993189	2552.225287
966.292309	2552.005997
966.591393	2554.312325
966.890439	2550.019782
967.189447	2550.695297
967.488419	2549.848383
967.787353	2554.191337
968.086249	2548.285625
968.385108	2550.614638
968.683930	2552.225287
968.982714	2550.430636
969.281462	2550.649926
969.580172	2552.142108
969.878844	2550.866696
970.177480	2553.034392
970.476078	2552.868034
970.774639	2551.010369
971.073162	2551.627910
971.371649	2552.966337
971.670098	2556.795093
971.968510	2550.377704
972.266885	2554.755946
972.565223	2552.222766
972.863524	2552.003476
973.161788	2552.936090
973.460014	2553.815771
973.758204	2551.524567
974.056356	2553.840977
974.354471	2553.326779
974.652550	2553.823333
974.950591	2552.865513
975.248595	2551.141439
975.546563	2554.047664
975.844493	2552.714279
976.142386	2552.736964
976.440243	2551.597663
976.738062	2554.312325
977.035845	2554.095555
977.333590	2553.336861
977.631299	2550.249155
977.928971	2549.344267
978.226606	2547.161448
978.524204	2547.940306
978.821765	2548.797302
979.119290	2551.912735
979.416777	2549.555996
979.714228	2552.250493
980.011642	2548.943496
980.309020	2550.092879
980.606360	2549.939124
980.903664	2548.827549
981.200931	2552.079093
981.498162	2552.484906
981.795356	2553.694783
982.092513	2553.876265
982.389633	2555.345761
982.686717	2560.782646
982.983764	2562.761298
983.280775	2567.026115
983.577749	2567.562997
983.874686	2570.020560
984.171587	2565.170970
984.468451	2562.814231
984.765279	2560.588561
985.062070	2558.869528
985.358824	2557.974723
985.655543	2554.072870
985.952224	2553.377191
986.248869	2552.774773
986.545478	2552.875596
986.842050	2550.387786
987.138586	2549.898794
987.435086	2549.563558
987.731549	2549.477858
988.027975	2549.064483
988.324366	2548.976263
988.620719	2550.942313
988.917037	2550.312169
989.213318	2549.649257
989.509563	2548.361242
989.805772	2546.967363
990.101944	2546.453166
990.398080	2551.005328
990.694180	2548.308310
990.990244	2547.093392
991.286271	2546.478372
991.582262	2546.135573
991.878217	2546.972405
992.174136	2546.511139
992.470019	2545.457538
992.765865	2547.887374
993.061676	2544.212373
993.357450	2544.250182
993.653188	2545.961653
993.948890	2546.937117
994.244556	2548.194884
994.540186	2549.843342
994.835780	2547.489123
995.131337	2548.386448
995.426859	2551.522046
995.722345	2548.497354
996.017795	2550.294525
996.313208	2552.086655
996.608586	2552.931048
996.903928	2552.152190
997.199234	2549.946685
997.494504	2551.801830
997.789738	2552.169834
998.084936	2551.035575
998.380099	2550.153373
998.675225	2549.596325
998.970316	2550.095399
999.265371	2550.665050
999.560390	2550.672612
999.855373	2549.929041
1000.150320	2550.027344
1000.445232	2546.521221
1000.740108	2548.159596
1001.034948	2547.642878
1001.329752	2551.199412
1001.624521	2544.744215
1001.919254	2547.990718
1002.213951	2550.521377
1002.508613	2548.880481
1002.803239	2548.318393
1003.097829	2546.480892
1003.392384	2547.458876
1003.686903	2549.061963
1003.981386	2548.373845
1004.275834	2550.513815
1004.570246	2548.822508
1004.864623	2545.006355
1005.158964	2547.529452
1005.453270	2546.385110
1005.747540	2550.362581
1006.041775	2545.659184
1006.335974	2547.310162
1006.630138	2545.749925
1006.924266	2549.671942
1007.218359	2547.592467
1007.512416	2543.146169
1007.806438	2544.446787
1008.100425	2544.207332
1008.394376	2542.127856
1008.688292	2546.122970
1008.982172	2545.956612
1009.276017	2544.567774
1009.569827	2546.778320
1009.863602	2546.584236
1010.157341	2546.929555
1010.451045	2547.847045
1010.744714	2545.868392
1011.038347	2546.541386
1011.331945	2546.382590
1011.625508	2545.354194
1011.919036	2548.578012
1012.212528	2547.312682
1012.505986	2548.530121
1012.799408	2545.099616
1013.092795	2546.795964
1013.386147	2544.839997
1013.679464	2546.997610
1013.972745	2547.252189
1014.265992	2545.260933
1014.559204	2546.087682
1014.852380	2547.189174
1015.145521	2545.492826
1015.438628	2547.073228
1015.731699	2547.622713
1016.024736	2546.241437
1016.317737	2548.048691
1016.610703	2546.858979
1016.903635	2548.968702
1017.196531	2549.049360
1017.489393	2548.363763
1017.782219	2544.277908
1018.075011	2546.185985
1018.367768	2545.938968
1018.660490	2548.245296
1018.953177	2548.245296
1019.245829	2548.245296
