Dividing Wavelength (nm)	Counts (n)	Blue Motor Position (mm): 49.800000	Red Motor Position (mm): 0.000000	
326.493990	2288.265430
326.888308	2288.265430
327.282561	2288.265430
327.676750	2244.394789
328.070874	2241.395303
328.464933	2243.499984
328.858929	2248.430233
329.252859	2252.783269
329.646726	2262.313570
330.040528	2275.297062
330.434265	2287.758794
330.827938	2309.229069
331.221547	2322.668785
331.615091	2340.093533
332.008571	2359.822089
332.401986	2377.728267
332.795338	2399.579148
333.188625	2418.367529
333.581847	2436.934098
333.975006	2455.944290
334.368100	2477.217959
334.761129	2493.256390
335.154095	2511.820439
335.546996	2535.705426
335.939833	2576.687486
336.332606	2589.945721
336.725315	2606.034563
337.117960	2616.920935
337.510540	2631.232771
337.903056	2638.534882
338.295508	2648.208856
338.687896	2655.642037
339.080220	2664.990857
339.472480	2672.378668
339.864676	2676.000737
340.256807	2680.116839
340.648875	2686.123374
341.040879	2687.015658
341.432818	2690.352902
341.824694	2692.790300
342.216506	2694.156453
342.608253	2695.056299
342.999937	2693.780887
343.391557	2695.215095
343.783113	2694.567307
344.174605	2690.988088
344.566033	2691.860207
344.957397	2691.267872
345.348697	2688.901050
345.739934	2687.726461
346.131106	2686.486337
346.522215	2685.770493
346.913260	2681.498116
347.304241	2680.668846
347.695159	2679.826973
348.086012	2680.071469
348.476802	2678.100378
348.867528	2671.209121
349.258191	2673.412105
349.648789	2669.487567
350.039324	2665.265600
350.429796	2669.943791
350.820203	2669.152330
351.210548	2667.466064
351.600828	2667.150992
351.991045	2665.575631
352.381198	2663.634787
352.771288	2667.440858
353.161314	2665.557987
353.551276	2662.941628
353.941175	2663.695281
354.331010	2661.527585
354.720782	2664.519509
355.110490	2663.806186
355.500135	2661.585558
355.889717	2664.688388
356.279235	2662.540857
356.668689	2662.107317
357.058080	2664.680826
357.447408	2664.332987
357.836672	2662.162770
358.225873	2666.515806
358.615010	2664.990857
359.004084	2666.412463
359.393095	2666.243584
359.782043	2667.826506
360.170927	2667.854233
360.559748	2666.833399
360.948505	2671.146106
361.337199	2670.261384
361.725830	2670.548729
362.114398	2670.649552
362.502903	2670.021929
362.891344	2671.879594
363.279722	2672.366065
363.668037	2672.542506
364.056289	2673.719615
364.444478	2675.146262
364.832603	2675.284893
365.220665	2677.717250
365.608665	2676.683814
365.996601	2675.942764
366.384474	2676.459482
366.772284	2680.089113
367.160031	2676.804801
367.547715	2679.126253
367.935336	2679.963084
368.322893	2678.024761
368.710388	2678.546520
369.097820	2682.650019
369.485189	2680.157169
369.872495	2690.148736
370.259738	2692.666792
370.646918	2694.403469
371.034035	2698.925384
371.421090	2701.806404
371.808081	2710.983824
372.195010	2716.415668
372.581875	2729.431927
372.968678	2736.184552
373.355418	2746.657550
373.742096	2759.769591
374.128710	2773.693258
374.515262	2789.499796
374.901751	2806.982517
375.288177	2821.712769
375.674540	2841.118690
376.060841	2863.435878
376.447079	2885.606873
376.833254	2913.212232
377.219367	2932.761826
377.605417	2969.199286
377.991404	2991.234170
378.377329	3027.044006
378.763191	3045.421532
379.148991	3086.446442
379.534727	3129.860859
379.920402	3167.926612
380.306013	3188.479396
380.691563	3253.432143
381.077049	3273.165740
381.462474	3315.178716
381.847835	3366.795090
382.233134	3408.162798
382.618371	3438.109773
383.003545	3504.799197
383.388657	3525.326776
383.773706	3589.732557
384.158693	3618.809932
384.543618	3647.796567
384.928480	3705.447202
385.313280	3761.582971
385.698017	3784.399233
386.082692	3876.097822
386.467305	3875.482801
386.851856	3909.815579
387.236344	3990.315245
387.620770	4018.318854
388.005133	4068.354827
388.389435	4112.563225
388.773674	4124.117550
389.157851	4202.152091
389.541965	4269.524592
389.926018	4235.027976
390.310008	4331.392152
390.693936	4387.422057
391.077802	4420.030760
391.461606	4418.251233
391.845348	4485.212879
392.229027	4546.510790
392.612645	4540.617681
392.996200	4645.110718
393.379694	4702.947876
393.763125	4808.633146
394.146494	4836.576261
394.529801	4893.017020
394.913047	4980.281913
395.296230	4926.187812
395.679351	5029.629768
396.062410	5087.693778
396.445408	5056.357966
396.828343	5115.778047
397.211217	5175.979506
397.594028	5056.514242
397.976778	5173.095966
398.359466	5223.310899
398.742092	5240.702880
399.124656	5165.337630
399.507158	5288.056959
399.889598	5345.352193
400.271977	5467.743846
400.654294	5465.344257
401.036549	5514.374519
401.418742	5432.964926
401.800874	5634.779958
402.182944	5698.119536
402.564952	5798.120905
402.946898	5862.970308
403.328783	5693.330440
403.710606	5722.979986
404.092367	6045.308843
404.474067	6068.258695
404.855705	5957.617971
405.237282	5896.395678
405.618797	6165.805022
406.000250	6131.394106
406.381642	6347.205902
406.762972	6367.068048
407.144240	6419.213744
407.525447	6405.622793
407.906593	6409.733854
408.287677	6584.089722
408.668700	6503.277505
409.049661	6611.125430
409.430560	6634.841538
409.811399	6495.259550
410.192176	6761.137565
410.572891	6788.553880
410.953545	6973.317210
411.334138	6699.504418
411.714669	6870.916252
412.095139	6666.227762
412.475547	6912.697335
412.855894	6985.070660
413.236180	7173.347674
413.616405	6821.283572
413.996568	7040.046963
414.376670	7104.571212
414.756711	6999.087588
415.136691	7102.214473
415.516609	7302.691079
415.896466	7272.872654
416.276262	7490.925243
416.655997	7481.213460
417.035670	7644.327554
417.415283	7992.963672
417.794834	8069.392606
418.174324	7926.193589
418.553753	7851.700459
418.933121	8137.690158
419.312428	8236.811845
419.691674	8013.408072
420.070859	8490.860793
420.449983	8173.542844
420.829045	8540.690079
421.208047	8306.951939
421.586988	8628.353223
421.965867	8654.549579
422.344686	8734.744255
422.723444	8831.567176
423.102141	8142.791806
423.480777	8913.264115
423.859352	8446.395296
424.237866	9065.391015
424.616319	8925.062936
424.994712	9367.658600
425.373044	8886.578767
425.751314	9388.019820
426.129524	9274.460268
426.507673	9334.684412
426.885762	9489.956992
427.263789	9418.680118
427.641756	9369.899393
428.019662	9437.385319
428.397508	9724.630265
428.775292	9365.090132
429.153016	9765.025031
429.530679	9597.089073
429.908282	9592.118495
430.285824	9327.616715
430.663305	10012.966621
431.040726	9466.470256
431.418086	9438.431358
431.795385	9778.419377
432.172624	9884.162620
432.549802	9789.676273
432.926920	9858.069607
433.303977	9726.006500
433.680974	9922.253578
434.057910	10034.338593
434.434786	10115.551581
434.811601	9916.153782
435.188355	10485.237037
435.565050	10244.453885
435.941683	10151.873095
436.318257	10621.179312
436.694770	10823.868985
437.071222	10853.669766
437.447614	10674.229895
437.823946	10620.284507
438.200218	10688.022492
438.576429	10545.657786
438.952580	10793.687597
439.328670	10793.370004
439.704700	10619.598910
440.080670	10598.569737
440.456580	11108.416914
440.832429	10910.430637
441.208218	10516.144351
441.583947	10776.983733
441.959616	10987.623306
442.335224	10801.554317
442.710773	10890.384489
443.086261	11139.064608
443.461689	10396.500126
443.837057	11103.141346
444.212365	11311.618263
444.587612	10947.936822
444.962800	11152.781588
445.337927	10883.193283
445.712995	10599.703997
446.088002	11612.330652
446.462949	11335.699855
446.837837	11287.614809
447.212664	11186.791732
447.587431	11814.465798
447.962139	12581.679002
448.336786	14887.328851
448.711374	15349.567371
449.085901	13148.975167
449.460369	12809.670226
449.834776	12253.363775
450.209124	13216.183831
450.583412	13644.170230
450.957640	14553.372573
451.331808	13554.982137
451.705917	12668.956498
452.079965	11878.279244
452.453954	12800.467599
452.827883	12472.938793
453.201752	12751.603695
453.575562	12327.161226
453.949311	12732.280952
454.323001	12726.778533
454.696632	12965.421715
455.070202	13240.086462
455.443713	13402.603179
455.817164	13920.438064
456.190556	13879.677815
456.563888	14245.330347
456.937160	14374.600655
457.310373	13740.078182
457.683526	13866.573335
458.056619	13377.989746
458.429653	13612.501702
458.802628	12936.283846
459.175542	13370.100340
459.548398	14309.675635
459.921194	14696.921950
460.293930	14760.059881
460.666607	15590.393372
461.039224	16667.438412
461.411782	17403.358653
461.784280	17131.446377
462.156719	17268.941327
462.529099	16926.059687
462.901419	15912.104687
463.273680	15649.430325
463.645882	15572.882924
464.018024	15275.578356
464.390106	15524.767632
464.762130	16219.758745
465.134094	17037.254938
465.505999	19139.758890
465.877845	22417.033170
466.249631	25200.450813
466.621358	24770.939465
466.993026	23368.419888
467.364634	22759.655191
467.736184	21273.616299
468.107674	20499.756333
468.479105	20624.688729
468.850477	20069.587114
469.221790	19688.715338
469.593043	18996.509462
469.964238	18414.213343
470.335373	18048.366726
470.706449	18579.865659
471.077467	18188.294034
471.448425	20073.209183
471.819324	24255.209262
472.190164	25993.449519
472.560945	22265.178493
472.931667	20013.794144
473.302330	19421.322456
473.672934	19096.208362
474.043479	19275.504560
474.413965	19089.382640
474.784393	18662.931271
475.154761	19473.120312
475.525070	19342.882102
475.895321	19104.710268
476.265513	19726.982737
476.635645	20299.307454
477.005719	20039.796415
477.375734	20229.207689
477.745691	20717.773634
478.115588	21280.071496
478.485427	21851.579546
478.855207	22962.710347
479.224928	24768.882674
479.594591	27003.452254
479.964194	26849.485333
480.333739	27098.367099
480.703226	26687.540787
481.072653	26408.860761
481.442022	27068.198313
481.811333	28008.383588
482.180584	27857.711061
482.549777	26909.376762
482.918912	26595.080984
483.287988	26742.597748
483.657005	26343.673600
484.025964	26144.505174
484.394864	25999.332546
484.763706	25626.229188
485.132489	25133.950432
485.501213	25300.926051
485.869879	25212.171496
486.238487	25075.893984
486.607036	25190.663413
486.975527	24967.725946
487.343959	25229.583642
487.712333	25141.030733
488.080648	24797.919720
488.448905	25308.535672
488.817104	25105.291473
489.185244	25809.631406
489.553326	25746.642189
489.921350	26825.512126
490.289315	29216.685151
490.657222	30883.857742
491.025070	31412.029513
491.392861	31128.802366
491.760593	30262.958987
492.128267	29329.526338
492.495883	28260.191743
492.863440	27399.384477
493.230939	26533.044545
493.598380	26368.491201
493.965763	25983.964588
494.333088	25476.360725
494.700354	25465.733973
495.067563	25295.940350
495.434713	25047.860128
495.801805	25247.583081
496.168839	25003.845813
496.535815	24889.262907
496.902733	25100.199908
497.269593	24826.203114
497.636395	24979.305477
498.003139	24888.108483
498.369825	24622.749706
498.736453	24854.620098
499.103023	24722.937598
499.469535	24705.437232
499.835989	24941.814415
500.202385	24962.984741
500.568723	24510.964640
500.935003	24666.766541
501.301226	24390.561722
501.667390	25232.116821
502.033497	25399.425156
502.399546	25165.094681
502.765537	24682.494941
503.131470	25055.298350
503.497345	25219.070315
503.863163	24465.193484
504.228923	24982.622556
504.594625	25249.987712
504.960269	24823.765716
505.325856	25305.914272
505.691385	24681.159035
506.056856	25291.468846
506.422270	25292.771984
506.787625	24791.933350
507.152924	25243.161989
507.518164	25274.018892
507.883347	25093.404432
508.248472	24764.433856
508.613540	25531.826020
508.978550	25335.137841
509.343503	25368.981628
509.708398	25545.578288
510.073236	25725.555042
510.438016	25933.530365
510.802738	25585.448774
511.167403	25848.468455
511.532010	25625.707428
511.896561	26338.256881
512.261053	26311.120349
512.625488	26148.585988
512.989866	26028.772884
513.354186	25863.324736
513.718449	25995.773491
514.082655	26367.543464
514.446803	26065.613637
514.810894	26572.163898
515.174927	26065.233029
515.538904	26103.916323
515.902822	26610.390968
516.266684	26361.519285
516.630488	26255.108089
516.994235	26193.895878
517.357925	26549.214046
517.721558	26689.950458
518.085133	26830.084453
518.448651	26705.497377
518.812112	26499.823341
519.175516	26718.090179
519.538863	26860.291047
519.902152	26669.097725
520.265385	26900.206903
520.628560	26724.774749
520.991678	26685.209253
521.354739	26735.658600
521.717743	26859.484462
522.080690	26613.345084
522.443580	26941.819107
522.806413	26895.201037
523.169189	27024.120985
523.531908	27073.073109
523.894569	26702.845730
524.257174	26809.977811
524.619722	26930.970544
524.982213	26653.780179
525.344647	26643.937326
525.707025	26832.773908
526.069345	26761.756653
526.431608	26749.710816
526.793815	26916.021002
527.155964	26430.739368
527.518057	26599.456705
527.880093	26513.134508
528.242072	26737.952325
528.603995	26454.967154
528.965860	26237.365748
529.327669	26277.851255
529.689421	26268.671313
530.051117	26132.068647
530.412755	26286.887523
530.774337	26062.841002
531.135862	25981.212118
531.497331	26154.274930
531.858743	25760.281030
532.220098	26190.956886
532.581396	25891.575362
532.942638	25767.610868
533.303824	25901.771095
533.664953	25872.204728
534.026025	25543.587032
534.387040	25795.064992
534.747999	25832.956825
535.108902	25994.775343
535.469748	25505.150755
535.830537	25651.122406
536.191270	25800.358203
536.551947	25600.617606
536.912567	25232.651184
537.273131	25703.719284
537.633638	25356.282961
537.994089	25567.030918
538.354483	25053.307094
538.714821	25570.305148
539.075103	25613.764935
539.435328	25367.973397
539.795497	25006.683983
540.155609	25314.010366
540.515665	25635.063810
540.875665	24845.372101
541.235609	25216.602670
541.595496	25122.718742
541.955328	25494.637428
542.315102	25400.004888
542.674821	24908.746967
543.034483	24809.710979
543.394090	24975.874971
543.753640	24788.951507
544.113134	25417.129688
544.472571	24985.896785
544.831953	25291.554546
545.191278	24967.181502
545.550548	24825.726725
545.909761	25037.808067
546.268918	25281.787310
546.628019	25268.798777
546.987064	24939.613952
547.346053	24660.046683
547.704986	24765.857982
548.063863	24917.049747
548.422684	24947.228615
548.781449	24438.263640
549.140158	24854.035324
549.498811	24430.054121
549.857408	24199.741446
550.215949	24580.348561
550.574434	24298.195180
550.932864	24488.065199
551.291237	24685.605333
551.649555	24498.336550
552.007817	24581.966772
552.366022	24415.069291
552.724173	24422.746968
553.082267	24408.132663
553.440305	24878.232862
553.798288	24106.056643
554.156215	24588.094294
554.514086	24752.014973
554.871902	24158.850126
555.229661	24407.139556
555.587365	24258.843933
555.945014	24169.207177
556.302606	24352.022101
556.660143	24379.645103
557.017625	24592.512865
557.375050	24114.911429
557.732421	24503.365101
558.089735	24322.042359
558.446994	24374.077149
558.804197	24422.767133
559.161345	24278.683394
559.518437	24106.734678
559.875474	24251.040227
560.232455	24427.770478
560.589381	24245.613425
560.946251	24271.628300
561.303065	24549.983171
561.659825	24633.018537
562.016528	24241.595626
562.373177	23969.801816
562.729770	24343.391645
563.086307	24173.121633
563.442789	24360.902093
563.799216	24212.321645
564.155587	24204.149935
564.511904	24186.059754
564.868164	24154.149250
565.224370	24111.889258
565.580520	24055.493870
565.936615	24165.978318
566.292654	23869.666857
566.648638	24085.140895
567.004567	23935.620272
567.360441	23869.077042
567.716260	23584.952570
568.072023	23890.995978
568.427732	23676.878010
568.783385	23434.403551
569.138982	23709.786662
569.494525	23716.695564
569.850013	23493.291790
570.205445	23593.451955
570.560823	23414.846395
570.916145	23192.120656
571.271412	23390.522828
571.626625	23142.309015
571.981782	23241.690322
572.336884	23036.485113
572.691931	23176.727493
573.046923	22924.216097
573.401860	22797.559627
573.756743	22836.505061
574.111570	22732.004462
574.466342	22642.337459
574.821059	22729.829204
575.175722	22428.320313
575.530330	22375.136140
575.884882	22367.841591
576.239380	22290.197739
576.593823	22198.453780
576.948211	22167.410355
577.302544	22014.630626
577.656823	21885.330071
578.011047	21990.445690
578.365216	21853.492664
578.719330	21724.865103
579.073389	21606.876897
579.427394	21772.483842
579.781344	21513.194615
580.135239	21404.822410
580.489080	21334.326914
580.842866	21135.221502
581.196597	21356.011438
581.550273	21299.379115
581.903895	21187.009276
582.257463	21493.715596
582.610975	21033.720390
582.964434	21372.324612
583.317837	21016.706496
583.671186	21103.890731
584.024481	21099.643559
584.377721	20856.579285
584.730906	20970.458950
585.084037	20926.946231
585.437113	20866.976665
585.790135	21066.966800
586.143103	20515.915752
586.496016	20554.629293
586.848874	20772.318919
587.201679	20686.311793
587.554428	20401.859646
587.907124	20729.723690
588.259765	20488.595219
588.612352	20540.773682
588.964884	20129.849067
589.317362	20291.710435
589.669786	20350.991883
590.022155	20330.933132
590.374470	20607.662232
590.726731	20332.105201
591.078937	20152.425875
591.431090	20219.511029
591.783188	19999.507514
592.135232	19959.415217
592.487222	20049.447704
592.839157	20059.081349
593.191038	19931.842626
593.542866	19821.751388
593.894639	19514.130098
594.246358	19739.189891
594.598022	19623.505493
594.949633	19381.870386
595.301190	19385.855418
595.652692	19551.104441
596.004141	19756.052551
596.355535	19084.160004
596.706876	19104.080124
597.058162	19001.356532
597.409395	19261.787581
597.760573	19285.521333
598.111698	19044.418068
598.462768	19012.598305
598.813785	18984.869438
599.164748	18768.944216
599.515657	18841.375514
599.866511	18643.028796
600.217312	18990.248349
600.568060	18486.286720
600.918753	18810.029620
601.269392	18707.492551
601.619978	18508.946706
601.970510	18676.522222
602.320988	18624.842833
602.671412	18815.214447
603.021783	18774.809598
603.372100	18473.424216
603.722363	18640.752715
604.072572	18569.223783
604.422728	18729.408967
604.772830	18465.439028
605.122878	18435.406354
605.472872	18418.324404
605.822813	18399.132732
606.172701	18386.459271
606.522534	18544.754022
606.872314	18596.967773
607.222041	18441.790975
607.571714	18643.669022
607.921333	18471.939596
608.270899	18543.279485
608.620411	18685.674437
608.969870	18494.342484
609.319276	18483.854363
609.668627	18515.076749
610.017926	18657.950611
610.367171	18764.810470
610.716362	18818.561773
611.065500	18634.194174
611.414585	18776.077449
611.763616	18764.649153
612.112594	18681.195372
612.461518	18678.974743
612.810389	18869.164875
613.159207	18714.371205
613.507971	18637.241551
613.856682	18877.470176
614.205340	18788.418193
614.553945	18947.842163
614.902496	18691.247432
615.250994	18887.275220
615.599439	18854.714408
615.947830	18825.407660
616.296169	18910.913191
616.644454	18870.883908
616.992686	18847.654272
617.340864	19080.585826
617.688990	18806.203384
618.037063	18989.267845
618.385082	18857.875211
618.733048	19113.824674
619.080961	19013.770373
619.428821	19054.061795
619.776628	18914.371422
620.124382	18842.255196
620.472083	18908.770700
620.819731	18908.269105
621.167326	18606.659391
621.514868	18649.100866
621.862357	18427.769006
622.209793	18405.787055
622.557176	18244.018948
622.904506	18091.874405
623.251783	18024.396040
623.599007	17768.943130
623.946179	17699.102985
624.293297	17631.352398
624.640363	17359.329216
624.987376	17386.160757
625.334336	17183.869336
625.681243	17035.397273
626.028097	17059.438535
626.374899	16969.053167
626.721647	16841.600195
627.068343	16686.814087
627.414987	16606.821058
627.761577	16566.890078
628.108115	16590.507884
628.454600	16328.319993
628.801032	16423.491936
629.147412	16369.423041
629.493739	16373.413114
629.840014	16187.933941
630.186236	16281.782581
630.532405	16048.742642
630.878521	16236.918833
631.224585	16159.249775
631.570597	15977.090202
631.916556	16003.354613
632.262462	15968.984026
632.608316	15893.091976
632.954117	15838.478635
633.299866	15814.429811
633.645562	15744.113277
633.991206	15523.383835
634.336797	15392.074380
634.682336	15357.212281
635.027823	15204.654362
635.373257	15077.881946
635.718639	14998.037631
636.063968	14934.183856
636.409245	14680.765052
636.754470	14719.246700
637.099642	14574.389144
637.444762	14360.729920
637.789829	14398.503286
638.134845	14228.848295
638.479808	14249.602725
638.824719	14157.820957
639.169577	14022.072767
639.514383	14060.224219
639.859137	13899.371082
640.203839	13993.252490
640.548489	13844.672042
640.893086	13831.673427
641.237632	13713.070201
641.582125	13877.190005
641.926566	13680.615252
642.270955	13704.918655
642.615292	13646.421106
642.959576	13663.314012
643.303809	13676.990663
643.647990	13615.513791
643.992118	13685.442157
644.336195	13451.638483
644.680219	13690.390049
645.024192	13586.123864
645.368112	13835.300537
645.711981	13867.755486
646.055797	14057.106265
646.399562	14040.427608
646.743274	14290.761226
647.086935	14560.493203
647.430544	14527.768553
647.774101	14576.082972
648.117606	14709.378641
648.461059	14696.208627
648.804460	14671.567467
649.147810	14390.419796
649.491108	14309.834431
649.834354	14325.623325
650.177548	13997.580321
650.520690	13805.527483
650.863781	13735.289086
651.206820	13780.765335
651.549807	13614.707207
651.892742	13379.028223
652.235626	13329.929905
652.578458	13338.885515
652.921238	13041.384342
653.263967	13249.798244
653.606644	13078.308273
653.949269	13053.596537
654.291843	12838.303979
654.634365	13013.544569
654.976836	12859.905324
655.319255	12845.028879
655.661622	12827.775530
656.003938	12748.251328
656.346203	12656.250270
656.688416	12751.845670
657.030577	12689.663038
657.372687	12596.431938
657.714746	12589.870877
658.056753	12771.662446
658.398708	12581.207654
658.740612	12585.931215
659.082465	12697.978421
659.424266	12667.771827
659.766016	12707.871685
660.107715	12621.340280
660.449362	12693.159078
660.790958	12644.300215
661.132503	12585.724528
661.473996	12661.808142
661.815438	12670.703258
662.156829	12703.309441
662.498168	12671.121674
662.839456	12673.349864
663.180693	12678.867407
663.521879	12788.603244
663.863013	12746.786872
664.204097	12723.433727
664.545129	12861.410108
664.886110	12840.040657
665.227040	12932.664297
665.567918	12920.074015
665.908746	12936.866099
666.249522	12931.968618
666.590248	12990.123369
666.930922	13108.903036
667.271545	13066.413670
667.612118	13159.299451
667.952639	13062.567270
668.293109	13096.592538
668.633528	13031.055017
668.973896	13011.394517
669.314213	13064.858474
669.654480	12807.651243
669.994695	12903.672621
670.334859	12928.633895
670.674973	12863.373637
671.015035	12891.725087
671.355047	12850.715300
671.695008	12814.091318
672.034918	12827.480622
672.374777	12873.687838
672.714585	12788.991413
673.054342	12824.866784
673.394049	12786.306998
673.733705	12866.002599
674.073310	12767.329574
674.412864	12781.898509
674.752368	12635.165644
675.091820	12694.381558
675.431223	12652.557625
675.770574	12516.350689
676.109875	12429.995724
676.449125	12386.024259
676.788324	12351.260462
677.127473	12179.321828
677.466571	12168.102740
677.805619	12054.117211
678.144616	11997.394147
678.483562	11970.305507
678.822458	11831.782161
679.161303	11815.879842
679.500098	11797.661112
679.838842	11752.643608
680.177535	11797.696400
680.516179	11866.808098
680.854771	11807.503964
681.193314	12020.775019
681.531805	12190.510669
681.870247	12639.652271
682.208638	13049.901371
682.546978	13328.460409
682.885268	13348.894726
683.223508	13060.006364
683.561697	12916.532605
683.899836	12816.949652
684.237925	12610.685801
684.575963	12523.393181
684.913951	12436.685335
685.251889	12395.736042
685.589776	12501.938030
685.927614	12406.004873
686.265401	12392.184549
686.603137	12453.931122
686.940824	12602.042743
687.278460	12744.054567
687.616046	12764.972835
687.953582	12915.821802
688.291068	12857.147813
688.628504	13098.246036
688.965889	13102.820883
689.303224	13038.284032
689.640510	12924.762288
689.977745	12602.113319
690.314930	12390.427707
690.652065	12299.782720
690.989150	11993.605720
691.326185	11763.565268
691.663170	11561.228476
692.000105	11329.993269
692.336990	11204.019876
692.673825	10943.014135
693.010610	10834.195788
693.347345	10628.219283
693.684030	10437.807341
694.020665	10373.822496
694.357251	10179.412918
694.693786	10100.080280
695.030272	9957.375297
695.366707	9836.473304
695.703093	9785.444225
696.039429	9767.621225
696.375716	9667.650103
696.711952	9543.173933
697.048139	9601.157284
697.384276	9556.948885
697.720363	9576.087626
698.056400	9505.370320
698.392388	9446.845044
698.728326	9415.357997
699.064214	9359.688535
699.400053	9391.357064
699.735842	9202.245739
700.071581	9175.910751
700.407270	9099.479297
700.742910	9016.421247
701.078501	8926.474459
701.414042	8783.020865
701.749533	8732.238801
702.084974	8590.433664
702.420366	8723.104231
702.755709	8594.789221
703.091002	8453.170607
703.426246	8492.045465
703.761440	8442.218700
704.096584	8397.163388
704.431679	8334.010333
704.766725	8318.642375
705.101721	8279.777600
705.436668	8328.213006
705.771565	8214.111530
706.106413	8308.907907
706.441212	8332.873552
706.775961	8297.840054
707.110661	8353.265020
707.445311	8472.437897
707.779913	8370.064665
708.114465	8492.284919
708.448967	8528.230867
708.783421	8702.070016
709.117825	8867.049337
709.452180	8898.153257
709.786485	8986.126433
710.120742	9280.197101
710.454949	9285.490313
710.789107	9392.146004
711.123216	9617.498184
711.457275	9796.570051
711.791286	9931.057953
712.125247	9942.760992
712.459159	9931.166338
712.793023	10139.943204
713.126837	9721.519873
713.460602	9883.144307
713.794318	9709.234581
714.127985	9730.440195
714.461602	9383.255930
714.795171	9344.358387
715.128691	9103.098846
715.462162	8863.744861
715.795584	8796.644583
716.128957	8619.667315
716.462281	8452.850493
716.795556	8498.349427
717.128782	8289.444012
717.461960	8038.220631
717.795088	8107.798636
718.128167	8011.870520
718.461198	7855.778753
718.794180	7803.053324
719.127113	7801.334291
719.459997	7615.870241
719.792833	7398.157930
720.125619	7477.946792
720.458357	7330.140162
720.791046	7324.000036
721.123686	7307.331461
721.456278	7141.537993
721.788821	7157.871332
722.121315	7066.954122
722.453761	7145.644013
722.786158	7073.187509
723.118506	7082.455670
723.450805	7053.229581
723.783056	7101.912003
724.115259	7024.000971
724.447412	7027.270159
724.779518	7084.031031
725.111574	7082.324600
725.443582	7157.674727
725.775542	7129.968545
726.107453	7320.025086
726.439315	7229.123000
726.771129	7321.847463
727.102895	7495.827765
727.434612	7595.287210
727.766281	7648.804099
728.097901	7709.106381
728.429473	7728.998774
728.760996	7733.757624
729.092471	7697.536933
729.423897	7628.914227
729.755276	7618.814275
730.086606	7529.056531
730.417887	7638.986452
730.749120	7862.460802
731.080305	8048.696148
731.411442	8143.028740
731.742530	8126.140874
732.073570	8234.850837
732.404562	8322.594640
732.735506	8186.470883
733.066401	8313.142476
733.397249	8224.254331
733.728048	7975.125549
734.058798	7647.125395
734.389501	7410.705362
734.720156	7247.066987
735.050762	7026.241764
735.381320	6948.033303
735.711831	6883.650207
736.042293	6773.274143
736.372707	6785.272089
736.703073	6661.852040
737.033391	6708.177723
737.363661	6714.116203
737.693883	6751.153560
738.024056	6828.492422
738.354182	6867.909204
738.684260	6897.213431
739.014290	7028.893411
739.344272	7132.935264
739.674207	7164.235788
740.004093	7246.857779
740.333931	7251.863645
740.663722	7259.954697
740.993464	7334.536048
741.323159	7299.610934
741.652806	7061.333236
741.982405	7109.014989
742.311956	7143.158724
742.641460	6949.916174
742.970915	6764.991527
743.300323	6750.586430
743.629683	6716.543518
743.958996	6577.508495
744.288260	6485.293188
744.617477	6430.500887
744.946647	6423.470998
745.275768	6272.286794
745.604842	6227.712912
745.933869	6205.037802
746.262847	6162.064486
746.591778	6149.781715
746.920662	6107.758656
747.249498	6111.844512
747.578286	6159.203631
747.907027	6228.862295
748.235720	6286.195338
748.564365	6268.163131
748.892963	6315.426468
749.221514	6444.243073
749.550017	6244.754533
749.878473	6144.604450
750.206881	6212.849070
750.535242	6163.675135
750.863555	6092.685606
751.191821	6101.442091
751.520039	6090.906079
751.848210	6000.855948
752.176334	6037.764756
752.504411	6076.684984
752.832440	5993.566439
753.160421	5930.710813
753.488356	5984.663762
753.816243	6001.498695
754.144082	5860.255647
754.471875	5841.613460
754.799620	5876.694849
755.127318	5889.801849
755.454969	5848.189645
755.782572	5814.139171
756.110129	5855.453948
756.437638	5832.189023
756.765100	5778.021824
757.092515	5788.411642
757.419882	5845.217885
757.747203	5809.478624
758.074477	5869.672522
758.401703	5851.355489
758.728882	5819.744934
759.056014	5889.827055
759.383099	5995.255226
759.710138	6012.059912
760.037129	5997.269167
760.364073	6001.412995
760.690970	6079.934008
761.017820	6053.052055
761.344623	6023.906624
761.671379	6134.673377
761.998088	6259.595690
762.324751	6531.071907
762.651366	7186.278234
762.977935	8573.480264
763.304456	10237.113965
763.630931	11070.111706
763.957359	10587.766544
764.283740	9612.850240
764.610074	8729.854336
764.936362	7725.094401
765.262602	7147.305073
765.588796	6626.221165
765.914943	6302.604294
766.241044	6119.128979
766.567097	5898.638992
766.893104	5646.611547
767.219064	5475.610567
767.544978	5415.915744
767.870845	5329.739739
768.196665	5227.250561
768.522438	5152.835568
768.848165	5116.733345
769.173846	5045.269948
769.499479	4998.465355
769.825066	4952.757213
770.150607	4889.808325
770.476101	4875.398187
770.801548	4862.613821
771.126949	4774.151653
771.452303	4719.465216
771.777611	4691.547306
772.102872	4707.139595
772.428087	4669.290612
772.753256	4626.392913
773.078378	4577.864246
773.403453	4508.281199
773.728482	4495.779138
774.053465	4451.205256
774.378401	4437.596661
774.703291	4431.176751
775.028135	4353.333774
775.352932	4309.085046
775.677683	4299.390908
776.002388	4315.391530
776.327046	4316.946726
776.651658	4251.124380
776.976224	4186.947971
777.300743	4192.311759
777.625216	4213.439234
777.949643	4199.772666
778.274024	4163.804034
778.598359	4129.193992
778.922647	4154.787930
779.246889	4141.358296
779.571086	4132.984940
779.895236	4114.788895
780.219339	4106.110548
780.543397	4105.137606
780.867409	4157.900843
781.191374	4169.724869
781.515294	4100.482100
781.839167	4098.342130
782.162995	4125.667705
782.486776	4113.896611
782.810511	4128.024444
783.134201	4107.877473
783.457844	4055.187333
783.781441	4009.116228
784.104993	4013.812063
784.428498	4030.964589
784.751958	4023.680121
785.075372	3999.716997
785.398739	3967.927480
785.722061	3983.638236
786.045337	4028.040719
786.368568	4050.630130
786.691752	3962.467911
787.014891	4025.651212
787.337983	4167.350485
787.661030	4327.477696
787.984031	4481.520234
788.306987	4644.999812
788.629897	4730.984253
788.952760	4687.922717
789.275579	4622.417964
789.598351	4543.929719
789.921078	4386.489443
790.243759	4194.058518
790.566395	4191.593394
790.888984	4179.345911
791.211529	4070.774581
791.534027	4012.224099
791.856480	3995.411851
792.178888	3935.028910
792.501249	3895.624731
792.823566	3904.958428
793.145836	3923.093979
793.468062	3871.558263
793.790241	3834.742716
794.112375	3863.721789
794.434464	3929.370215
794.756507	3950.621199
795.078505	3929.768466
795.400457	3970.841267
795.722364	4118.589925
796.044226	4224.963312
796.366042	4293.694404
796.687812	4257.509001
797.009538	4265.957975
797.331218	4233.215681
797.652852	4208.879511
797.974442	4180.026467
798.295986	4174.062782
798.617484	4092.086058
798.938938	4014.434645
799.260346	4056.881161
799.581709	4043.118811
799.903026	3963.324907
800.224299	3930.499434
800.545526	3924.160183
800.866708	3887.175757
801.187845	3832.504444
801.508936	3866.126420
801.829983	3851.282742
802.150984	3778.654839
802.471940	3775.670476
802.792851	3779.985703
803.113717	3782.559212
803.434538	3778.579221
803.755314	3718.294583
804.076045	3701.623487
804.396731	3724.162486
804.717372	3745.736104
805.037967	3730.327817
805.358518	3719.020509
805.679024	3747.442535
805.999485	3769.764764
806.319901	3767.173611
806.640272	3776.638377
806.960598	3790.224287
807.280879	3765.510030
807.601115	3785.006693
807.921306	3802.252480
808.241453	3840.552646
808.561554	3806.660969
808.881611	3741.191504
809.201623	3787.464255
809.521590	3797.523877
809.841513	3770.042027
810.161390	3794.473979
810.481223	3766.220833
810.801011	3718.902042
811.120755	3719.993452
811.440453	3750.530241
811.760107	3746.633429
812.079716	3699.934701
812.399281	3677.551978
812.718801	3704.978375
813.038276	3672.783046
813.357707	3671.200124
813.677093	3682.222607
813.996434	3630.076911
814.315731	3645.853202
814.634983	3651.584994
814.954191	3667.676357
815.273354	3690.119574
815.592473	3681.824356
815.911547	3699.715411
816.230577	3743.722163
816.549562	3792.265954
816.868502	3833.036286
817.187399	3853.445397
817.506250	3854.251982
817.825058	3834.677181
818.143821	3935.263324
818.462539	4027.445863
818.781213	4072.622163
819.099843	4141.544819
819.418429	4418.498249
819.736970	4655.248478
820.055466	4916.294548
820.373919	5286.673162
820.692327	5698.469896
821.010691	6213.123813
821.329011	7748.697083
821.647286	10689.421412
821.965517	15474.046062
822.283704	19430.013405
822.601847	21324.824339
822.919945	19365.348004
823.237999	16695.610900
823.556010	14171.726980
823.873976	11986.253197
824.191897	9887.217559
824.509775	8573.581087
824.827609	7457.643545
825.145398	6935.175840
825.463144	6815.962634
825.780845	6918.376195
826.098502	7176.090062
826.416116	8152.720358
826.733685	9529.036017
827.051210	10610.550039
827.368692	10501.295633
827.686129	9149.764807
828.003522	7658.639390
828.320872	6628.456917
828.638177	5910.105096
828.955439	5339.207026
829.272656	4838.499462
829.589830	4575.346190
829.906960	4396.259199
830.224046	4203.561093
830.541088	4080.665324
830.858086	4026.702293
831.175041	3955.034729
831.491952	3950.348977
831.808819	3954.971715
832.125642	4040.391546
832.442421	4200.884241
832.759157	4501.064788
833.075849	5096.977063
833.392497	6000.223283
833.709101	6793.894983
834.025662	7078.659681
834.342179	6631.040508
834.658653	5954.177384
834.975083	5294.227331
835.291469	4705.400397
835.607811	4318.401099
835.924110	4172.590765
836.240366	3965.931183
836.556578	3766.687139
836.872746	3659.434071
837.188871	3613.730970
837.504952	3545.435938
837.820990	3457.782876
838.136984	3420.400199
838.452935	3449.981690
838.768842	3438.611368
839.084706	3464.911067
839.400526	3644.038387
839.716303	4017.678628
840.032037	4574.216971
840.347727	4786.605824
840.663373	4461.161534
840.978977	4073.771547
841.294537	3764.837036
841.610054	3540.107439
841.925527	3440.269907
842.240957	3366.361551
842.556344	3308.758806
842.871687	3247.677666
843.186987	3198.907023
843.502244	3162.910664
843.817458	3125.810292
844.132629	3101.585027
844.447756	3105.965790
844.762840	3086.451483
845.077881	3056.050805
845.392879	3043.258877
845.707833	3039.699823
846.022745	3036.516334
846.337613	3036.430634
846.652438	3021.460928
846.967221	3021.319776
847.281960	3006.231602
847.596656	3001.757578
847.911309	3003.020387
848.225919	2998.692557
848.540485	2994.092504
848.855009	2991.012359
849.169490	2980.625061
849.483928	2973.690954
849.798323	2976.060297
850.112675	2970.930923
850.426984	2981.885350
850.741251	2977.686069
851.055474	2964.009418
851.369654	2961.390539
851.683792	2971.334215
851.997887	2977.524752
852.311938	2980.178919
852.625947	2965.972948
852.939914	2972.919658
853.253837	2972.186170
853.567718	2960.165538
853.881555	2958.252421
854.195350	2975.583908
854.509103	2966.918164
854.822812	2963.694346
855.136479	2955.777214
855.450103	2959.558079
855.763685	2955.245372
856.077224	2949.770679
856.390720	2967.762557
856.704173	2970.993937
857.017584	2962.721403
857.330953	2964.790797
857.644278	2975.513331
857.957561	2980.365442
858.270802	2983.463231
858.584000	2982.190340
858.897155	2967.949080
859.210268	2970.363793
859.523339	2967.124851
859.836367	2967.634008
860.149352	2961.564459
860.462295	2952.709672
860.775195	2964.402628
861.088054	2961.960189
861.400869	2942.614761
861.713642	2950.403344
862.026373	2962.756692
862.339062	2962.988585
862.651708	2966.472022
862.964312	2972.241623
863.276873	2964.024542
863.589392	2978.590956
863.901869	2988.935403
864.214303	3010.544309
864.526696	3027.684233
864.839045	3020.729961
865.151353	3018.945392
865.463619	3017.889271
865.775842	3024.344468
866.088023	3043.715102
866.400162	3043.856254
866.712258	3013.130421
867.024313	3003.663134
867.336325	3016.623941
867.648296	3041.645708
867.960224	3032.090201
868.272110	3017.516225
868.583954	3020.699714
868.895755	3030.605581
869.207515	3021.952441
869.519233	3031.087011
869.830909	3041.416336
870.142542	3048.615103
870.454134	3046.883467
870.765684	3050.666853
871.077191	3050.986966
871.388657	3064.313256
871.700081	3076.611151
872.011463	3083.822522
872.322803	3082.927717
872.634101	3082.055597
872.945357	3101.406066
873.256571	3130.531333
873.567744	3120.587657
873.878874	3113.880402
874.189963	3136.721870
874.501010	3137.173053
874.812015	3124.860035
875.122979	3125.797689
875.433900	3125.318780
875.744780	3133.422434
876.055618	3139.872591
876.366415	3136.764719
876.677169	3144.013899
876.987882	3141.440390
877.298554	3140.510297
877.609183	3165.451405
877.919771	3187.030064
878.230317	3215.300855
878.540822	3266.760954
878.851285	3307.760658
879.161707	3357.295036
879.472087	3475.976400
879.782425	3734.980802
880.092722	4197.708314
880.402977	4743.924895
880.713191	5416.868522
881.023363	6660.211145
881.333494	7972.972977
881.643583	8472.077454
881.953631	8126.471070
882.263637	7424.629029
882.573602	6798.759696
882.883526	6213.428803
883.193408	5646.084746
883.503248	5201.684349
883.813048	4880.809866
884.122806	4543.123134
884.432522	4221.631109
884.742197	3975.355621
885.051831	3788.855613
885.361424	3661.276613
885.670975	3587.451435
885.980485	3492.339985
886.289954	3410.237233
886.599382	3368.456150
886.908768	3332.381653
887.218113	3286.996145
887.527417	3225.398286
887.836680	3178.951615
888.145901	3171.987261
888.455082	3159.878410
888.764221	3104.387909
889.073319	3080.828076
889.382376	3076.628795
889.691392	3080.704568
890.000366	3080.709609
890.309300	3066.198648
890.618193	3079.398909
890.927044	3093.627566
891.235855	3091.913574
891.544625	3083.509970
891.853353	3094.774428
892.162041	3116.214456
892.470687	3156.016886
892.779293	3208.094526
893.087858	3258.284253
893.396381	3336.096984
893.704864	3471.169660
894.013306	3729.269175
894.321707	4045.117628
894.630068	4230.281729
894.938387	4216.254719
895.246665	4173.903985
895.554903	4045.435221
895.863100	3835.476204
896.171256	3664.470183
896.479371	3518.049870
896.787446	3389.911301
897.095480	3284.316772
897.403473	3223.591033
897.711425	3191.022658
898.019336	3183.261802
898.327207	3146.806698
898.635038	3105.948146
898.942827	3093.693101
899.250576	3083.446956
899.558284	3053.996535
899.865952	3035.429965
900.173579	3007.814525
900.481165	3001.238339
900.788711	2988.612770
901.096216	2964.442958
901.403681	2957.413068
901.711105	2961.481280
902.018489	2958.990950
902.325832	2957.264354
902.633135	2967.812969
902.940397	3006.856705
903.247619	3101.983278
903.554800	3314.732574
903.861941	3692.201571
904.169041	4140.390395
904.476101	4428.008386
904.783121	4349.043752
905.090100	4080.272114
905.397039	3790.544400
905.703938	3537.057541
906.010796	3356.483410
906.317614	3237.663414
906.624391	3140.409474
906.931129	3068.394070
907.237826	3004.636077
907.544483	2960.125209
907.851099	2930.410128
908.157675	2907.820718
908.464211	2885.712737
908.770707	2874.276880
909.077163	2856.496730
909.383578	2844.037518
909.689954	2834.877742
909.996289	2835.031497
910.302584	2833.524192
910.608839	2834.877742
910.915054	2826.181752
911.221229	2821.758139
911.527363	2821.175886
911.833458	2830.539829
912.139513	2836.707681
912.445527	2838.686334
912.751502	2845.822087
913.057436	2856.249714
913.363331	2873.644215
913.669186	2896.110117
913.975000	2936.013370
914.280775	3000.562825
914.586510	3068.134451
914.892205	3152.293994
915.197859	3296.193730
915.503475	3508.300278
915.809050	3736.825865
916.114585	3883.669635
916.420081	3879.866084
916.725536	3813.441321
917.030952	3688.443391
917.336328	3555.682083
917.641665	3421.524377
917.946961	3319.171310
918.252218	3244.995772
918.557435	3160.014521
918.862612	3098.008329
919.167750	3047.304403
919.472848	3009.873836
919.777906	2979.672283
920.082925	2950.463838
920.387904	2921.225146
920.692843	2907.341808
920.997743	2892.551063
921.302603	2879.421377
921.607423	2866.374871
921.912204	2853.915659
922.216946	2842.331088
922.521647	2833.309943
922.826310	2823.252841
923.130932	2818.224290
923.435516	2809.440080
923.740059	2802.188380
924.044564	2792.116154
924.349028	2785.834877
924.653454	2782.386727
924.957840	2771.389450
925.262186	2768.737803
925.566493	2764.485590
925.870761	2762.116248
926.174989	2757.682553
926.479178	2751.764238
926.783328	2748.058990
927.087438	2745.482961
927.391509	2743.274935
927.695541	2738.944584
927.999533	2734.924264
928.303486	2734.258832
928.607400	2734.624315
928.911275	2735.428379
929.215110	2732.859912
929.518906	2730.367061
929.822663	2730.621639
930.126381	2733.404356
930.430060	2734.541136
930.733699	2734.069788
931.037299	2733.371589
931.340861	2733.782443
931.644383	2734.803276
931.947866	2736.088771
932.251309	2730.319170
932.554714	2736.023236
932.858080	2728.101062
933.161407	2728.637945
933.464694	2726.500496
933.767943	2720.640155
934.071153	2726.371947
934.374323	2725.162070
934.677455	2725.618294
934.980548	2724.584857
935.283602	2724.839436
935.586617	2724.204250
935.889593	2722.270968
936.192530	2724.408417
936.495428	2724.756257
936.798287	2726.286247
937.101108	2728.610219
937.403890	2733.676578
937.706632	2738.135479
938.009336	2745.792992
938.312002	2754.040319
938.614628	2762.885024
938.917216	2769.131013
939.219765	2767.699326
939.522275	2769.894748
939.824747	2766.980961
940.127179	2761.942328
940.429573	2760.248500
940.731929	2758.809251
941.034246	2753.813467
941.336524	2751.101327
941.638763	2747.774165
941.940964	2746.954978
942.243126	2744.270563
942.545250	2743.925244
942.847335	2739.279821
943.149381	2736.250087
943.451389	2733.059037
943.753359	2731.778584
944.055290	2729.484859
944.357182	2726.878582
944.659036	2728.375805
944.960851	2728.305229
945.262628	2724.358006
945.564367	2725.925804
945.866067	2726.298850
946.167729	2727.140722
946.469352	2727.750702
946.770937	2725.726679
947.072484	2722.220556
947.373992	2725.373798
947.675462	2721.277861
947.976893	2718.348950
948.278286	2717.398693
948.579641	2715.425081
948.880958	2715.034392
949.182236	2715.737632
949.483476	2713.716130
949.784678	2715.407437
950.085841	2715.757797
950.386967	2718.321224
950.688054	2718.008672
950.989103	2719.883982
951.290114	2719.324413
951.591087	2722.560834
951.892021	2725.257852
952.192917	2725.661144
952.493776	2728.312791
952.794596	2727.954869
953.095378	2727.879252
953.396122	2729.278172
953.696828	2726.613922
953.997496	2723.556462
954.298126	2722.013869
954.598718	2720.423385
954.899272	2716.501367
955.199788	2715.493137
955.500266	2714.931048
955.800706	2710.625902
956.101108	2707.613813
956.401472	2703.933771
956.701798	2704.634491
957.002087	2702.681044
957.302337	2700.157947
957.602550	2699.520241
957.902724	2698.978317
958.202861	2698.111238
958.502960	2696.523275
958.803022	2696.528316
959.103045	2693.891792
959.403031	2692.828109
959.702979	2692.565969
960.002889	2690.133612
960.302762	2690.655372
960.602596	2691.812316
960.902393	2689.763087
961.202153	2690.282326
961.501875	2689.074970
961.801559	2689.906760
962.101205	2690.244517
962.400814	2690.647810
962.700385	2688.941379
962.999918	2688.570854
963.299414	2686.075483
963.598873	2686.141018
963.898293	2683.214628
964.197677	2690.254600
964.497022	2690.249559
964.796331	2690.055474
965.095601	2688.424661
965.394835	2688.795186
965.694030	2688.452387
965.993189	2687.000535
966.292309	2688.124712
966.591393	2685.878878
966.890439	2686.370391
967.189447	2686.262006
967.488419	2687.073632
967.787353	2686.153621
968.086249	2686.083045
968.385108	2688.142356
968.683930	2686.332582
968.982714	2685.589012
969.281462	2685.556244
969.580172	2686.814012
969.878844	2689.737882
970.177480	2688.202850
970.476078	2686.856862
970.774639	2686.017510
971.073162	2687.055988
971.371649	2688.064218
971.670098	2686.778724
971.968510	2687.653364
972.266885	2688.371729
972.565223	2690.168900
972.863524	2688.497758
973.161788	2689.962213
973.460014	2687.524815
973.758204	2684.921059
974.056356	2687.449198
974.354471	2686.864424
974.652550	2686.982891
974.950591	2683.370904
975.248595	2685.596574
975.546563	2687.247552
975.844493	2683.350740
976.142386	2687.073632
976.440243	2686.919877
976.738062	2684.021213
977.035845	2684.931141
977.333590	2687.166893
977.631299	2686.745957
977.928971	2683.408713
978.226606	2682.206398
978.524204	2683.474248
978.821765	2683.063394
979.119290	2683.630524
979.416777	2684.351409
979.714228	2684.860565
980.011642	2684.921059
980.309020	2686.720751
980.606360	2686.509022
980.903664	2686.803930
981.200931	2688.170083
981.498162	2687.136646
981.795356	2685.626821
982.092513	2689.377439
982.389633	2693.604447
982.686717	2693.458253
982.983764	2700.485622
983.280775	2702.295396
983.577749	2704.175746
983.874686	2702.159285
984.171587	2699.545446
984.468451	2697.092925
984.765279	2696.387163
985.062070	2691.335927
985.358824	2691.303160
985.655543	2689.488344
985.952224	2686.078004
986.248869	2689.614373
986.545478	2688.719568
986.842050	2685.357119
987.138586	2683.597756
987.435086	2685.742767
987.731549	2681.664474
988.027975	2684.482479
988.324366	2681.109947
988.620719	2681.583815
988.917037	2683.668332
989.213318	2683.368384
989.509563	2682.430729
989.805772	2681.959381
990.101944	2682.352591
990.398080	2681.949299
990.694180	2682.602128
990.990244	2684.973991
991.286271	2682.776048
991.582262	2681.815708
991.878217	2679.829494
992.174136	2679.920234
992.470019	2680.073990
992.765865	2679.252282
993.061676	2680.212621
993.357450	2680.522652
993.653188	2675.766324
993.948890	2681.588856
994.244556	2680.625996
994.540186	2681.508198
994.835780	2680.915862
995.131337	2682.861748
995.426859	2682.854186
995.722345	2684.525328
996.017795	2683.718744
996.313208	2685.261337
996.608586	2683.675894
996.903928	2686.982891
997.199234	2685.677232
997.494504	2686.708148
997.789738	2686.783765
998.084936	2684.656398
998.380099	2686.050277
998.675225	2682.617252
998.970316	2682.692869
999.265371	2682.077848
999.560390	2683.028106
999.855373	2684.071625
1000.150320	2680.938547
1000.445232	2679.877385
1000.740108	2682.687828
1001.034948	2679.711027
1001.329752	2680.565502
1001.624521	2681.906449
1001.919254	2681.036850
1002.213951	2680.547858
1002.508613	2681.178002
1002.803239	2680.620955
1003.097829	2679.511901
1003.392384	2679.627847
1003.686903	2681.356963
1003.981386	2680.716737
1004.275834	2680.363856
1004.570246	2680.832683
1004.864623	2681.709844
1005.158964	2680.731860
1005.453270	2680.983918
1005.747540	2680.593228
1006.041775	2679.658094
1006.335974	2679.693382
1006.630138	2678.843948
1006.924266	2681.016685
1007.218359	2683.141532
1007.512416	2676.890501
1007.806438	2676.582991
1008.100425	2674.236333
1008.394376	2675.763803
1008.688292	2679.118691
1008.982172	2678.942251
1009.276017	2678.987621
1009.569827	2679.718588
1009.863602	2680.227745
1010.157341	2679.181705
1010.451045	2679.771520
1010.744714	2677.215655
1011.038347	2679.655574
1011.331945	2676.822445
1011.625508	2675.496622
1011.919036	2678.037363
1012.212528	2680.126922
1012.505986	2679.746315
1012.799408	2677.074503
1013.092795	2678.914524
1013.386147	2679.350584
1013.679464	2678.072652
1013.972745	2680.520132
1014.265992	2680.661284
1014.559204	2677.878567
1014.852380	2679.496778
1015.145521	2678.390244
1015.438628	2678.604493
1015.731699	2679.431242
1016.024736	2676.666170
1016.317737	2676.721622
1016.610703	2679.305214
1016.903635	2679.521983
1017.196531	2674.858916
1017.489393	2679.358146
1017.782219	2677.024092
1018.075011	2679.408557
1018.367768	2678.607014
1018.660490	2676.855213
1018.953177	2676.855213
1019.245829	2676.855213
