Dividing Wavelength (nm)	Counts (n)	Blue Motor Position (mm): 14.600000	Red Motor Position (mm): 0.000000	
326.493990	2171.136741
326.888308	2171.136741
327.282561	2171.136741
327.676750	2133.287758
328.070874	2127.918929
328.464933	2128.183590
328.858929	2131.782974
329.252859	2136.365383
329.646726	2144.113636
330.040528	2156.555204
330.434265	2169.316885
330.827938	2188.702642
331.221547	2205.207380
331.615091	2220.245142
332.008571	2241.317165
332.401986	2259.112438
332.795338	2279.282094
333.188625	2297.873870
333.581847	2315.994297
333.975006	2332.806545
334.368100	2349.255830
334.761129	2367.406505
335.154095	2387.999618
335.546996	2409.250602
335.939833	2435.283121
336.332606	2450.711572
336.725315	2462.981740
337.117960	2477.533031
337.510540	2487.685915
337.903056	2498.146309
338.295508	2504.868688
338.687896	2516.639782
339.080220	2519.873682
339.472480	2527.216123
339.864676	2535.740714
340.256807	2541.238092
340.648875	2544.179605
341.040879	2547.789072
341.432818	2548.167158
341.824694	2552.058929
342.216506	2555.625545
342.608253	2556.739640
342.999937	2555.297870
343.391557	2557.258879
343.783113	2555.126471
344.174605	2553.979608
344.566033	2548.900646
344.957397	2550.798640
345.348697	2549.808054
345.739934	2546.932075
346.131106	2546.067518
346.522215	2547.584905
346.913260	2543.400747
347.304241	2539.589635
347.695159	2538.725077
348.086012	2536.411187
348.476802	2536.103677
348.867528	2531.274252
349.258191	2527.795855
349.648789	2530.210568
350.039324	2520.599608
350.429796	2529.857687
350.820203	2524.239321
351.210548	2524.708149
351.600828	2524.909795
351.991045	2521.086080
352.381198	2523.183200
352.771288	2522.394259
353.161314	2520.823940
353.551276	2520.644979
353.941175	2523.538601
354.331010	2519.964423
354.720782	2520.952489
355.110490	2520.682787
355.500135	2517.887468
355.889717	2518.520132
356.279235	2519.157838
356.668689	2520.206398
357.058080	2519.929135
357.447408	2518.590708
357.836672	2521.015503
358.225873	2522.583302
358.615010	2521.597757
359.004084	2521.605318
359.393095	2523.140350
359.782043	2521.484331
360.170927	2522.051461
360.559748	2522.026255
360.948505	2522.318642
361.337199	2524.241842
361.725830	2525.234949
362.114398	2524.824095
362.502903	2525.855011
362.891344	2524.496420
363.279722	2525.628159
363.668037	2529.154446
364.056289	2525.360978
364.444478	2528.171421
364.832603	2529.784591
365.220665	2528.441123
365.608665	2530.167718
365.996601	2529.824920
366.384474	2531.100332
366.772284	2527.742923
367.160031	2534.356917
367.547715	2531.964890
367.935336	2532.879859
368.322893	2529.900537
368.710388	2526.084384
369.097820	2532.126207
369.485189	2529.860208
369.872495	2534.130065
370.259738	2532.723583
370.646918	2536.133924
371.034035	2533.799870
371.421090	2534.598893
371.808081	2535.304654
372.195010	2536.070909
372.581875	2537.018646
372.968678	2535.501259
373.355418	2535.372710
373.742096	2536.295241
374.128710	2536.330529
374.515262	2540.449152
374.901751	2538.742721
375.288177	2538.155427
375.674540	2537.323636
376.060841	2538.198276
376.447079	2540.857485
376.833254	2536.970755
377.219367	2538.354552
377.605417	2538.455375
377.991404	2540.731456
378.377329	2538.800694
378.763191	2538.384799
379.148991	2537.346321
379.534727	2538.238606
379.920402	2540.791950
380.306013	2539.851775
380.691563	2540.905376
381.077049	2539.909748
381.462474	2538.019315
381.847835	2542.377393
382.233134	2542.810932
382.618371	2539.972762
383.003545	2543.579708
383.388657	2542.291693
383.773706	2541.452341
384.158693	2539.612320
384.543618	2543.564585
384.928480	2542.001827
385.313280	2543.388144
385.698017	2541.492670
386.082692	2543.526776
386.467305	2542.122815
386.851856	2542.745397
387.236344	2543.458720
387.620770	2539.892104
388.005133	2538.087371
388.389435	2543.869574
388.773674	2542.279090
389.157851	2546.811088
389.541965	2546.624565
389.926018	2544.504760
390.310008	2543.761190
390.693936	2545.094575
391.077802	2545.926365
391.461606	2547.201777
391.845348	2547.184133
392.229027	2548.376366
392.612645	2545.777651
392.996200	2546.218752
393.379694	2546.745553
393.763125	2547.113557
394.146494	2547.315203
394.529801	2548.033567
394.913047	2549.992056
395.296230	2546.163299
395.679351	2548.719164
396.062410	2549.097251
396.445408	2548.182282
396.828343	2548.109185
397.211217	2548.845193
397.594028	2549.747560
397.976778	2547.489123
398.359466	2544.797147
398.742092	2548.499874
399.124656	2548.472148
399.507158	2551.867365
399.889598	2550.236552
400.271977	2551.869886
400.654294	2550.627241
401.036549	2551.320400
401.418742	2551.567416
401.800874	2551.925338
402.182944	2550.717982
402.564952	2552.268137
402.946898	2552.767211
403.328783	2552.810061
403.710606	2552.928528
404.092367	2554.428271
404.474067	2550.856614
404.855705	2555.867521
405.237282	2554.599670
405.618797	2551.922818
406.000250	2554.304763
406.381642	2553.162942
406.762972	2551.791748
407.144240	2550.528939
407.525447	2552.699155
407.906593	2550.584391
408.287677	2555.902809
408.668700	2553.888868
409.049661	2553.515822
409.430560	2553.747715
409.811399	2556.162428
410.192176	2554.566903
410.572891	2554.753426
410.953545	2555.320555
411.334138	2556.404403
411.714669	2556.656461
412.095139	2558.052861
412.475547	2556.926163
412.855894	2557.757953
413.236180	2557.079918
413.616405	2557.321893
413.996568	2556.946328
414.376670	2556.772408
414.756711	2558.945145
415.136691	2556.268292
415.516609	2557.931873
415.896466	2557.246276
416.276262	2558.867007
416.655997	2557.861297
417.035670	2556.157387
417.415283	2559.804662
417.794834	2556.855587
418.174324	2560.719631
418.553753	2560.933880
418.933121	2558.947666
419.312428	2560.523026
419.691674	2559.260217
420.070859	2560.535629
420.449983	2558.194013
420.829045	2559.749209
421.208047	2559.275341
421.586988	2559.565207
421.965867	2558.609908
422.344686	2560.719631
422.723444	2559.071174
423.102141	2558.002449
423.480777	2558.035217
423.859352	2561.354817
424.237866	2559.292985
424.616319	2559.396328
424.994712	2561.092677
425.373044	2560.533108
425.751314	2558.748540
426.129524	2556.482541
426.507673	2558.345248
426.885762	2556.974054
427.263789	2559.605536
427.641756	2561.606874
428.019662	2562.186607
428.397508	2563.139385
428.775292	2561.133006
429.153016	2560.260886
429.530679	2562.680640
429.908282	2562.519323
430.285824	2563.547718
430.663305	2561.881617
431.040726	2563.139385
431.418086	2564.654252
431.795385	2563.595609
432.172624	2561.495969
432.549802	2561.964796
432.926920	2561.838767
433.303977	2564.500497
433.680974	2564.066957
434.057910	2562.894889
434.434786	2562.320197
434.811601	2562.292471
435.188355	2564.319015
435.565050	2562.723490
435.941683	2564.828172
436.318257	2567.066444
436.694770	2563.719118
437.071222	2565.453275
437.447614	2560.391956
437.823946	2565.387740
438.200218	2565.513768
438.576429	2566.456464
438.952580	2562.042934
439.328670	2562.710887
439.704700	2565.324725
440.080670	2564.742472
440.456580	2566.547205
440.832429	2565.158367
441.208218	2566.514438
441.583947	2564.263562
441.959616	2562.892368
442.335224	2565.617112
442.710773	2564.346741
443.086261	2567.167267
443.461689	2567.915878
443.837057	2565.740620
444.212365	2565.165929
444.587612	2564.273645
444.962800	2564.971844
445.337927	2563.895558
445.712995	2561.642162
446.088002	2567.666341
446.462949	2566.547205
446.837837	2570.781774
447.212664	2566.206927
447.587431	2570.529717
447.962139	2568.319171
448.336786	2568.268759
448.711374	2568.523337
449.085901	2570.408729
449.460369	2566.837071
449.834776	2568.629202
450.209124	2567.648697
450.583412	2567.499983
450.957640	2567.028635
451.331808	2569.632391
451.705917	2568.689695
452.079965	2568.818245
452.453954	2567.197514
452.827883	2568.566187
453.201752	2569.871846
453.575562	2569.471074
453.949311	2565.317163
454.323001	2570.743966
454.696632	2569.062741
455.070202	2570.988462
455.443713	2570.446538
455.817164	2571.684141
456.190556	2571.777402
456.563888	2568.946794
456.937160	2569.304716
457.310373	2571.147258
457.683526	2571.306054
458.056619	2570.297823
458.429653	2569.014850
458.802628	2571.202711
459.175542	2572.044583
459.548398	2571.056517
459.921194	2569.733214
460.293930	2570.701116
460.666607	2575.137331
461.039224	2574.282856
461.411782	2572.667166
461.784280	2575.278483
462.156719	2573.536765
462.529099	2575.016343
462.901419	2575.046590
463.273680	2571.598441
463.645882	2569.869325
464.018024	2575.122208
464.390106	2565.501166
464.762130	2575.326374
465.134094	2574.779409
465.505999	2574.769327
465.877845	2577.814184
466.249631	2580.299473
466.621358	2578.353587
466.993026	2579.354256
467.364634	2580.891808
467.736184	2578.968608
468.107674	2577.005079
468.479105	2578.335943
468.850477	2577.862075
469.221790	2578.547672
469.593043	2580.153279
469.964238	2577.647826
470.335373	2577.078175
470.706449	2576.311920
471.077467	2575.691858
471.448425	2579.681931
471.819324	2580.133115
472.190164	2580.733012
472.560945	2581.194277
472.931667	2579.127404
473.302330	2577.627661
473.672934	2577.806622
474.043479	2576.964749
474.413965	2577.794019
474.784393	2577.456262
475.154761	2581.234607
475.525070	2580.831314
475.895321	2578.656057
476.265513	2581.363156
476.635645	2581.030440
477.005719	2578.976170
477.375734	2578.792168
477.745691	2580.715368
478.115588	2583.840883
478.485427	2583.019175
478.855207	2582.593198
479.224928	2581.196798
479.594591	2586.532859
479.964194	2586.656368
480.333739	2584.584453
480.703226	2583.545976
481.072653	2587.531008
481.442022	2585.431367
481.811333	2585.073445
482.180584	2582.900708
482.549777	2584.397931
482.918912	2579.278639
483.287988	2584.060173
483.657005	2585.312900
484.025964	2585.764083
484.394864	2585.958168
484.763706	2585.262489
485.132489	2584.904567
485.501213	2588.642582
485.869879	2584.692838
486.238487	2585.582602
486.607036	2586.921028
486.975527	2586.946234
487.343959	2587.107551
487.712333	2589.509661
488.080648	2585.612849
488.448905	2586.495051
488.817104	2586.316090
489.185244	2589.345823
489.553326	2587.291553
489.921350	2588.869434
490.289315	2591.367326
490.657222	2591.672316
491.025070	2592.642738
491.392861	2592.196596
491.760593	2592.163828
492.128267	2592.652820
492.495883	2592.219281
492.863440	2588.698035
493.230939	2588.246852
493.598380	2592.546956
493.965763	2590.447315
494.333088	2591.609301
494.700354	2587.193251
495.067563	2589.030751
495.434713	2591.372367
495.801805	2591.634507
496.168839	2591.861359
496.535815	2589.673498
496.902733	2589.970926
497.269593	2590.228025
497.636395	2590.573344
498.003139	2590.207861
498.369825	2590.926225
498.736453	2590.326328
499.103023	2591.453026
499.469535	2591.700042
499.835989	2591.780701
500.202385	2589.035792
500.568723	2590.933787
500.935003	2589.386152
501.301226	2585.265009
501.667390	2594.959148
502.033497	2594.001329
502.399546	2596.355548
502.765537	2593.719024
503.131470	2592.080649
503.497345	2595.518716
503.863163	2593.789600
504.228923	2592.577203
504.594625	2595.377564
504.960269	2593.623242
505.325856	2597.545260
505.691385	2596.035434
506.056856	2598.291351
506.422270	2595.758171
506.787625	2599.284458
507.152924	2598.669437
507.518164	2599.483584
507.883347	2601.429469
508.248472	2601.177411
508.613540	2603.009871
508.978550	2601.789912
509.343503	2600.459047
509.708398	2604.610437
510.073236	2601.999119
510.438016	2604.129007
510.802738	2606.705037
511.167403	2603.952567
511.532010	2604.214707
511.896561	2605.807711
512.261053	2608.860130
512.625488	2610.127980
512.989866	2612.073865
513.354186	2610.281735
513.718449	2612.051180
514.082655	2613.530759
514.446803	2609.979266
514.810894	2613.946654
515.174927	2615.395986
515.538904	2616.106788
515.902822	2619.557458
516.266684	2615.791716
516.630488	2617.218363
516.994235	2619.738940
517.357925	2622.355299
517.721558	2623.660957
518.085133	2623.822274
518.448651	2621.314300
518.812112	2621.079887
519.175516	2623.539970
519.538863	2620.013683
519.902152	2628.588685
520.265385	2629.493572
520.628560	2633.125724
520.991678	2628.876031
521.354739	2630.302678
521.717743	2630.849643
522.080690	2635.162350
522.443580	2635.968935
522.806413	2640.148051
523.169189	2634.633029
523.531908	2640.518576
523.894569	2637.607310
524.257174	2639.948926
524.619722	2645.705923
524.982213	2642.461941
525.344647	2644.664925
525.707025	2646.363794
526.069345	2649.721202
526.431608	2646.159627
526.793815	2650.190030
527.155964	2650.079124
527.518057	2650.830256
527.880093	2650.903353
528.242072	2657.872748
528.603995	2658.770073
528.965860	2660.504230
529.327669	2657.981133
529.689421	2662.482883
530.051117	2663.574293
530.412755	2663.080260
530.774337	2666.656959
531.135862	2666.341887
531.497331	2670.407577
531.858743	2671.766168
532.220098	2674.309430
532.581396	2675.118535
532.942638	2677.971828
533.303824	2681.120029
533.664953	2682.400482
534.026025	2679.474092
534.387040	2684.921059
534.747999	2689.359795
535.108902	2693.785928
535.469748	2692.452543
535.830537	2695.855322
536.191270	2703.641384
536.551947	2697.481094
536.912567	2700.886393
537.273131	2708.785881
537.633638	2705.453679
537.994089	2713.471634
538.354483	2716.700493
538.714821	2723.503530
539.075103	2725.202399
539.435328	2726.964282
539.795497	2730.170456
540.155609	2739.032804
540.515665	2742.188567
540.875665	2740.799729
541.235609	2745.760224
541.595496	2753.153076
541.955328	2755.726585
542.315102	2765.990375
542.674821	2769.158740
543.034483	2769.539347
543.394090	2774.419184
543.753640	2779.301541
544.113134	2790.863428
544.472571	2792.605146
544.831953	2806.990079
545.191278	2806.559060
545.550548	2814.781182
545.909761	2820.558344
546.268918	2832.952021
546.628019	2837.103411
546.987064	2847.384845
547.346053	2852.592357
547.704986	2857.827595
548.063863	2869.487784
548.422684	2875.171685
548.781449	2881.475647
549.140158	2896.281516
549.498811	2905.232085
549.857408	2903.825603
550.215949	2923.324786
550.574434	2930.523554
550.932864	2947.386213
551.291237	2955.865434
551.649555	2972.375213
552.007817	2984.151348
552.366022	2992.945641
552.724173	3004.207579
553.082267	3018.393386
553.440305	3044.418343
553.798288	3041.849875
554.156215	3072.842889
554.514086	3087.000969
554.871902	3087.079107
555.229661	3106.611058
555.587365	3125.283492
555.945014	3141.795791
556.302606	3171.808300
556.660143	3184.138963
557.017625	3219.084241
557.375050	3229.469018
557.732421	3249.258067
558.089735	3273.138013
558.446994	3290.164510
558.804197	3321.913697
559.161345	3350.658357
559.518437	3354.509798
559.875474	3392.212588
560.232455	3411.734456
560.589381	3443.236626
560.946251	3464.384267
561.303065	3504.496728
561.659825	3544.692368
562.016528	3560.103175
562.373177	3577.394333
562.729770	3609.385495
563.086307	3649.722288
563.442789	3684.710416
563.799216	3716.545303
564.155587	3742.013212
564.511904	3783.759007
564.868164	3800.785504
565.224370	3851.754090
565.580520	3868.165566
565.936615	3921.884102
566.292654	3930.406172
566.648638	3999.190196
567.004567	4015.926827
567.360441	4057.196233
567.716260	4074.557967
568.072023	4155.355060
568.427732	4180.696940
568.783385	4206.195096
569.138982	4262.991256
569.494525	4320.785564
569.850013	4356.325699
570.205445	4400.254314
570.560823	4421.066717
570.916145	4467.508347
571.271412	4506.186600
571.626625	4563.151638
571.981782	4608.544708
572.336884	4632.507833
572.691931	4698.458728
573.046923	4705.503741
573.401860	4767.280561
573.756743	4840.122713
574.111570	4874.715111
574.466342	4913.184156
574.821059	4977.166480
575.175722	4990.192822
575.530330	5066.956992
575.884882	5113.459116
576.239380	5171.071942
576.593823	5205.422365
576.948211	5244.874435
577.302544	5281.420280
577.656823	5323.549202
578.011047	5402.748250
578.365216	5441.988591
578.719330	5491.712012
579.073389	5523.307444
579.427394	5633.559999
579.781344	5627.132528
580.135239	5694.936047
580.489080	5737.410289
580.842866	5745.748357
581.196597	5877.468666
581.550273	5897.608076
581.903895	5991.829762
582.257463	6091.571511
582.610975	6086.779895
582.964434	6196.379620
583.317837	6225.736780
583.671186	6304.033461
584.024481	6380.535491
584.377721	6380.311160
584.730906	6468.014634
585.084037	6549.666202
585.437113	6594.552636
585.790135	6685.426996
586.143103	6657.511607
586.496016	6707.633279
586.848874	6862.905858
587.201679	6899.688637
587.554428	6894.402988
587.907124	7040.659464
588.259765	7053.463994
588.612352	7178.782038
588.964884	7136.315358
589.317362	7236.898980
589.669786	7324.557084
590.022155	7395.735655
590.374470	7537.828138
590.726731	7555.721714
591.078937	7558.131385
591.431090	7647.954665
591.783188	7636.271791
592.135232	7692.389915
592.487222	7829.499218
592.839157	7889.874597
593.191038	7949.524049
593.542866	7958.799772
593.894639	7976.637895
594.246358	8099.231195
594.598022	8127.111297
594.949633	8135.116649
595.301190	8177.270777
595.652692	8302.682082
596.004141	8450.057694
596.355535	8302.263666
596.706876	8374.213535
597.058162	8418.164834
597.409395	8534.844861
597.760573	8657.952358
598.111698	8655.915732
598.462768	8704.754431
598.813785	8749.421574
599.164748	8761.366588
599.515657	8828.897885
599.866511	8832.729162
600.217312	9026.269141
600.568060	8909.299248
600.918753	9114.501936
601.269392	9165.311725
601.619978	9119.033933
601.970510	9309.534096
602.320988	9323.334254
602.671412	9484.522628
603.021783	9513.789047
603.372100	9476.424014
603.722363	9616.384089
604.072572	9660.542076
604.422728	9755.900542
604.772830	9774.139437
605.122878	9769.158777
605.472872	9867.652841
605.822813	9943.731414
606.172701	9987.607097
606.522534	10143.998813
606.872314	10225.451256
607.222041	10189.028919
607.571714	10372.594975
607.921333	10374.850891
608.270899	10479.943825
608.620411	10656.981587
608.969870	10560.730836
609.319276	10645.593620
609.668627	10747.140103
610.017926	10879.467871
610.367171	11005.106027
610.716362	11122.733791
611.065500	11058.960674
611.414585	11201.000225
611.763616	11280.060640
612.112594	11327.553351
612.461518	11347.564211
612.810389	11521.814214
613.159207	11484.449182
613.507971	11517.017556
613.856682	11780.329625
614.205340	11782.663679
614.553945	11956.709515
614.902496	11830.627737
615.250994	12084.719535
615.599439	12100.372318
615.947830	12143.479224
616.296169	12206.836446
616.644454	12286.146399
616.992686	12287.603292
617.340864	12497.219510
617.688990	12431.364397
618.037063	12613.690329
618.385082	12572.796489
618.733048	12807.552941
619.080961	12772.776541
619.428821	12881.229404
619.776628	12891.838513
620.124382	12882.368705
620.472083	12980.341010
620.819731	13072.473137
621.167326	12906.064649
621.514868	13009.131039
621.862357	12919.625353
622.209793	12991.912978
622.557176	12949.416051
622.904506	12862.166281
623.251783	12870.806819
623.599007	12821.199344
623.946179	12828.788802
624.293297	12846.652130
624.640363	12740.077097
624.987376	12790.463429
625.334336	12693.718646
625.681243	12641.953558
626.028097	12684.853777
626.374899	12736.749935
626.721647	12643.201243
627.068343	12567.268863
627.414987	12575.614494
627.761577	12623.076957
628.108115	12710.989639
628.454600	12517.008560
628.801032	12625.768933
629.147412	12627.303965
629.493739	12689.839478
629.840014	12588.585383
630.186236	12702.843134
630.532405	12567.964543
630.878521	12763.674738
631.224585	12702.669215
631.570597	12633.681024
631.916556	12676.145184
632.262462	12688.427955
632.608316	12684.694981
632.954117	12666.125890
633.299866	12710.006614
633.645562	12700.433463
633.991206	12521.747244
634.336797	12442.109616
634.682336	12482.078405
635.027823	12424.236205
635.373257	12386.084753
635.718639	12318.646717
636.063968	12318.465236
636.409245	12167.666680
636.754470	12224.714898
637.099642	12143.428813
637.444762	11977.358082
637.789829	12059.632233
638.134845	11957.259001
638.479808	12014.092970
638.824719	12011.388391
639.169577	11907.331413
639.514383	11977.474028
639.859137	11853.189421
640.203839	11951.166767
640.548489	11831.141935
640.893086	11869.197605
641.237632	11758.960173
641.582125	11932.799323
641.926566	11818.526447
642.270955	11852.329904
642.615292	11837.592091
642.959576	11876.376208
643.303809	11939.340220
643.647990	11892.538148
643.992118	11975.306332
644.336195	11790.603496
644.680219	11974.804737
645.024192	11953.851181
645.368112	12173.922752
645.711981	12250.734813
646.055797	12414.249680
646.399562	12404.263154
646.743274	12654.455619
647.086935	12939.497581
647.430544	12918.725507
647.774101	12948.291874
648.117606	13134.532262
648.461059	13106.458076
648.804460	13150.185044
649.147810	12918.372626
649.491108	12837.593177
649.834354	12895.203483
650.177548	12633.681024
650.520690	12489.879590
650.863781	12437.897732
651.206820	12496.755724
651.549807	12356.667100
651.892742	12207.302753
652.235626	12166.602997
652.578458	12183.032117
652.921238	11920.645101
653.263967	12103.822987
653.606644	11979.908905
653.949269	11947.711056
654.291843	11816.066364
654.634365	11956.124742
654.976836	11840.629386
655.319255	11875.635159
655.661622	11840.437822
656.003938	11786.409256
656.346203	11730.472613
656.688416	11807.274592
657.030577	11785.522013
657.372687	11736.592574
657.714746	11722.278218
658.056753	11891.537478
658.398708	11754.576890
658.740612	11765.122984
659.082465	11859.667304
659.424266	11845.489059
659.766016	11873.154911
660.107715	11792.819083
660.449362	11872.847401
660.790958	11855.803259
661.132503	11808.403810
661.473996	11869.789941
661.815438	11898.658108
662.156829	11922.258270
662.498168	11921.373547
662.839456	11921.781881
663.180693	11948.278186
663.521879	12041.917618
663.863013	12031.336236
664.204097	12028.619054
664.545129	12142.571817
664.886110	12116.433434
665.227040	12195.708099
665.567918	12217.599309
665.908746	12250.308836
666.249522	12244.740882
666.590248	12294.295424
666.930922	12406.198957
667.271545	12405.120150
667.612118	12490.187101
667.952639	12408.326324
668.293109	12412.616346
668.633528	12392.887790
668.973896	12378.943959
669.314213	12470.393010
669.654480	12228.231103
669.994695	12283.782098
670.334859	12325.288438
670.674973	12278.922425
671.015035	12318.366933
671.355047	12276.575768
671.695008	12243.974626
672.034918	12260.668407
672.374777	12300.483440
672.714585	12217.679968
673.054342	12254.959300
673.394049	12211.713762
673.733705	12304.662557
674.073310	12240.687794
674.412864	12256.872418
674.752368	12144.280768
675.091820	12140.462094
675.431223	12145.006694
675.770574	12036.374870
676.109875	11966.600259
676.449125	11935.201432
676.788324	11869.295908
677.127473	11722.368958
677.466571	11710.630632
677.805619	11620.877928
678.144616	11545.525281
678.483562	11514.370951
678.822458	11392.811087
679.161303	11364.346212
679.500098	11365.722447
679.838842	11318.426342
680.177535	11348.010353
680.516179	11400.566903
680.854771	11355.677948
681.193314	11568.820453
681.531805	11709.234232
681.870247	12099.268305
682.208638	12491.185249
682.546978	12817.100886
682.885268	12890.399263
683.223508	12581.721852
683.561697	12426.572780
683.899836	12327.075527
684.237925	12146.151036
684.575963	12067.380486
684.913951	11994.611431
685.251889	11944.746857
685.589776	12037.448635
685.927614	11970.892802
686.265401	11931.402923
686.603137	11966.202008
686.940824	12127.009775
687.278460	12236.591856
687.616046	12290.128910
687.953582	12473.417702
688.291068	12392.035835
688.628504	12598.642484
688.965889	12612.697221
689.303224	12592.479674
689.640510	12500.493740
689.977745	12210.428268
690.314930	11984.539205
690.652065	11902.086093
690.989150	11618.382557
691.326185	11400.055225
691.663170	11193.272136
692.000105	10951.009405
692.336990	10857.904335
692.673825	10609.864442
693.010610	10483.399536
693.347345	10288.637078
693.684030	10085.327343
694.020665	10035.379591
694.357251	9835.006329
694.693786	9797.600967
695.030272	9629.478486
695.366707	9513.166464
695.703093	9441.324981
696.039429	9438.391029
696.375716	9371.915854
696.711952	9243.860464
697.048139	9277.031256
697.384276	9231.739010
697.720363	9239.888035
698.056400	9182.489457
698.392388	9145.522676
698.728326	9097.525850
699.064214	9036.926140
699.400053	9083.735774
699.735842	8904.190038
700.071581	8858.567596
700.407270	8792.399931
700.742910	8711.804484
701.078501	8625.933470
701.414042	8504.938216
701.749533	8434.024304
702.084974	8300.837020
702.420366	8403.444665
702.755709	8293.411400
703.091002	8165.960949
703.426246	8192.099331
703.761440	8145.045201
704.096584	8095.631811
704.431679	8027.510699
704.766725	8018.839915
705.101721	7968.728325
705.436668	8009.506218
705.771565	7907.027122
706.106413	7983.443453
706.441212	8034.893469
706.775961	7987.080646
707.110661	8016.258844
707.445311	8165.043459
707.779913	8058.216367
708.114465	8195.701236
708.448967	8235.475940
708.783421	8361.056123
709.117825	8542.504894
709.452180	8581.956964
709.786485	8666.454264
710.120742	8940.446017
710.454949	8940.758568
710.789107	9041.712715
711.123216	9240.051872
711.457275	9400.627746
711.791286	9578.494777
712.125247	9567.439527
712.459159	9555.459224
712.793023	9815.522269
713.126837	9394.709431
713.460602	9531.939721
713.794318	9359.713741
714.127985	9391.593998
714.461602	9093.598791
714.795171	9037.042086
715.128691	8794.560066
715.462162	8543.941623
715.795584	8487.183272
716.128957	8356.461111
716.462281	8182.143052
716.795556	8230.417142
717.128782	8032.226699
717.461960	7758.802076
717.795088	7831.853436
718.128167	7738.423212
718.461198	7581.229952
718.794180	7516.052874
719.127113	7509.711103
719.459997	7371.568364
719.792833	7133.638505
720.125619	7188.390477
720.458357	7057.983389
720.791046	7045.640124
721.123686	7050.227574
721.456278	6891.816876
721.788821	6907.814978
722.121315	6801.260109
722.453761	6853.680547
722.786158	6806.747405
723.118506	6820.242573
723.450805	6794.983872
723.783056	6862.250508
724.115259	6760.267966
724.447412	6751.705566
724.779518	6801.862527
725.111574	6806.994421
725.443582	6891.544653
725.775542	6865.388627
726.107453	7047.802779
726.439315	6967.494677
726.771129	7012.587798
727.102895	7176.085021
727.434612	7293.871580
727.766281	7315.667009
728.097901	7402.208497
728.429473	7384.871969
728.760996	7359.827517
729.092471	7342.566606
729.423897	7301.385420
729.755276	7314.431926
730.086606	7246.484734
730.417887	7344.308324
730.749120	7516.428440
731.080305	7700.256636
731.411442	7841.358532
731.742530	7840.194025
732.073570	7941.243954
732.404562	8024.785956
732.735506	7872.228038
733.066401	8013.092999
733.397249	7956.495965
733.728048	7718.172897
734.058798	7387.274079
734.389501	7173.289701
734.720156	6998.283524
735.050762	6762.823831
735.381320	6659.381875
735.711831	6615.155832
736.042293	6506.269430
736.372707	6534.187340
736.703073	6396.311782
737.033391	6428.222286
737.363661	6436.280570
737.693883	6458.466688
738.024056	6538.817639
738.354182	6592.102636
738.684260	6628.736701
739.014290	6733.915334
739.344272	6840.845769
739.674207	6869.066148
740.004093	6932.375479
740.333931	6953.155115
740.663722	6965.500901
740.993464	7042.726337
741.323159	7040.959412
741.652806	6789.156298
741.982405	6779.764629
742.311956	6848.460432
742.641460	6705.362239
742.970915	6509.188258
743.300323	6498.506053
743.629683	6440.752074
743.958996	6314.077960
744.288260	6221.761830
744.617477	6170.521022
744.946647	6180.532753
745.275768	6016.523854
745.604842	5972.053315
745.933869	5950.512465
746.262847	5907.728192
746.591778	5896.141100
746.920662	5861.160534
747.249498	5840.549776
747.578286	5890.726901
747.907027	5970.603984
748.235720	6026.023908
748.564365	5997.276729
748.892963	6014.237691
749.221514	6175.589902
749.550017	6031.072624
749.878473	5892.811418
750.206881	5941.713131
750.535242	5883.069388
750.863555	5816.306867
751.191821	5840.209498
751.520039	5841.779818
751.848210	5751.911168
752.176334	5764.796357
752.504411	5823.397250
752.832440	5743.701649
753.160421	5669.556358
753.488356	5719.458740
753.816243	5761.265029
754.144082	5610.534529
754.471875	5576.388273
754.799620	5627.011540
755.127318	5633.615452
755.454969	5580.300209
755.782572	5551.595879
756.110129	5595.184216
756.437638	5588.981076
756.765100	5525.291138
757.092515	5518.591445
757.419882	5561.257250
757.747203	5547.018511
758.074477	5615.346310
758.401703	5607.406493
758.728882	5552.727618
759.056014	5594.617086
759.383099	5736.296194
759.710138	5746.070991
760.037129	5724.998968
760.364073	5734.078086
760.690970	5817.405839
761.017820	5803.956040
761.344623	5743.633593
761.671379	5844.065981
761.998088	5952.975069
762.324751	6180.497465
762.651366	6744.474031
762.977935	7997.483067
763.304456	9591.009441
763.630931	10520.469661
763.957359	10190.062356
764.283740	9272.458930
764.610074	8473.108370
764.936362	7496.578897
765.262602	6904.051756
765.588796	6357.946081
765.914943	6011.921281
766.241044	5860.502663
766.567097	5676.235887
766.893104	5411.229991
767.219064	5230.431529
767.544978	5173.791645
767.870845	5100.500830
768.196665	4993.386393
768.522438	4914.754475
768.848165	4888.061566
769.173846	4826.085620
769.499479	4786.522645
769.825066	4730.676742
770.150607	4666.114685
770.476101	4639.641066
770.801548	4644.485615
771.126949	4571.782094
771.452303	4518.497098
771.777611	4475.296930
772.102872	4491.985670
772.428087	4454.749187
772.753256	4416.595214
773.078378	4373.919326
773.403453	4307.308040
773.728482	4292.855052
774.053465	4246.846961
774.378401	4230.236359
774.703291	4235.650558
775.028135	4168.149508
775.352932	4115.613123
775.677683	4101.853294
776.002388	4120.412302
776.327046	4139.916526
776.651658	4062.701173
776.976224	3998.113910
777.300743	4002.882841
777.625216	4022.666849
777.949643	4025.278167
778.274024	3984.091940
778.598359	3928.041871
778.922647	3952.095737
779.246889	3947.067186
779.571086	3944.478553
779.895236	3930.277623
780.219339	3915.814552
780.543397	3899.763519
780.867409	3955.990028
781.191374	3969.293633
781.515294	3911.700971
781.839167	3907.224426
782.162995	3922.007610
782.486776	3907.032862
782.810511	3914.461003
783.134201	3919.907969
783.457844	3877.958008
783.781441	3820.274605
784.104993	3824.073114
784.428498	3842.760672
784.751958	3845.324098
785.075372	3821.232424
785.398739	3783.968215
785.722061	3789.851241
786.045337	3832.900175
786.368568	3874.265362
786.691752	3784.240437
787.014891	3831.483610
787.337983	3946.752114
787.661030	4098.407665
787.984031	4261.279784
788.306987	4434.977781
788.629897	4513.713043
788.952760	4472.801559
789.275579	4399.273809
789.598351	4344.582331
789.921078	4214.946539
790.243759	4014.222917
790.566395	3990.131242
790.888984	3990.408506
791.211529	3880.309706
791.534027	3824.632682
791.856480	3818.971467
792.178888	3756.075511
792.501249	3703.501317
792.823566	3714.518759
793.145836	3744.173346
793.468062	3695.972354
793.790241	3648.555261
794.112375	3677.143644
794.434464	3737.047675
794.756507	3758.580964
795.078505	3746.996393
795.400457	3770.793159
795.722364	3905.114703
796.044226	4005.605064
796.366042	4079.006785
796.687812	4070.620825
797.009538	4078.212803
797.331218	4032.718910
797.652852	4000.082480
797.974442	3981.236127
798.295986	3985.364832
798.617484	3911.252308
798.938938	3821.645799
799.260346	3857.143083
799.581709	3854.408257
799.903026	3786.284625
800.224299	3751.354470
800.545526	3743.447420
800.866708	3705.540464
801.187845	3641.968993
801.508936	3677.698171
801.829983	3686.048843
802.150984	3601.337293
802.471940	3587.703493
802.792851	3601.165894
803.113717	3597.793362
803.434538	3605.617233
803.755314	3551.034140
804.076045	3519.068183
804.396731	3539.837737
804.717372	3565.136767
805.037967	3555.036816
805.358518	3544.765465
805.679024	3570.392170
805.999485	3576.489446
806.319901	3582.561516
806.640272	3598.310080
806.960598	3614.086371
807.280879	3584.865323
807.601115	3596.253290
807.921306	3613.110908
808.241453	3653.871158
808.561554	3632.098414
808.881611	3569.376378
809.201623	3600.361830
809.521590	3616.075107
809.841513	3588.152155
810.161390	3615.621403
810.481223	3597.798403
810.801011	3542.663304
811.120755	3527.761653
811.440453	3565.908064
811.760107	3573.182449
812.079716	3536.066954
812.399281	3497.625635
812.718801	3523.587578
813.038276	3494.021210
813.357707	3491.540963
813.677093	3512.479395
813.996434	3464.653968
814.315731	3464.447281
814.634983	3468.767550
814.954191	3479.432111
815.273354	3513.596011
815.592473	3510.667100
815.911547	3509.704240
816.230577	3547.482647
816.549562	3593.820933
816.868502	3641.323726
817.187399	3666.980678
817.506250	3664.689474
817.825058	3632.607571
818.143821	3716.104202
818.462539	3820.342660
818.781213	3867.936194
819.099843	3918.819080
819.418429	4144.534223
819.736970	4379.688927
820.055466	4615.133496
820.373919	4972.614318
820.692327	5375.979723
821.010691	5771.256596
821.329011	7042.408744
821.647286	9625.876582
821.965517	13994.457326
822.283704	17988.165267
822.601847	20295.970210
822.919945	18583.699456
823.237999	16105.881600
823.556010	13667.072192
823.873976	11641.385342
824.191897	9591.831149
824.509775	8235.738080
824.827609	7122.520240
825.145398	6569.472896
825.463144	6454.247242
825.780845	6570.460962
826.098502	6729.088430
826.416116	7526.588886
826.733685	8795.134757
827.051210	9917.945912
827.368692	10040.904696
827.686129	8861.292340
828.003522	7368.740277
828.320872	6369.298759
828.638177	5678.091032
828.955439	5138.070029
829.272656	4646.819669
829.589830	4356.658415
829.906960	4184.729863
830.224046	4007.190507
830.541088	3884.756004
830.858086	3841.076926
831.175041	3767.181173
831.491952	3739.472470
831.808819	3752.816405
832.125642	3818.064059
832.442421	3958.366932
832.759157	4212.587279
833.075849	4728.004931
833.392497	5560.455707
833.709101	6314.632487
834.025662	6678.475245
834.342179	6369.180292
834.658653	5718.999995
834.975083	5091.046146
835.291469	4531.904046
835.607811	4121.435656
835.924110	3976.905775
836.240366	3788.217907
836.556578	3582.944643
836.872746	3477.017398
837.188871	3438.654218
837.504952	3376.746328
837.820990	3295.999646
838.136984	3246.795464
838.452935	3269.674741
838.768842	3268.064092
839.084706	3287.142339
839.400526	3435.357303
839.716303	3748.982607
840.032037	4241.412597
840.347727	4526.517573
840.663373	4282.767703
840.978977	3914.907145
841.294537	3610.517234
841.610054	3384.842421
841.925527	3275.918210
842.240957	3207.940771
842.556344	3157.458656
842.871687	3103.213320
843.186987	3051.470917
843.502244	3017.866585
843.817458	2982.046667
844.132629	2946.801440
844.447756	2956.525825
844.762840	2947.018209
845.077881	2917.267840
845.392879	2895.162380
845.707833	2892.914026
846.022745	2890.302708
846.337613	2891.923439
846.652438	2879.560009
846.967221	2880.797612
847.281960	2865.001157
847.596656	2860.766588
847.911309	2859.090404
848.225919	2858.014117
848.540485	2844.587004
848.855009	2850.452387
849.169490	2841.269925
849.483928	2832.914212
849.798323	2828.974551
850.112675	2825.221412
850.426984	2834.582834
850.741251	2833.372957
851.055474	2826.640497
851.369654	2820.787717
851.683792	2824.495486
851.997887	2829.294664
852.311938	2832.324397
852.625947	2825.347441
852.939914	2826.151505
853.253837	2832.672237
853.567718	2818.257058
853.881555	2814.781182
854.195350	2828.367092
854.509103	2826.912719
854.822812	2819.799651
855.136479	2816.376707
855.450103	2818.183961
855.763685	2808.908238
856.077224	2804.769451
856.390720	2820.659167
856.704173	2830.217195
857.017584	2823.855259
857.330953	2819.088848
857.644278	2828.528409
857.957561	2835.873370
858.270802	2840.329750
858.584000	2838.779595
858.897155	2828.488079
859.210268	2827.656289
859.523339	2821.715289
859.836367	2824.480362
860.149352	2817.188333
860.462295	2813.178095
860.775195	2822.645382
861.088054	2823.499858
861.400869	2807.650470
861.713642	2802.410191
862.026373	2815.870071
862.339062	2819.867706
862.651708	2826.320383
862.964312	2827.338696
863.276873	2823.424240
863.589392	2831.928667
863.901869	2842.167250
864.214303	2861.759695
864.526696	2877.682179
864.839045	2876.129504
865.151353	2875.254864
865.463619	2868.535006
865.775842	2871.093391
866.088023	2890.164076
866.400162	2899.722104
866.712258	2871.501725
867.024313	2862.057123
867.336325	2866.563914
867.648296	2885.642161
867.960224	2882.617469
868.272110	2867.960314
868.583954	2870.921992
868.895755	2886.940258
869.207515	2873.067003
869.519233	2875.464072
869.830909	2885.969836
870.142542	2896.957031
870.454134	2897.698081
870.765684	2900.853843
871.077191	2900.294275
871.388657	2903.926426
871.700081	2916.650298
872.011463	2931.476332
872.322803	2933.187804
872.634101	2931.788883
872.945357	2944.651388
873.256571	2972.196252
873.567744	2965.408338
873.878874	2955.439457
874.189963	2977.560040
874.501010	2981.000627
874.812015	2972.881849
875.122979	2974.734473
875.433900	2967.535705
875.744780	2973.002837
876.055618	2981.076245
876.366415	2974.421922
876.677169	2991.791217
876.987882	2990.896412
877.298554	2979.339567
877.609183	2997.578462
877.919771	3019.096627
878.230317	3040.690409
878.540822	3095.512958
878.851285	3132.464615
879.161707	3170.540450
879.472087	3257.840632
879.782425	3465.972230
880.092722	3877.529510
880.402977	4383.978948
880.713191	4979.661852
881.023363	6070.633079
881.333494	7317.023079
881.643583	7891.840647
881.953631	7615.219932
882.263637	7030.877105
882.573602	6476.546787
882.883526	5911.811527
883.193408	5346.083160
883.503248	4888.507708
883.813048	4593.151545
884.122806	4319.787416
884.432522	4015.374820
884.742197	3779.816825
885.051831	3594.231787
885.361424	3458.569296
885.670975	3389.815519
885.980485	3309.068837
886.289954	3238.182652
886.599382	3191.630117
886.908768	3158.038389
887.218113	3113.376286
887.527417	3060.285374
887.836680	3009.982221
888.145901	3004.245388
888.455082	2999.325222
888.764221	2947.832356
889.073319	2916.564599
889.382376	2919.140628
889.691392	2918.598704
890.000366	2920.743715
890.309300	2905.902558
890.618193	2919.523756
890.927044	2933.213009
891.235855	2941.306582
891.544625	2922.598860
891.853353	2931.620005
892.162041	2948.994342
892.470687	2981.935761
892.779293	3037.098587
893.087858	3080.369331
893.396381	3144.875936
893.704864	3257.283584
894.013306	3480.677276
894.321707	3765.618415
894.630068	3972.330928
894.938387	3979.144048
895.246665	3930.902726
895.554903	3822.563289
895.863100	3630.492807
896.171256	3468.202941
896.479371	3338.857015
896.787446	3220.137842
897.095480	3122.304170
897.403473	3059.050292
897.711425	3019.951103
898.019336	3012.563292
898.327207	2987.584374
898.635038	2954.539611
898.942827	2939.849688
899.250576	2924.632966
899.558284	2898.620612
899.865952	2876.177395
900.173579	2859.231556
900.481165	2853.018334
900.788711	2840.266735
901.096216	2816.321255
901.403681	2803.395736
901.711105	2813.314206
902.018489	2811.950574
902.325832	2809.767755
902.633135	2814.813950
902.940397	2847.977180
903.247619	2922.591298
903.554800	3094.895416
903.861941	3416.551278
904.169041	3824.483968
904.476101	4124.951861
904.783121	4105.999643
905.090100	3873.720918
905.397039	3610.239971
905.703938	3367.752909
906.010796	3189.716999
906.317614	3079.139290
906.624391	2988.353150
906.931129	2920.035433
907.237826	2864.257587
907.544483	2814.624906
907.851099	2787.264044
908.157675	2767.187649
908.464211	2746.987745
908.770707	2735.093143
909.077163	2723.185937
909.383578	2709.597507
909.689954	2696.813141
909.996289	2697.518902
910.302584	2697.314736
910.608839	2699.273224
910.915054	2695.000846
911.221229	2688.646472
911.527363	2691.033458
911.833458	2695.878007
912.139513	2697.551670
912.445527	2699.532843
912.751502	2709.070707
913.057436	2719.465566
913.363331	2728.320352
913.669186	2747.746439
913.975000	2781.030657
914.280775	2837.942763
914.586510	2900.077505
914.892205	2978.608600
915.197859	3095.117227
915.503475	3273.286727
915.809050	3474.350628
916.114585	3619.770272
916.420081	3646.874036
916.725536	3593.861262
917.030952	3481.589725
917.336328	3357.731095
917.641665	3234.250552
917.946961	3135.660707
918.252218	3071.199473
918.557435	2998.427896
918.862612	2941.868671
919.167750	2892.462842
919.472848	2856.095958
919.777906	2832.029490
920.082925	2807.380768
920.387904	2779.031840
920.692843	2761.702873
920.997743	2751.318096
921.302603	2738.584142
921.607423	2731.957545
921.912204	2715.684700
922.216946	2708.070037
922.521647	2700.011753
922.826310	2689.319466
923.130932	2683.590194
923.435516	2677.215655
923.740059	2670.629388
924.044564	2662.392142
924.349028	2656.309990
924.653454	2651.576347
924.957840	2643.190387
925.262186	2641.718371
925.566493	2635.616054
925.870761	2630.612709
926.174989	2629.314612
926.479178	2625.647172
926.783328	2619.759104
927.087438	2618.551748
927.391509	2615.973198
927.695541	2614.670060
927.999533	2611.990686
928.303486	2607.509101
928.607400	2609.994389
928.911275	2608.731580
929.215110	2606.513473
929.518906	2604.764192
929.822663	2605.727053
930.126381	2603.176229
930.430060	2605.573297
930.733699	2605.394337
931.037299	2605.137238
931.340861	2607.398195
931.644383	2608.429111
931.947866	2606.107660
932.251309	2604.320571
932.554714	2600.882504
932.858080	2604.776795
933.161407	2602.402412
933.464694	2599.597010
933.767943	2598.377050
934.071153	2598.361927
934.374323	2597.179776
934.677455	2600.128851
934.980548	2596.234560
935.283602	2596.922678
935.586617	2597.199941
935.889593	2596.136258
936.192530	2596.826896
936.495428	2597.731783
936.798287	2597.439396
937.101108	2602.457864
937.403890	2604.955756
937.706632	2611.489092
938.009336	2614.871706
938.312002	2622.549383
938.614628	2632.699746
938.917216	2639.888432
939.219765	2638.504635
939.522275	2639.805253
939.824747	2635.679068
940.127179	2633.952473
940.429573	2632.261166
940.731929	2628.913840
941.034246	2626.720938
941.336524	2623.761781
941.638763	2622.030144
941.940964	2617.649382
942.243126	2617.362036
942.545250	2617.127622
942.847335	2615.456480
943.149381	2610.246447
943.451389	2606.505911
943.753359	2604.723863
944.055290	2605.878287
944.357182	2604.320571
944.659036	2602.639346
944.960851	2602.107504
945.262628	2600.179263
945.564367	2600.416197
945.866067	2599.309664
946.167729	2599.246649
946.469352	2600.887545
946.770937	2600.282607
947.072484	2595.531319
947.373992	2598.629108
947.675462	2596.867225
947.976893	2590.623756
948.278286	2590.631317
948.579641	2591.251379
948.880958	2590.182655
949.182236	2591.306832
949.483476	2589.171903
949.784678	2590.545618
950.085841	2590.472521
950.386967	2590.260793
950.688054	2592.562079
950.989103	2592.199116
951.290114	2595.576689
951.591087	2593.703901
951.892021	2598.198089
952.192917	2599.798656
952.493776	2604.945674
952.794596	2605.399378
953.095378	2601.742021
953.396122	2601.220261
953.696828	2599.425610
953.997496	2596.279930
954.298126	2595.309508
954.598718	2593.464446
954.899272	2592.007552
955.199788	2588.481265
955.500266	2587.505802
955.800706	2585.209557
956.101108	2582.701582
956.401472	2579.124884
956.701798	2580.891808
957.002087	2576.090109
957.302337	2574.890315
957.602550	2576.475757
957.902724	2574.439131
958.202861	2571.782443
958.502960	2570.736404
958.803022	2574.187074
959.103045	2569.753379
959.403031	2571.444686
959.702979	2571.434604
960.002889	2572.359655
960.302762	2567.469736
960.602596	2570.244891
960.902393	2568.903944
961.202153	2567.981413
961.501875	2567.643656
961.801559	2565.027297
962.101205	2566.980744
962.400814	2567.598286
962.700385	2565.047462
962.999918	2562.058058
963.299414	2560.071843
963.598873	2562.168963
963.898293	2559.605536
964.197677	2565.906978
964.497022	2563.434292
964.796331	2568.777916
965.095601	2565.596947
965.394835	2564.626525
965.694030	2566.640466
965.993189	2564.205589
966.292309	2565.811197
966.591393	2564.298850
966.890439	2566.499314
967.189447	2563.900599
967.488419	2562.355486
967.787353	2565.667524
968.086249	2562.383212
968.385108	2564.429920
968.683930	2563.812379
968.982714	2564.263562
969.281462	2564.888665
969.580172	2563.751885
969.878844	2563.628377
970.177480	2563.996381
970.476078	2564.936556
970.774639	2564.603840
971.073162	2564.944118
971.371649	2566.080898
971.670098	2562.960424
971.968510	2564.276165
972.266885	2566.189283
972.565223	2566.264900
972.863524	2565.922102
973.161788	2565.687688
973.460014	2565.372616
973.758204	2566.466547
974.056356	2565.768347
974.354471	2564.087122
974.652550	2567.726835
974.950591	2566.388409
975.248595	2564.555949
975.546563	2566.441341
975.844493	2564.621484
976.142386	2564.848336
976.440243	2562.882286
976.738062	2563.220043
977.035845	2564.187945
977.333590	2562.269786
977.631299	2562.201730
977.928971	2561.934549
978.226606	2562.247101
978.524204	2562.703325
978.821765	2558.433468
979.119290	2562.637790
979.416777	2561.604354
979.714228	2563.736762
980.011642	2563.830023
980.309020	2564.097204
980.606360	2563.391443
980.903664	2564.142575
981.200931	2564.490414
981.498162	2563.154508
981.795356	2567.353790
982.092513	2567.323543
982.389633	2566.096022
982.686717	2568.477967
982.983764	2575.611200
983.280775	2578.222517
983.577749	2580.052456
983.874686	2579.732343
984.171587	2577.219328
984.468451	2574.325705
984.765279	2572.049624
985.062070	2571.520303
985.358824	2571.414439
985.655543	2566.821948
985.952224	2565.937225
986.248869	2563.850188
986.545478	2563.615774
986.842050	2562.995712
987.138586	2561.463201
987.435086	2562.272307
987.731549	2560.654096
988.027975	2562.781463
988.324366	2561.022100
988.620719	2560.492779
988.917037	2558.831719
989.213318	2561.077553
989.509563	2559.892882
989.805772	2560.606205
990.101944	2559.761812
990.398080	2560.979251
990.694180	2562.040413
990.990244	2561.833726
991.286271	2559.141750
991.582262	2562.027811
991.878217	2560.913716
992.174136	2557.266441
992.470019	2559.910526
992.765865	2557.672254
993.061676	2556.192675
993.357450	2557.052192
993.653188	2553.306614
993.948890	2557.914229
994.244556	2561.498489
994.540186	2561.080074
994.835780	2562.015208
995.131337	2559.948335
995.426859	2560.631411
995.722345	2563.199879
996.017795	2563.537636
996.313208	2563.976217
996.608586	2564.495455
996.903928	2563.565362
997.199234	2566.625343
997.494504	2561.369940
997.789738	2562.668037
998.084936	2563.772050
998.380099	2562.794066
998.675225	2563.325908
998.970316	2561.092677
999.265371	2560.598643
999.560390	2561.753068
999.855373	2560.618808
1000.150320	2563.497307
1000.445232	2560.550752
1000.740108	2558.430947
1001.034948	2558.703170
1001.329752	2559.608057
1001.624521	2557.878941
1001.919254	2558.708211
1002.213951	2558.088149
1002.508613	2557.619322
1002.803239	2557.505896
1003.097829	2556.570762
1003.392384	2556.658982
1003.686903	2557.828529
1003.981386	2558.924980
1004.275834	2557.805844
1004.570246	2561.193500
1004.864623	2558.564538
1005.158964	2555.701162
1005.453270	2556.255689
1005.747540	2557.657130
1006.041775	2557.523540
1006.335974	2558.430947
1006.630138	2557.473128
1006.924266	2558.569579
1007.218359	2558.743499
1007.512416	2557.659651
1007.806438	2555.134033
1008.100425	2556.749722
1008.394376	2553.717468
1008.688292	2559.048489
1008.982172	2559.013201
1009.276017	2555.071018
1009.569827	2559.192162
1009.863602	2556.114537
1010.157341	2557.578992
1010.451045	2557.437840
1010.744714	2557.747871
1011.038347	2557.500854
1011.331945	2557.198385
1011.625508	2559.406411
1011.919036	2559.179559
1012.212528	2558.002449
1012.505986	2557.500854
1012.799408	2556.568241
1013.092795	2554.037582
1013.386147	2557.581513
1013.679464	2556.298539
1013.972745	2558.945145
1014.265992	2557.016904
1014.559204	2559.416493
1014.852380	2554.513971
1015.145521	2556.633776
1015.438628	2557.775597
1015.731699	2556.840463
1016.024736	2558.327604
1016.317737	2560.144940
1016.610703	2556.149825
1016.903635	2557.972202
1017.196531	2556.611091
1017.489393	2557.737789
1017.782219	2555.171841
1018.075011	2557.100083
1018.367768	2555.043292
1018.660490	2559.623180
1018.953177	2559.623180
1019.245829	2559.623180
