Dividing Wavelength (nm)	Counts (n)	Blue Motor Position (mm): 45.900000	Red Motor Position (mm): 0.000000	
326.493990	2270.424787
326.888308	2270.424787
327.282561	2270.424787
327.676750	2230.521534
328.070874	2224.837633
328.464933	2227.736296
328.858929	2230.483725
329.252859	2236.792729
329.646726	2244.152814
330.040528	2256.392735
330.434265	2270.152565
330.827938	2290.400359
331.221547	2306.146403
331.615091	2322.734320
332.008571	2344.638133
332.401986	2361.672192
332.795338	2379.873278
333.188625	2399.715260
333.581847	2422.274423
333.975006	2438.867381
334.368100	2456.549228
334.761129	2477.338947
335.154095	2493.382419
335.546996	2519.639268
335.939833	2559.802141
336.332606	2574.660942
336.725315	2588.945052
337.117960	2603.226640
337.510540	2614.501181
337.903056	2624.764970
338.295508	2632.911475
338.687896	2639.127217
339.080220	2647.097282
339.472480	2654.777480
339.864676	2659.155722
340.256807	2664.564880
340.648875	2668.978410
341.040879	2672.202228
341.432818	2674.616941
341.824694	2675.942764
342.216506	2677.031653
342.608253	2678.836386
342.999937	2677.664318
343.391557	2676.963598
343.783113	2677.558454
344.174605	2678.415450
344.566033	2675.481498
344.957397	2675.042918
345.348697	2674.322033
345.739934	2673.021415
346.131106	2669.522855
346.522215	2669.681651
346.913260	2666.556136
347.304241	2667.455982
347.695159	2664.088491
348.086012	2662.608912
348.476802	2660.468942
348.867528	2654.933755
349.258191	2656.153715
349.648789	2652.912253
350.039324	2650.608445
350.429796	2653.907881
350.820203	2651.500730
351.210548	2650.623569
351.600828	2650.273209
351.991045	2649.844711
352.381198	2646.699031
352.771288	2650.104330
353.161314	2649.247334
353.551276	2647.094761
353.941175	2650.532828
354.331010	2647.654329
354.720782	2647.009062
355.110490	2645.620224
355.500135	2645.831952
355.889717	2646.444452
356.279235	2646.794812
356.668689	2646.877992
357.058080	2646.252888
357.447408	2648.879330
357.836672	2649.204484
358.225873	2649.539721
358.615010	2649.242293
359.004084	2649.023003
359.393095	2649.257416
359.782043	2650.976450
360.170927	2653.522232
360.559748	2651.770431
360.948505	2650.726912
361.337199	2655.793272
361.725830	2653.933086
362.114398	2655.208498
362.502903	2656.153715
362.891344	2658.497851
363.279722	2655.684887
363.668037	2658.263437
364.056289	2657.391318
364.444478	2659.813592
364.832603	2663.317194
365.220665	2658.681853
365.608665	2659.143119
365.996601	2658.878458
366.384474	2660.416010
366.772284	2662.142605
367.160031	2664.275013
367.547715	2663.760816
367.935336	2663.145795
368.322893	2661.336021
368.710388	2659.468273
369.097820	2660.431134
369.485189	2662.059426
369.872495	2667.841630
370.259738	2667.420693
370.646918	2667.098060
371.034035	2668.139058
371.421090	2667.806342
371.808081	2670.629388
372.195010	2671.022598
372.581875	2671.592248
372.968678	2673.964111
373.355418	2677.520645
373.742096	2681.092303
374.128710	2685.841070
374.515262	2691.096472
374.901751	2699.996630
375.288177	2708.995089
375.674540	2719.039588
376.060841	2732.645663
376.447079	2748.164855
376.833254	2770.502207
377.219367	2783.571399
377.605417	2810.959987
377.991404	2832.818431
378.377329	2863.108203
378.763191	2885.558982
379.148991	2922.374529
379.534727	2960.084880
379.920402	2997.149964
380.306013	3022.547297
380.691563	3079.928230
381.077049	3110.144907
381.462474	3153.808861
381.847835	3209.727860
382.233134	3254.808378
382.618371	3290.416568
383.003545	3356.571630
383.388657	3389.903739
383.773706	3458.322279
384.158693	3489.537104
384.543618	3532.465049
384.928480	3592.951334
385.313280	3654.753359
385.698017	3686.187474
386.082692	3779.239613
386.467305	3791.413999
386.851856	3830.029237
387.236344	3914.461003
387.620770	3945.917803
388.005133	4003.880990
388.389435	4049.392527
388.773674	4069.002615
389.157851	4149.489677
389.541965	4215.995099
389.926018	4184.147610
390.310008	4289.613590
390.693936	4344.393288
391.077802	4380.538361
391.461606	4379.724215
391.845348	4452.263898
392.229027	4508.041745
392.612645	4511.273124
392.996200	4613.752220
393.379694	4671.511240
393.763125	4777.040234
394.146494	4805.598371
394.529801	4863.571640
394.913047	4946.249084
395.296230	4895.966095
395.679351	5003.927446
396.062410	5054.777564
396.445408	5029.430643
396.828343	5087.774437
397.211217	5145.435155
397.594028	5028.409809
397.976778	5146.027490
398.359466	5192.333009
398.742092	5216.933840
399.124656	5133.986694
399.507158	5256.479171
399.889598	5315.085105
400.271977	5441.471873
400.654294	5433.479124
401.036549	5478.161391
401.418742	5399.499226
401.800874	5602.788796
402.182944	5665.740205
402.564952	5771.491010
402.946898	5828.922355
403.328783	5666.829094
403.710606	5684.757958
404.092367	6009.383060
404.474067	6030.644126
404.855705	5929.319454
405.237282	5864.976687
405.618797	6120.779957
406.000250	6096.592501
406.381642	6300.532379
406.762972	6325.690258
407.144240	6381.163115
407.525447	6364.842379
407.906593	6382.446088
408.287677	6547.863990
408.668700	6460.505835
409.049661	6571.315438
409.430560	6598.179747
409.811399	6463.177647
410.192176	6727.780250
410.572891	6745.555359
410.953545	6937.323372
411.334138	6668.884450
411.714669	6838.214287
412.095139	6634.738194
412.475547	6878.425051
412.855894	6946.815864
413.236180	7133.514997
413.616405	6797.852289
413.996568	7015.597367
414.376670	7063.299286
414.756711	6964.333874
415.136691	7055.959366
415.516609	7260.282372
415.896466	7244.339723
416.276262	7453.691281
416.655997	7442.159641
417.035670	7608.500074
417.415283	7959.187941
417.794834	8023.369392
418.174324	7880.079635
418.553753	7797.472767
418.933121	8101.454344
419.312428	8202.587452
419.691674	7971.763100
420.070859	8459.315773
420.449983	8138.095971
420.829045	8504.643308
421.208047	8273.718133
421.586988	8583.386131
421.965867	8610.205070
422.344686	8705.029173
422.723444	8771.600131
423.102141	8108.491795
423.480777	8870.507569
423.859352	8395.865290
424.237866	9016.638016
424.616319	8878.712047
424.994712	9299.529926
425.373044	8848.598714
425.751314	9330.999329
426.129524	9212.507008
426.507673	9294.019945
426.885762	9457.270150
427.263789	9370.242191
427.641756	9311.212800
428.019662	9394.333865
428.397508	9664.527108
428.775292	9319.959202
429.153016	9711.540909
429.530679	9544.620744
429.908282	9551.988390
430.285824	9279.065362
430.663305	9975.364655
431.040726	9426.819061
431.418086	9399.990040
431.795385	9735.796421
432.172624	9833.766205
432.549802	9737.611236
432.926920	9819.661056
433.303977	9683.176857
433.680974	9887.620851
434.057910	9991.047684
434.434786	10062.498478
434.811601	9881.856292
435.188355	10444.111304
435.565050	10193.976812
435.941683	10114.185429
436.318257	10593.513460
436.694770	10765.482341
437.071222	10817.272635
437.447614	10642.599175
437.823946	10560.887112
438.200218	10661.228759
438.576429	10509.732003
438.952580	10746.270504
439.328670	10772.933166
439.704700	10576.403784
440.080670	10562.338964
440.456580	11085.542678
440.832429	10871.510409
441.208218	10475.069030
441.583947	10771.161201
441.959616	10957.386465
442.335224	10768.980902
442.710773	10873.935204
443.086261	11102.075142
443.461689	10366.759839
443.837057	11058.814480
444.212365	11296.734257
444.587612	10927.651219
444.962800	11142.618622
445.337927	10881.685978
445.712995	10561.151773
446.088002	11594.457241
446.462949	11292.184615
446.837837	11249.165929
447.212664	11184.843327
447.587431	11773.632452
447.962139	12532.915921
448.336786	14821.960209
448.711374	15312.804756
449.085901	13127.232671
449.460369	12775.581943
449.834776	12221.349928
450.209124	13157.240139
450.583412	13573.394951
450.957640	14503.555891
451.331808	13545.466959
451.705917	12618.181997
452.079965	11864.320289
452.453954	12780.116461
452.827883	12430.409098
453.201752	12722.949777
453.575562	12270.032350
453.949311	12679.018641
454.323001	12667.431549
454.696632	12906.571285
455.070202	13177.598839
455.443713	13373.485475
455.817164	13871.170867
456.190556	13834.186442
456.563888	14199.135734
456.937160	14349.856152
457.310373	13705.763048
457.683526	13812.592660
458.056619	13332.538703
458.429653	13544.040312
458.802628	12902.051890
459.175542	13316.792658
459.548398	14269.598462
459.921194	14634.812414
460.293930	14703.886304
460.666607	15540.291865
461.039224	16615.824558
461.411782	17342.627873
461.784280	17114.697143
462.156719	17227.422384
462.529099	16884.064355
462.901419	15851.986407
463.273680	15614.933709
463.645882	15513.117525
464.018024	15230.787704
464.390106	15467.069105
464.762130	16175.933474
465.134094	16977.106411
465.505999	19031.979021
465.877845	22310.793373
466.249631	25110.448573
466.621358	24720.036414
466.993026	23306.138953
467.364634	22714.589796
467.736184	21242.550188
468.107674	20448.613828
468.479105	20576.936399
468.850477	20037.175015
469.221790	19652.534977
469.593043	18948.190003
469.964238	18365.631744
470.335373	18020.753806
470.706449	18522.288120
471.077467	18104.232793
471.448425	19982.947323
471.819324	24124.996258
472.190164	25953.793283
472.560945	22279.543261
472.931667	19985.946810
473.302330	19362.474546
473.672934	19006.291821
474.043479	19235.175329
474.413965	19039.228200
474.784393	18629.606724
475.154761	19402.171112
475.525070	19326.609257
475.895321	19040.470844
476.265513	19652.033382
476.635645	20241.419884
477.005719	19992.948973
477.375734	20176.870430
477.745691	20665.857312
478.115588	21217.281404
478.485427	21779.927106
478.855207	22869.310370
479.224928	24660.250850
479.594591	26892.257003
479.964194	26789.442670
480.333739	27038.354683
480.703226	26610.156554
481.072653	26334.312178
481.442022	26949.237165
481.811333	27879.768630
482.180584	27762.120702
482.549777	26800.061861
482.918912	26485.723233
483.287988	26622.910674
483.657005	26247.695072
484.025964	26043.089761
484.394864	25911.629072
484.763706	25553.263527
485.132489	25038.027357
485.501213	25202.696648
485.869879	25106.909683
486.238487	24961.542971
486.607036	25093.381747
486.975527	24855.414080
487.343959	25128.808456
487.712333	25039.007862
488.080648	24695.836355
488.448905	25207.931886
488.817104	24980.623738
489.185244	25681.104668
489.553326	25615.458763
489.921350	26679.900918
490.289315	29039.831391
490.657222	30737.152603
491.025070	31259.811872
491.392861	31002.697903
491.760593	30149.832974
492.128267	29229.673683
492.495883	28153.362132
492.863440	27291.155945
493.230939	26426.819871
493.598380	26257.550528
493.965763	25882.770987
494.333088	25375.141918
494.700354	25359.012746
495.067563	25193.582241
495.434713	24946.416989
495.801805	25130.146882
496.168839	24900.461830
496.535815	24766.641881
496.902733	24988.850901
497.269593	24694.843247
497.636395	24850.892165
498.003139	24776.877944
498.369825	24522.166084
498.736453	24735.260698
499.103023	24610.013231
499.469535	24594.980510
499.835989	24827.647404
500.202385	24842.428067
500.568723	24389.818152
500.935003	24570.382200
501.301226	24256.971145
501.667390	25108.404385
502.033497	25296.724249
502.399546	25032.930751
502.765537	24570.178033
503.131470	24959.718073
503.497345	25100.237716
503.863163	24343.694114
504.228923	24874.935948
504.594625	25127.099504
504.960269	24695.198649
505.325856	25169.437635
505.691385	24568.655605
506.056856	25173.699931
506.422270	25160.895400
506.787625	24688.045251
507.152924	25115.041064
507.518164	25158.785677
507.883347	24973.177954
508.248472	24644.948427
508.613540	25419.723362
508.978550	25225.933846
509.343503	25251.479893
509.708398	25445.944923
510.073236	25604.234634
510.438016	25823.880227
510.802738	25477.278215
511.167403	25733.225158
511.532010	25483.872044
511.896561	26227.777473
512.261053	26189.016042
512.625488	26026.310281
512.989866	25904.266467
513.354186	25741.747228
513.718449	25885.881378
514.082655	26240.939926
514.446803	25964.420035
514.810894	26456.590405
515.174927	25952.399403
515.538904	25992.640414
515.902822	26482.275084
516.266684	26230.726548
516.630488	26150.378118
516.994235	26071.232002
517.357925	26424.185868
517.721558	26585.959016
518.085133	26705.036111
518.448651	26586.080004
518.812112	26355.129623
519.175516	26575.150782
519.538863	26718.682514
519.902152	26513.164754
520.265385	26766.903672
520.628560	26576.756390
520.991678	26549.660188
521.354739	26615.520342
521.717743	26713.464920
522.080690	26472.102036
522.443580	26813.826732
522.806413	26781.361701
523.169189	26904.627995
523.531908	26947.992000
523.894569	26570.283548
524.257174	26674.035535
524.619722	26801.924567
524.982213	26529.044389
525.344647	26542.587449
525.707025	26706.359414
526.069345	26660.681519
526.431608	26636.557077
526.793815	26805.478581
527.155964	26306.525338
527.518057	26473.190925
527.880093	26388.802010
528.242072	26604.626409
528.603995	26329.833113
528.965860	26118.961647
529.327669	26165.259604
529.689421	26149.596739
530.051117	25993.136968
530.412755	26161.221640
530.774337	25938.332064
531.135862	25844.049884
531.497331	26022.612594
531.858743	25632.422245
532.220098	26062.523409
532.581396	25763.890497
532.942638	25657.973334
533.303824	25789.640710
533.664953	25769.324860
534.026025	25434.443531
534.387040	25682.357395
534.747999	25725.582768
535.108902	25889.490845
535.469748	25399.760392
535.830537	25543.657608
536.191270	25692.933736
536.551947	25517.824216
536.912567	25139.410002
537.273131	25598.091988
537.633638	25242.186526
537.994089	25470.623892
538.354483	24966.768127
538.714821	25471.846372
539.075103	25506.287535
539.435328	25276.403358
539.795497	24883.021959
540.155609	25218.987136
540.515665	25536.363059
540.875665	24746.875517
541.235609	25093.608599
541.595496	25023.329873
541.955328	25404.103347
542.315102	25321.320039
542.674821	24823.649769
543.034483	24702.372211
543.394090	24874.862851
543.753640	24686.298492
544.113134	25307.693800
544.472571	24882.837957
544.831953	25200.533992
545.191278	24861.723084
545.550548	24734.398661
545.909761	24935.250833
546.268918	25174.115826
546.628019	25150.266127
546.987064	24838.720299
547.346053	24559.752927
547.704986	24667.038763
548.063863	24829.840306
548.422684	24867.974114
548.781449	24351.016390
549.140158	24772.693786
549.498811	24344.251162
549.857408	24119.105669
550.215949	24505.409289
550.574434	24212.314083
550.932864	24393.863677
551.291237	24595.388844
551.649555	24419.787811
552.007817	24487.384643
552.366022	24327.827083
552.724173	24355.702143
553.082267	24341.332334
553.440305	24813.080990
553.798288	24040.100706
554.156215	24525.684809
554.514086	24671.848024
554.871902	24065.543410
555.229661	24327.426311
555.587365	24161.249716
555.945014	24083.005967
556.302606	24294.101763
556.660143	24279.308497
557.017625	24517.959241
557.375050	24029.050497
557.732421	24408.583847
558.089735	24252.918057
558.446994	24296.950015
558.804197	24329.581404
559.161345	24221.448654
559.518437	24029.617627
559.875474	24196.346229
560.232455	24376.174269
560.589381	24188.673592
560.946251	24192.381361
561.303065	24490.956301
561.659825	24579.153808
562.016528	24189.918758
562.373177	23921.666358
562.729770	24292.826352
563.086307	24130.954902
563.442789	24298.916065
563.799216	24149.622294
564.155587	24139.613083
564.511904	24119.824034
564.868164	24074.108330
565.224370	24040.614904
565.580520	23992.101360
565.936615	24091.994344
566.292654	23799.662874
566.648638	24031.092164
567.004567	23877.634400
567.360441	23808.976405
567.716260	23538.803327
568.072023	23858.271328
568.427732	23636.163131
568.783385	23399.299476
569.138982	23638.383759
569.494525	23671.027751
569.850013	23432.172841
570.205445	23527.001986
570.560823	23354.980172
570.916145	23121.783957
571.271412	23304.694663
571.626625	23053.504049
571.981782	23164.744670
572.336884	22965.752684
572.691931	23113.007308
573.046923	22854.837217
573.401860	22725.118246
573.756743	22763.103340
574.111570	22656.286332
574.466342	22565.270819
574.821059	22632.683649
575.175722	22354.787523
575.530330	22312.096512
575.884882	22312.993837
576.239380	22235.730592
576.593823	22135.968678
576.948211	22107.599585
577.302544	21967.342082
577.656823	21822.187098
578.011047	21934.274634
578.365216	21793.712141
578.719330	21678.000016
579.073389	21561.103220
579.427394	21727.589847
579.781344	21468.570321
580.135239	21352.472548
580.489080	21297.450874
580.842866	21086.876837
581.196597	21291.388887
581.550273	21262.253538
581.903895	21131.932149
582.257463	21443.629212
582.610975	20979.205352
582.964434	21315.442752
583.317837	20976.475568
583.671186	21057.650747
584.024481	21060.105789
584.377721	20814.682255
584.730906	20910.048283
585.084037	20884.056094
585.437113	20817.021351
585.790135	21021.349398
586.143103	20463.467588
586.496016	20498.274234
586.848874	20731.422558
587.201679	20638.214144
587.554428	20340.818835
587.907124	20673.703868
588.259765	20430.684964
588.612352	20505.248671
588.964884	20083.604042
589.317362	20240.126828
589.669786	20301.021446
590.022155	20292.814447
590.374470	20552.509488
590.726731	20296.277720
591.078937	20094.946638
591.431090	20173.573515
591.783188	19961.398911
592.135232	19907.503936
592.487222	20015.001500
592.839157	20014.734319
593.191038	19882.940913
593.542866	19791.038158
593.894639	19483.953751
594.246358	19702.790240
594.598022	19583.430840
594.949633	19344.752370
595.301190	19334.977573
595.652692	19500.289610
596.004141	19714.112671
596.355535	19046.908398
596.706876	19073.228262
597.058162	18965.619792
597.409395	19211.560044
597.760573	19251.801055
598.111698	19024.782774
598.462768	18976.007090
598.813785	18956.323904
599.164748	18749.838243
599.515657	18801.709195
599.866511	18595.488194
600.217312	18955.033369
600.568060	18457.045507
600.918753	18770.108722
601.269392	18677.409465
601.619978	18478.029310
601.970510	18654.482297
602.320988	18607.642416
602.671412	18799.521335
603.021783	18738.815760
603.372100	18440.603784
603.722363	18592.677751
604.072572	18546.311739
604.422728	18701.677580
604.772830	18439.383824
605.122878	18408.980626
605.472872	18380.722438
605.822813	18360.492287
606.172701	18365.195684
606.522534	18531.140386
606.872314	18557.414880
607.222041	18397.983348
607.571714	18611.052757
607.921333	18440.807950
608.270899	18519.202934
608.620411	18666.792795
608.969870	18461.307802
609.319276	18457.612637
609.668627	18481.114496
610.017926	18607.788610
610.367171	18730.782681
610.716362	18780.601884
611.065500	18593.822093
611.414585	18753.893851
611.763616	18738.793075
612.112594	18662.838010
612.461518	18645.461153
612.810389	18821.752823
613.159207	18688.207617
613.507971	18593.507021
613.856682	18853.655765
614.205340	18768.936654
614.553945	18937.401933
614.902496	18674.334361
615.250994	18868.020533
615.599439	18824.792639
615.947830	18814.241504
616.296169	18897.959946
616.644454	18848.004632
616.992686	18828.041663
617.340864	19034.567653
617.688990	18793.406415
618.037063	18961.680130
618.385082	18826.085695
618.733048	19091.457074
619.080961	18981.670826
619.428821	19015.658285
619.776628	18881.805568
620.124382	18812.005752
620.472083	18874.470689
620.819731	18882.123161
621.167326	18570.330316
621.514868	18610.561244
621.862357	18392.120487
622.209793	18387.807779
622.557176	18232.368842
622.904506	18061.839210
623.251783	18000.306886
623.599007	17736.725116
623.946179	17678.731682
624.293297	17600.923993
624.640363	17342.050661
624.987376	17363.258795
625.334336	17178.374478
625.681243	17014.042945
626.028097	17034.779731
626.374899	16947.827389
626.721647	16819.540106
627.068343	16649.943088
627.414987	16584.392964
627.761577	16546.584310
628.108115	16581.161585
628.454600	16300.913760
628.801032	16407.254380
629.147412	16341.878176
629.493739	16352.366297
629.840014	16152.580329
630.186236	16263.659633
630.532405	16022.566450
630.878521	16230.304839
631.224585	16129.844725
631.570597	15951.425687
631.916556	15977.148175
632.262462	15950.314113
632.608316	15875.155550
632.954117	15821.958774
633.299866	15797.937676
633.645562	15713.662187
633.991206	15495.226470
634.336797	15354.674060
634.682336	15327.658516
635.027823	15186.448235
635.373257	15056.351178
635.718639	14980.055835
636.063968	14912.706020
636.409245	14668.716694
636.754470	14705.761613
637.099642	14555.452049
637.444762	14323.828674
637.789829	14364.596485
638.134845	14192.337738
638.479808	14229.090270
638.824719	14143.529286
639.169577	14014.689997
639.514383	14052.281881
639.859137	13883.040264
640.203839	13982.308145
640.548489	13826.864166
640.893086	13807.743070
641.237632	13684.423844
641.582125	13847.409389
641.926566	13653.929904
642.270955	13674.994366
642.615292	13631.469043
642.959576	13637.936844
643.303809	13667.223427
643.647990	13599.810597
643.992118	13665.574970
644.336195	13429.381788
644.680219	13662.104135
645.024192	13563.171491
645.368112	13810.679542
645.711981	13852.753012
646.055797	14035.469633
646.399562	14022.193754
646.743274	14279.393424
647.086935	14550.060535
647.430544	14519.231359
647.774101	14559.076639
648.117606	14693.927504
648.461059	14678.708261
648.804460	14647.377490
649.147810	14375.301376
649.491108	14292.591164
649.834354	14311.465244
650.177548	13975.164830
650.520690	13790.769505
650.863781	13717.829050
651.206820	13771.045990
651.549807	13602.568108
651.892742	13376.560578
652.235626	13319.630828
652.578458	13327.437055
652.921238	13026.800283
653.263967	13231.014905
653.606644	13058.431003
653.949269	13036.244885
654.291843	12825.781753
654.634365	12995.519924
654.976836	12849.336545
655.319255	12831.243843
655.661622	12802.017754
656.003938	12730.330026
656.346203	12644.932880
656.688416	12732.759862
657.030577	12678.789269
657.372687	12581.429465
657.714746	12580.194382
658.056753	12761.675920
658.398708	12569.194584
658.740612	12577.741861
659.082465	12690.146988
659.424266	12661.026763
659.766016	12689.940301
660.107715	12601.367228
660.449362	12674.867251
660.790958	12629.040642
661.132503	12560.201166
661.473996	12646.256183
661.815438	12655.816731
662.156829	12681.115761
662.498168	12654.019559
662.839456	12654.201041
663.180693	12666.022547
663.521879	12767.251437
663.863013	12734.352867
664.204097	12699.425232
664.545129	12846.916791
664.886110	12814.527377
665.227040	12909.981625
665.567918	12902.848393
665.908746	12922.196341
666.249522	12918.715424
666.590248	12983.794200
666.930922	13084.650044
667.271545	13051.968244
667.612118	13142.978715
667.952639	13040.066080
668.293109	13067.288311
668.633528	13014.499868
668.973896	12995.522444
669.314213	13051.534705
669.654480	12794.718163
669.994695	12891.561249
670.334859	12913.891040
670.674973	12851.358047
671.015035	12872.427550
671.355047	12829.340808
671.695008	12804.813074
672.034918	12819.916371
672.374777	12863.229965
672.714585	12765.434101
673.054342	12808.311635
673.394049	12754.588058
673.733705	12854.102956
674.073310	12759.629212
674.412864	12766.800253
674.752368	12611.384001
675.091820	12669.160665
675.431223	12633.479378
675.770574	12501.804440
676.109875	12414.728589
676.449125	12375.331972
676.788324	12331.292452
677.127473	12157.309630
677.466571	12153.760657
677.805619	12040.523739
678.144616	11971.704427
678.483562	11952.447220
678.822458	11821.964514
679.161303	11799.924590
679.500098	11782.656117
679.838842	11735.899415
680.177535	11777.312494
680.516179	11841.725837
680.854771	11783.258535
681.193314	11992.925165
681.531805	12164.485712
681.870247	12602.332609
682.208638	13014.194878
682.546978	13305.308910
682.885268	13336.717819
683.223508	13040.507181
683.561697	12890.623595
683.899836	12797.846199
684.237925	12591.753748
684.575963	12505.113957
684.913951	12421.244281
685.251889	12377.318187
685.589776	12485.284578
685.927614	12394.569015
686.265401	12373.466745
686.603137	12421.929877
686.940824	12576.852097
687.278460	12708.484186
687.616046	12740.102302
687.953582	12892.778688
688.291068	12832.773834
688.628504	13068.714957
688.965889	13076.173344
689.303224	13027.921940
689.640510	12912.287953
689.977745	12587.030187
690.314930	12376.612425
690.652065	12283.787139
690.989150	11978.820016
691.326185	11760.938826
691.663170	11551.531816
692.000105	11319.726959
692.336990	11193.088134
692.673825	10931.948803
693.010610	10828.552217
693.347345	10610.991140
693.684030	10423.760166
694.020665	10364.201454
694.357251	10162.890537
694.693786	10089.201470
695.030272	9944.175036
695.366707	9824.031737
695.703093	9766.524774
696.039429	9752.903577
696.375716	9649.940530
696.711952	9532.156491
697.048139	9588.768648
697.384276	9539.224188
697.720363	9564.326614
698.056400	9490.425819
698.392388	9435.769629
698.728326	9399.445595
699.064214	9342.354528
699.400053	9378.393737
699.735842	9193.718627
700.071581	9156.812340
700.407270	9083.856762
700.742910	9000.839040
701.078501	8910.269670
701.414042	8776.109443
701.749533	8723.366371
702.084974	8578.448321
702.420366	8704.018422
702.755709	8572.313237
703.091002	8440.577804
703.426246	8472.480747
703.761440	8427.291843
704.096584	8387.824650
704.431679	8320.782345
704.766725	8302.062020
705.101721	8258.839167
705.436668	8315.872261
705.771565	8198.428500
706.106413	8284.682642
706.441212	8315.093403
706.775961	8277.264584
707.110661	8328.311308
707.445311	8452.827808
707.779913	8354.863066
708.114465	8480.188671
708.448967	8512.073969
708.783421	8680.332561
709.117825	8850.947892
709.452180	8885.247903
709.786485	8970.932395
710.120742	9260.276982
710.454949	9266.180173
710.789107	9370.781594
711.123216	9596.499258
711.457275	9762.852294
711.791286	9910.338811
712.125247	9913.023226
712.459159	9903.298840
712.793023	10124.915525
713.126837	9707.334066
713.460602	9865.278458
713.794318	9696.006594
714.127985	9715.404954
714.461602	9373.594558
714.795171	9331.432868
715.128691	9075.927027
715.462162	8840.447169
715.795584	8781.455586
716.128957	8612.612221
716.462281	8447.176675
716.795556	8496.937904
717.128782	8283.979401
717.461960	8039.306999
717.795088	8101.348480
718.128167	8011.119388
718.461198	7849.275664
718.794180	7796.419166
719.127113	7779.687576
719.459997	7601.782737
719.792833	7385.759212
720.125619	7460.428783
720.458357	7310.288098
720.791046	7304.531100
721.123686	7288.250694
721.456278	7126.901003
721.788821	7150.029817
722.121315	7055.757719
722.453761	7126.323791
722.786158	7060.609830
723.118506	7068.375728
723.450805	7029.261415
723.783056	7085.679488
724.115259	7020.643562
724.447412	7014.821030
724.779518	7063.947074
725.111574	7062.207876
725.443582	7134.525748
725.775542	7116.279292
726.107453	7314.925959
726.439315	7224.953966
726.771129	7297.486087
727.102895	7476.043757
727.434612	7578.792554
727.766281	7621.276878
728.097901	7693.420831
728.429473	7702.290741
728.760996	7690.960748
729.092471	7660.255080
729.423897	7598.011953
729.755276	7591.057682
730.086606	7506.913262
730.417887	7615.051053
730.749120	7839.826021
731.080305	8024.564145
731.411442	8128.434599
731.742530	8113.119574
732.073570	8220.090338
732.404562	8311.461252
732.735506	8178.392434
733.066401	8302.775343
733.397249	8219.959268
733.728048	7978.881209
734.058798	7640.123232
734.389501	7413.835918
734.720156	7242.398879
735.050762	7018.543922
735.381320	6935.112826
735.711831	6863.702361
736.042293	6759.935250
736.372707	6775.950996
736.703073	6643.129195
737.033391	6682.515730
737.363661	6689.424631
737.693883	6733.701085
738.024056	6818.238715
738.354182	6849.672830
738.684260	6884.645834
739.014290	7008.955647
739.344272	7119.545960
739.674207	7149.029148
740.004093	7223.761733
740.333931	7233.254226
740.663722	7238.219762
740.993464	7317.504509
741.323159	7293.911909
741.652806	7048.256483
741.982405	7090.791218
742.311956	7123.357072
742.641460	6942.984587
742.970915	6748.804382
743.300323	6739.460604
743.629683	6700.270674
743.958996	6566.226393
744.288260	6473.227187
744.617477	6423.120638
744.946647	6412.113279
745.275768	6254.231902
745.604842	6208.836312
745.933869	6189.541295
746.262847	6150.752137
746.591778	6135.079190
746.920662	6095.380103
747.249498	6096.955464
747.578286	6142.151928
747.907027	6214.464760
748.235720	6278.018586
748.564365	6250.256952
748.892963	6294.296472
749.221514	6427.967707
749.550017	6238.889150
749.878473	6133.100537
750.206881	6196.944230
750.535242	6144.307022
750.863555	6072.873872
751.191821	6079.099697
751.520039	6075.608698
751.848210	5987.764071
752.176334	6018.260532
752.504411	6058.874588
752.832440	5983.597558
753.160421	5917.755047
753.488356	5962.752387
753.816243	5991.648280
754.144082	5841.585733
754.471875	5822.721736
754.799620	5857.170460
755.127318	5875.144694
755.454969	5827.881357
755.782572	5794.546727
756.110129	5839.995249
756.437638	5812.122710
756.765100	5760.975163
757.092515	5768.733498
757.419882	5823.603938
757.747203	5793.621675
758.074477	5852.673751
758.401703	5836.912584
758.728882	5794.082941
759.056014	5869.894333
759.383099	5976.386187
759.710138	5993.425287
760.037129	5977.848122
760.364073	5988.371530
760.690970	6062.927675
761.017820	6038.531011
761.344623	6003.991546
761.671379	6114.922136
761.998088	6239.017700
762.324751	6508.265727
762.651366	7153.500651
762.977935	8521.064867
763.304456	10182.246047
763.630931	11036.119206
763.957359	10568.554707
764.283740	9606.962173
764.610074	8729.067916
764.936362	7727.307467
765.262602	7134.911397
765.588796	6609.653413
765.914943	6282.364061
766.241044	6104.897802
766.567097	5888.289503
766.893104	5632.662674
767.219064	5460.056087
767.544978	5398.967384
767.870845	5309.560000
768.196665	5206.002098
768.522438	5139.262262
768.848165	5100.039564
769.173846	5029.085324
769.499479	4985.809539
769.825066	4933.252989
770.150607	4873.911047
770.476101	4857.492009
770.801548	4848.014639
771.126949	4761.228655
771.452303	4709.040110
771.777611	4673.671375
772.102872	4695.721382
772.428087	4655.994569
772.753256	4611.861787
773.078378	4558.748191
773.403453	4494.198736
773.728482	4478.051920
774.053465	4432.099282
774.378401	4424.915638
774.703291	4415.947426
775.028135	4340.700643
775.352932	4295.884785
775.677683	4282.641674
776.002388	4297.684477
776.327046	4306.377947
776.651658	4233.223243
776.976224	4172.245446
777.300743	4176.008667
777.625216	4198.565310
777.949643	4186.932848
778.274024	4150.450017
778.598359	4115.774440
778.922647	4139.654386
779.246889	4124.442704
779.571086	4116.704533
779.895236	4100.111575
780.219339	4089.414247
780.543397	4090.155297
780.867409	4142.353924
781.191374	4151.990090
781.515294	4087.314606
781.839167	4080.307402
782.162995	4102.972430
782.486776	4088.136314
782.810511	4104.943521
783.134201	4086.586160
783.457844	4039.146381
783.781441	3990.970595
784.104993	3996.465452
784.428498	4017.865150
784.751958	4007.903830
785.075372	3984.313751
785.398739	3954.240748
785.722061	3965.648879
786.045337	4011.803163
786.368568	4037.066905
786.691752	3949.807053
787.014891	4009.269983
787.337983	4142.797546
787.661030	4307.300478
787.984031	4464.276967
788.306987	4631.862565
788.629897	4719.440011
788.952760	4672.464018
789.275579	4603.831229
789.598351	4531.820867
789.921078	4380.535840
790.243759	4179.335829
790.566395	4176.071682
790.888984	4161.348992
791.211529	4058.879978
791.534027	3995.495030
791.856480	3980.837875
792.178888	3919.620624
792.501249	3877.448851
792.823566	3884.420767
793.145836	3909.601330
793.468062	3854.350284
793.790241	3816.831497
794.112375	3844.346114
794.434464	3913.304058
794.756507	3934.797017
795.078505	3907.103439
795.400457	3954.712096
795.722364	4101.069395
796.044226	4204.521433
796.366042	4276.846868
796.687812	4243.267742
797.009538	4250.811828
797.331218	4215.533834
797.652852	4189.299669
797.974442	4167.473994
798.295986	4160.451666
798.617484	4078.522834
798.938938	3995.616018
799.260346	4041.374571
799.581709	4029.341337
799.903026	3947.662042
800.224299	3919.076179
800.545526	3912.797422
800.866708	3873.640259
801.187845	3815.929130
801.508936	3851.323071
801.829983	3834.878827
802.150984	3764.431223
802.471940	3755.100047
802.792851	3760.201695
803.113717	3764.088425
803.434538	3762.490379
803.755314	3704.398643
804.076045	3681.446269
804.396731	3708.144220
804.717372	3732.644228
805.037967	3715.438769
805.358518	3701.137016
805.679024	3733.138261
805.999485	3749.635437
806.319901	3752.478647
806.640272	3764.824433
806.960598	3773.790125
807.280879	3747.785333
807.601115	3763.874176
807.921306	3785.984676
808.241453	3821.900377
808.561554	3786.393010
808.881611	3727.832446
809.201623	3773.301133
809.521590	3777.918830
809.841513	3749.637957
810.161390	3780.351187
810.481223	3750.487392
810.801011	3703.254301
811.120755	3703.319836
811.440453	3732.634145
811.760107	3730.852097
812.079716	3686.918442
812.399281	3656.837877
812.718801	3682.431815
813.038276	3657.470541
813.357707	3652.988956
813.677093	3668.939166
813.996434	3614.928244
814.315731	3629.045995
814.634983	3632.214361
814.954191	3649.805467
815.273354	3673.146009
815.592473	3664.409690
815.911547	3679.132379
816.230577	3725.490830
816.549562	3776.403963
816.868502	3819.619255
817.187399	3838.936956
817.506250	3835.690453
817.825058	3815.810663
818.143821	3910.632246
818.462539	4013.265097
818.781213	4056.291346
819.099843	4126.973364
819.418429	4392.682501
819.736970	4638.305160
820.055466	4887.496956
820.373919	5262.876395
820.692327	5677.667575
821.010691	6181.301529
821.329011	7677.019437
821.647286	10597.130488
821.965517	15350.270612
822.283704	19353.534060
822.601847	21323.367446
822.919945	19379.387617
823.237999	16723.364973
823.556010	14193.807234
823.873976	12027.381451
824.191897	9914.769985
824.509775	8584.790092
824.827609	7448.801361
825.145398	6927.185611
825.463144	6806.177754
825.780845	6912.009218
826.098502	7149.253479
826.416116	8110.863658
826.733685	9485.316610
827.051210	10564.418440
827.368692	10499.881589
827.686129	9158.639758
828.003522	7654.056981
828.320872	6627.100846
828.638177	5906.788017
828.955439	5333.019010
829.272656	4826.967822
829.589830	4563.688521
829.906960	4378.302609
830.224046	4190.733878
830.541088	4068.601843
830.858086	4017.913041
831.175041	3941.973100
831.491952	3931.457253
831.808819	3940.662400
832.125642	4022.639123
832.442421	4181.901776
832.759157	4475.677537
833.075849	5065.527825
833.392497	5958.961439
833.709101	6755.982985
834.025662	7056.128244
834.342179	6625.210413
834.658653	5948.213699
834.975083	5288.470333
835.291469	4705.039955
835.607811	4306.350220
835.924110	4159.123322
836.240366	3953.083803
836.556578	3751.031836
836.872746	3642.775578
837.188871	3597.856377
837.504952	3528.021272
837.820990	3445.071606
838.136984	3403.151892
838.452935	3427.445212
838.768842	3422.973708
839.084706	3447.844241
839.400526	3622.684059
839.716303	3986.294924
840.032037	4541.509965
840.347727	4772.966982
840.663373	4453.657777
840.978977	4064.485741
841.294537	3753.426384
841.610054	3528.051519
841.925527	3423.555962
842.240957	3353.864530
842.556344	3297.267496
842.871687	3232.385326
843.186987	3181.434384
843.502244	3149.158396
843.817458	3112.214300
844.132629	3086.141453
844.447756	3093.055395
844.762840	3072.487487
845.077881	3039.246119
845.392879	3025.372863
845.707833	3021.856659
846.022745	3020.939169
846.337613	3019.192409
846.652438	3010.201511
846.967221	3006.768485
847.281960	2990.687204
847.596656	2988.232163
847.911309	2990.145280
848.225919	2981.028354
848.540485	2977.703713
848.855009	2976.849237
849.169490	2963.225519
849.483928	2957.735702
849.798323	2958.023048
850.112675	2954.733695
850.426984	2969.779019
850.741251	2959.616053
851.055474	2949.589198
851.369654	2946.030143
851.683792	2951.366204
851.997887	2961.478759
852.311938	2962.943214
852.625947	2951.315793
852.939914	2953.453242
853.253837	2957.458439
853.567718	2943.978393
853.881555	2943.963270
854.195350	2958.857359
854.509103	2950.678087
854.822812	2945.422684
855.136479	2938.700305
855.450103	2945.316820
855.763685	2940.694082
856.077224	2936.726694
856.390720	2947.411419
856.704173	2955.323510
857.017584	2946.864454
857.330953	2947.300514
857.644278	2957.317287
857.957561	2966.439254
858.270802	2969.839513
858.584000	2965.763740
858.897155	2954.315279
859.210268	2953.198664
859.523339	2948.954012
859.836367	2951.580453
860.149352	2947.018209
860.462295	2939.322888
860.775195	2947.434104
861.088054	2946.672890
861.400869	2932.862649
861.713642	2930.213523
862.026373	2943.698609
862.339062	2948.336471
862.651708	2953.647327
862.964312	2954.920218
863.276873	2947.101388
863.589392	2961.975313
863.901869	2974.709267
864.214303	2994.858759
864.526696	3008.240502
864.839045	3005.601458
865.151353	3002.828823
865.463619	3005.684637
865.775842	3007.123887
866.088023	3026.194572
866.400162	3028.757998
866.712258	2999.731034
867.024313	2992.454129
867.336325	3002.670027
867.648296	3023.011083
867.960224	3011.880215
868.272110	2995.501506
868.583954	3005.349400
868.895755	3017.685104
869.207515	3005.099863
869.519233	3015.343488
869.830909	3023.805065
870.142542	3033.000129
870.454134	3033.161446
870.765684	3033.269831
871.077191	3033.602547
871.388657	3045.403888
871.700081	3055.897050
872.011463	3067.990778
872.322803	3068.383988
872.634101	3066.261662
872.945357	3084.843355
873.256571	3115.221348
873.567744	3103.049482
873.878874	3096.987495
874.189963	3120.932976
874.501010	3121.169910
874.812015	3112.340329
875.122979	3110.613734
875.433900	3110.515431
875.744780	3117.426853
876.055618	3123.821557
876.366415	3118.661936
876.677169	3128.454377
876.987882	3122.079838
877.298554	3124.791979
877.609183	3149.665032
877.919771	3173.499607
878.230317	3200.898279
878.540822	3252.161772
878.851285	3291.225673
879.161707	3342.020339
879.472087	3456.280612
879.782425	3708.943243
880.092722	4174.332483
880.402977	4715.165112
880.713191	5379.425352
881.023363	6612.375636
881.333494	7919.040192
881.643583	8437.104449
881.953631	8103.795960
882.263637	7419.149294
882.573602	6793.393388
882.883526	6202.973450
883.193408	5636.378004
883.503248	5186.901166
883.813048	4862.346640
884.122806	4533.454201
884.432522	4207.949418
884.742197	3966.924291
885.051831	3774.352214
885.361424	3647.985610
885.670975	3569.842685
885.980485	3478.391113
886.289954	3397.755336
886.599382	3352.122812
886.908768	3316.708706
887.218113	3270.844288
887.527417	3213.181050
887.836680	3161.574758
888.145901	3155.520332
888.455082	3140.595996
888.764221	3087.212698
889.073319	3060.459294
889.382376	3058.863769
889.691392	3064.875345
890.000366	3064.928277
890.309300	3048.791544
890.618193	3062.503482
890.927044	3078.617530
891.235855	3078.083168
891.544625	3065.800397
891.853353	3075.658373
892.162041	3097.831888
892.470687	3140.139772
892.779293	3192.814788
893.087858	3241.494691
893.396381	3312.892553
893.704864	3448.993624
894.013306	3707.814024
894.321707	4019.647198
894.630068	4215.213721
894.938387	4198.900547
895.246665	4162.523581
895.554903	4030.039537
895.863100	3822.646468
896.171256	3649.563492
896.479371	3501.494721
896.787446	3379.042573
897.095480	3272.429731
897.403473	3210.627706
897.711425	3174.401974
898.019336	3162.908143
898.327207	3128.449336
898.635038	3091.951382
898.942827	3077.606779
899.250576	3066.954821
899.558284	3034.421735
899.865952	3018.037985
900.173579	2996.560149
900.481165	2985.590598
900.788711	2972.876808
901.096216	2947.855041
901.403681	2938.165943
901.711105	2945.699948
902.018489	2945.299176
902.325832	2943.728856
902.633135	2953.024744
902.940397	2992.854901
903.247619	3084.571133
903.554800	3292.894295
903.861941	3668.709794
904.169041	4117.380048
904.476101	4407.193462
904.783121	4326.986184
905.090100	4066.943304
905.397039	3780.273049
905.703938	3525.777959
906.010796	3340.392047
906.317614	3227.502968
906.624391	3128.139305
906.931129	3050.901267
907.237826	2991.191320
907.544483	2944.868157
907.851099	2914.525452
908.157675	2891.729354
908.464211	2870.750593
908.770707	2858.535877
909.077163	2844.070286
909.383578	2826.706032
909.689954	2818.148673
909.996289	2814.977787
910.302584	2814.566933
910.608839	2814.771100
910.915054	2811.665749
911.221229	2802.470684
911.527363	2807.204328
911.833458	2816.724547
912.139513	2819.837459
912.445527	2823.462049
912.751502	2832.241218
913.057436	2840.233968
913.363331	2853.754342
913.669186	2881.364742
913.975000	2918.628951
914.280775	2981.131697
914.586510	3052.375804
914.892205	3136.696664
915.197859	3275.063734
915.503475	3489.680777
915.809050	3713.485322
916.114585	3860.535780
916.420081	3865.841594
916.725536	3797.324752
917.030952	3673.761030
917.336328	3543.502656
917.641665	3406.595000
917.946961	3305.315698
918.252218	3226.610684
918.557435	3146.388282
918.862612	3082.746235
919.167750	3031.931405
919.472848	2993.900940
919.777906	2964.576548
920.082925	2936.623350
920.387904	2906.121849
920.692843	2889.861607
920.997743	2875.471633
921.302603	2863.128368
921.607423	2851.329547
921.912204	2839.704647
922.216946	2825.052533
922.521647	2821.947182
922.826310	2808.615851
923.130932	2802.921868
923.435516	2792.668161
923.740059	2785.111471
924.044564	2774.789709
924.349028	2771.167640
924.653454	2767.046496
924.957840	2756.583582
925.262186	2754.887233
925.566493	2748.737026
925.870761	2743.733680
926.174989	2739.678072
926.479178	2735.738410
926.783328	2728.413614
927.087438	2728.774056
927.391509	2728.373285
927.695541	2726.893706
927.999533	2720.007490
928.303486	2718.404403
928.607400	2720.499002
928.911275	2719.032027
929.215110	2716.468600
929.518906	2711.056921
929.822663	2715.099927
930.126381	2714.474823
930.430060	2714.678990
930.733699	2714.875595
931.037299	2717.333158
931.340861	2722.114692
931.644383	2719.548745
931.947866	2717.265102
932.251309	2717.156717
932.554714	2716.269474
932.858080	2714.575647
933.161407	2709.829400
933.464694	2708.889225
933.767943	2705.572146
934.071153	2708.324616
934.374323	2708.049873
934.677455	2710.210007
934.980548	2706.351004
935.283602	2710.399051
935.586617	2706.608103
935.889593	2709.589945
936.192530	2705.829245
936.495428	2707.003833
936.798287	2711.009030
937.101108	2712.667570
937.403890	2717.491954
937.706632	2721.623180
938.009336	2728.711042
938.312002	2738.354769
938.614628	2745.278794
938.917216	2751.343302
939.219765	2753.793303
939.522275	2752.921183
939.824747	2750.022520
940.127179	2748.114443
940.429573	2745.377097
940.731929	2744.320975
941.034246	2738.962228
941.336524	2735.319995
941.638763	2733.946280
941.940964	2730.414952
942.243126	2726.263562
942.545250	2728.930332
942.847335	2723.243911
943.149381	2721.625700
943.451389	2716.685369
943.753359	2715.682180
944.055290	2712.627241
944.357182	2713.116232
944.659036	2710.857796
944.960851	2709.768906
945.262628	2708.911910
945.564367	2707.379399
945.866067	2709.007692
946.167729	2711.127497
946.469352	2711.676983
946.770937	2711.034236
947.072484	2707.596169
947.373992	2707.528113
947.675462	2706.658514
947.976893	2702.209696
948.278286	2698.660724
948.579641	2699.489994
948.880958	2700.064685
949.182236	2701.776157
949.483476	2699.762216
949.784678	2701.130889
950.085841	2698.927905
950.386967	2700.359593
950.688054	2701.352700
950.989103	2703.394367
951.290114	2701.433358
951.591087	2705.869574
951.892021	2708.364945
952.192917	2711.818135
952.493776	2712.528938
952.794596	2712.561706
953.095378	2712.108002
953.396122	2711.419884
953.696828	2709.501725
953.997496	2708.869060
954.298126	2705.350335
954.598718	2704.485777
954.899272	2700.042000
955.199788	2698.902699
955.500266	2698.632997
955.800706	2694.254755
956.101108	2694.244673
956.401472	2690.592357
956.701798	2686.607325
957.002087	2685.218487
957.302337	2684.227900
957.602550	2685.170596
957.902724	2682.191274
958.202861	2679.620286
958.502960	2680.467200
958.803022	2681.556089
959.103045	2678.324709
959.403031	2677.394616
959.702979	2676.003258
960.002889	2677.387055
960.302762	2675.012671
960.602596	2673.906138
960.902393	2677.951664
961.202153	2674.397650
961.501875	2676.177178
961.801559	2672.971004
962.101205	2672.618123
962.400814	2675.738597
962.700385	2672.744152
962.999918	2670.299192
963.299414	2671.241888
963.598873	2671.551919
963.898293	2670.866322
964.197677	2672.416477
964.497022	2672.913031
964.796331	2671.816580
965.095601	2669.759789
965.394835	2673.686848
965.694030	2670.894048
965.993189	2670.901610
966.292309	2673.422187
966.591393	2672.476971
966.890439	2672.126611
967.189447	2670.450427
967.488419	2673.686848
967.787353	2671.625016
968.086249	2673.885973
968.385108	2671.559481
968.683930	2668.756599
968.982714	2671.559481
969.281462	2667.763492
969.580172	2671.519152
969.878844	2670.329439
970.177480	2671.602331
970.476078	2670.982269
970.774639	2672.245078
971.073162	2671.746003
971.371649	2669.595951
971.670098	2672.870181
971.968510	2670.785664
972.266885	2670.768020
972.565223	2672.933195
972.863524	2671.753565
973.161788	2672.658452
973.460014	2669.895900
973.758204	2671.304902
974.056356	2668.832217
974.354471	2672.146775
974.652550	2670.795746
974.950591	2671.897238
975.248595	2671.337670
975.546563	2673.906138
975.844493	2671.398164
976.142386	2668.156702
976.440243	2670.641991
976.738062	2672.136693
977.035845	2669.873215
977.333590	2670.586538
977.631299	2669.903462
977.928971	2665.081598
978.226606	2667.108142
978.524204	2667.892041
978.821765	2663.788542
979.119290	2668.870025
979.416777	2668.217196
979.714228	2669.296003
980.011642	2668.864984
980.309020	2670.712567
980.606360	2665.605878
980.903664	2670.891528
981.200931	2669.875735
981.498162	2672.401353
981.795356	2671.093174
982.092513	2673.676765
982.389633	2676.368742
982.686717	2680.063907
982.983764	2682.334947
983.280775	2685.989784
983.577749	2689.155628
983.874686	2688.714527
984.171587	2680.230265
984.468451	2679.214473
984.765279	2680.724298
985.062070	2678.349915
985.358824	2674.959739
985.655543	2674.611899
985.952224	2671.320026
986.248869	2671.657783
986.545478	2668.862463
986.842050	2667.773574
987.138586	2667.193842
987.435086	2668.318019
987.731549	2666.498162
988.027975	2665.142092
988.324366	2666.815755
988.620719	2667.571928
988.917037	2665.313491
989.213318	2667.448420
989.509563	2665.169818
989.805772	2666.919099
990.101944	2665.633604
990.398080	2666.525889
990.694180	2665.603357
990.990244	2666.462874
991.286271	2666.362051
991.582262	2663.685198
991.878217	2663.236536
992.174136	2667.710560
992.470019	2668.002947
992.765865	2663.710404
993.061676	2663.602019
993.357450	2663.617143
993.653188	2661.535146
993.948890	2665.414314
994.244556	2666.467915
994.540186	2665.716783
994.835780	2668.549912
995.131337	2667.385405
995.426859	2667.919768
995.722345	2669.348935
996.017795	2669.550581
996.313208	2667.937412
996.608586	2668.852381
996.903928	2672.033349
997.199234	2670.299192
997.494504	2671.456137
997.789738	2669.101918
998.084936	2668.219716
998.380099	2668.852381
998.675225	2667.468584
998.970316	2666.732576
999.265371	2667.435817
999.560390	2665.439520
999.855373	2666.578821
1000.150320	2666.364572
1000.445232	2666.309119
1000.740108	2664.948007
1001.034948	2665.764674
1001.329752	2663.967503
1001.624521	2665.696619
1001.919254	2662.858449
1002.213951	2665.542864
1002.508613	2666.878769
1002.803239	2665.139571
1003.097829	2665.865497
1003.392384	2662.674447
1003.686903	2661.676299
1003.981386	2661.605722
1004.275834	2664.469098
1004.570246	2662.729900
1004.864623	2664.781649
1005.158964	2663.251659
1005.453270	2665.721825
1005.747540	2662.833243
1006.041775	2661.031031
1006.335974	2663.239056
1006.630138	2662.009015
1006.924266	2664.484221
1007.218359	2662.019097
1007.512416	2662.334169
1007.806438	2661.252842
1008.100425	2659.831236
1008.394376	2658.081956
1008.688292	2663.813748
1008.982172	2664.459016
1009.276017	2660.829385
1009.569827	2663.559170
1009.863602	2660.564724
1010.157341	2661.739313
1010.451045	2661.895589
1010.744714	2662.878614
1011.038347	2663.533964
1011.331945	2664.244767
1011.625508	2662.845846
1011.919036	2663.823830
1012.212528	2660.632780
1012.505986	2660.103459
1012.799408	2661.933397
1013.092795	2662.820641
1013.386147	2664.572442
1013.679464	2661.053716
1013.972745	2662.109838
1014.265992	2662.213182
1014.559204	2661.114210
1014.852380	2661.157060
1015.145521	2661.522543
1015.438628	2661.078922
1015.731699	2661.330980
1016.024736	2662.387101
1016.317737	2663.259221
1016.610703	2661.484735
1016.903635	2663.453305
1017.196531	2661.971206
1017.489393	2661.129333
1017.782219	2661.109169
1018.075011	2664.065806
1018.367768	2662.729900
1018.660490	2662.472801
1018.953177	2662.472801
1019.245829	2662.472801
