Dividing Wavelength (nm)	Counts (n)	Blue Motor Position (mm): 9.900000	Red Motor Position (mm): 0.000000	
326.493990	2162.176090
326.888308	2162.176090
327.282561	2162.176090
327.676750	2121.161263
328.070874	2117.798813
328.464933	2118.212188
328.858929	2122.245111
329.252859	2126.391460
329.646726	2135.248767
330.040528	2148.597743
330.434265	2158.397746
330.827938	2177.594459
331.221547	2194.250432
331.615091	2213.464790
332.008571	2231.426421
332.401986	2248.586508
332.795338	2268.678027
333.188625	2287.620163
333.581847	2305.579273
333.975006	2322.706593
334.368100	2341.547906
334.761129	2358.622294
335.154095	2375.305993
335.546996	2395.387429
335.939833	2418.072621
336.332606	2433.279262
336.725315	2444.432815
337.117960	2459.566359
337.510540	2470.140179
337.903056	2479.645274
338.295508	2489.586430
338.687896	2497.319560
339.080220	2503.835251
339.472480	2513.433608
339.864676	2518.878054
340.256807	2527.596730
340.648875	2527.324507
341.040879	2529.366175
341.432818	2534.432534
341.824694	2534.374561
342.216506	2536.065868
342.608253	2535.435724
342.999937	2538.223482
343.391557	2536.945550
343.783113	2537.863040
344.174605	2534.772812
344.566033	2536.895138
344.957397	2534.142668
345.348697	2533.240302
345.739934	2531.193593
346.131106	2529.565300
346.522215	2529.121679
346.913260	2526.717048
347.304241	2522.091790
347.695159	2521.199506
348.086012	2520.060205
348.476802	2518.643641
348.867528	2515.583660
349.258191	2511.031498
349.648789	2511.802795
350.039324	2507.575787
350.429796	2510.885305
350.820203	2505.675272
351.210548	2510.514780
351.600828	2505.642505
351.991045	2506.630571
352.381198	2505.203924
352.771288	2503.595796
353.161314	2506.885149
353.551276	2501.082781
353.941175	2503.628564
354.331010	2502.776609
354.720782	2501.778460
355.110490	2505.448420
355.500135	2499.968686
355.889717	2503.953718
356.279235	2500.616474
356.668689	2499.527585
357.058080	2503.986486
357.447408	2500.074550
357.836672	2501.491115
358.225873	2503.245436
358.615010	2505.360200
359.004084	2506.517145
359.393095	2505.466064
359.782043	2505.221568
360.170927	2503.210148
360.559748	2506.181908
360.948505	2503.585714
361.337199	2504.677124
361.725830	2507.270797
362.114398	2508.924296
362.502903	2507.790036
362.891344	2510.116529
363.279722	2507.328771
363.668037	2510.343381
364.056289	2510.141735
364.444478	2513.264729
364.832603	2512.584174
365.220665	2511.112157
365.608665	2510.456807
365.996601	2511.470079
366.384474	2513.945285
366.772284	2512.163237
367.160031	2516.526356
367.547715	2513.166427
367.935336	2513.622651
368.322893	2513.431088
368.710388	2513.116015
369.097820	2516.538959
369.485189	2511.056704
369.872495	2515.208094
370.259738	2515.465193
370.646918	2513.378155
371.034035	2516.349916
371.421090	2517.292611
371.808081	2515.240862
372.195010	2517.660616
372.581875	2516.070132
372.968678	2518.598270
373.355418	2517.852179
373.742096	2517.398476
374.128710	2516.296983
374.515262	2521.892664
374.901751	2519.059536
375.288177	2517.736233
375.674540	2519.861079
376.060841	2522.217819
376.447079	2519.767818
376.833254	2520.188754
377.219367	2518.217663
377.605417	2521.184382
377.991404	2521.776718
378.377329	2516.705317
378.763191	2521.852335
379.148991	2521.406193
379.534727	2521.098683
379.920402	2519.067097
380.306013	2518.371418
380.691563	2522.437109
381.077049	2522.742099
381.462474	2520.264372
381.847835	2522.356450
382.233134	2519.939217
382.618371	2523.407531
383.003545	2521.184382
383.388657	2522.762263
383.773706	2523.034486
384.158693	2522.865607
384.543618	2525.287881
384.928480	2524.004908
385.313280	2527.241328
385.698017	2526.316277
386.082692	2524.458612
386.467305	2522.855525
386.851856	2526.984230
387.236344	2524.708149
387.620770	2522.001049
388.005133	2521.849814
388.389435	2520.987777
388.773674	2519.629186
389.157851	2528.136133
389.541965	2525.209743
389.926018	2525.373581
390.310008	2528.582275
390.693936	2527.553880
391.077802	2526.109589
391.461606	2527.465660
391.845348	2525.542460
392.229027	2528.950280
392.612645	2530.500434
392.996200	2526.747295
393.379694	2529.966072
393.763125	2528.809127
394.146494	2529.751823
394.529801	2531.924560
394.913047	2528.158818
395.296230	2531.135620
395.679351	2530.016484
396.062410	2529.935825
396.445408	2530.545805
396.828343	2530.593696
397.211217	2530.787780
397.594028	2533.598223
397.976778	2532.239632
398.359466	2530.858356
398.742092	2529.532533
399.124656	2530.921371
399.507158	2531.153264
399.889598	2533.590662
400.271977	2531.244005
400.654294	2531.175949
401.036549	2532.413552
401.418742	2532.388347
401.800874	2533.353727
402.182944	2533.988913
402.564952	2532.534540
402.946898	2533.973789
403.328783	2531.601927
403.710606	2532.456402
404.092367	2534.059489
404.474067	2532.592513
404.855705	2533.230219
405.237282	2532.814324
405.618797	2535.009747
406.000250	2534.861033
406.381642	2534.669469
406.762972	2533.724252
407.144240	2530.893644
407.525447	2534.714839
407.906593	2530.243336
408.287677	2536.900179
408.668700	2537.248019
409.049661	2536.796836
409.430560	2536.201979
409.811399	2537.248019
410.192176	2534.591331
410.572891	2534.674510
410.953545	2534.581248
411.334138	2538.110056
411.714669	2536.529654
412.095139	2535.551671
412.475547	2536.441434
412.855894	2536.262473
413.236180	2537.255581
413.616405	2537.943698
413.996568	2537.230375
414.376670	2539.070396
414.756711	2538.498225
415.136691	2539.123328
415.516609	2538.271373
415.896466	2538.876312
416.276262	2539.584594
416.655997	2539.957639
417.035670	2539.337577
417.415283	2539.148534
417.794834	2538.591486
418.174324	2540.202135
418.553753	2537.699202
418.933121	2541.351518
419.312428	2538.054603
419.691674	2541.235572
420.070859	2540.066024
420.449983	2541.096940
420.829045	2540.106353
421.208047	2539.879501
421.586988	2541.447300
421.965867	2541.124666
422.344686	2542.652136
422.723444	2540.020653
423.102141	2541.356559
423.480777	2542.044677
423.859352	2542.432846
424.237866	2540.126518
424.616319	2540.799512
424.994712	2540.149203
425.373044	2542.009389
425.751314	2539.357742
426.129524	2539.451003
426.507673	2538.546116
426.885762	2536.963194
427.263789	2540.849923
427.641756	2544.053577
428.019662	2540.764224
428.397508	2541.059131
428.775292	2541.414533
429.153016	2541.603576
429.530679	2541.653987
429.908282	2542.205994
430.285824	2543.660367
430.663305	2541.265818
431.040726	2540.499563
431.418086	2543.756148
431.795385	2542.649615
432.172624	2542.392516
432.549802	2541.512835
432.926920	2544.960984
433.303977	2544.330840
433.680974	2541.853113
434.057910	2543.786395
434.434786	2543.420912
434.811601	2544.456869
435.188355	2545.611293
435.565050	2544.706406
435.941683	2545.613814
436.318257	2545.409647
436.694770	2546.097764
437.071222	2544.378731
437.447614	2543.975439
437.823946	2543.846889
438.200218	2545.898639
438.576429	2541.785057
438.952580	2544.401416
439.328670	2543.859492
439.704700	2541.482588
440.080670	2543.042825
440.456580	2543.804039
440.832429	2544.265305
441.208218	2548.023485
441.583947	2545.271015
441.959616	2547.847045
442.335224	2544.603062
442.710773	2547.075748
443.086261	2546.606921
443.461689	2546.574153
443.837057	2545.923845
444.212365	2546.682538
444.587612	2545.298742
444.962800	2543.761190
445.337927	2543.584749
445.712995	2541.021323
446.088002	2546.929555
446.462949	2547.277394
446.837837	2547.287477
447.212664	2548.182282
447.587431	2549.455173
447.962139	2547.279915
448.336786	2548.532642
448.711374	2548.918290
449.085901	2548.499874
449.460369	2546.937117
449.834776	2547.910059
450.209124	2547.685728
450.583412	2548.809905
450.957640	2545.056766
451.331808	2547.048022
451.705917	2547.053063
452.079965	2549.223280
452.453954	2549.135060
452.827883	2549.669422
453.201752	2547.320244
453.575562	2548.971222
453.949311	2548.341078
454.323001	2551.522046
454.696632	2545.850748
455.070202	2547.622713
455.443713	2546.869061
455.817164	2548.555327
456.190556	2547.988197
456.563888	2552.656306
456.937160	2548.159596
457.310373	2548.898125
457.683526	2550.866696
458.056619	2549.704710
458.429653	2550.034906
458.802628	2549.777807
459.175542	2547.148845
459.548398	2548.330996
459.921194	2551.713610
460.293930	2549.218239
460.666607	2550.934752
461.039224	2549.866027
461.411782	2550.322251
461.784280	2550.150852
462.156719	2551.073383
462.529099	2550.533980
462.901419	2550.551624
463.273680	2548.391489
463.645882	2546.090203
464.018024	2549.606408
464.390106	2545.023999
464.762130	2552.900802
465.134094	2551.063301
465.505999	2552.883158
465.877845	2548.787220
466.249631	2551.592622
466.621358	2550.372663
466.993026	2551.645554
467.364634	2556.505227
467.736184	2551.907694
468.107674	2551.116233
468.479105	2551.758980
468.850477	2552.212684
469.221790	2553.765359
469.593043	2552.305945
469.964238	2553.654454
470.335373	2550.271840
470.706449	2550.833928
471.077467	2552.409289
471.448425	2553.137736
471.819324	2551.748898
472.190164	2553.659495
472.560945	2550.097920
472.931667	2555.446584
473.302330	2551.842159
473.672934	2551.701007
474.043479	2552.830225
474.413965	2553.546069
474.784393	2553.173024
475.154761	2552.230328
475.525070	2555.711245
475.895321	2553.830894
476.265513	2553.001625
476.635645	2552.883158
477.005719	2551.748898
477.375734	2557.011862
477.745691	2555.146636
478.115588	2554.055226
478.485427	2554.438353
478.855207	2554.241748
479.224928	2556.127140
479.594591	2557.329455
479.964194	2555.721327
480.333739	2554.045143
480.703226	2558.108313
481.072653	2557.470607
481.442022	2555.499516
481.811333	2555.345761
482.180584	2551.867365
482.549777	2553.435164
482.918912	2554.095555
483.287988	2555.698642
483.657005	2556.865669
484.025964	2556.805175
484.394864	2558.592264
484.763706	2556.999260
485.132489	2553.505740
485.501213	2558.302398
485.869879	2554.695452
486.238487	2559.799621
486.607036	2557.793241
486.975527	2557.021945
487.343959	2557.286605
487.712333	2556.049002
488.080648	2557.394990
488.448905	2557.175700
488.817104	2557.163097
489.185244	2559.045968
489.553326	2558.730896
489.921350	2560.230639
490.289315	2560.732234
490.657222	2559.512275
491.025070	2561.753068
491.392861	2562.090825
491.760593	2558.619991
492.128267	2559.734086
492.495883	2558.945145
492.863440	2559.209806
493.230939	2560.021431
493.598380	2559.209806
493.965763	2558.698128
494.333088	2557.485731
494.700354	2558.153684
495.067563	2561.332131
495.434713	2558.786349
495.801805	2560.326421
496.168839	2558.572100
496.535815	2561.798438
496.902733	2559.630742
497.269593	2558.181410
497.636395	2559.310629
498.003139	2559.658468
498.369825	2558.831719
498.736453	2559.908005
499.103023	2560.946483
499.469535	2562.910012
499.835989	2558.788869
500.202385	2558.125957
500.568723	2554.403065
500.935003	2555.658313
501.301226	2552.008517
501.667390	2562.012687
502.033497	2562.718449
502.399546	2559.938252
502.765537	2561.523695
503.131470	2559.482028
503.497345	2559.277861
503.863163	2561.964796
504.228923	2559.154353
504.594625	2559.003118
504.960269	2563.149467
505.325856	2560.449929
505.691385	2559.880279
506.056856	2562.738613
506.422270	2560.936401
506.787625	2563.056206
507.152924	2561.216185
507.518164	2561.264076
507.883347	2559.474466
508.248472	2561.538819
508.613540	2559.960938
508.978550	2564.243398
509.343503	2562.209292
509.708398	2561.619477
510.073236	2561.115362
510.438016	2558.975392
510.802738	2563.245249
511.167403	2561.591751
511.532010	2560.800290
511.896561	2562.431103
512.261053	2560.371792
512.625488	2560.762481
512.989866	2563.729200
513.354186	2562.685681
513.718449	2563.850188
514.082655	2562.930177
514.446803	2562.743654
514.810894	2561.995043
515.174927	2563.966134
515.538904	2564.051834
515.902822	2565.798594
516.266684	2562.438665
516.630488	2562.567214
516.994235	2560.346586
517.357925	2563.991340
517.721558	2563.835064
518.085133	2563.822461
518.448651	2562.133675
518.812112	2561.372461
519.175516	2563.751885
519.538863	2559.267779
519.902152	2563.419169
520.265385	2565.463357
520.628560	2564.538305
520.991678	2567.023594
521.354739	2568.669531
521.717743	2565.980075
522.080690	2566.766495
522.443580	2567.804973
522.806413	2568.891342
523.169189	2567.643656
523.531908	2568.601475
523.894569	2568.707339
524.257174	2568.770354
524.619722	2568.752710
524.982213	2569.317319
525.344647	2569.889490
525.707025	2572.568863
526.069345	2571.968966
526.431608	2572.029460
526.793815	2569.876887
527.155964	2573.690520
527.518057	2573.093143
527.880093	2574.461817
528.242072	2572.906621
528.603995	2573.814028
528.965860	2573.519121
529.327669	2576.150603
529.689421	2576.080027
530.051117	2577.864595
530.412755	2577.267219
530.774337	2577.877198
531.135862	2575.580953
531.497331	2576.821077
531.858743	2578.638412
532.220098	2580.261664
532.581396	2579.003896
532.942638	2580.642271
533.303824	2583.843404
533.664953	2582.099165
534.026025	2580.687642
534.387040	2582.293249
534.747999	2584.765935
535.108902	2586.003538
535.469748	2588.158632
535.830537	2585.690987
536.191270	2587.904053
536.551947	2584.942375
536.912567	2582.845255
537.273131	2586.739547
537.633638	2587.954465
537.994089	2592.499065
538.354483	2590.011256
538.714821	2592.360433
539.075103	2592.665423
539.435328	2592.960331
539.795497	2591.495875
540.155609	2595.193562
540.515665	2593.073757
540.875665	2595.632142
541.235609	2594.850763
541.595496	2598.709767
541.955328	2598.366968
542.315102	2602.790581
542.674821	2600.736310
543.034483	2594.528129
543.394090	2596.650455
543.753640	2600.587596
544.113134	2602.188163
544.472571	2600.363265
544.831953	2603.758482
545.191278	2601.724377
545.550548	2605.381734
545.909761	2604.129007
546.268918	2604.093719
546.628019	2605.268308
546.987064	2606.584049
547.346053	2605.474995
547.704986	2602.906527
548.063863	2607.136055
548.422684	2606.183277
548.781449	2604.171857
549.140158	2608.867692
549.498811	2608.706375
549.857408	2608.204780
550.215949	2608.837445
550.574434	2610.269132
550.932864	2609.092023
551.291237	2607.002465
551.649555	2610.322064
552.007817	2609.056735
552.366022	2613.341716
552.724173	2608.625716
553.082267	2610.012033
553.440305	2611.471448
553.798288	2611.955398
554.156215	2615.053187
554.514086	2609.954060
554.871902	2606.962135
555.229661	2611.242075
555.587365	2606.621857
555.945014	2609.167640
556.302606	2614.460852
556.660143	2612.915738
557.017625	2613.467744
557.375050	2611.547065
557.732421	2612.149483
558.089735	2615.043105
558.446994	2612.441870
558.804197	2614.952364
559.161345	2613.878598
559.518437	2613.155193
559.875474	2613.878598
560.232455	2612.872888
560.589381	2613.699637
560.946251	2615.837087
561.303065	2612.497322
561.659825	2618.080400
562.016528	2611.675614
562.373177	2614.659977
562.729770	2612.867847
563.086307	2614.796088
563.442789	2615.506891
563.799216	2618.024947
564.155587	2613.543362
564.511904	2617.238527
564.868164	2613.823146
565.224370	2614.019751
565.580520	2614.105450
565.936615	2614.012189
566.292654	2615.539659
566.648638	2614.770883
567.004567	2615.814402
567.360441	2614.602004
567.716260	2614.150821
568.072023	2615.615276
568.427732	2613.016561
568.783385	2610.916921
569.138982	2613.694596
569.494525	2616.752056
569.850013	2613.351798
570.205445	2612.678804
570.560823	2610.521190
570.916145	2613.802981
571.271412	2610.475820
571.626625	2614.155862
571.981782	2612.419184
572.336884	2611.436159
572.691931	2610.311982
573.046923	2605.079264
573.401860	2606.611775
573.756743	2611.259719
574.111570	2608.114039
574.466342	2610.828700
574.821059	2611.007661
575.175722	2612.552775
575.530330	2611.252157
575.884882	2609.838114
576.239380	2611.153855
576.593823	2613.553444
576.948211	2610.687548
577.302544	2612.235182
577.656823	2608.247630
578.011047	2608.446755
578.365216	2611.307610
578.719330	2609.702002
579.073389	2609.497836
579.427394	2612.971191
579.781344	2607.322578
580.135239	2611.289966
580.489080	2609.308792
580.842866	2606.584049
581.196597	2612.068824
581.550273	2611.479009
581.903895	2610.400202
582.257463	2610.392641
582.610975	2610.405243
582.964434	2614.294494
583.317837	2609.644029
583.671186	2612.809874
584.024481	2613.699637
584.377721	2613.160234
584.730906	2612.020933
585.084037	2611.002620
585.437113	2612.882971
585.790135	2614.092847
586.143103	2611.574791
586.496016	2612.963629
586.848874	2613.583691
587.201679	2615.587550
587.554428	2612.083948
587.907124	2612.822477
588.259765	2612.867847
588.612352	2613.911366
588.964884	2615.993362
589.317362	2612.726695
589.669786	2616.857920
590.022155	2613.543362
590.374470	2613.283742
590.726731	2615.015379
591.078937	2613.467744
591.431090	2615.607714
591.783188	2617.639299
592.135232	2616.225256
592.487222	2619.738940
592.839157	2620.689197
593.191038	2622.085597
593.542866	2619.620473
593.894639	2619.839763
594.246358	2618.894547
594.598022	2620.870679
594.949633	2622.604836
595.301190	2618.997890
595.652692	2622.398148
596.004141	2621.825977
596.355535	2619.910339
596.706876	2624.570886
597.058162	2623.038375
597.409395	2624.220526
597.760573	2629.183542
598.111698	2623.373612
598.462768	2624.396966
598.813785	2626.597430
599.164748	2624.631380
599.515657	2626.317646
599.866511	2628.835702
600.217312	2627.956021
600.568060	2628.013994
600.918753	2632.069602
601.269392	2630.910137
601.619978	2629.559107
601.970510	2631.351238
602.320988	2635.515231
602.671412	2634.186887
603.021783	2636.652011
603.372100	2636.901548
603.722363	2637.902217
604.072572	2641.715850
604.422728	2641.216776
604.772830	2641.360449
605.122878	2642.109060
605.472872	2642.013278
605.822813	2642.232568
606.172701	2645.537045
606.522534	2645.935296
606.872314	2648.685245
607.222041	2648.763383
607.571714	2648.556696
607.921333	2650.127015
608.270899	2656.005001
608.620411	2651.543579
608.969870	2658.341575
609.319276	2665.074036
609.668627	2670.669717
610.017926	2673.391940
610.367171	2677.674400
610.716362	2680.641119
611.065500	2678.617096
611.414585	2678.284380
611.763616	2678.478464
612.112594	2678.944771
612.461518	2681.576253
612.810389	2685.498271
613.159207	2686.723272
613.507971	2687.585309
613.856682	2691.527491
614.205340	2694.930270
614.553945	2699.401773
614.902496	2696.624098
615.250994	2701.897145
615.599439	2703.081816
615.947830	2704.793287
616.296169	2708.070037
616.644454	2713.832076
616.992686	2712.342415
617.340864	2722.258365
617.688990	2723.521174
618.037063	2732.842267
618.385082	2732.154150
618.733048	2739.698237
619.080961	2742.256622
619.428821	2751.103847
619.776628	2755.973602
620.124382	2754.703231
620.472083	2760.820671
620.819731	2766.514655
621.167326	2767.033893
621.514868	2770.093874
621.862357	2767.240581
622.209793	2771.702002
622.557176	2770.910541
622.904506	2770.850047
623.251783	2772.432969
623.599007	2775.308947
623.946179	2778.605862
624.293297	2779.830862
624.640363	2782.860596
624.987376	2778.762138
625.334336	2781.985956
625.681243	2785.729012
626.028097	2786.855710
626.374899	2802.936991
626.721647	2800.494552
627.068343	2802.316929
627.414987	2804.416570
627.761577	2814.173723
628.108115	2823.744354
628.454600	2818.030206
628.801032	2828.788028
629.147412	2830.186948
629.493739	2840.851509
629.840014	2849.300483
630.186236	2854.744929
630.532405	2859.009745
630.878521	2868.053575
631.224585	2875.678321
631.570597	2882.236862
631.916556	2887.162069
632.262462	2895.462329
632.608316	2909.275090
632.954117	2911.188208
633.299866	2921.409148
633.645562	2929.482556
633.991206	2926.611618
634.336797	2927.609767
634.682336	2938.599482
635.027823	2935.652928
635.373257	2945.624330
635.718639	2939.942950
636.063968	2946.138528
636.409245	2945.223558
636.754470	2953.712862
637.099642	2956.369550
637.444762	2954.796710
637.789829	2967.971765
638.134845	2968.947228
638.479808	2974.800008
638.824719	2985.918273
639.169577	2983.004486
639.514383	2993.671568
639.859137	3000.421673
640.203839	3010.544309
640.548489	3009.357118
640.893086	3027.212885
641.237632	3015.953468
641.582125	3042.908517
641.926566	3044.060421
642.270955	3050.127449
642.615292	3057.553069
642.959576	3066.370047
643.303809	3083.767069
643.647990	3087.671443
643.992118	3107.258846
644.336195	3099.601333
644.680219	3126.284161
645.024192	3141.268990
645.368112	3155.321207
645.711981	3178.452541
646.055797	3198.309646
646.399562	3218.736402
646.743274	3244.141296
647.086935	3289.909932
647.430544	3304.768733
647.774101	3317.089313
648.117606	3355.545755
648.461059	3356.700179
648.804460	3382.039539
649.147810	3373.008312
649.491108	3364.304760
649.834354	3381.343860
650.177548	3372.325236
650.520690	3369.353476
650.863781	3376.176677
651.206820	3390.163359
651.549807	3390.367525
651.892742	3392.545304
652.235626	3390.934655
652.578458	3409.808735
652.921238	3398.806417
653.263967	3428.466046
653.606644	3426.779780
653.949269	3434.626336
654.291843	3444.446503
654.634365	3461.334369
654.976836	3467.562714
655.319255	3482.068634
655.661622	3498.706963
656.003938	3506.039321
656.346203	3510.417563
656.688416	3533.107797
657.030577	3543.212789
657.372687	3553.166548
657.714746	3562.152404
658.056753	3582.624530
658.398708	3596.661623
658.740612	3609.261987
659.082465	3631.816109
659.424266	3631.415338
659.766016	3656.474913
660.107715	3666.030421
660.449362	3679.195394
660.790958	3704.028118
661.132503	3712.061196
661.473996	3731.620873
661.815438	3754.454780
662.156829	3769.369033
662.498168	3783.257412
662.839456	3802.880103
663.180693	3815.167916
663.521879	3843.600024
663.863013	3865.261862
664.204097	3879.777864
664.545129	3909.651742
664.886110	3918.851848
665.227040	3953.214873
665.567918	3981.160509
665.908746	4003.407121
666.249522	4006.315867
666.590248	4036.542625
666.930922	4074.951177
667.271545	4087.909463
667.612118	4123.704175
667.952639	4129.052840
668.293109	4141.696053
668.633528	4156.607787
668.973896	4161.565761
669.314213	4215.372517
669.654480	4168.862832
669.994695	4194.708827
670.334859	4220.877457
670.674973	4231.736102
671.015035	4266.741875
671.355047	4270.636166
671.695008	4277.688740
672.034918	4297.223211
672.374777	4328.463242
672.714585	4333.232173
673.054342	4363.537070
673.394049	4373.120303
673.733705	4395.122419
674.073310	4412.557250
674.412864	4445.228968
674.752368	4430.319755
675.091820	4434.082977
675.431223	4477.850274
675.770574	4450.388589
676.109875	4457.620124
676.449125	4465.587668
676.788324	4461.093479
677.127473	4449.060245
677.466571	4463.031802
677.805619	4471.836178
678.144616	4469.582782
678.483562	4491.088344
678.822458	4466.711845
679.161303	4477.857836
679.500098	4506.794059
679.838842	4505.979913
680.177535	4524.097820
680.516179	4546.931726
680.854771	4555.340371
681.193314	4634.231908
681.531805	4664.337678
681.870247	4804.421262
682.208638	4903.797527
682.546978	5017.783057
682.885268	5064.857352
683.223508	4989.855065
683.561697	4977.221933
683.899836	4979.533302
684.237925	4937.797589
684.575963	4945.049289
684.913951	4971.701870
685.251889	4938.495789
685.589776	5021.165671
685.927614	5024.621382
686.265401	5009.069423
686.603137	5068.660902
686.940824	5128.277588
687.278460	5174.938508
687.616046	5229.478751
687.953582	5291.926044
688.291068	5269.097179
688.628504	5360.349625
688.965889	5383.566659
689.303224	5416.959262
689.640510	5403.632972
689.977745	5329.079348
690.314930	5290.383451
690.652065	5293.771107
690.989150	5211.383529
691.326185	5165.793854
691.663170	5126.074603
692.000105	5064.045726
692.336990	5073.691974
692.673825	4992.635261
693.010610	4977.358044
693.347345	4925.129170
693.684030	4871.022466
694.020665	4873.603536
694.357251	4831.799768
694.693786	4854.605948
695.030272	4776.629380
695.366707	4775.240542
695.703093	4761.072380
696.039429	4785.428714
696.375716	4797.512360
696.711952	4736.446343
697.048139	4781.589876
697.384276	4791.508346
697.720363	4787.137666
698.056400	4783.490391
698.392388	4796.985560
698.728326	4786.250422
699.064214	4773.647538
699.400053	4826.768697
699.735842	4755.290176
700.071581	4762.327627
700.407270	4750.223817
700.742910	4732.725972
701.078501	4729.096341
701.414042	4691.088561
701.749533	4678.778064
702.084974	4635.590499
702.420366	4682.387530
702.755709	4664.355322
703.091002	4630.919870
703.426246	4645.647601
703.761440	4638.143843
704.096584	4636.984378
704.431679	4617.160040
704.766725	4629.639417
705.101721	4623.980721
705.436668	4652.289321
705.771565	4622.922079
706.106413	4664.594777
706.441212	4713.945153
706.775961	4685.409702
707.110661	4708.636818
707.445311	4793.923059
707.779913	4752.109208
708.114465	4823.895239
708.448967	4852.518910
708.783421	4896.313934
709.117825	4998.235983
709.452180	5023.562740
709.786485	5056.816711
710.120742	5190.876115
710.454949	5195.420716
710.789107	5229.410695
711.123216	5314.739786
711.457275	5407.363426
711.791286	5492.538762
712.125247	5477.299353
712.459159	5516.501886
712.793023	5621.141117
713.126837	5451.294561
713.460602	5532.154669
713.794318	5445.895486
714.127985	5511.445609
714.461602	5410.829219
714.795171	5385.807452
715.128691	5318.084592
715.462162	5206.163414
715.795584	5221.881732
716.128957	5166.353422
716.462281	5071.478907
716.795556	5154.083254
717.128782	5065.217794
717.461960	4925.945837
717.795088	4979.510617
718.128167	4961.483451
718.461198	4898.088421
718.794180	4873.517837
719.127113	4900.077156
719.459997	4834.206919
719.792833	4714.151840
720.125619	4768.742495
720.458357	4692.404302
720.791046	4705.634811
721.123686	4743.357765
721.456278	4663.843645
721.788821	4672.615253
722.121315	4626.607163
722.453761	4673.036189
722.786158	4672.867311
723.118506	4672.496786
723.450805	4673.530222
723.783056	4716.029670
724.115259	4655.621523
724.447412	4668.153832
724.779518	4694.146021
725.111574	4702.930232
725.443582	4756.815125
725.775542	4743.030090
726.107453	4844.132951
726.439315	4812.144309
726.771129	4827.469417
727.102895	4915.119959
727.434612	4990.749869
727.766281	4993.419160
728.097901	5045.012849
728.429473	5037.062950
728.760996	5039.250811
729.092471	5044.591913
729.423897	5048.219023
729.755276	5078.607099
730.086606	5045.670720
730.417887	5092.528245
730.749120	5189.494839
731.080305	5325.283359
731.411442	5390.462958
731.742530	5379.599271
732.073570	5482.431248
732.404562	5544.994488
732.735506	5427.913690
733.066401	5536.694228
733.397249	5513.484756
733.728048	5401.271192
734.058798	5239.392180
734.389501	5151.562677
734.720156	5068.842384
735.050762	4925.383748
735.381320	4879.264752
735.711831	4873.127147
736.042293	4816.033559
736.372707	4851.689641
736.703073	4768.608905
737.033391	4787.109939
737.363661	4799.541425
737.693883	4811.965348
738.024056	4866.344275
738.354182	4900.399790
738.684260	4907.928753
739.014290	4973.599864
739.344272	5038.698804
739.674207	5043.956728
740.004093	5083.474333
740.333931	5107.248414
740.663722	5109.443837
740.993464	5175.722407
741.323159	5208.600812
741.652806	5028.281260
741.982405	5031.626065
742.311956	5135.514164
742.641460	5046.663827
742.970915	4911.845729
743.300323	4946.932160
743.629683	4918.482408
743.958996	4842.345862
744.288260	4800.642917
744.617477	4782.822438
744.946647	4809.575841
745.275768	4701.332186
745.604842	4688.459600
745.933869	4685.424825
746.262847	4654.078930
746.591778	4663.394983
746.920662	4641.085356
747.249498	4628.306031
747.578286	4671.526364
747.907027	4730.399479
748.235720	4762.085652
748.564365	4733.799737
748.892963	4744.663424
749.221514	4882.241553
749.550017	4787.094816
749.878473	4682.392571
750.206881	4741.837857
750.535242	4708.112538
750.863555	4669.963606
751.191821	4701.528791
751.520039	4701.304460
751.848210	4642.340604
752.176334	4657.010361
752.504411	4709.889545
752.832440	4656.223941
753.160421	4588.117953
753.488356	4637.511178
753.816243	4691.489333
754.144082	4577.833999
754.471875	4546.629257
754.799620	4596.206484
755.127318	4607.155870
755.454969	4568.074325
755.782572	4546.848547
756.110129	4591.803036
756.437638	4607.468422
756.765100	4547.524062
757.092515	4539.838822
757.419882	4576.306529
757.747203	4573.911981
758.074477	4632.933811
758.401703	4629.341988
758.728882	4569.440478
759.056014	4606.986992
759.383099	4726.837904
759.710138	4723.984611
760.037129	4700.623904
760.364073	4705.327300
760.690970	4780.180873
761.017820	4785.136327
761.344623	4729.403851
761.671379	4801.492351
761.998088	4897.173451
762.324751	5054.626330
762.651366	5439.954486
762.977935	6255.915647
763.304456	7291.461909
763.630931	7915.319821
763.957359	7729.691933
764.283740	7201.056376
764.610074	6730.699078
764.936362	6057.669752
765.262602	5633.076048
765.588796	5251.508593
765.914943	5004.161859
766.241044	4919.142800
766.567097	4795.362308
766.893104	4598.064149
767.219064	4465.169252
767.544978	4439.436682
767.870845	4398.263058
768.196665	4313.097805
768.522438	4251.578084
768.848165	4243.797063
769.173846	4213.867733
769.499479	4183.414122
769.825066	4140.612205
770.150607	4099.622583
770.476101	4087.856530
770.801548	4093.379114
771.126949	4050.143658
771.452303	4010.457175
771.777611	3980.142196
772.102872	3993.115606
772.428087	3969.056699
772.753256	3951.745377
773.078378	3927.152107
773.403453	3872.533726
773.728482	3864.651882
774.053465	3833.452181
774.378401	3824.690656
774.703291	3841.066844
775.028135	3785.296559
775.352932	3740.067327
775.677683	3736.578848
776.002388	3759.808485
776.327046	3775.340280
776.651658	3706.435269
776.976224	3651.839572
777.300743	3667.220133
777.625216	3691.619317
777.949643	3695.601829
778.274024	3652.159686
778.598359	3613.415898
778.922647	3630.586068
779.246889	3631.569093
779.571086	3633.777118
779.895236	3623.662043
780.219339	3607.817697
780.543397	3595.038372
780.867409	3635.788539
781.191374	3650.990138
781.515294	3607.497583
781.839167	3603.757047
782.162995	3621.058287
782.486776	3615.865899
782.810511	3625.134060
783.134201	3635.463384
783.457844	3604.238477
783.781441	3553.774007
784.104993	3560.050243
784.428498	3578.208479
784.751958	3584.088985
785.075372	3566.117272
785.398739	3535.963610
785.722061	3541.254301
786.045337	3581.190322
786.368568	3616.329685
786.691752	3545.624982
787.014891	3579.287286
787.337983	3668.112417
787.661030	3782.385293
787.984031	3898.291502
788.306987	4031.531718
788.629897	4096.066049
788.952760	4068.811051
789.275579	4033.197820
789.598351	4008.241588
789.921078	3909.114859
790.243759	3744.339704
790.566395	3728.379411
790.888984	3731.908219
791.211529	3645.039056
791.534027	3602.859722
791.856480	3601.876697
792.178888	3545.541803
792.501249	3497.335769
792.823566	3509.424456
793.145836	3543.573232
793.468062	3500.743589
793.790241	3453.875982
794.112375	3480.561329
794.434464	3534.221892
794.756507	3556.450859
795.078505	3545.705640
795.400457	3554.545303
795.722364	3655.088596
796.044226	3741.178901
796.366042	3794.247128
796.687812	3796.858445
797.009538	3808.251453
797.331218	3764.385853
797.652852	3749.799274
797.974442	3740.914240
798.295986	3751.903956
798.617484	3689.812064
798.938938	3611.381792
799.260346	3649.881084
799.581709	3653.598935
799.903026	3594.718258
800.224299	3563.629462
800.545526	3560.723237
800.866708	3526.357692
801.187845	3469.924495
801.508936	3506.550998
801.829983	3514.251361
802.150984	3438.946604
802.471940	3425.547218
802.792851	3441.119342
803.113717	3441.144548
803.434538	3449.041515
803.755314	3398.950090
804.076045	3368.317518
804.396731	3385.782596
804.717372	3412.699837
805.037967	3402.252046
805.358518	3390.967423
805.679024	3414.507091
805.999485	3416.092533
806.319901	3418.471958
806.640272	3436.970472
806.960598	3450.374900
807.280879	3427.851025
807.601115	3433.708846
807.921306	3450.097637
808.241453	3489.073318
808.561554	3473.274342
808.881611	3416.725198
809.201623	3442.205710
809.521590	3460.341261
809.841513	3432.975358
810.161390	3464.074236
810.481223	3455.451342
810.801011	3397.732651
811.120755	3389.775190
811.440453	3426.434461
811.760107	3436.945266
812.079716	3404.591141
812.399281	3366.908516
812.718801	3389.351733
813.038276	3371.400184
813.357707	3369.214844
813.677093	3389.172772
813.996434	3345.488653
814.315731	3345.503777
814.634983	3347.931092
814.954191	3362.031200
815.273354	3394.791138
815.592473	3398.047723
815.911547	3391.824419
816.230577	3424.828853
816.549562	3465.004329
816.868502	3511.564426
817.187399	3537.493600
817.506250	3527.386087
817.825058	3502.089577
818.143821	3585.099737
818.462539	3683.676980
818.781213	3722.637537
819.099843	3767.869290
819.418429	3962.558652
819.736970	4164.789579
820.055466	4371.174418
820.373919	4694.637534
820.692327	5074.609464
821.010691	5419.426907
821.329011	6511.282857
821.647286	8607.387065
821.965517	11921.040831
822.283704	14879.288211
822.601847	16786.717153
822.919945	15797.917512
823.237999	14115.011479
823.556010	12193.462265
823.873976	10574.004194
824.191897	8818.394641
824.509775	7617.599357
824.827609	6639.403782
825.145398	6151.934287
825.463144	6054.299740
825.780845	6154.369165
826.098502	6261.952429
826.416116	6914.577685
826.733685	7988.411510
827.051210	8984.903953
827.368692	9166.443464
827.686129	8181.522991
828.003522	6868.441045
828.320872	5985.770295
828.638177	5383.501124
828.955439	4895.754366
829.272656	4453.372952
829.589830	4184.008978
829.906960	4031.609856
830.224046	3869.289744
830.541088	3755.677259
830.858086	3717.727453
831.175041	3653.190602
831.491952	3631.821151
831.808819	3640.640649
832.125642	3700.259855
832.442421	3830.230884
832.759157	4061.466090
833.075849	4522.116646
833.392497	5247.367285
833.709101	5899.591770
834.025662	6239.680611
834.342179	6008.664695
834.658653	5434.217653
834.975083	4870.919122
835.291469	4360.570351
835.607811	3982.970283
835.924110	3860.825646
836.240366	3684.259233
836.556578	3488.538955
836.872746	3390.715365
837.188871	3360.740664
837.504952	3305.429124
837.820990	3229.055643
838.136984	3182.319106
838.452935	3202.050182
838.768842	3201.503217
839.084706	3223.182699
839.400526	3351.495188
839.716303	3623.772948
840.032037	4060.253692
840.347727	4331.059436
840.663373	4137.406032
840.978977	3804.586534
841.294537	3529.591592
841.610054	3313.252995
841.925527	3214.242213
842.240957	3147.812408
842.556344	3100.249122
842.871687	3049.714075
843.186987	3005.243536
843.502244	2970.903196
843.817458	2937.941612
844.132629	2905.300141
844.447756	2916.045360
844.762840	2906.930954
845.077881	2874.818804
845.392879	2856.211905
845.707833	2856.340454
846.022745	2852.738550
846.337613	2854.664271
846.652438	2845.532221
846.967221	2842.910821
847.281960	2828.256186
847.596656	2823.615804
847.911309	2825.355002
848.225919	2818.599856
848.540485	2813.407468
848.855009	2812.696665
849.169490	2810.465954
849.483928	2796.827113
849.798323	2794.155301
850.112675	2792.486679
850.426984	2802.316929
850.741251	2804.086374
851.055474	2794.283851
851.369654	2787.632048
851.683792	2791.334776
851.997887	2798.941877
852.311938	2796.907771
852.625947	2791.848973
852.939914	2795.597071
853.253837	2799.750982
853.567718	2784.496450
853.881555	2779.699792
854.195350	2799.995478
854.509103	2796.088584
854.822812	2790.069446
855.136479	2785.411420
855.450103	2786.220525
855.763685	2777.993362
856.077224	2774.235182
856.390720	2789.522481
856.704173	2796.191927
857.017584	2793.129426
857.330953	2785.232459
857.644278	2798.031948
857.957561	2802.137968
858.270802	2806.269194
858.584000	2809.598876
858.897155	2795.370219
859.210268	2795.707977
859.523339	2794.321659
859.836367	2790.437450
860.149352	2785.197171
860.462295	2781.287756
860.775195	2793.512554
861.088054	2790.845784
861.400869	2776.670059
861.713642	2772.624533
862.026373	2782.061573
862.339062	2786.454939
862.651708	2793.719241
862.964312	2797.966413
863.276873	2790.500465
863.589392	2798.914150
863.901869	2807.373207
864.214303	2827.956238
864.526696	2843.977025
864.839045	2842.555419
865.151353	2839.586180
865.463619	2835.081909
865.775842	2837.456292
866.088023	2852.431040
866.400162	2860.645600
866.712258	2837.723473
867.024313	2825.390290
867.336325	2832.495797
867.648296	2854.901205
867.960224	2843.329236
868.272110	2835.129800
868.583954	2838.706498
868.895755	2853.769466
869.207515	2840.977538
869.519233	2840.501149
869.830909	2850.444825
870.142542	2862.404963
870.454134	2862.783049
870.765684	2863.803883
871.077191	2863.209027
871.388657	2869.535675
871.700081	2880.661501
872.011463	2888.767677
872.322803	2891.694066
872.634101	2892.137688
872.945357	2907.041859
873.256571	2930.916764
873.567744	2926.833429
873.878874	2914.154927
874.189963	2934.556477
874.501010	2942.140893
874.812015	2930.606733
875.122979	2934.347269
875.433900	2926.805703
875.744780	2931.743513
876.055618	2938.917075
876.366415	2933.996909
876.677169	2948.467541
876.987882	2948.069290
877.298554	2939.007816
877.609183	2956.298973
877.919771	2977.020636
878.230317	3001.066940
878.540822	3052.524518
878.851285	3087.167327
879.161707	3122.725106
879.472087	3205.016901
879.782425	3396.658885
880.092722	3781.457720
880.402977	4252.372066
880.713191	4783.324033
881.023363	5733.289146
881.333494	6812.204454
881.643583	7319.667164
881.953631	7114.724096
882.263637	6651.681512
882.573602	6186.914854
882.883526	5677.057595
883.193408	5151.638294
883.503248	4718.411615
883.813048	4451.623671
884.122806	4196.054815
884.432522	3911.312802
884.742197	3699.627190
885.051831	3517.170189
885.361424	3386.919376
885.670975	3323.231959
885.980485	3251.191350
886.289954	3182.669466
886.599382	3141.294196
886.908768	3102.361365
887.218113	3063.040365
887.527417	3012.316275
887.836680	2966.136785
888.145901	2964.581589
888.455082	2958.862400
888.764221	2912.100657
889.073319	2881.173178
889.382376	2882.577140
889.691392	2887.114178
890.000366	2883.250134
890.309300	2872.157075
890.618193	2884.850700
890.927044	2901.282341
891.235855	2905.821900
891.544625	2885.095196
891.853353	2895.091804
892.162041	2913.582756
892.470687	2944.263219
892.779293	2993.127123
893.087858	3036.309647
893.396381	3097.378184
893.704864	3200.875593
894.013306	3409.929723
894.321707	3674.194569
894.630068	3877.184191
894.938387	3885.146693
895.246665	3844.184797
895.554903	3744.019591
895.863100	3552.549006
896.171256	3399.534864
896.479371	3282.222173
896.787446	3170.411901
897.095480	3075.204669
897.403473	3014.257119
897.711425	2977.663383
898.019336	2969.663072
898.327207	2949.006944
898.635038	2917.981163
898.942827	2902.835016
899.250576	2891.353788
899.558284	2856.680732
899.865952	2843.200687
900.173579	2824.760146
900.481165	2818.854434
900.788711	2809.056952
901.096216	2786.510391
901.403681	2771.366765
901.711105	2779.654422
902.018489	2778.943619
902.325832	2777.290121
902.633135	2785.643313
902.940397	2816.522901
903.247619	2880.175030
903.554800	3044.597304
903.861941	3345.463448
904.169041	3721.447825
904.476101	4012.435828
904.783121	4005.841998
905.090100	3791.540028
905.397039	3541.687840
905.703938	3306.202941
906.010796	3137.722539
906.317614	3035.888710
906.624391	2950.080710
906.931129	2882.773745
907.237826	2830.948162
907.544483	2782.364042
907.851099	2756.137439
908.157675	2736.771847
908.464211	2722.326421
908.770707	2708.944678
909.077163	2698.454037
909.383578	2684.056501
909.689954	2671.123421
909.996289	2669.331291
910.302584	2672.461847
910.608839	2672.635767
910.915054	2669.280879
911.221229	2661.474652
911.527363	2663.183604
911.833458	2665.288285
912.139513	2672.754234
912.445527	2675.494101
912.751502	2683.466686
913.057436	2692.127388
913.363331	2702.209696
913.669186	2719.064794
913.975000	2749.931779
914.280775	2802.576549
914.586510	2865.379243
914.892205	2933.359203
915.197859	3044.456151
915.503475	3212.679455
915.809050	3396.704256
916.114585	3531.582847
916.420081	3560.624935
916.725536	3517.823018
917.030952	3415.875764
917.336328	3295.921508
917.641665	3178.412212
917.946961	3086.201946
918.252218	3027.086856
918.557435	2958.259982
918.862612	2902.451889
919.167750	2858.077132
919.472848	2823.091524
919.777906	2799.236784
920.082925	2776.977569
920.387904	2748.358939
920.692843	2731.738255
920.997743	2722.008828
921.302603	2712.498691
921.607423	2701.740869
921.912204	2689.233766
922.216946	2682.992818
922.521647	2673.316323
922.826310	2667.592093
923.130932	2659.465753
923.435516	2651.193219
923.740059	2647.908907
924.044564	2639.868267
924.349028	2635.167391
924.653454	2627.678757
924.957840	2621.949486
925.262186	2617.246089
925.566493	2613.808022
925.870761	2612.250306
926.174989	2608.353494
926.479178	2602.357041
926.783328	2598.314036
927.087438	2594.538212
927.391509	2594.114755
927.695541	2591.919332
927.999533	2591.533684
928.303486	2588.569486
928.607400	2586.275761
928.911275	2584.332396
929.215110	2583.422468
929.518906	2583.571182
929.822663	2583.994638
930.126381	2583.679566
930.430060	2581.829463
930.733699	2583.296439
931.037299	2587.054619
931.340861	2586.142170
931.644383	2587.677201
931.947866	2585.365832
932.251309	2582.857858
932.554714	2583.747622
932.858080	2581.035481
933.161407	2577.398289
933.464694	2578.492219
933.767943	2578.653536
934.071153	2577.733525
934.374323	2578.678742
934.677455	2579.230748
934.980548	2577.894842
935.283602	2577.010120
935.586617	2575.921231
935.889593	2578.378793
936.192530	2577.615058
936.495428	2575.888463
936.798287	2577.753690
937.101108	2583.195616
937.403890	2584.652509
937.706632	2590.197778
938.009336	2593.202306
938.312002	2601.951228
938.614628	2612.572940
938.917216	2617.172992
939.219765	2615.963116
939.522275	2618.788682
939.824747	2613.440018
940.127179	2611.189143
940.429573	2612.439349
940.731929	2608.708895
941.034246	2606.281580
941.336524	2601.792432
941.638763	2598.921495
941.940964	2597.605754
942.243126	2594.865887
942.545250	2595.554004
942.847335	2595.775815
943.149381	2586.270719
943.451389	2584.720565
943.753359	2581.791654
944.055290	2581.184195
944.357182	2585.963209
944.659036	2582.235276
944.960851	2581.521953
945.262628	2576.672362
945.564367	2581.801737
945.866067	2578.956005
946.167729	2577.935172
946.469352	2579.727302
946.770937	2578.338464
947.072484	2577.499112
947.373992	2575.225551
947.675462	2574.222362
947.976893	2569.939902
948.278286	2570.920406
948.579641	2571.064079
948.880958	2566.305230
949.182236	2572.394943
949.483476	2571.059038
949.784678	2569.007288
950.085841	2568.886300
950.386967	2574.935685
950.688054	2574.965932
950.989103	2573.435942
951.290114	2573.065417
951.591087	2571.492577
951.892021	2575.192784
952.192917	2580.264185
952.493776	2581.327868
952.794596	2582.152097
953.095378	2582.399113
953.396122	2579.944071
953.696828	2579.182857
953.997496	2577.446180
954.298126	2575.407033
954.598718	2573.435942
954.899272	2571.401836
955.199788	2573.546847
955.500266	2569.617268
955.800706	2567.588203
956.101108	2562.136195
956.401472	2564.455126
956.701798	2563.497307
957.002087	2559.348437
957.302337	2557.745350
957.602550	2559.522357
957.902724	2554.201419
958.202861	2555.335679
958.502960	2553.977088
958.803022	2554.937428
959.103045	2554.907181
959.403031	2555.181924
959.702979	2552.963816
960.002889	2552.021120
960.302762	2551.464073
960.602596	2551.940462
960.902393	2552.048847
961.202153	2548.520039
961.501875	2550.783517
961.801559	2548.051212
962.101205	2550.468445
962.400814	2550.866696
962.700385	2549.243444
962.999918	2547.436191
963.299414	2543.829245
963.598873	2546.503577
963.898293	2544.618186
964.197677	2549.530790
964.497022	2545.328988
964.796331	2546.251520
965.095601	2548.530121
965.394835	2549.629093
965.694030	2546.634647
965.993189	2547.960471
966.292309	2546.611962
966.591393	2547.766386
966.890439	2548.396531
967.189447	2548.842673
967.488419	2547.116077
967.787353	2547.995759
968.086249	2547.418547
968.385108	2548.540203
968.683930	2545.835624
968.982714	2547.272353
969.281462	2547.030378
969.580172	2547.473999
969.878844	2548.908208
970.177480	2549.193033
970.476078	2547.380738
970.774639	2547.143804
971.073162	2547.789072
971.371649	2548.782179
971.670098	2548.608259
971.968510	2550.153373
972.266885	2548.136911
972.565223	2550.037426
972.863524	2547.131201
973.161788	2548.421736
973.460014	2547.247147
973.758204	2545.981818
974.056356	2546.962322
974.354471	2550.100441
974.652550	2549.656819
974.950591	2547.342929
975.248595	2547.973074
975.546563	2547.899977
975.844493	2548.154555
976.142386	2548.328475
976.440243	2547.852086
976.738062	2547.088351
977.035845	2546.042312
977.333590	2550.012220
977.631299	2547.529452
977.928971	2546.312013
978.226606	2542.236241
978.524204	2547.174051
978.821765	2541.679193
979.119290	2546.420398
979.416777	2545.271015
979.714228	2545.321427
980.011642	2547.579864
980.309020	2547.244627
980.606360	2545.215563
980.903664	2548.303269
981.200931	2546.059956
981.498162	2547.831921
981.795356	2548.378887
982.092513	2551.622869
982.389633	2553.914073
982.686717	2555.892726
982.983764	2557.783159
983.280775	2560.878427
983.577749	2561.286761
983.874686	2565.349931
984.171587	2556.331307
984.468451	2557.818447
984.765279	2555.524722
985.062070	2555.358364
985.358824	2554.690411
985.655543	2549.916438
985.952224	2548.956099
986.248869	2548.421736
986.545478	2546.584236
986.842050	2549.142621
987.138586	2546.140614
987.435086	2548.653629
987.731549	2542.329502
988.027975	2545.752445
988.324366	2546.795964
988.620719	2547.090872
988.917037	2545.034081
989.213318	2545.810419
989.509563	2543.584749
989.805772	2544.328319
990.101944	2544.693803
990.398080	2544.910573
990.694180	2544.693803
990.990244	2544.885367
991.286271	2542.137938
991.582262	2543.433515
991.878217	2544.136756
992.174136	2544.958464
992.470019	2542.858823
992.765865	2542.745397
993.061676	2541.401930
993.357450	2544.053577
993.653188	2539.720705
993.948890	2546.375028
994.244556	2544.973587
994.540186	2547.733619
994.835780	2545.628937
995.131337	2547.922662
995.426859	2544.822352
995.722345	2548.058773
996.017795	2550.297046
996.313208	2549.961809
996.608586	2547.242106
996.903928	2547.274874
997.199234	2550.680173
997.494504	2548.600697
997.789738	2549.114895
998.084936	2547.335368
998.380099	2544.882846
998.675225	2547.620193
998.970316	2544.653474
999.265371	2546.937117
999.560390	2544.187167
999.855373	2547.395862
1000.150320	2547.103475
1000.445232	2546.128011
1000.740108	2544.514842
1001.034948	2546.284287
1001.329752	2543.262115
1001.624521	2544.512322
1001.919254	2544.610624
1002.213951	2546.170861
1002.508613	2542.077444
1002.803239	2545.190357
1003.097829	2544.940820
1003.392384	2546.470810
1003.686903	2542.987373
1003.981386	2544.061138
1004.275834	2543.569626
1004.570246	2542.175747
1004.864623	2545.654143
1005.158964	2542.407640
1005.453270	2544.930737
1005.747540	2540.991076
1006.041775	2544.189688
1006.335974	2540.640715
1006.630138	2542.032074
1006.924266	2542.319420
1007.218359	2542.261446
1007.512416	2539.927392
1007.806438	2539.735828
1008.100425	2539.861857
1008.394376	2538.916641
1008.688292	2542.541230
1008.982172	2541.790098
1009.276017	2542.208514
1009.569827	2542.263967
1009.863602	2541.293545
1010.157341	2543.705737
1010.451045	2543.657846
1010.744714	2544.282949
1011.038347	2543.383103
1011.331945	2544.199770
1011.625508	2544.928217
1011.919036	2542.256405
1012.212528	2541.628782
1012.505986	2543.279759
1012.799408	2543.322609
1013.092795	2542.175747
1013.386147	2542.581560
1013.679464	2545.538196
1013.972745	2546.949719
1014.265992	2543.481406
1014.559204	2542.379913
1014.852380	2541.611138
1015.145521	2544.625748
1015.438628	2543.536858
1015.731699	2540.761703
1016.024736	2543.428473
1016.317737	2544.908052
1016.610703	2541.104502
1016.903635	2544.172044
1017.196531	2543.574667
1017.489393	2541.855633
1017.782219	2543.748587
1018.075011	2542.596683
1018.367768	2540.885211
1018.660490	2542.682383
1018.953177	2542.682383
1019.245829	2542.682383
