Dividing Wavelength (nm)	Counts (n)	Blue Motor Position (mm): 18.200000	Red Motor Position (mm): 0.000000	
326.493990	2179.000941
326.888308	2179.000941
327.282561	2179.000941
327.676750	2139.105250
328.070874	2138.633902
328.464933	2136.836731
328.858929	2137.736577
329.252859	2146.331744
329.646726	2152.083700
330.040528	2165.475526
330.434265	2179.386590
330.827938	2197.965762
331.221547	2213.847917
331.615091	2232.621174
332.008571	2250.913001
332.401986	2269.935795
332.795338	2288.963630
333.188625	2306.463996
333.581847	2323.490493
333.975006	2343.556806
334.368100	2361.646986
334.761129	2378.786909
335.154095	2398.011350
335.546996	2420.910791
335.939833	2450.220059
336.332606	2461.025773
336.725315	2478.563947
337.117960	2489.631800
337.510540	2500.142606
337.903056	2513.040398
338.295508	2522.837881
338.687896	2530.949097
339.080220	2538.115097
339.472480	2541.742208
339.864676	2549.177909
340.256807	2554.871893
340.648875	2559.323232
341.040879	2560.497820
341.432818	2565.370096
341.824694	2571.273287
342.216506	2569.110632
342.608253	2566.590055
342.999937	2568.687175
343.391557	2567.010991
343.783113	2569.511403
344.174605	2564.974365
344.566033	2566.895045
344.957397	2564.828172
345.348697	2565.813717
345.739934	2562.665517
346.131106	2561.906823
346.522215	2558.950186
346.913260	2557.715103
347.304241	2553.465411
347.695159	2551.821995
348.086012	2553.077242
348.476802	2547.486602
348.867528	2545.258412
349.258191	2541.732125
349.648789	2540.073586
350.039324	2536.443955
350.429796	2541.868236
350.820203	2542.579039
351.210548	2541.255736
351.600828	2539.012423
351.991045	2537.003523
352.381198	2538.858668
352.771288	2539.151054
353.161314	2533.749458
353.551276	2533.562935
353.941175	2531.680064
354.331010	2534.646783
354.720782	2533.802390
355.110490	2535.198790
355.500135	2532.963038
355.889717	2532.925229
356.279235	2532.448840
356.668689	2533.482277
357.058080	2532.272400
357.447408	2531.707791
357.836672	2533.751979
358.225873	2536.207021
358.615010	2532.663089
359.004084	2534.818183
359.393095	2536.441434
359.782043	2533.716691
360.170927	2538.011754
360.559748	2537.661393
360.948505	2537.311033
361.337199	2538.712474
361.725830	2538.016795
362.114398	2539.786240
362.502903	2540.232382
362.891344	2541.709440
363.279722	2540.754141
363.668037	2541.734646
364.056289	2541.628782
364.444478	2542.289173
364.832603	2544.973587
365.220665	2544.245140
365.608665	2545.412168
365.996601	2542.974770
366.384474	2542.579039
366.772284	2545.633978
367.160031	2545.366797
367.547715	2547.826880
367.935336	2545.563402
368.322893	2543.327650
368.710388	2539.902186
369.097820	2542.934440
369.485189	2543.181457
369.872495	2549.276212
370.259738	2547.121119
370.646918	2549.508105
371.034035	2548.401572
371.421090	2553.377191
371.808081	2549.235883
372.195010	2549.850903
372.581875	2550.188661
372.968678	2552.550441
373.355418	2549.404761
373.742096	2548.711603
374.128710	2550.715461
374.515262	2552.580688
374.901751	2550.750749
375.288177	2551.857283
375.674540	2550.604556
376.060841	2550.128167
376.447079	2551.212015
376.833254	2552.918446
377.219367	2553.490617
377.605417	2552.968857
377.991404	2552.628579
378.377329	2550.337375
378.763191	2555.101265
379.148991	2553.147818
379.534727	2555.197047
379.920402	2554.292160
380.306013	2552.910884
380.691563	2555.499516
381.077049	2553.125133
381.462474	2553.160421
381.847835	2553.714948
382.233134	2553.299053
382.618371	2553.152859
383.003545	2555.945658
383.388657	2556.623694
383.773706	2557.500854
384.158693	2554.776111
384.543618	2557.228632
384.928480	2559.398849
385.313280	2559.141750
385.698017	2558.975392
386.082692	2559.285423
386.467305	2558.443550
386.851856	2561.165773
387.236344	2557.523540
387.620770	2556.046482
388.005133	2556.883313
388.389435	2558.952707
388.773674	2554.181255
389.157851	2559.262738
389.541965	2560.762481
389.926018	2559.920608
390.310008	2560.316339
390.693936	2560.989333
391.077802	2560.580999
391.461606	2558.675443
391.845348	2562.325239
392.229027	2562.128634
392.612645	2559.731565
392.996200	2563.835064
393.379694	2560.979251
393.763125	2564.535785
394.146494	2561.599313
394.529801	2563.731721
394.913047	2563.630898
395.296230	2561.553942
395.679351	2562.058057
396.062410	2563.867832
396.445408	2562.965465
396.828343	2563.036041
397.211217	2562.655434
397.594028	2563.240208
397.976778	2565.700291
398.359466	2565.959911
398.742092	2562.917574
399.124656	2562.630228
399.507158	2564.540826
399.889598	2567.260528
400.271977	2565.962431
400.654294	2565.216340
401.036549	2566.201886
401.418742	2567.593244
401.800874	2566.642987
402.182944	2566.637946
402.564952	2566.085939
402.946898	2569.052658
403.328783	2566.151474
403.710606	2569.219017
404.092367	2567.197514
404.474067	2568.084757
404.855705	2568.281362
405.237282	2568.619119
405.618797	2568.102401
406.000250	2567.880590
406.381642	2567.653738
406.762972	2567.038717
407.144240	2565.917061
407.525447	2567.177349
407.906593	2563.025959
408.287677	2567.482339
408.668700	2569.183728
409.049661	2569.496280
409.430560	2571.457289
409.811399	2570.355797
410.192176	2570.353276
410.572891	2569.841599
410.953545	2571.568194
411.334138	2572.021898
411.714669	2571.540468
412.095139	2573.224213
412.475547	2569.768502
412.855894	2571.258163
413.236180	2569.435786
413.616405	2574.255129
413.996568	2571.656414
414.376670	2572.261353
414.756711	2572.599110
415.136691	2572.062227
415.516609	2571.858061
415.896466	2571.847978
416.276262	2571.658935
416.655997	2573.269584
417.035670	2572.793195
417.415283	2575.301169
417.794834	2569.307237
418.174324	2573.894687
418.553753	2573.791343
418.933121	2576.400140
419.312428	2575.023905
419.691674	2572.354614
420.070859	2576.422825
420.449983	2578.381314
420.829045	2573.690520
421.208047	2574.330747
421.586988	2572.427711
421.965867	2576.528690
422.344686	2576.992476
422.723444	2574.595407
423.102141	2575.437280
423.480777	2574.550037
423.859352	2575.666652
424.237866	2576.311920
424.616319	2576.533731
424.994712	2577.632702
425.373044	2577.988104
425.751314	2575.477609
426.129524	2573.645150
426.507673	2574.958370
426.885762	2572.190777
427.263789	2576.291755
427.641756	2577.451221
428.019662	2577.108422
428.397508	2577.342836
428.775292	2576.231262
429.153016	2577.274780
429.530679	2577.496591
429.908282	2578.091447
430.285824	2579.432394
430.663305	2577.476427
431.040726	2578.262847
431.418086	2579.117322
431.795385	2579.329051
432.172624	2578.093968
432.549802	2579.676890
432.926920	2580.412899
433.303977	2578.993814
433.680974	2580.075141
434.057910	2579.439956
434.434786	2580.097827
434.811601	2579.487847
435.188355	2581.131263
435.565050	2580.465831
435.941683	2581.859710
436.318257	2578.799729
436.694770	2579.389544
437.071222	2580.980028
437.447614	2583.127560
437.823946	2580.886767
438.200218	2581.025399
438.576429	2581.348033
438.952580	2579.402147
439.328670	2584.972622
439.704700	2582.222673
440.080670	2578.789647
440.456580	2582.237796
440.832429	2582.396593
441.208218	2583.631675
441.583947	2581.390883
441.959616	2582.184864
442.335224	2582.008424
442.710773	2582.895667
443.086261	2580.140676
443.461689	2582.736871
443.837057	2583.969433
444.212365	2583.472879
444.587612	2583.296439
444.962800	2581.728640
445.337927	2585.333065
445.712995	2581.118660
446.088002	2582.749473
446.462949	2584.982705
446.837837	2582.774679
447.212664	2582.499936
447.587431	2585.411203
447.962139	2586.210226
448.336786	2586.880699
448.711374	2589.779363
449.085901	2586.769794
449.460369	2586.245514
449.834776	2586.802561
450.209124	2587.583940
450.583412	2588.859352
450.957640	2585.912798
451.331808	2589.073601
451.705917	2586.169896
452.079965	2585.280133
452.453954	2587.725092
452.827883	2587.931780
453.201752	2587.455391
453.575562	2589.484455
453.949311	2589.025710
454.323001	2588.907243
454.696632	2591.543766
455.070202	2590.303642
455.443713	2589.557552
455.817164	2590.038982
456.190556	2590.197778
456.563888	2594.439909
456.937160	2595.112903
457.310373	2588.813982
457.683526	2590.976637
458.056619	2592.088211
458.429653	2590.878334
458.802628	2591.175762
459.175542	2590.646441
459.548398	2593.328335
459.921194	2591.659713
460.293930	2593.242635
460.666607	2593.595516
461.039224	2594.386977
461.411782	2596.811772
461.784280	2593.124168
462.156719	2595.352358
462.529099	2595.674992
462.901419	2594.795311
463.273680	2591.992429
463.645882	2591.279106
464.018024	2591.004363
464.390106	2591.773139
464.762130	2596.161463
465.134094	2598.233378
465.505999	2599.665065
465.877845	2597.837647
466.249631	2605.374172
466.621358	2602.079778
466.993026	2603.667741
467.364634	2604.673452
467.736184	2601.058944
468.107674	2598.442585
468.479105	2598.936618
468.850477	2601.623553
469.221790	2599.138265
469.593043	2600.010384
469.964238	2600.335539
470.335373	2601.253029
470.706449	2600.501897
471.077467	2602.916609
471.448425	2604.600355
471.819324	2605.444748
472.190164	2610.516149
472.560945	2607.443566
472.931667	2603.249326
473.302330	2603.554315
473.672934	2604.529779
474.043479	2604.464244
474.413965	2602.442741
474.784393	2604.915427
475.154761	2604.912906
475.525070	2605.666559
475.895321	2604.857454
476.265513	2604.817124
476.635645	2606.110180
477.005719	2608.661004
477.375734	2604.280242
477.745691	2606.770572
478.115588	2606.405088
478.485427	2612.000769
478.855207	2611.673094
479.224928	2612.734257
479.594591	2615.658126
479.964194	2617.334309
480.333739	2616.784824
480.703226	2615.703496
481.072653	2618.463528
481.442022	2616.016048
481.811333	2615.476644
482.180584	2613.732405
482.549777	2619.002931
482.918912	2614.213835
483.287988	2618.264402
483.657005	2619.013014
484.025964	2619.864969
484.394864	2618.259361
484.763706	2617.074690
485.132489	2618.750874
485.501213	2619.980915
485.869879	2620.603498
486.238487	2619.990997
486.607036	2619.053343
486.975527	2620.288426
487.343959	2621.503344
487.712333	2624.417131
488.080648	2621.904115
488.448905	2624.462501
488.817104	2624.495268
489.185244	2625.488376
489.553326	2627.230094
489.921350	2628.659262
490.289315	2631.731845
490.657222	2636.682258
491.025070	2639.308699
491.392861	2641.151241
491.760593	2639.936323
492.128267	2639.719553
492.495883	2638.161837
492.863440	2636.228554
493.230939	2636.790643
493.598380	2638.003040
493.965763	2638.388688
494.333088	2640.440438
494.700354	2642.885398
495.067563	2640.901704
495.434713	2641.272228
495.801805	2645.148876
496.168839	2646.048722
496.535815	2646.484782
496.902733	2647.419916
497.269593	2650.598363
497.636395	2653.466780
498.003139	2658.830567
498.369825	2659.236380
498.736453	2661.497338
499.103023	2662.800476
499.469535	2668.491939
499.835989	2668.890190
500.202385	2670.699964
500.568723	2670.405057
500.935003	2681.140194
501.301226	2681.293949
501.667390	2690.476411
502.033497	2697.579396
502.399546	2701.882021
502.765537	2705.272197
503.131470	2709.985676
503.497345	2715.457848
503.863163	2719.954558
504.228923	2727.027297
504.594625	2736.555077
504.960269	2741.729822
505.325856	2747.824577
505.691385	2756.150042
506.056856	2767.822834
506.422270	2779.997221
506.787625	2788.670526
507.152924	2802.082516
507.518164	2812.006027
507.883347	2818.874599
508.248472	2832.820951
508.613540	2851.894157
508.978550	2864.948225
509.343503	2880.134701
509.708398	2901.559604
510.073236	2921.797317
510.438016	2942.622323
510.802738	2959.605970
511.167403	2985.114209
511.532010	2998.730365
511.896561	3038.573125
512.261053	3061.449881
512.625488	3084.021647
512.989866	3106.522837
513.354186	3130.327166
513.718449	3163.016528
514.082655	3200.820141
514.446803	3231.848443
514.810894	3275.126748
515.174927	3296.138278
515.538904	3332.149760
515.902822	3387.063049
516.266684	3424.055036
516.630488	3454.110395
516.994235	3493.970799
517.357925	3550.971125
517.721558	3610.832307
518.085133	3657.987260
518.448651	3702.568704
518.812112	3746.885487
519.175516	3803.842964
519.538863	3871.364178
519.902152	3915.275149
520.265385	3991.270543
520.628560	4036.845095
520.991678	4104.648614
521.354739	4173.349458
521.717743	4241.747834
522.080690	4291.430926
522.443580	4397.184251
522.806413	4453.743477
523.169189	4546.959452
523.531908	4602.369295
523.894569	4668.272299
524.257174	4746.631994
524.619722	4843.969113
524.982213	4887.711205
525.344647	4990.661649
525.707025	5079.645576
526.069345	5169.302498
526.431608	5257.293317
526.793815	5375.349579
527.155964	5380.297471
527.518057	5495.021530
527.880093	5582.725004
528.242072	5674.537018
528.603995	5744.097380
528.965860	5817.020191
529.327669	5946.114058
529.689421	6019.062075
530.051117	6092.574701
530.412755	6249.490697
530.774337	6295.927285
531.135862	6378.705552
531.497331	6519.583117
531.858743	6546.802827
532.220098	6759.468943
532.581396	6771.839935
532.942638	6925.580004
533.303824	7022.823861
533.664953	7144.487068
534.026025	7220.144705
534.387040	7348.051381
534.747999	7516.204109
535.108902	7641.383521
535.469748	7667.854619
535.830537	7831.142634
536.191270	7954.655944
536.551947	8096.781194
536.912567	8098.444775
537.273131	8297.935836
537.633638	8338.204573
537.994089	8556.148777
538.354483	8537.567084
538.714821	8802.646077
539.075103	8974.171336
539.435328	9031.617805
539.795497	9035.887662
540.155609	9284.182133
540.515665	9496.719700
540.875665	9397.719000
541.235609	9595.488507
541.595496	9752.283515
541.955328	9980.899842
542.315102	10091.419578
542.674821	10105.186969
543.034483	10180.035501
543.394090	10342.353093
543.753640	10414.950749
544.113134	10750.749569
544.472571	10790.322627
544.831953	11050.501618
545.191278	11005.905050
545.550548	11155.924747
545.909761	11305.919239
546.268918	11573.450753
546.628019	11675.902123
546.987064	11762.645257
547.346053	11793.595421
547.704986	11942.279213
548.063863	12162.968325
548.422684	12236.342319
548.781449	12241.365829
549.140158	12548.404866
549.498811	12538.955223
549.857408	12502.802588
550.215949	12868.974359
550.574434	12850.155732
550.932864	13094.739914
551.291237	13273.544600
551.649555	13394.411304
552.007817	13549.446950
552.366022	13634.473571
552.724173	13754.891613
553.082267	13862.616029
553.440305	14240.964708
553.798288	14013.769986
554.156215	14415.807047
554.514086	14600.197331
554.871902	14398.818358
555.229661	14671.575028
555.587365	14761.751188
555.945014	14771.533547
556.302606	15091.351909
556.660143	15139.487367
557.017625	15446.710405
557.375050	15312.955991
557.732421	15644.890766
558.089735	15700.187183
558.446994	15824.560010
558.804197	15992.400186
559.161345	16109.740603
559.518437	16024.373704
559.875474	16343.244329
560.232455	16525.368614
560.589381	16583.281390
560.946251	16642.575441
561.303065	17009.468098
561.659825	17186.457968
562.016528	17037.779218
562.373177	17003.660688
562.729770	17329.999783
563.086307	17407.406700
563.442789	17623.576418
563.799216	17624.118342
564.155587	17720.139720
564.511904	17850.551849
564.868164	17878.225263
565.224370	18036.310807
565.580520	18025.177419
565.936615	18267.626672
566.292654	18101.762628
566.648638	18491.176639
567.004567	18435.625644
567.360441	18506.002672
567.716260	18390.023367
568.072023	18776.826060
568.427732	18674.052057
568.783385	18599.037167
569.138982	18851.694756
569.494525	19000.509618
569.850013	18910.237676
570.205445	19068.008147
570.560823	18970.860072
570.916145	18911.954189
571.271412	19098.154247
571.626625	19022.095839
571.981782	19162.015584
572.336884	19077.876206
572.691931	19276.674108
573.046923	19115.314335
573.401860	19136.467017
573.756743	19204.792295
574.111570	19198.904228
574.466342	19218.416013
574.821059	19376.690600
575.175722	19178.111988
575.530330	19276.986659
575.884882	19354.426344
576.239380	19345.697586
576.593823	19298.129259
576.948211	19338.655094
577.302544	19261.727087
577.656823	19215.033399
578.011047	19362.308188
578.365216	19305.207039
578.719330	19256.917826
579.073389	19220.145129
579.427394	19411.535056
579.781344	19248.783924
580.135239	19221.150839
580.489080	19235.616430
580.842866	19051.780673
581.196597	19277.803326
581.550273	19287.968813
581.903895	19266.254043
582.257463	19578.298945
582.610975	19189.600778
582.964434	19504.977883
583.317837	19283.540159
583.671186	19409.311907
584.024481	19416.692156
584.377721	19240.279498
584.730906	19314.205498
585.084037	19389.951355
585.437113	19334.183591
585.790135	19556.269103
586.143103	19104.722871
586.496016	19115.347102
586.848874	19409.921886
587.201679	19370.391678
587.554428	19062.919102
587.907124	19414.544624
588.259765	19232.150637
588.612352	19337.029322
588.964884	18958.105952
589.317362	19144.058994
589.669786	19205.669456
590.022155	19293.204051
590.374470	19470.761052
590.726731	19326.699998
591.078937	19092.566128
591.431090	19225.435820
591.783188	18995.561725
592.135232	18983.183172
592.487222	19103.936451
592.839157	19146.345158
593.191038	19060.665707
593.542866	18956.011353
593.894639	18718.000836
594.246358	18938.354712
594.598022	18868.774186
594.949633	18642.776738
595.301190	18603.642261
595.652692	18780.808572
596.004141	19038.615700
596.355535	18389.577224
596.706876	18410.009021
597.058162	18326.088933
597.409395	18541.452066
597.760573	18651.263521
598.111698	18448.672150
598.462768	18395.223317
598.813785	18359.594962
599.164748	18204.309779
599.515657	18228.590497
599.866511	18036.719140
600.217312	18402.860665
600.568060	17941.968133
600.918753	18266.348739
601.269392	18170.609666
601.619978	17939.835725
601.970510	18182.632818
602.320988	18124.959497
602.671412	18344.002673
603.021783	18241.027023
603.372100	17995.636257
603.722363	18123.716853
604.072572	18061.211586
604.422728	18204.546714
604.772830	17973.911405
605.122878	17913.624246
605.472872	17919.784536
605.822813	17914.589627
606.172701	17874.504892
606.522534	18081.547601
606.872314	18110.020038
607.222041	17953.577911
607.571714	18166.861568
607.921333	17993.889497
608.270899	18067.548317
608.620411	18275.745450
608.969870	18028.794447
609.319276	18038.569244
609.668627	18065.965394
610.017926	18206.386735
610.367171	18328.060024
610.716362	18362.047483
611.065500	18195.870888
611.414585	18312.553435
611.763616	18298.362587
612.112594	18255.167460
612.461518	18226.853819
612.810389	18424.003264
613.159207	18275.284184
613.507971	18182.027879
613.856682	18481.671543
614.205340	18412.131347
614.553945	18543.244197
614.902496	18285.583262
615.250994	18549.033962
615.599439	18476.174165
615.947830	18465.771744
616.296169	18505.874123
616.644454	18476.645513
616.992686	18453.307491
617.340864	18658.008584
617.688990	18425.626516
618.037063	18598.280994
618.385082	18445.919680
618.733048	18736.421212
619.080961	18585.826823
619.428821	18631.862640
619.776628	18528.244243
620.124382	18436.593546
620.472083	18477.542838
620.819731	18506.002672
621.167326	18205.083597
621.514868	18247.270492
621.862357	17997.009972
622.209793	18019.833796
622.557176	17862.761524
622.904506	17684.695367
623.251783	17590.387982
623.599007	17361.625461
623.946179	17312.081001
624.293297	17254.011950
624.640363	17012.389446
624.987376	17043.271555
625.334336	16817.352245
625.681243	16676.026018
626.028097	16670.180800
626.374899	16615.963190
626.721647	16480.865308
627.068343	16319.092161
627.414987	16240.493011
627.761577	16215.758589
628.108115	16271.468380
628.454600	15977.745552
628.801032	16075.327167
629.147412	16012.476581
629.493739	16029.525763
629.840014	15847.640933
630.186236	15951.576922
630.532405	15711.930550
630.878521	15898.221350
631.224585	15789.886953
631.570597	15622.629031
631.916556	15656.175389
632.262462	15635.688140
632.608316	15550.210335
632.954117	15496.819475
633.299866	15495.823847
633.645562	15417.723771
633.991206	15174.367110
634.336797	15044.983376
634.682336	15009.765875
635.027823	14907.806018
635.373257	14794.674964
635.718639	14676.981666
636.063968	14632.627074
636.409245	14383.112643
636.754470	14411.638012
637.099642	14259.354837
637.444762	14039.651270
637.789829	14083.584926
638.134845	13925.690946
638.479808	13950.523670
638.824719	13904.339139
639.169577	13748.252413
639.514383	13813.260613
639.859137	13612.128657
640.203839	13698.586966
640.548489	13537.479250
640.893086	13522.060881
641.237632	13396.311819
641.582125	13537.176781
641.926566	13379.076114
642.270955	13378.821536
642.615292	13357.106766
642.959576	13369.205535
643.303809	13394.494483
643.647990	13335.170185
643.992118	13386.847053
644.336195	13166.538548
644.680219	13359.183721
645.024192	13287.203606
645.368112	13519.401673
645.711981	13586.116303
646.055797	13754.823557
646.399562	13718.635634
646.743274	13994.772398
647.086935	14265.903296
647.430544	14230.910127
647.774101	14258.424744
648.117606	14416.132201
648.461059	14381.517118
648.804460	14380.145924
649.147810	14116.848980
649.491108	14011.935006
649.834354	14032.447461
650.177548	13732.264394
650.520690	13547.758163
650.863781	13463.762458
651.206820	13508.061597
651.549807	13334.071213
651.892742	13148.917194
652.235626	13088.002412
652.578458	13088.524171
652.921238	12767.269081
653.263967	12965.656128
653.606644	12790.332359
653.949269	12772.027930
654.291843	12573.333372
654.634365	12731.537382
654.976836	12580.726224
655.319255	12602.592228
655.661622	12548.840926
656.003938	12472.835449
656.346203	12400.404151
656.688416	12467.459058
657.030577	12421.292172
657.372687	12352.510668
657.714746	12323.806338
658.056753	12506.217970
658.398708	12325.805156
658.740612	12333.911331
659.082465	12433.564861
659.424266	12391.982903
659.766016	12408.558217
660.107715	12315.077581
660.449362	12393.180177
660.790958	12350.022859
661.132503	12307.455356
661.473996	12361.872091
661.815438	12385.555432
662.156829	12388.847305
662.498168	12379.203578
662.839456	12372.004810
663.180693	12391.670352
663.521879	12482.033034
663.863013	12457.570835
664.204097	12435.737598
664.545129	12551.351420
664.886110	12531.317875
665.227040	12607.003238
665.567918	12616.352058
665.908746	12655.995692
666.249522	12630.971404
666.590248	12682.877645
666.930922	12787.761371
667.271545	12779.408179
667.612118	12861.097557
667.952639	12775.365174
668.293109	12770.727312
668.633528	12732.351528
668.973896	12704.557127
669.314213	12794.985344
669.654480	12530.561702
669.994695	12597.893873
670.334859	12617.599743
670.674973	12562.550343
671.015035	12604.780089
671.355047	12540.028989
671.695008	12513.452026
672.034918	12516.259948
672.374777	12552.342007
672.714585	12473.218577
673.054342	12505.509688
673.394049	12454.241153
673.733705	12549.576934
674.073310	12471.020634
674.412864	12485.420690
674.752368	12364.821166
675.091820	12361.095753
675.431223	12362.522400
675.770574	12239.472876
676.109875	12148.268320
676.449125	12119.937036
676.788324	12047.384750
677.127473	11890.617468
677.466571	11882.022301
677.805619	11793.751697
678.144616	11703.615866
678.483562	11666.883498
678.822458	11540.902543
679.161303	11518.020746
679.500098	11519.986796
679.838842	11469.161883
680.177535	11496.497540
680.516179	11541.729292
680.854771	11489.676858
681.193314	11709.193903
681.531805	11850.928464
681.870247	12253.880493
682.208638	12659.272442
682.546978	12988.016166
682.885268	13038.969629
683.223508	12738.244637
683.561697	12576.463928
683.899836	12472.071714
684.237925	12281.027107
684.575963	12195.758510
684.913951	12127.682769
685.251889	12066.866289
685.589776	12162.030670
685.927614	12098.378541
686.265401	12053.489587
686.603137	12099.389293
686.940824	12245.086201
687.278460	12366.822504
687.616046	12419.006008
687.953582	12595.953029
688.291068	12525.727235
688.628504	12735.482085
688.965889	12747.132192
689.303224	12724.880538
689.640510	12617.612346
689.977745	12324.038232
690.314930	12095.457193
690.652065	12004.209787
690.989150	11718.915768
691.326185	11496.472334
691.663170	11287.682865
692.000105	11045.256297
692.336990	10943.243508
692.673825	10693.978615
693.010610	10570.979502
693.347345	10368.574655
693.684030	10162.857769
694.020665	10105.456671
694.357251	9916.373072
694.693786	9870.301967
695.030272	9700.205875
695.366707	9575.220547
695.703093	9508.495835
696.039429	9506.428962
696.375716	9433.223847
696.711952	9303.325915
697.048139	9339.234054
697.384276	9291.416189
697.720363	9312.271442
698.056400	9247.452286
698.392388	9198.374133
698.728326	9169.818517
699.064214	9101.069781
699.400053	9143.332295
699.735842	8962.927043
700.071581	8921.760980
700.407270	8846.499074
700.742910	8763.861959
701.078501	8680.206532
701.414042	8553.751708
701.749533	8485.885175
702.084974	8355.372222
702.420366	8459.991288
702.755709	8345.809153
703.091002	8214.754277
703.426246	8238.470385
703.761440	8188.762088
704.096584	8149.504102
704.431679	8081.282167
704.766725	8063.224754
705.101721	8016.324379
705.436668	8057.944145
705.771565	7957.902447
706.106413	8038.260960
706.441212	8083.422137
706.775961	8035.717698
707.110661	8062.818941
707.445311	8214.857620
707.779913	8107.208821
708.114465	8240.290242
708.448967	8282.593084
708.783421	8411.288701
709.117825	8601.698122
709.452180	8637.238257
709.786485	8718.811688
710.120742	8994.756888
710.454949	8999.735027
710.789107	9099.617929
711.123216	9299.562693
711.457275	9467.239032
711.791286	9639.301175
712.125247	9631.575606
712.459159	9624.785172
712.793023	9878.899655
713.126837	9450.910735
713.460602	9596.474052
713.794318	9425.969626
714.127985	9458.399369
714.461602	9148.683479
714.795171	9091.103420
715.128691	8853.715486
715.462162	8587.129188
715.795584	8539.268473
716.128957	8409.272239
716.462281	8227.755413
716.795556	8277.433463
717.128782	8076.016682
717.461960	7802.728170
717.795088	7869.979683
718.128167	7781.305787
718.461198	7616.328986
718.794180	7562.161788
719.127113	7556.510654
719.459997	7412.116885
719.792833	7179.334044
720.125619	7235.278249
720.458357	7100.102229
720.791046	7087.126299
721.123686	7087.527071
721.456278	6930.792557
721.788821	6946.311749
722.121315	6837.969791
722.453761	6900.243164
722.786158	6847.999167
723.118506	6865.764193
723.450805	6825.192987
723.783056	6900.306179
724.115259	6802.535521
724.447412	6798.006044
724.779518	6842.809299
725.111574	6847.220308
725.443582	6927.810714
725.775542	6903.081334
726.107453	7097.495953
726.439315	7009.043867
726.771129	7053.451392
727.102895	7224.354069
727.434612	7339.799012
727.766281	7364.432611
728.097901	7459.223947
728.429473	7447.508305
728.760996	7419.043430
729.092471	7397.162302
729.423897	7347.350661
729.755276	7362.706015
730.086606	7291.167001
730.417887	7385.393728
730.749120	7562.439051
731.080305	7756.394925
731.411442	7891.712097
731.742530	7888.256386
732.073570	7991.163980
732.404562	8078.902742
732.735506	7921.906088
733.066401	8068.563336
733.397249	8002.526741
733.728048	7765.635360
734.058798	7433.340143
734.389501	7218.617236
734.720156	7040.591408
735.050762	6804.214225
735.381320	6700.225303
735.711831	6656.929353
736.042293	6549.083949
736.372707	6573.281488
736.703073	6431.357883
737.033391	6471.321631
737.363661	6477.691128
737.693883	6501.871023
738.024056	6586.597696
738.354182	6633.775334
738.684260	6673.111457
739.014290	6783.011132
739.344272	6889.631536
739.674207	6914.681029
740.004093	6982.774415
740.333931	7002.583629
740.663722	7005.457086
740.993464	7083.708397
741.323159	7089.800631
741.652806	6832.270767
741.982405	6832.139697
742.311956	6892.114304
742.641460	6749.883189
742.970915	6552.441358
743.300323	6536.937289
743.629683	6482.245811
743.958996	6352.055492
744.288260	6267.064159
744.617477	6212.909564
744.946647	6222.752417
745.275768	6053.856119
745.604842	6009.206619
745.933869	5992.285986
746.262847	5951.172856
746.591778	5936.455208
746.920662	5896.100771
747.249498	5884.657352
747.578286	5930.483961
747.907027	6010.008163
748.235720	6069.579478
748.564365	6035.990270
748.892963	6059.615637
749.221514	6215.455347
749.550017	6067.167286
749.878473	5934.037974
750.206881	5983.915150
750.535242	5926.030101
750.863555	5851.486559
751.191821	5878.736517
751.520039	5886.086519
751.848210	5793.220903
752.176334	5802.683149
752.504411	5859.421336
752.832440	5787.980624
753.160421	5712.938008
753.488356	5760.798722
753.816243	5795.711233
754.144082	5649.278317
754.471875	5614.249859
754.799620	5657.860881
755.127318	5668.709444
755.454969	5621.443586
755.782572	5584.640642
756.110129	5630.598321
756.437638	5629.965657
756.765100	5566.545421
757.092515	5557.486467
757.419882	5601.558755
757.747203	5586.268935
758.074477	5652.335777
758.401703	5643.985105
758.728882	5592.083906
759.056014	5631.689731
759.383099	5774.135095
759.710138	5785.200428
760.037129	5770.974291
760.364073	5771.357419
760.690970	5851.279872
761.017820	5843.335014
761.344623	5792.381551
761.671379	5885.826899
761.998088	6003.641185
762.324751	6232.365897
762.651366	6803.077445
762.977935	8076.556085
763.304456	9692.001397
763.630931	10620.468509
763.957359	10267.920456
764.283740	9345.240588
764.610074	8527.504941
764.936362	7546.569499
765.262602	6942.041892
765.588796	6403.354274
765.914943	6059.348456
766.241044	5896.287294
766.567097	5707.586823
766.893104	5450.505621
767.219064	5270.841418
767.544978	5206.433116
767.870845	5131.622393
768.196665	5025.339747
768.522438	4954.660249
768.848165	4919.389816
769.173846	4858.807750
769.499479	4816.446934
769.825066	4761.024489
770.150607	4700.722206
770.476101	4672.547197
770.801548	4670.888658
771.126949	4604.670582
771.452303	4547.120769
771.777611	4500.467411
772.102872	4521.703272
772.428087	4482.871263
772.753256	4444.341725
773.078378	4403.069798
773.403453	4334.114375
773.728482	4315.880522
774.053465	4275.329480
774.378401	4260.808437
774.703291	4263.457563
775.028135	4196.493396
775.352932	4143.528513
775.677683	4133.668016
776.002388	4147.256446
776.327046	4163.713293
776.651658	4089.489864
776.976224	4028.444012
777.300743	4035.015156
777.625216	4049.770613
777.949643	4048.293555
778.274024	4001.408304
778.598359	3954.737301
778.922647	3977.551043
779.246889	3973.134992
779.571086	3965.759784
779.895236	3955.432981
780.219339	3939.202986
780.543397	3932.218467
780.867409	3982.146055
781.191374	3996.311697
781.515294	3941.307667
781.839167	3929.241666
782.162995	3949.232361
782.486776	3935.046554
782.810511	3942.424283
783.134201	3944.844037
783.457844	3901.278385
783.781441	3845.803008
784.104993	3852.386755
784.428498	3868.745299
784.751958	3866.373436
785.075372	3843.529448
785.398739	3803.643838
785.722061	3819.508349
786.045337	3856.971684
786.368568	3890.079462
786.691752	3806.754230
787.014891	3852.669059
787.337983	3972.913182
787.661030	4131.606184
787.984031	4289.653919
788.306987	4467.205878
788.629897	4546.329308
788.952760	4503.819778
789.275579	4431.995939
789.598351	4374.209192
789.921078	4240.084253
790.243759	4040.119324
790.566395	4013.577649
790.888984	4013.754089
791.211529	3908.908172
791.534027	3847.093543
791.856480	3843.020291
792.178888	3775.733490
792.501249	3724.676684
792.823566	3735.351327
793.145836	3771.738376
793.468062	3721.440263
793.790241	3669.591996
794.112375	3697.603167
794.434464	3764.731172
794.756507	3787.867547
795.078505	3769.757202
795.400457	3802.741472
795.722364	3929.052622
796.044226	4039.867266
796.366042	4111.522227
796.687812	4096.970937
797.009538	4110.614819
797.331218	4058.680852
797.652852	4030.001728
797.974442	4014.626209
798.295986	4015.032022
798.617484	3935.648972
798.938938	3846.430632
799.260346	3884.997979
799.581709	3882.880694
799.903026	3813.249757
800.224299	3774.702574
800.545526	3769.815175
800.866708	3728.712128
801.187845	3665.523785
801.508936	3700.874876
801.829983	3706.478118
802.150984	3627.624390
802.471940	3613.408336
802.792851	3626.296046
803.113717	3622.522742
803.434538	3630.391983
803.755314	3574.684713
804.076045	3544.213458
804.396731	3562.220460
804.717372	3591.048298
805.037967	3576.194538
805.358518	3565.469484
805.679024	3593.029472
805.999485	3602.365689
806.319901	3609.050259
806.640272	3623.805716
806.960598	3639.672748
807.280879	3614.829942
807.601115	3620.851600
807.921306	3642.095022
808.241453	3678.875281
808.561554	3658.987929
808.881611	3593.674739
809.201623	3623.687249
809.521590	3637.971358
809.841513	3612.382461
810.161390	3641.643839
810.481223	3619.543420
810.801011	3565.396387
811.120755	3553.600087
811.440453	3590.677773
811.760107	3596.706993
812.079716	3555.621590
812.399281	3522.171013
812.718801	3541.995351
813.038276	3517.311341
813.357707	3515.110877
813.677093	3533.329607
813.996434	3481.781289
814.315731	3490.346209
814.634983	3490.101713
814.954191	3503.891789
815.273354	3534.920091
815.592473	3532.684340
815.911547	3536.485370
816.230577	3574.800659
816.549562	3624.166158
816.868502	3666.088394
817.187399	3692.277188
817.506250	3689.744008
817.825058	3659.295439
818.143821	3745.567225
818.462539	3854.269626
818.781213	3898.581368
819.099843	3950.732105
819.418429	4179.285417
819.736970	4424.761883
820.055466	4659.717461
820.373919	5023.920662
820.692327	5423.101908
821.010691	5826.958825
821.329011	7138.866182
821.647286	9771.843192
821.965517	14196.847050
822.283704	18206.853042
822.601847	20482.465176
822.919945	18755.353265
823.237999	16239.789770
823.556010	13793.685812
823.873976	11743.226732
824.191897	9669.056585
824.509775	8311.231879
824.827609	7190.754778
825.145398	6636.936137
825.463144	6517.150760
825.780845	6631.166537
826.098502	6801.086189
826.416116	7620.089687
826.733685	8911.161954
827.051210	10038.321104
827.368692	10146.894955
827.686129	8945.794681
828.003522	7430.179339
828.320872	6417.524957
828.638177	5724.290686
828.955439	5175.671995
829.272656	4685.467675
829.589830	4396.294487
829.906960	4217.547775
830.224046	4035.756205
830.541088	3913.014192
830.858086	3863.603322
831.175041	3793.581695
831.491952	3772.318108
831.808819	3781.533337
832.125642	3849.866178
832.442421	3990.728619
832.759157	4253.045060
833.075849	4777.577117
833.392497	5624.183453
833.709101	6393.365227
834.025662	6745.444453
834.342179	6423.486122
834.658653	5767.342140
834.975083	5134.153052
835.291469	4560.404210
835.607811	4143.465498
835.924110	4011.672093
836.240366	3815.974501
836.556578	3612.258953
836.872746	3503.760719
837.188871	3463.612970
837.504952	3397.924215
837.820990	3319.524190
838.136984	3268.006119
838.452935	3294.623411
838.768842	3290.199798
839.084706	3309.749393
839.400526	3459.620376
839.716303	3780.434366
840.032037	4286.621665
840.347727	4570.466353
840.663373	4316.545954
840.978977	3943.344294
841.294537	3636.181749
841.610054	3406.990730
841.925527	3297.204482
842.240957	3228.075139
842.556344	3177.877850
842.871687	3118.883747
843.186987	3068.462126
843.502244	3035.031714
843.817458	2999.410921
844.132629	2963.694346
844.447756	2976.065338
844.762840	2962.844912
845.077881	2933.386929
845.392879	2915.876481
845.707833	2911.997313
846.022745	2908.350039
846.337613	2909.194432
846.652438	2897.834192
846.967221	2897.143554
847.281960	2882.650236
847.596656	2878.211500
847.911309	2877.919113
848.225919	2872.058772
848.540485	2866.637011
848.855009	2865.981661
849.169490	2859.115610
849.483928	2844.740759
849.798323	2845.827128
850.112675	2842.847806
850.426984	2854.326513
850.741251	2856.794158
851.055474	2842.552899
851.369654	2837.594924
851.683792	2840.964935
851.997887	2846.139680
852.311938	2850.901049
852.625947	2839.790346
852.939914	2844.221521
853.253837	2849.116481
853.567718	2834.497135
853.881555	2832.362206
854.195350	2849.751666
854.509103	2845.451562
854.822812	2834.860098
855.136479	2832.810869
855.450103	2835.346569
855.763685	2828.228460
856.077224	2820.724702
856.390720	2836.755572
856.704173	2845.640605
857.017584	2840.705316
857.330953	2836.543843
857.644278	2847.377283
857.957561	2852.050432
858.270802	2859.281968
858.584000	2857.935980
858.897155	2844.125739
859.210268	2842.139524
859.523339	2842.016016
859.836367	2840.380161
860.149352	2837.045438
860.462295	2830.562514
860.775195	2839.825634
861.088054	2839.560974
861.400869	2824.371977
861.713642	2816.318734
862.026373	2832.768019
862.339062	2836.180880
862.651708	2842.537775
862.964312	2848.410719
863.276873	2837.920078
863.589392	2846.976511
863.901869	2858.886237
864.214303	2879.456665
864.526696	2896.049623
864.839045	2893.584499
865.151353	2891.386556
865.463619	2888.896226
865.775842	2887.956051
866.088023	2907.346849
866.400162	2913.444125
866.712258	2889.977553
867.024313	2875.501880
867.336325	2884.432284
867.648296	2907.606468
867.960224	2899.016342
868.272110	2884.044115
868.583954	2890.511916
868.895755	2907.155285
869.207515	2891.915877
869.519233	2894.948131
869.830909	2906.487332
870.142542	2914.865730
870.454134	2915.463107
870.765684	2918.404620
871.077191	2918.477717
871.388657	2921.986360
871.700081	2938.170984
872.011463	2950.332768
872.322803	2950.239507
872.634101	2950.972994
872.945357	2966.547639
873.256571	2987.964981
873.567744	2984.277377
873.878874	2974.573156
874.189963	3000.202382
874.501010	3003.075840
874.812015	2993.389263
875.122979	2990.941783
875.433900	2984.252172
875.744780	2992.602843
876.055618	3000.144409
876.366415	3000.202382
876.677169	3007.282683
876.987882	3008.295955
877.298554	2999.504183
877.609183	3019.051257
877.919771	3040.186294
878.230317	3065.818041
878.540822	3117.918366
878.851285	3158.469407
879.161707	3192.030889
879.472087	3288.337092
879.782425	3504.431193
880.092722	3921.521139
880.402977	4432.764715
880.713191	5037.438516
881.023363	6137.935003
881.333494	7396.174236
881.643583	7974.412226
881.953631	7693.869494
882.263637	7097.420335
882.573602	6533.194232
882.883526	5967.518798
883.193408	5396.121653
883.503248	4932.582516
883.813048	4634.090755
884.122806	4353.265719
884.432522	4043.073440
884.742197	3811.359324
885.051831	3622.787403
885.361424	3486.169613
885.670975	3412.783016
885.980485	3335.088753
886.289954	3260.096548
886.599382	3220.160527
886.908768	3178.119825
887.218113	3133.959317
887.527417	3078.962849
887.836680	3026.824716
888.145901	3026.353368
888.455082	3017.586801
888.764221	2967.190386
889.073319	2940.121911
889.382376	2938.506221
889.691392	2941.576284
890.000366	2941.261212
890.309300	2926.848553
890.618193	2938.541509
890.927044	2954.874848
891.235855	2956.230918
891.544625	2941.472940
891.853353	2953.924590
892.162041	2970.406643
892.470687	3008.462313
892.779293	3058.498285
893.087858	3101.844647
893.396381	3170.467353
893.704864	3280.936678
894.013306	3512.335722
894.321707	3806.550063
894.630068	4014.059079
894.938387	4014.691744
895.246665	3969.817913
895.554903	3858.985625
895.863100	3662.002539
896.171256	3501.162005
896.479371	3361.365767
896.787446	3247.213880
897.095480	3146.877274
897.403473	3076.621233
897.711425	3044.768703
898.019336	3035.276210
898.327207	3008.396778
898.635038	2973.264977
898.942827	2958.466670
899.250576	2945.528548
899.558284	2916.599887
899.865952	2900.281672
900.173579	2879.590256
900.481165	2868.353524
900.788711	2860.033100
901.096216	2832.952021
901.403681	2822.811740
901.711105	2828.409942
902.018489	2826.907678
902.325832	2827.333655
902.633135	2835.961590
902.940397	2865.865715
903.247619	2942.720626
903.554800	3122.614201
903.861941	3451.236938
904.169041	3862.285060
904.476101	4164.711441
904.783121	4142.018687
905.090100	3906.624529
905.397039	3637.837768
905.703938	3392.613359
906.010796	3213.665001
906.317614	3101.169132
906.624391	3010.330060
906.931129	2940.661314
907.237826	2879.464227
907.544483	2835.578462
907.851099	2804.245171
908.157675	2783.175668
908.464211	2764.709922
908.770707	2749.596542
909.077163	2738.889132
909.383578	2723.311966
909.689954	2714.172354
909.996289	2711.011551
910.302584	2712.294524
910.608839	2713.726212
910.915054	2706.935778
911.221229	2702.149202
911.527363	2702.948225
911.833458	2707.918803
912.139513	2711.341746
912.445527	2715.863661
912.751502	2722.739795
913.057436	2734.667165
913.363331	2748.152252
913.669186	2765.476177
913.975000	2796.862401
914.280775	2854.986905
914.586510	2922.929056
914.892205	2997.507886
915.197859	3118.482975
915.503475	3302.487611
915.809050	3508.098632
916.114585	3657.251251
916.420081	3681.080785
916.725536	3624.292187
917.030952	3513.182636
917.336328	3389.084552
917.641665	3260.711569
917.946961	3155.820281
918.252218	3096.624532
918.557435	3018.305166
918.862612	2960.379788
919.167750	2912.037643
919.472848	2877.041953
919.777906	2848.846779
920.082925	2823.262923
920.387904	2796.350724
920.692843	2778.232817
920.997743	2766.764192
921.302603	2755.048550
921.607423	2745.339288
921.912204	2733.585838
922.216946	2725.756926
922.521647	2715.475492
922.826310	2705.199100
923.130932	2700.467977
923.435516	2688.407017
923.740059	2682.939886
924.044564	2677.359328
924.349028	2674.480829
924.653454	2663.755775
924.957840	2660.985661
925.262186	2655.475679
925.566493	2650.426964
925.870761	2644.811118
926.174989	2643.863382
926.479178	2639.187711
926.783328	2634.471712
927.087438	2630.723614
927.391509	2632.215796
927.695541	2626.846967
927.999533	2625.569034
928.303486	2620.618621
928.607400	2621.926801
928.911275	2621.508385
929.215110	2619.771707
929.518906	2617.503188
929.822663	2619.083590
930.126381	2617.465379
930.430060	2619.607870
930.733699	2619.817078
931.037299	2620.162397
931.340861	2620.994187
931.644383	2620.306070
931.947866	2622.297325
932.251309	2620.285905
932.554714	2619.481841
932.858080	2616.189967
933.161407	2615.811881
933.464694	2613.898763
933.767943	2611.829369
934.071153	2613.137549
934.374323	2612.303238
934.677455	2614.022271
934.980548	2611.965481
935.283602	2610.889194
935.586617	2610.286776
935.889593	2611.847013
936.192530	2609.278546
936.495428	2610.501025
936.798287	2610.342229
937.101108	2615.262395
937.403890	2618.771038
937.706632	2624.212964
938.009336	2631.936012
938.312002	2639.190232
938.614628	2649.496871
938.917216	2656.367964
939.219765	2653.555000
939.522275	2651.523415
939.824747	2651.664567
940.127179	2649.975781
940.429573	2647.861017
940.731929	2645.181643
941.034246	2639.580921
941.336524	2636.609161
941.638763	2635.447175
941.940964	2634.262504
942.243126	2631.441978
942.545250	2628.742441
942.847335	2628.702111
943.149381	2626.357975
943.451389	2618.660133
943.753359	2617.750205
944.055290	2615.615276
944.357182	2617.546038
944.659036	2614.319699
944.960851	2612.640995
945.262628	2612.066304
945.564367	2611.829369
945.866067	2611.481530
946.167729	2613.566047
946.469352	2613.863475
946.770937	2614.811212
947.072484	2610.448093
947.373992	2611.065635
947.675462	2610.314503
947.976893	2606.387444
948.278286	2604.915427
948.579641	2605.500201
948.880958	2602.339397
949.182236	2604.310488
949.483476	2602.581373
949.784678	2603.022474
950.085841	2603.670262
950.386967	2603.113214
950.688054	2604.532299
950.989103	2605.933740
951.290114	2608.356014
951.591087	2609.795264
951.892021	2611.257198
952.192917	2613.268619
952.493776	2616.202570
952.794596	2613.639144
953.095378	2615.706017
953.396122	2618.513939
953.696828	2615.786675
953.997496	2611.080758
954.298126	2610.788371
954.598718	2610.165789
954.899272	2606.125304
955.199788	2602.813266
955.500266	2599.138265
955.800706	2599.294540
956.101108	2595.508634
956.401472	2594.296236
956.701798	2592.927563
957.002087	2591.775659
957.302337	2593.010742
957.602550	2587.281471
957.902724	2587.079825
958.202861	2584.569330
958.502960	2586.469845
958.803022	2586.593353
959.103045	2586.490010
959.403031	2579.792837
959.702979	2582.595718
960.002889	2582.802406
960.302762	2581.121181
960.602596	2580.508681
960.902393	2581.416088
961.202153	2580.339802
961.501875	2580.743094
961.801559	2579.306365
962.101205	2577.660429
962.400814	2578.953485
962.700385	2576.347208
962.999918	2578.008268
963.299414	2574.008113
963.598873	2574.655901
963.898293	2574.229923
964.197677	2578.550192
964.497022	2576.596745
964.796331	2578.104050
965.095601	2576.024574
965.394835	2577.443659
965.694030	2579.760069
965.993189	2577.115984
966.292309	2578.933320
966.591393	2580.367528
966.890439	2576.158165
967.189447	2575.147413
967.488419	2576.059862
967.787353	2578.126735
968.086249	2577.272260
968.385108	2576.934502
968.683930	2574.182032
968.982714	2578.414081
969.281462	2576.523648
969.580172	2574.991138
969.878844	2577.305027
970.177480	2573.017526
970.476078	2576.586663
970.774639	2578.928279
971.073162	2577.405850
971.371649	2577.236972
971.670098	2579.755028
971.968510	2578.701427
972.266885	2576.223700
972.565223	2577.937692
972.863524	2578.214956
973.161788	2576.017012
973.460014	2576.301838
973.758204	2575.918710
974.056356	2577.368042
974.354471	2577.710840
974.652550	2578.154462
974.950591	2575.870819
975.248595	2577.468865
975.546563	2577.670511
975.844493	2577.630182
976.142386	2577.388206
976.440243	2575.636405
976.738062	2574.827300
977.035845	2574.459296
977.333590	2576.715212
977.631299	2573.249419
977.928971	2572.944429
978.226606	2571.694223
978.524204	2571.754717
978.821765	2570.998544
979.119290	2573.395612
979.416777	2575.850654
979.714228	2576.090109
980.011642	2574.030798
980.309020	2574.252609
980.606360	2574.280335
980.903664	2575.144893
981.200931	2574.378637
981.498162	2574.280335
981.795356	2577.325192
982.092513	2577.834348
982.389633	2582.704103
982.686717	2583.808116
982.983764	2584.652509
983.280775	2589.408838
983.577749	2594.389498
983.874686	2592.191555
984.171587	2586.308528
984.468451	2584.249217
984.765279	2581.897518
985.062070	2581.970615
985.358824	2582.169741
985.655543	2580.775862
985.952224	2577.731005
986.248869	2577.849472
986.545478	2575.787640
986.842050	2573.085582
987.138586	2572.964594
987.435086	2574.497105
987.731549	2571.719429
988.027975	2573.514080
988.324366	2572.785633
988.620719	2570.128945
988.917037	2571.432083
989.213318	2572.818400
989.509563	2572.836044
989.805772	2571.507700
990.101944	2570.040725
990.398080	2569.907134
990.694180	2572.712536
990.990244	2571.182546
991.286271	2572.899059
991.582262	2571.076682
991.878217	2569.236661
992.174136	2574.176991
992.470019	2571.512742
992.765865	2568.972000
993.061676	2566.781619
993.357450	2569.508883
993.653188	2570.534758
993.948890	2570.323029
994.244556	2569.526527
994.540186	2571.180025
994.835780	2572.094995
995.131337	2572.473081
995.426859	2573.786302
995.722345	2571.127093
996.017795	2574.295458
996.313208	2576.261508
996.608586	2577.748649
996.903928	2579.019020
997.199234	2574.446693
997.494504	2575.452403
997.789738	2575.724626
998.084936	2574.161868
998.380099	2574.718915
998.675225	2572.931826
998.970316	2570.330591
999.265371	2574.590366
999.560390	2572.813359
999.855373	2568.782957
1000.150320	2572.415108
1000.445232	2570.496949
1000.740108	2572.594069
1001.034948	2569.738255
1001.329752	2567.931002
1001.624521	2570.118863
1001.919254	2570.252453
1002.213951	2571.719429
1002.508613	2567.290775
1002.803239	2570.978379
1003.097829	2569.251784
1003.392384	2570.257494
1003.686903	2569.521486
1003.981386	2569.392936
1004.275834	2571.595921
1004.570246	2570.501990
1004.864623	2569.609706
1005.158964	2573.130952
1005.453270	2569.067782
1005.747540	2568.480487
1006.041775	2570.582649
1006.335974	2570.438976
1006.630138	2568.450241
1006.924266	2568.823286
1007.218359	2569.027453
1007.512416	2566.330435
1007.806438	2566.895045
1008.100425	2565.670044
1008.394376	2565.987637
1008.688292	2571.701785
1008.982172	2569.839078
1009.276017	2569.753379
1009.569827	2567.321022
1009.863602	2570.164233
1010.157341	2569.476115
1010.451045	2571.139696
1010.744714	2570.265056
1011.038347	2570.547361
1011.331945	2567.530230
1011.625508	2572.503328
1011.919036	2567.305899
1012.212528	2570.912844
1012.505986	2567.502504
1012.799408	2568.341856
1013.092795	2569.602144
1013.386147	2568.498132
1013.679464	2570.000395
1013.972745	2569.181208
1014.265992	2569.337484
1014.559204	2568.780436
1014.852380	2567.066444
1015.145521	2565.803635
1015.438628	2568.987123
1015.731699	2568.689695
1016.024736	2568.150292
1016.317737	2568.787998
1016.610703	2569.657597
1016.903635	2569.680282
1017.196531	2567.560477
1017.489393	2570.567525
1017.782219	2568.059551
1018.075011	2570.484346
1018.367768	2566.960580
1018.660490	2568.528378
1018.953177	2568.528378
1019.245829	2568.528378
