Dividing Wavelength (nm)	Counts (n)	Blue Motor Position (mm): 17.600000	Red Motor Position (mm): 0.000000	
326.493990	2178.403565
326.888308	2178.403565
327.282561	2178.403565
327.676750	2138.182719
328.070874	2135.888994
328.464933	2138.223048
328.858929	2138.835548
329.252859	2142.944088
329.646726	2152.814668
330.040528	2164.908396
330.434265	2176.371980
330.827938	2196.531554
331.221547	2211.241641
331.615091	2233.304251
332.008571	2249.199009
332.401986	2267.372368
332.795338	2286.763167
333.188625	2303.509880
333.581847	2323.568631
333.975006	2342.921620
334.368100	2360.638756
334.761129	2376.102495
335.154095	2397.068654
335.546996	2420.106727
335.939833	2447.071859
336.332606	2461.663479
336.725315	2474.838534
337.117960	2486.004690
337.510540	2496.054230
337.903056	2508.490757
338.295508	2518.774711
338.687896	2528.390712
339.080220	2533.225178
339.472480	2540.489481
339.864676	2547.673125
340.256807	2552.736964
340.648875	2556.517829
341.040879	2559.058571
341.432818	2559.255176
341.824694	2567.764644
342.216506	2564.407235
342.608253	2569.546692
342.999937	2565.354972
343.391557	2565.856567
343.783113	2565.700291
344.174605	2562.965465
344.566033	2566.123748
344.957397	2563.812379
345.348697	2561.213664
345.739934	2559.721483
346.131106	2557.881462
346.522215	2556.744681
346.913260	2554.899619
347.304241	2552.762170
347.695159	2549.591284
348.086012	2548.557847
348.476802	2547.224462
348.867528	2541.848072
349.258191	2541.187681
349.648789	2540.401261
350.039324	2537.132072
350.429796	2538.604089
350.820203	2536.713657
351.210548	2539.211548
351.600828	2535.473533
351.991045	2535.173584
352.381198	2534.082174
352.771288	2531.198634
353.161314	2532.191742
353.551276	2531.811134
353.941175	2532.597554
354.331010	2533.900693
354.720782	2532.572349
355.110490	2527.838705
355.500135	2529.976154
355.889717	2528.635208
356.279235	2531.072605
356.668689	2531.390198
357.058080	2529.613191
357.447408	2533.457071
357.836672	2532.302647
358.225873	2533.328522
358.615010	2532.612678
359.004084	2531.816176
359.393095	2532.910106
359.782043	2535.385313
360.170927	2536.370858
360.559748	2535.092926
360.948505	2535.960004
361.337199	2534.828265
361.725830	2538.994779
362.114398	2537.895807
362.502903	2536.731301
362.891344	2540.116435
363.279722	2536.416228
363.668037	2539.486291
364.056289	2538.339429
364.444478	2539.955118
364.832603	2541.243133
365.220665	2541.233051
365.608665	2542.248843
365.996601	2540.428987
366.384474	2543.877136
366.772284	2539.884542
367.160031	2542.851261
367.547715	2543.320089
367.935336	2540.847403
368.322893	2540.565098
368.710388	2541.520397
369.097820	2540.998637
369.485189	2542.052238
369.872495	2543.418391
370.259738	2545.540717
370.646918	2544.214893
371.034035	2548.174720
371.421090	2549.001469
371.808081	2545.805378
372.195010	2547.121119
372.581875	2550.488609
372.968678	2547.617672
373.355418	2547.721016
373.742096	2546.740512
374.128710	2548.837632
374.515262	2549.787889
374.901751	2548.280584
375.288177	2549.240924
375.674540	2547.408464
376.060841	2551.970709
376.447079	2550.420554
376.833254	2550.932231
377.219367	2552.225287
377.605417	2547.809236
377.991404	2548.106664
378.377329	2550.055070
378.763191	2550.602035
379.148991	2549.689587
379.534727	2553.069680
379.920402	2548.210008
380.306013	2551.885009
380.691563	2553.026830
381.077049	2551.020451
381.462474	2552.726882
381.847835	2553.435164
382.233134	2551.577499
382.618371	2552.376522
383.003545	2554.730740
383.388657	2555.504557
383.773706	2551.832077
384.158693	2552.996583
384.543618	2554.856769
384.928480	2555.602860
385.313280	2554.478683
385.698017	2553.760318
386.082692	2552.265616
386.467305	2554.178734
386.851856	2556.875751
387.236344	2555.098745
387.620770	2551.131357
388.005133	2554.357695
388.389435	2554.289639
388.773674	2551.874927
389.157851	2558.786349
389.541965	2558.015052
389.926018	2558.098231
390.310008	2555.058415
390.693936	2557.909188
391.077802	2558.599826
391.461606	2559.388767
391.845348	2559.524878
392.229027	2561.264076
392.612645	2556.595967
392.996200	2554.944989
393.379694	2559.449260
393.763125	2559.867676
394.146494	2557.712583
394.529801	2559.776935
394.913047	2562.426062
395.296230	2561.828685
395.679351	2560.669220
396.062410	2562.461350
396.445408	2559.673592
396.828343	2562.587379
397.211217	2562.683161
397.594028	2561.342214
397.976778	2561.037224
398.359466	2562.506720
398.742092	2562.486556
399.124656	2560.800290
399.507158	2562.214333
399.889598	2561.697615
400.271977	2565.561659
400.654294	2560.454971
401.036549	2562.272307
401.418742	2566.504355
401.800874	2563.638459
402.182944	2564.218192
402.564952	2562.398335
402.946898	2563.835064
403.328783	2564.679457
403.710606	2565.178532
404.092367	2565.841443
404.474067	2565.544015
404.855705	2562.441185
405.237282	2565.491083
405.618797	2561.551422
406.000250	2562.584858
406.381642	2564.276165
406.762972	2564.465208
407.144240	2563.240208
407.525447	2565.246587
407.906593	2561.576627
408.287677	2566.927812
408.668700	2566.947977
409.049661	2566.688357
409.430560	2567.106773
409.811399	2569.702967
410.192176	2567.769685
410.572891	2570.242371
410.953545	2568.334294
411.334138	2568.679613
411.714669	2566.590055
412.095139	2568.399829
412.475547	2567.978893
412.855894	2568.621640
413.236180	2571.729511
413.616405	2567.361351
413.996568	2571.028791
414.376670	2569.680282
414.756711	2569.960066
415.136691	2569.249263
415.516609	2569.158523
415.896466	2569.589541
416.276262	2569.224058
416.655997	2570.229768
417.035670	2571.096846
417.415283	2573.166240
417.794834	2572.180694
418.174324	2570.249933
418.553753	2573.168761
418.933121	2571.941240
419.312428	2571.192628
419.691674	2572.301682
420.070859	2574.676066
420.449983	2572.289079
420.829045	2572.369738
421.208047	2572.011816
421.586988	2570.431414
421.965867	2574.691189
422.344686	2570.249933
422.723444	2573.829152
423.102141	2572.195818
423.480777	2572.107598
423.859352	2572.170612
424.237866	2573.778740
424.616319	2575.848134
424.994712	2577.095819
425.373044	2573.201528
425.751314	2571.139696
426.129524	2570.721280
426.507673	2571.976528
426.885762	2570.829665
427.263789	2574.706313
427.641756	2573.922413
428.019662	2574.764286
428.397508	2574.161868
428.775292	2574.222362
429.153016	2574.998699
429.530679	2575.442321
429.908282	2575.149934
430.285824	2575.326374
430.663305	2576.879050
431.040726	2575.969122
431.418086	2574.900397
431.795385	2579.661767
432.172624	2575.061714
432.549802	2575.585994
432.926920	2575.238154
433.303977	2575.913669
433.680974	2578.225038
434.057910	2576.644636
434.434786	2573.950139
434.811601	2579.674370
435.188355	2578.860223
435.565050	2575.890984
435.941683	2577.350398
436.318257	2575.628844
436.694770	2578.530028
437.071222	2578.547672
437.447614	2577.262177
437.823946	2579.891139
438.200218	2578.666139
438.576429	2578.182188
438.952580	2578.701427
439.328670	2576.717733
439.704700	2577.403330
440.080670	2578.993814
440.456580	2580.556572
440.832429	2580.808629
441.208218	2580.493557
441.583947	2579.679411
441.959616	2577.685634
442.335224	2577.516756
442.710773	2579.581108
443.086261	2580.065059
443.461689	2582.328537
443.837057	2579.392065
444.212365	2582.386510
444.587612	2578.459452
444.962800	2579.828125
445.337927	2578.643454
445.712995	2573.428380
446.088002	2582.557910
446.462949	2581.743763
446.837837	2579.485326
447.212664	2581.877354
447.587431	2582.116809
447.962139	2583.261151
448.336786	2583.480441
448.711374	2584.370204
449.085901	2582.162179
449.460369	2582.343661
449.834776	2583.672005
450.209124	2581.164031
450.583412	2584.904567
450.957640	2582.827611
451.331808	2585.607808
451.705917	2584.652509
452.079965	2585.151583
452.453954	2587.369691
452.827883	2584.531521
453.201752	2583.266192
453.575562	2583.296439
453.949311	2583.500605
454.323001	2586.331213
454.696632	2586.011100
455.070202	2585.706110
455.443713	2585.421285
455.817164	2587.372212
456.190556	2587.125195
456.563888	2586.187540
456.937160	2585.355750
457.310373	2587.231059
457.683526	2585.217118
458.056619	2585.005390
458.429653	2588.052767
458.802628	2588.813982
459.175542	2588.231728
459.548398	2588.614856
459.921194	2589.711307
460.293930	2587.089907
460.666607	2590.132243
461.039224	2593.703901
461.411782	2590.633838
461.784280	2591.889085
462.156719	2593.182141
462.529099	2592.715835
462.901419	2592.667944
463.273680	2588.398086
463.645882	2588.992942
464.018024	2587.306677
464.390106	2586.124526
464.762130	2592.902357
465.134094	2589.928077
465.505999	2592.811617
465.877845	2596.650455
466.249631	2598.324118
466.621358	2598.629108
466.993026	2596.428644
467.364634	2601.195055
467.736184	2598.873604
468.107674	2596.849581
468.479105	2593.076277
468.850477	2597.172215
469.221790	2597.676330
469.593043	2597.671289
469.964238	2596.065681
470.335373	2598.339242
470.706449	2595.831268
471.077467	2595.294385
471.448425	2598.664396
471.819324	2601.076588
472.190164	2604.650766
472.560945	2600.948039
472.931667	2599.982658
473.302330	2597.756988
473.672934	2595.354879
474.043479	2598.777822
474.413965	2596.353027
474.784393	2599.551639
475.154761	2603.030035
475.525070	2600.461567
475.895321	2600.043152
476.265513	2598.520723
476.635645	2600.869901
477.005719	2600.461567
477.375734	2602.021805
477.745691	2601.752103
478.115588	2600.764037
478.485427	2604.822166
478.855207	2605.288472
479.224928	2604.426435
479.594591	2610.780809
479.964194	2608.996241
480.333739	2612.683845
480.703226	2610.697630
481.072653	2610.425408
481.442022	2608.512290
481.811333	2606.400047
482.180584	2607.299893
482.549777	2608.950871
482.918912	2603.849223
483.287988	2612.373814
483.657005	2611.040429
484.025964	2610.795933
484.394864	2613.034205
484.763706	2610.243927
485.132489	2614.165944
485.501213	2612.429267
485.869879	2613.006479
486.238487	2613.823146
486.607036	2611.602518
486.975527	2613.951695
487.343959	2614.561675
487.712333	2612.653598
488.080648	2614.430605
488.448905	2614.241562
488.817104	2614.586881
489.185244	2616.406737
489.553326	2618.498816
489.921350	2615.746346
490.289315	2624.419651
490.657222	2624.056688
491.025070	2627.267903
491.392861	2624.467542
491.760593	2626.781432
492.128267	2624.933849
492.495883	2624.152470
492.863440	2623.340844
493.230939	2621.624331
493.598380	2623.285392
493.965763	2621.873868
494.333088	2621.778087
494.700354	2620.522839
495.067563	2623.660957
495.434713	2621.679784
495.801805	2625.989971
496.168839	2624.117182
496.535815	2626.181534
496.902733	2629.155815
497.269593	2629.475928
497.636395	2630.189252
498.003139	2629.163377
498.369825	2630.385857
498.736453	2631.651186
499.103023	2630.809314
499.469535	2635.885756
499.835989	2635.578245
500.202385	2634.350724
500.568723	2632.467853
500.935003	2638.118987
501.301226	2635.300982
501.667390	2646.313382
502.033497	2647.941675
502.399546	2650.132056
502.765537	2646.933444
503.131470	2650.923517
503.497345	2653.766728
503.863163	2657.285454
504.228923	2659.795948
504.594625	2664.587565
504.960269	2663.261742
505.325856	2668.776764
505.691385	2671.377999
506.056856	2675.594924
506.422270	2679.789164
506.787625	2682.287056
507.152924	2687.033302
507.518164	2692.984385
507.883347	2694.204344
508.248472	2701.445961
508.613540	2706.479553
508.978550	2712.125646
509.343503	2718.106975
509.708398	2723.581668
510.073236	2735.246898
510.438016	2742.841396
510.802738	2745.866088
511.167403	2755.552666
511.532010	2762.103645
511.896561	2780.355142
512.261053	2786.492747
512.625488	2797.036321
512.989866	2806.488484
513.354186	2816.278405
513.718449	2829.387925
514.082655	2847.336954
514.446803	2858.654344
514.810894	2874.561705
515.174927	2883.101420
515.538904	2900.324522
515.902822	2921.469642
516.266684	2938.614606
516.630488	2950.693210
516.994235	2970.993937
517.357925	2989.983963
517.721558	3018.776514
518.085133	3039.641849
518.448651	3064.167063
518.812112	3081.901842
519.175516	3112.282356
519.538863	3136.111890
519.902152	3164.375119
520.265385	3197.737475
520.628560	3223.407031
520.991678	3258.536311
521.354739	3291.245838
521.717743	3327.859738
522.080690	3356.853935
522.443580	3409.070206
522.806413	3439.917027
523.169189	3484.684993
523.531908	3525.178062
523.894569	3555.440108
524.257174	3609.511524
524.619722	3660.399452
524.982213	3689.549924
525.344647	3744.871546
525.707025	3793.042292
526.069345	3852.215356
526.431608	3907.426072
526.793815	3973.744972
527.155964	3988.049246
527.518057	4057.546593
527.880093	4110.314871
528.242072	4166.117923
528.603995	4212.788926
528.965860	4263.865896
529.327669	4346.634081
529.689421	4401.446547
530.051117	4451.232982
530.412755	4546.498187
530.774337	4584.584104
531.135862	4646.267662
531.497331	4736.058174
531.858743	4768.296353
532.220098	4900.175458
532.581396	4919.256226
532.942638	5022.108367
533.303824	5092.407257
533.664953	5180.733314
534.026025	5237.705914
534.387040	5328.582794
534.747999	5442.064209
535.108902	5527.267270
535.469748	5561.461417
535.830537	5682.973389
536.191270	5769.343478
536.551947	5876.876331
536.912567	5885.111056
537.273131	6029.136821
537.633638	6069.319858
537.994089	6230.016719
538.354483	6238.450570
538.714821	6416.877169
539.075103	6543.389966
539.435328	6606.464883
539.795497	6623.337625
540.155609	6801.192053
540.515665	6956.336083
540.875665	6916.160608
541.235609	7067.186015
541.595496	7189.479366
541.955328	7362.658124
542.315102	7449.159283
542.674821	7478.957544
543.034483	7556.248514
543.394090	7681.894233
543.753640	7752.041889
544.113134	7996.474836
544.472571	8056.419196
544.831953	8255.733816
545.191278	8254.579392
545.550548	8377.810398
545.909761	8487.896595
546.268918	8703.093370
546.628019	8799.031569
546.987064	8898.644769
547.346053	8942.407026
547.704986	9073.487108
548.063863	9253.857072
548.422684	9310.073499
548.781449	9350.949695
549.140158	9584.879398
549.498811	9625.443043
549.857408	9617.717474
550.215949	9894.418847
550.574434	9904.944777
550.932864	10101.393501
551.291237	10257.235731
551.649555	10372.819306
552.007817	10513.878353
552.366022	10615.346697
552.724173	10714.775895
553.082267	10833.235449
553.440305	11134.857766
553.798288	10997.718216
554.156215	11312.008953
554.514086	11475.866618
554.871902	11354.982269
555.229661	11590.263001
555.587365	11681.291116
555.945014	11710.371012
556.302606	11982.101807
556.660143	12044.503730
557.017625	12307.790593
557.375050	12242.159811
557.732421	12518.878828
558.089735	12598.430756
558.446994	12721.225702
558.804197	12904.438877
559.161345	13034.654401
559.518437	12978.027120
559.875474	13263.888269
560.232455	13429.187704
560.589381	13525.814020
560.946251	13593.793980
561.303065	13915.495213
561.659825	14083.821860
562.016528	14004.355632
562.373177	14011.388041
562.729770	14276.832517
563.086307	14391.473397
563.442789	14596.008132
563.799216	14629.783863
564.155587	14727.615015
564.511904	14877.440628
564.868164	14924.852680
565.224370	15088.632207
565.580520	15106.808087
565.936615	15343.046638
566.292654	15251.703451
566.648638	15607.213182
567.004567	15581.543627
567.360441	15682.439800
567.716260	15611.641836
568.072023	15970.609798
568.427732	15917.574339
568.783385	15886.402364
569.138982	16143.213865
569.494525	16307.106817
569.850013	16272.960562
570.205445	16423.539827
570.560823	16382.404012
570.916145	16370.816920
571.271412	16552.454734
571.626625	16544.648507
571.981782	16678.191193
572.336884	16628.371990
572.691931	16840.806213
573.046923	16722.752473
573.401860	16782.394364
573.756743	16883.988737
574.111570	16899.777631
574.466342	16952.523224
574.821059	17122.299203
575.175722	16979.180845
575.530330	17100.806244
575.884882	17200.835339
576.239380	17226.202425
576.593823	17223.437352
576.948211	17284.100077
577.302544	17237.628200
577.656823	17247.529026
578.011047	17414.744099
578.365216	17394.559319
578.719330	17378.089870
579.073389	17360.324844
579.427394	17586.196262
579.781344	17462.950133
580.135239	17481.680540
580.489080	17517.742434
580.842866	17369.777007
581.196597	17633.235269
581.550273	17641.991753
581.903895	17675.328903
582.257463	17984.366758
582.610975	17656.958939
582.964434	17970.090210
583.317837	17791.172098
583.671186	17939.697093
584.024481	17970.135580
584.377721	17826.024115
584.730906	17946.956355
585.084037	18044.787507
585.437113	18006.699069
585.790135	18233.205673
586.143103	17829.507553
586.496016	17880.614770
586.848874	18197.002627
587.201679	18179.240121
587.554428	17917.437879
587.907124	18270.386703
588.259765	18125.750958
588.612352	18245.344772
588.964884	17902.818533
589.317362	18117.448178
589.669786	18198.215024
590.022155	18310.403383
590.374470	18497.425149
590.726731	18380.581285
591.078937	18186.035597
591.431090	18322.890321
591.783188	18117.816182
592.135232	18136.223956
592.487222	18288.837327
592.839157	18349.026183
593.191038	18293.606258
593.542866	18206.724492
593.894639	17991.174836
594.246358	18231.010251
594.598022	18170.891971
594.949633	17975.577506
595.301190	17953.754351
595.652692	18150.503024
596.004141	18422.198531
596.355535	17798.222152
596.706876	17843.358123
597.058162	17769.653933
597.409395	17997.287235
597.760573	18126.973438
598.111698	17945.474256
598.462768	17906.221311
598.813785	17884.801449
599.164748	17738.484479
599.515657	17785.851160
599.866511	17610.429089
600.217312	17986.826841
600.568060	17553.169143
600.918753	17862.695989
601.269392	17801.254406
601.619978	17593.979804
601.970510	17836.736567
602.320988	17784.898382
602.671412	18020.486625
603.021783	17920.487777
603.372100	17682.963731
603.722363	17828.726174
604.072572	17778.826312
604.422728	17923.058765
604.772830	17716.134523
605.122878	17666.890012
605.472872	17685.728804
605.822813	17689.343311
606.172701	17650.987692
606.522534	17875.951703
606.872314	17904.071259
607.222041	17743.139984
607.571714	17962.944374
607.921333	17809.373184
608.270899	17883.047127
608.620411	18098.924458
608.969870	17857.700206
609.319276	17874.830046
609.668627	17918.340245
610.017926	18057.854178
610.367171	18188.780505
610.716362	18228.003202
611.065500	18047.666006
611.414585	18184.596347
611.763616	18172.583278
612.112594	18132.128018
612.461518	18113.841232
612.810389	18316.213313
613.159207	18157.346390
613.507971	18068.198626
613.856682	18378.547180
614.205340	18315.474783
614.553945	18454.524930
614.902496	18201.489254
615.250994	18458.701526
615.599439	18395.790447
615.947830	18386.686123
616.296169	18419.347758
616.644454	18389.123521
616.992686	18366.047639
617.340864	18576.772911
617.688990	18346.750102
618.037063	18528.123256
618.385082	18376.528198
618.733048	18664.766251
619.080961	18510.285133
619.428821	18576.629238
619.776628	18469.580336
620.124382	18381.087921
620.472083	18410.195544
620.819731	18450.121482
621.167326	18146.192837
621.514868	18199.336681
621.862357	17944.105583
622.209793	17984.908682
622.557176	17803.684242
622.904506	17640.391187
623.251783	17539.222791
623.599007	17339.467070
623.946179	17277.271834
624.293297	17234.406903
624.640363	16982.356772
624.987376	17002.279412
625.334336	16793.038760
625.681243	16644.516286
626.028097	16640.294319
626.374899	16586.848006
626.721647	16459.480734
627.068343	16290.319775
627.414987	16213.880759
627.761577	16199.952051
628.108115	16260.261895
628.454600	15966.367667
628.801032	16057.821760
629.147412	15985.072869
629.493739	16014.087230
629.840014	15828.166955
630.186236	15927.139929
630.532405	15690.087231
630.878521	15889.033847
631.224585	15775.577638
631.570597	15607.709736
631.916556	15640.857843
632.262462	15614.359018
632.608316	15527.194947
632.954117	15475.409694
633.299866	15476.874149
633.645562	15396.354320
633.991206	15147.429704
634.336797	15019.190312
634.682336	14991.244676
635.027823	14885.965219
635.373257	14774.386840
635.718639	14660.086239
636.063968	14615.401451
636.409245	14372.541344
636.754470	14394.845929
637.099642	14244.274225
637.444762	14021.823230
637.789829	14072.834665
638.134845	13913.055294
638.479808	13943.594604
638.824719	13897.215989
639.169577	13735.969642
639.514383	13787.636428
639.859137	13606.661525
640.203839	13677.151979
640.548489	13524.359648
640.893086	13513.677442
641.237632	13391.061458
641.582125	13524.435265
641.926566	13366.022046
642.270955	13372.378941
642.615292	13346.883306
642.959576	13351.586702
643.303809	13386.400911
643.647990	13326.809431
643.992118	13370.536400
644.336195	13154.633863
644.680219	13344.022451
645.024192	13282.250672
645.368112	13507.532276
645.711981	13579.799737
646.055797	13751.768618
646.399562	13716.420047
646.743274	13985.259741
647.086935	14261.267955
647.430544	14224.465011
647.774101	14242.890429
648.117606	14412.807560
648.461059	14370.202248
648.804460	14368.397515
649.147810	14103.051342
649.491108	13992.337521
649.834354	14022.881872
650.177548	13722.451788
650.520690	13537.890104
650.863781	13451.630921
651.206820	13500.976255
651.549807	13317.357268
651.892742	13138.623158
652.235626	13073.347777
652.578458	13071.918610
652.921238	12755.497986
653.263967	12955.878811
653.606644	12783.252059
653.949269	12751.298705
654.291843	12566.275756
654.634365	12720.156977
654.976836	12566.127042
655.319255	12582.495669
655.661622	12529.563553
656.003938	12460.207359
656.346203	12383.788507
656.688416	12451.813837
657.030577	12411.915625
657.372687	12337.735047
657.714746	12299.646609
658.056753	12494.320847
658.398708	12316.403404
658.740612	12323.531596
659.082465	12416.964341
659.424266	12376.498999
659.766016	12396.608162
660.107715	12312.463742
660.449362	12380.461346
660.790958	12345.251407
661.132503	12300.430508
661.473996	12351.573014
661.815438	12377.597971
662.156829	12384.804300
662.498168	12365.698327
662.839456	12369.275026
663.180693	12380.426058
663.521879	12466.188688
663.863013	12445.595574
664.204097	12427.240733
664.545129	12542.519319
664.886110	12504.367866
665.227040	12596.623502
665.567918	12604.540634
665.908746	12639.828711
666.249522	12616.011780
666.590248	12658.972493
666.930922	12786.579220
667.271545	12759.614088
667.612118	12846.621883
667.952639	12745.327458
668.293109	12750.638314
668.633528	12720.353582
668.973896	12695.069675
669.314213	12787.872276
669.654480	12529.732432
669.994695	12579.579361
670.334859	12605.238834
670.674973	12546.627859
671.015035	12591.955394
671.355047	12531.922813
671.695008	12499.745128
672.034918	12502.013648
672.374777	12547.535267
672.714585	12468.946199
673.054342	12491.656597
673.394049	12438.916045
673.733705	12528.981300
674.073310	12458.826082
674.412864	12468.631127
674.752368	12354.154085
675.091820	12346.972961
675.431223	12344.974143
675.770574	12225.718087
676.109875	12148.916109
676.449125	12115.437806
676.788324	12040.629603
677.127473	11880.013401
677.466571	11866.656864
677.805619	11774.040785
678.144616	11689.712364
678.483562	11649.229378
678.822458	11526.016016
679.161303	11506.020279
679.500098	11497.664567
679.838842	11449.740838
680.177535	11470.976698
680.516179	11526.767148
680.854771	11482.662093
681.193314	11678.442864
681.531805	11829.957264
681.870247	12232.866444
682.208638	12635.652115
682.546978	12962.908700
682.885268	13025.517310
683.223508	12716.081204
683.561697	12550.491903
683.899836	12449.384001
684.237925	12258.485588
684.575963	12174.414265
684.913951	12109.663164
685.251889	12057.298179
685.589776	12147.882672
685.927614	12075.844584
686.265401	12040.337217
686.603137	12080.079153
686.940824	12240.150911
687.278460	12339.441477
687.616046	12396.986248
687.953582	12574.603742
688.291068	12494.073830
688.628504	12720.688819
688.965889	12726.876835
689.303224	12696.710571
689.640510	12598.009820
689.977745	12304.128194
690.314930	12073.603791
690.652065	11981.136426
690.989150	11710.272710
691.326185	11479.765950
691.663170	11275.710125
692.000105	11029.971519
692.336990	10928.795561
692.673825	10679.628970
693.010610	10559.135311
693.347345	10358.751966
693.684030	10149.251695
694.020665	10090.257592
694.357251	9898.305577
694.693786	9857.545328
695.030272	9682.176188
695.366707	9561.196057
695.703093	9493.894133
696.039429	9487.496909
696.375716	9424.845449
696.711952	9295.592785
697.048139	9320.753184
697.384276	9278.583932
697.720363	9297.188310
698.056400	9237.584228
698.392388	9185.342750
698.728326	9150.979725
699.064214	9084.474303
699.400053	9130.212692
699.735842	8952.733829
700.071581	8902.798680
700.407270	8832.703956
700.742910	8752.526925
701.078501	8661.410590
701.414042	8546.101757
701.749533	8475.785223
702.084974	8340.336981
702.420366	8448.419319
702.755709	8333.337339
703.091002	8199.247687
703.426246	8229.108962
703.761440	8184.114144
704.096584	8134.972976
704.431679	8070.395795
704.766725	8061.276348
705.101721	8003.187132
705.436668	8043.927217
705.771565	7939.832431
706.106413	8022.023403
706.441212	8074.446362
706.775961	8020.022065
707.110661	8045.210191
707.445311	8203.341104
707.779913	8100.352852
708.114465	8228.909837
708.448967	8269.894417
708.783421	8401.544150
709.117825	8585.082479
709.452180	8622.654199
709.786485	8702.301909
710.120742	8977.201070
710.454949	8978.080751
710.789107	9083.130835
711.123216	9289.525756
711.457275	9449.400909
711.791286	9613.341753
712.125247	9611.282442
712.459159	9594.298794
712.793023	9856.295121
713.126837	9433.044886
713.460602	9575.659128
713.794318	9402.135051
714.127985	9434.353065
714.461602	9131.528433
714.795171	9078.238396
715.128691	8835.660593
715.462162	8580.129546
715.795584	8527.464612
716.128957	8394.783963
716.462281	8222.333652
716.795556	8267.976258
717.128782	8064.008653
717.461960	7794.846326
717.795088	7866.634877
718.128167	7772.456041
718.461198	7609.873788
718.794180	7551.051085
719.127113	7540.298304
719.459997	7406.276708
719.792833	7160.056672
720.125619	7224.250725
720.458357	7087.577482
720.791046	7070.402271
721.123686	7078.997439
721.456278	6915.069198
721.788821	6935.811025
722.121315	6822.110321
722.453761	6888.807307
722.786158	6837.838721
723.118506	6853.773808
723.450805	6820.184600
723.783056	6885.001236
724.115259	6784.566328
724.447412	6781.138343
724.779518	6831.824624
725.111574	6834.584656
725.443582	6916.480721
725.775542	6891.521968
726.107453	7077.132212
726.439315	6990.580641
726.771129	7042.824639
727.102895	7207.622479
727.434612	7328.650501
727.766281	7351.093717
728.097901	7442.026051
728.429473	7425.531395
728.760996	7396.643063
729.092471	7377.277471
729.423897	7333.830286
729.755276	7343.501740
730.086606	7282.836494
730.417887	7368.437807
730.749120	7546.987915
731.080305	7736.247954
731.411442	7875.237606
731.742530	7875.111578
732.073570	7974.543296
732.404562	8059.353148
732.735506	7908.786485
733.066401	8051.529277
733.397249	7986.178279
733.728048	7754.010459
734.058798	7420.954028
734.389501	7206.072324
734.720156	7025.180601
735.050762	6790.991278
735.381320	6690.160640
735.711831	6645.591798
736.042293	6536.342433
736.372707	6561.570887
736.703073	6418.707108
737.033391	6459.001051
737.363661	6465.678059
737.693883	6487.430638
738.024056	6572.878195
738.354182	6620.859898
738.684260	6656.326936
739.014290	6764.754593
739.344272	6873.215018
739.674207	6903.146869
740.004093	6964.429656
740.333931	6986.951011
740.663722	6990.247925
740.993464	7069.555357
741.323159	7063.284162
741.652806	6816.539846
741.982405	6807.029709
742.311956	6879.067798
742.641460	6728.236475
742.970915	6535.200612
743.300323	6526.257605
743.629683	6467.129911
743.958996	6340.362536
744.288260	6252.351552
744.617477	6196.616555
744.946647	6212.796138
745.275768	6042.032093
745.604842	5996.926368
745.933869	5985.833309
746.262847	5931.996307
746.591778	5922.518938
746.920662	5887.130038
747.249498	5871.114292
747.578286	5913.840591
747.907027	5993.649618
748.235720	6055.108846
748.564365	6025.792015
748.892963	6041.641403
749.221514	6202.270209
749.550017	6050.410490
749.878473	5918.196148
750.206881	5966.255988
750.535242	5909.800107
750.863555	5846.790725
751.191821	5865.500967
751.520039	5866.794023
751.848210	5777.852946
752.176334	5795.875071
752.504411	5846.853739
752.832440	5772.408500
753.160421	5694.008475
753.488356	5746.227267
753.816243	5784.713956
754.144082	5640.100896
754.471875	5600.061532
754.799620	5646.195651
755.127318	5656.945912
755.454969	5610.413541
755.782572	5574.288633
756.110129	5616.798163
756.437638	5612.392194
756.765100	5549.304674
757.092515	5543.522471
757.419882	5589.402012
757.747203	5572.171348
758.074477	5638.190299
758.401703	5629.181757
758.728882	5575.652265
759.056014	5620.150530
759.383099	5761.975832
759.710138	5766.331389
760.037129	5750.817238
760.364073	5757.043063
760.690970	5839.632286
761.017820	5825.033105
761.344623	5773.217605
761.671379	5873.042533
761.998088	5984.532692
762.324751	6210.013421
762.651366	6780.122551
762.977935	8046.115078
763.304456	9651.072269
763.630931	10578.949566
763.957359	10233.471732
764.283740	9311.905959
764.610074	8504.040890
764.936362	7523.786004
765.262602	6923.389622
765.588796	6384.359206
765.914943	6042.793307
766.241044	5886.522579
766.567097	5692.778433
766.893104	5437.552376
767.219064	5256.905148
767.544978	5194.271333
767.870845	5119.248881
768.196665	5016.684085
768.522438	4942.062406
768.848165	4912.722890
769.173846	4847.288713
769.499479	4805.399245
769.825066	4749.301285
770.150607	4689.772820
770.476101	4663.256351
770.801548	4663.021937
771.126949	4594.305969
771.452303	4539.435530
771.777611	4493.956761
772.102872	4509.034852
772.428087	4476.436231
772.753256	4434.564407
773.078378	4395.671905
773.403453	4325.660360
773.728482	4314.804235
774.053465	4265.279940
774.378401	4249.715378
774.703291	4254.867437
775.028135	4187.137014
775.352932	4134.709014
775.677683	4120.044298
776.002388	4139.619098
776.327046	4152.673166
776.651658	4080.035180
776.976224	4018.528062
777.300743	4023.843959
777.625216	4040.094118
777.949643	4041.881207
778.274024	3995.842870
778.598359	3947.344449
778.922647	3967.745999
779.246889	3961.938590
779.571086	3960.930359
779.895236	3944.690282
780.219339	3929.617232
780.543397	3920.954009
780.867409	3970.989981
781.191374	3992.167869
781.515294	3928.888785
781.839167	3921.258999
782.162995	3939.621402
782.486776	3925.054987
782.810511	3931.789969
783.134201	3936.742903
783.457844	3894.450142
783.781441	3841.160105
784.104993	3840.161957
784.428498	3857.569061
784.751958	3857.047302
785.075372	3834.334383
785.398739	3795.124288
785.722061	3809.995692
786.045337	3847.988348
786.368568	3886.732136
786.691752	3798.116213
787.014891	3844.396526
787.337983	3960.796768
787.661030	4113.142958
787.984031	4280.448772
788.306987	4455.240699
788.629897	4532.037637
788.952760	4491.189167
789.275579	4421.684259
789.598351	4363.514384
789.921078	4228.761822
790.243759	4030.785628
790.566395	4007.505579
790.888984	4006.426772
791.211529	3899.536667
791.534027	3836.938139
791.856480	3833.663909
792.178888	3771.539250
792.501249	3718.697875
792.823566	3727.739185
793.145836	3758.454935
793.468062	3709.376782
793.790241	3661.866428
794.112375	3694.472611
794.434464	3753.285232
794.756507	3777.477729
795.078505	3763.244031
795.400457	3786.851755
795.722364	3922.325203
796.044226	4028.068446
796.366042	4098.989919
796.687812	4085.272939
797.009538	4095.877006
797.331218	4048.074265
797.652852	4020.998227
797.974442	4001.229343
798.295986	4001.287316
798.617484	3927.436933
798.938938	3835.478725
799.260346	3874.149416
799.581709	3871.878376
799.903026	3804.190803
800.224299	3763.339813
800.545526	3759.092641
800.866708	3721.999831
801.187845	3659.086231
801.508936	3696.168959
801.829983	3697.235163
802.150984	3621.055767
802.471940	3605.390381
802.792851	3619.432515
803.113717	3616.632154
803.434538	3619.578708
803.755314	3565.832447
804.076045	3537.846481
804.396731	3556.216446
804.717372	3582.863985
805.037967	3571.375195
805.358518	3561.832291
805.679024	3582.407761
805.999485	3597.390070
806.319901	3601.929629
806.640272	3611.628809
806.960598	3629.381232
807.280879	3605.145885
807.601115	3612.319447
807.921306	3629.061119
808.241453	3667.643590
808.561554	3650.455776
808.881611	3585.891198
809.201623	3618.968729
809.521590	3633.847694
809.841513	3603.711677
810.161390	3631.634628
810.481223	3616.778347
810.801011	3558.714338
811.120755	3545.788819
811.440453	3581.306268
811.760107	3590.977722
812.079716	3548.992472
812.399281	3512.610465
812.718801	3536.200544
813.038276	3508.328005
813.357707	3506.873632
813.677093	3525.856097
813.996434	3476.616627
814.315731	3477.942450
814.634983	3482.953357
814.954191	3495.160511
815.273354	3527.988505
815.592473	3526.544214
815.911547	3528.905995
816.230577	3567.057447
816.549562	3614.671145
816.868502	3658.022548
817.187399	3685.726209
817.506250	3678.857637
817.825058	3648.666166
818.143821	3734.849732
818.462539	3839.002491
818.781213	3885.938154
819.099843	3938.136782
819.418429	4167.819313
819.736970	4405.045930
820.055466	4644.508300
820.373919	4997.618442
820.692327	5402.715482
821.010691	5809.972658
821.329011	7095.812207
821.647286	9703.880876
821.965517	14095.542543
822.283704	18088.892562
822.601847	20352.726040
822.919945	18629.216034
823.237999	16144.900131
823.556010	13720.924318
823.873976	11681.470077
824.191897	9621.737795
824.509775	8269.632278
824.827609	7155.292782
825.145398	6603.813236
825.463144	6486.001471
825.780845	6601.663184
826.098502	6767.907835
826.416116	7576.861793
826.733685	8859.056588
827.051210	9975.652000
827.368692	10091.704403
827.686129	8895.806600
828.003522	7398.336891
828.320872	6391.275669
828.638177	5701.426533
828.955439	5155.709026
829.272656	4666.739788
829.589830	4378.753793
829.906960	4206.608471
830.224046	4027.299670
830.541088	3904.436668
830.858086	3852.442208
831.175041	3781.858492
831.491952	3760.922580
831.808819	3771.168725
832.125642	3838.760516
832.442421	3974.758244
832.759157	4236.716762
833.075849	4756.575670
833.392497	5595.433753
833.709101	6355.054979
834.025662	6716.598971
834.342179	6396.228603
834.658653	5742.453963
834.975083	5107.258497
835.291469	4540.279923
835.607811	4133.804127
835.924110	3995.971419
836.240366	3805.947646
836.556578	3598.224381
836.872746	3489.549707
837.188871	3456.341106
837.504952	3392.807444
837.820990	3311.760813
838.136984	3264.961262
838.452935	3283.961371
838.768842	3283.575722
839.084706	3302.250677
839.400526	3450.463120
839.716303	3768.209568
840.032037	4269.466618
840.347727	4553.210483
840.663373	4300.588182
840.978977	3925.594391
841.294537	3627.581540
841.610054	3396.749626
841.925527	3290.177113
842.240957	3222.756722
842.556344	3171.664627
842.871687	3117.182357
843.186987	3063.305026
843.502244	3027.336393
843.817458	2996.928153
844.132629	2960.586475
844.447756	2973.403608
844.762840	2961.030096
845.077881	2926.402411
845.392879	2909.590163
845.707833	2905.620254
846.022745	2903.069430
846.337613	2903.974317
846.652438	2895.358985
846.967221	2893.365209
847.281960	2877.682179
847.596656	2871.458875
847.911309	2872.111704
848.225919	2866.079964
848.540485	2863.113245
848.855009	2861.817668
849.169490	2855.591843
849.483928	2840.450737
849.798323	2843.440142
850.112675	2837.599965
850.426984	2849.360977
850.741251	2847.639423
851.055474	2837.962928
851.369654	2832.152998
851.683792	2836.556446
851.997887	2845.272601
852.311938	2847.210925
852.625947	2838.111642
852.939914	2837.027794
853.253837	2845.691017
853.567718	2828.220898
853.881555	2824.986998
854.195350	2841.912672
854.509103	2838.184739
854.822812	2831.263235
855.136479	2830.439006
855.450103	2831.326249
855.763685	2825.249138
856.077224	2818.259578
856.390720	2832.631908
856.704173	2842.825121
857.017584	2838.698937
857.330953	2833.372957
857.644278	2842.908300
857.957561	2848.393075
858.270802	2850.966584
858.584000	2852.478931
858.897155	2840.095336
859.210268	2837.443689
859.523339	2838.388906
859.836367	2838.121724
860.149352	2831.159891
860.462295	2829.030003
860.775195	2835.218020
861.088054	2835.147444
861.400869	2821.380052
861.713642	2813.447797
862.026373	2830.048317
862.339062	2834.169460
862.651708	2838.053669
862.964312	2842.625995
863.276873	2833.647700
863.589392	2843.722446
863.901869	2855.170907
864.214303	2876.265615
864.526696	2891.956206
864.839045	2889.100393
865.151353	2886.121071
865.463619	2883.129146
865.775842	2884.558313
866.088023	2903.470202
866.400162	2911.190729
866.712258	2886.400855
867.024313	2871.484081
867.336325	2882.826677
867.648296	2902.706467
867.960224	2894.035682
868.272110	2881.894063
868.583954	2882.317520
868.895755	2899.870818
869.207515	2885.117881
869.519233	2891.384035
869.830909	2900.241343
870.142542	2913.305493
870.454134	2909.010430
870.765684	2917.706420
871.077191	2912.657705
871.388657	2919.886719
871.700081	2933.984306
872.011463	2940.782302
872.322803	2943.197015
872.634101	2945.944443
872.945357	2957.849128
873.256571	2983.105309
873.567744	2980.937613
873.878874	2970.751962
874.189963	2992.118892
874.501010	2997.250787
874.812015	2984.184116
875.122979	2987.428098
875.433900	2983.967346
875.744780	2986.019096
876.055618	2998.682474
876.366415	2993.656444
876.677169	3000.804800
876.987882	3000.053668
877.298554	2989.663850
877.609183	3013.291738
877.919771	3033.627753
878.230317	3060.073646
878.540822	3108.385544
878.851285	3146.683190
879.161707	3184.965712
879.472087	3277.876698
879.782425	3487.513081
880.092722	3901.769898
880.402977	4409.479625
880.713191	5010.102859
881.023363	6100.143993
881.333494	7352.875765
881.643583	7923.461284
881.953631	7635.576111
882.263637	7051.082049
882.573602	6499.428584
882.883526	5929.362304
883.193408	5367.175348
883.503248	4916.032408
883.813048	4615.619968
884.122806	4336.138398
884.432522	4025.336140
884.742197	3798.887510
885.051831	3606.244857
885.361424	3472.974393
885.670975	3406.910072
885.980485	3327.063236
886.289954	3250.982142
886.599382	3208.349104
886.908768	3172.642611
887.218113	3128.570324
887.527417	3073.556212
887.836680	3023.343799
888.145901	3022.012934
888.455082	3012.739732
888.764221	2963.071764
889.073319	2934.546395
889.382376	2928.368461
889.691392	2936.028494
890.000366	2933.578493
890.309300	2921.116761
890.618193	2933.787701
890.927044	2949.997531
891.235855	2951.837552
891.544625	2934.828699
891.853353	2945.188270
892.162041	2961.957669
892.470687	3000.668689
892.779293	3047.627037
893.087858	3094.396342
893.396381	3162.799758
893.704864	3276.870988
894.013306	3500.922550
894.321707	3787.875109
894.630068	3997.488807
894.938387	3999.341431
895.246665	3951.367290
895.554903	3840.819827
895.863100	3651.446363
896.171256	3487.351764
896.479371	3356.155735
896.787446	3236.466140
897.095480	3136.673979
897.403473	3071.824576
897.711425	3033.847043
898.019336	3027.177597
898.327207	2999.907475
898.635038	2967.162660
898.942827	2951.613221
899.250576	2942.115687
899.558284	2912.151069
899.865952	2890.020403
900.173579	2872.003319
900.481165	2864.663399
900.788711	2855.901874
901.096216	2831.427072
901.403681	2818.146152
901.711105	2825.349961
902.018489	2822.660506
902.325832	2821.735454
902.633135	2830.617967
902.940397	2862.838502
903.247619	2933.752413
903.554800	3115.758231
903.861941	3432.899740
904.169041	3844.852750
904.476101	4147.972290
904.783121	4123.711737
905.090100	3888.494019
905.397039	3622.487454
905.703938	3381.124570
906.010796	3203.018084
906.317614	3093.239397
906.624391	3005.112466
906.931129	2935.736107
907.237826	2875.176726
907.544483	2828.722493
907.851099	2798.858698
908.157675	2778.686521
908.464211	2761.118099
908.770707	2747.973291
909.077163	2734.669686
909.383578	2719.319372
909.689954	2709.574822
909.996289	2707.021477
910.302584	2709.809236
910.608839	2712.072714
910.915054	2706.214893
911.221229	2698.083512
911.527363	2703.260777
911.833458	2704.674820
912.139513	2710.376365
912.445527	2713.819473
912.751502	2721.184599
913.057436	2729.978892
913.363331	2741.639081
913.669186	2762.426279
913.975000	2791.455763
914.280775	2848.352746
914.586510	2915.314393
914.892205	2995.612412
915.197859	3109.401336
915.503475	3292.589305
915.809050	3492.725634
916.114585	3636.685864
916.420081	3665.296933
916.725536	3610.280300
917.030952	3496.451046
917.336328	3376.098539
917.641665	3246.593818
917.946961	3150.716113
918.252218	3086.113726
918.557435	3013.785771
918.862612	2955.590691
919.167750	2908.103022
919.472848	2868.507279
919.777906	2845.426356
920.082925	2819.434167
920.387904	2789.552728
920.692843	2775.739966
920.997743	2763.517689
921.302603	2749.525966
921.607423	2741.777713
921.912204	2729.994016
922.216946	2718.018755
922.521647	2711.460213
922.826310	2704.488298
923.130932	2696.185517
923.435516	2686.219156
923.740059	2682.554237
924.044564	2675.700789
924.349028	2669.263235
924.653454	2662.558501
924.957840	2653.489465
925.262186	2650.162303
925.566493	2648.781027
925.870761	2642.666107
926.174989	2639.646456
926.479178	2635.721918
926.783328	2633.024901
927.087438	2628.326545
927.391509	2628.369395
927.695541	2626.713376
927.999533	2621.147942
928.303486	2619.388580
928.607400	2618.093003
928.911275	2619.766666
929.215110	2619.403703
929.518906	2615.010337
929.822663	2616.061418
930.126381	2614.533948
930.430060	2617.644340
930.733699	2616.810029
931.037299	2617.107457
931.340861	2619.194495
931.644383	2620.452263
931.947866	2617.004114
932.251309	2616.646192
932.554714	2614.957405
932.858080	2613.742487
933.161407	2613.150152
933.464694	2611.521859
933.767943	2608.129162
934.071153	2611.481530
934.374323	2608.973556
934.677455	2609.437342
934.980548	2607.267125
935.283602	2609.971704
935.586617	2611.519338
935.889593	2610.082610
936.192530	2608.078751
936.495428	2608.867692
936.798287	2610.838783
937.101108	2615.111161
937.403890	2617.707355
937.706632	2622.057871
938.009336	2626.010135
938.312002	2636.631846
938.614628	2643.346663
938.917216	2652.082983
939.219765	2652.463590
939.522275	2650.351347
939.824747	2648.438229
940.127179	2646.714154
940.429573	2640.629481
940.731929	2640.228710
941.034246	2638.875160
941.336524	2632.906434
941.638763	2632.606485
941.940964	2627.983747
942.243126	2629.702780
942.545250	2626.272275
942.847335	2627.603140
943.149381	2622.584671
943.451389	2617.236007
943.753359	2615.128805
944.055290	2613.936572
944.357182	2617.198198
944.659036	2611.549585
944.960851	2613.157713
945.262628	2610.284256
945.564367	2610.087651
945.866067	2611.602517
946.167729	2614.748197
946.469352	2609.270984
946.770937	2611.138731
947.072484	2609.707044
947.373992	2610.216200
947.675462	2608.076230
947.976893	2602.898965
948.278286	2602.102463
948.579641	2601.394181
948.880958	2598.525764
949.182236	2603.708071
949.483476	2599.876794
949.784678	2603.009871
950.085841	2599.125662
950.386967	2601.938626
950.688054	2603.425766
950.989103	2602.720004
951.290114	2605.762341
951.591087	2607.473812
951.892021	2608.270315
952.192917	2611.942795
952.493776	2611.063114
952.794596	2613.956736
953.095378	2611.927672
953.396122	2615.446397
953.696828	2612.930862
953.997496	2610.745521
954.298126	2606.677310
954.598718	2603.657659
954.899272	2602.871239
955.199788	2600.275045
955.500266	2599.745724
955.800706	2596.862184
956.101108	2593.577872
956.401472	2591.760536
956.701798	2590.492686
957.002087	2590.346492
957.302337	2586.704259
957.602550	2587.357088
957.902724	2585.363312
958.202861	2583.510688
958.502960	2582.961202
958.803022	2583.621593
959.103045	2580.092785
959.403031	2580.601942
959.702979	2580.627148
960.002889	2580.221335
960.302762	2580.790985
960.602596	2579.939030
960.902393	2578.315779
961.202153	2577.478947
961.501875	2576.029615
961.801559	2577.804102
962.101205	2577.027764
962.400814	2579.906263
962.700385	2578.507342
962.999918	2575.409553
963.299414	2572.720098
963.598873	2574.764286
963.898293	2569.743297
964.197677	2574.411405
964.497022	2574.318144
964.796331	2576.017012
965.095601	2575.313772
965.394835	2574.187074
965.694030	2576.090109
965.993189	2574.416446
966.292309	2574.285376
966.591393	2574.247567
966.890439	2576.879050
967.189447	2573.501477
967.488419	2575.258319
967.787353	2574.305541
968.086249	2573.950139
968.385108	2576.652198
968.683930	2574.751683
968.982714	2572.611713
969.281462	2574.938206
969.580172	2573.952660
969.878844	2572.079871
970.177480	2578.058680
970.476078	2574.940726
970.774639	2574.479461
971.073162	2573.451065
971.371649	2576.465675
971.670098	2574.008113
971.968510	2574.290417
972.266885	2574.983576
972.565223	2575.696899
972.863524	2570.749007
973.161788	2577.907445
973.460014	2574.786971
973.758204	2577.872157
974.056356	2573.894687
974.354471	2576.974832
974.652550	2573.594738
974.950591	2575.543144
975.248595	2575.049111
975.546563	2576.828638
975.844493	2574.602969
976.142386	2574.681107
976.440243	2573.718246
976.738062	2572.415108
977.035845	2572.541137
977.333590	2572.944429
977.631299	2573.377968
977.928971	2572.846127
978.226606	2570.401167
978.524204	2571.530386
978.821765	2566.441341
979.119290	2571.351425
979.416777	2571.409398
979.714228	2573.337639
980.011642	2570.582649
980.309020	2574.129100
980.606360	2573.115828
980.903664	2573.110787
981.200931	2575.079358
981.498162	2575.580953
981.795356	2575.465006
982.092513	2577.272260
982.389633	2579.122363
982.686717	2583.142683
982.983764	2584.362643
983.280775	2588.077973
983.577749	2588.584609
983.874686	2593.444281
984.171587	2584.776017
984.468451	2581.466500
984.765279	2581.839545
985.062070	2579.989442
985.358824	2578.532548
985.655543	2574.933164
985.952224	2576.755542
986.248869	2575.742270
986.545478	2573.798905
986.842050	2573.264542
987.138586	2571.422001
987.435086	2572.770509
987.731549	2572.805797
988.027975	2572.042063
988.324366	2569.536609
988.620719	2572.566343
988.917037	2570.280179
989.213318	2568.856053
989.509563	2571.369069
989.805772	2571.061558
990.101944	2569.821434
990.398080	2567.981413
990.694180	2568.800601
990.990244	2568.281362
991.286271	2568.271280
991.582262	2572.589028
991.878217	2570.388564
992.174136	2572.001733
992.470019	2567.104253
992.765865	2568.112483
993.061676	2565.473439
993.357450	2564.422359
993.653188	2565.917061
993.948890	2569.138358
994.244556	2570.176836
994.540186	2569.763461
994.835780	2571.379151
995.131337	2570.718760
995.426859	2571.575756
995.722345	2570.398647
996.017795	2572.347052
996.313208	2574.739080
996.608586	2574.544996
996.903928	2574.401323
997.199234	2574.681107
997.494504	2574.529872
997.789738	2574.681107
998.084936	2574.827300
998.380099	2571.043914
998.675225	2572.566343
998.970316	2568.079716
999.265371	2574.514749
999.560390	2567.212637
999.855373	2570.958215
1000.150320	2572.306723
1000.445232	2569.622309
1000.740108	2567.779767
1001.034948	2569.405539
1001.329752	2569.886969
1001.624521	2569.024932
1001.919254	2567.326063
1002.213951	2567.169788
1002.508613	2570.413770
1002.803239	2570.280179
1003.097829	2566.781619
1003.392384	2567.910837
1003.686903	2568.324212
1003.981386	2570.771692
1004.275834	2569.488718
1004.570246	2566.390929
1004.864623	2569.050138
1005.158964	2566.947977
1005.453270	2569.261866
1005.747540	2567.436969
1006.041775	2567.479818
1006.335974	2565.488563
1006.630138	2566.627863
1006.924266	2566.471588
1007.218359	2568.702298
1007.512416	2563.303222
1007.806438	2561.236349
1008.100425	2565.266752
1008.394376	2563.136864
1008.688292	2566.597617
1008.982172	2567.643656
1009.276017	2566.990827
1009.569827	2567.167267
1009.863602	2569.604665
1010.157341	2567.525189
1010.451045	2565.828841
1010.744714	2566.960580
1011.038347	2566.892524
1011.331945	2569.856722
1011.625508	2568.951835
1011.919036	2569.836558
1012.212528	2566.703481
1012.505986	2567.184911
1012.799408	2565.279355
1013.092795	2565.884293
1013.386147	2568.130127
1013.679464	2566.927812
1013.972745	2566.257339
1014.265992	2567.643656
1014.559204	2566.635425
1014.852380	2565.538974
1015.145521	2567.179870
1015.438628	2566.771536
1015.731699	2566.368244
1016.024736	2565.518810
1016.317737	2566.915209
1016.610703	2564.767678
1016.903635	2568.051989
1017.196531	2568.576269
1017.489393	2566.327915
1017.782219	2567.131979
1018.075011	2564.772719
1018.367768	2566.169118
1018.660490	2566.272462
1018.953177	2566.272462
1019.245829	2566.272462
