Dividing Wavelength (nm)	Counts (n)	Blue Motor Position (mm): 44.900000	Red Motor Position (mm): 0.000000	
326.493990	2265.338263
326.888308	2265.338263
327.282561	2265.338263
327.676750	2226.871738
328.070874	2223.312684
328.464933	2222.927035
328.858929	2227.683364
329.252859	2233.435321
329.646726	2241.886815
330.040528	2250.789493
330.434265	2267.258942
330.827938	2286.281736
331.221547	2299.507203
331.615091	2316.949596
332.008571	2338.082113
332.401986	2357.964423
332.795338	2376.316744
333.188625	2397.038407
333.581847	2416.343506
333.975006	2434.027873
334.368100	2451.863476
334.761129	2472.983390
335.154095	2487.882520
335.546996	2516.402848
335.939833	2556.575803
336.332606	2570.501990
336.725315	2584.213929
337.117960	2597.598192
337.510540	2606.599172
337.903056	2616.499998
338.295508	2624.586009
338.687896	2637.372896
339.080220	2639.671662
339.472480	2650.263126
339.864676	2655.604229
340.256807	2659.269148
340.648875	2662.855929
341.040879	2665.807524
341.432818	2668.234840
341.824694	2670.082423
342.216506	2672.776919
342.608253	2672.829852
342.999937	2673.815397
343.391557	2672.418997
343.783113	2670.959583
344.174605	2673.054183
344.566033	2669.608554
344.957397	2669.104439
345.348697	2668.088646
345.739934	2667.453461
346.131106	2663.546567
346.522215	2664.343069
346.913260	2664.423727
347.304241	2662.593789
347.695159	2660.673109
348.086012	2658.359219
348.476802	2655.495844
348.867528	2650.742036
349.258191	2649.161634
349.648789	2647.084679
350.039324	2645.211890
350.429796	2648.251706
350.820203	2648.448311
351.210548	2649.436377
351.600828	2646.709113
351.991045	2643.828093
352.381198	2643.646612
352.771288	2646.237765
353.161314	2643.366828
353.551276	2643.767600
353.941175	2641.801550
354.331010	2640.775675
354.720782	2641.531848
355.110490	2641.751138
355.500135	2643.228196
355.889717	2641.236940
356.279235	2642.587970
356.668689	2644.412867
357.058080	2640.132928
357.447408	2642.870274
357.836672	2645.030409
358.225873	2643.190387
358.615010	2643.792805
359.004084	2646.043681
359.393095	2647.671973
359.782043	2647.014103
360.170927	2645.622744
360.559748	2645.736170
360.948505	2649.839669
361.337199	2649.567447
361.725830	2649.703558
362.114398	2651.646923
362.502903	2650.250523
362.891344	2649.625420
363.279722	2651.432674
363.668037	2652.932417
364.056289	2651.916625
364.444478	2651.357057
364.832603	2653.784372
365.220665	2653.396203
365.608665	2655.180772
365.996601	2655.614311
366.384474	2657.724034
366.772284	2656.473828
367.160031	2657.650937
367.547715	2657.993736
367.935336	2658.447440
368.322893	2656.148673
368.710388	2654.553148
369.097820	2656.430978
369.485189	2658.742347
369.872495	2663.526402
370.259738	2661.099087
370.646918	2661.852739
371.034035	2661.736792
371.421090	2664.348110
371.808081	2663.843995
372.195010	2665.641166
372.581875	2662.830723
372.968678	2667.647545
373.355418	2664.073367
373.742096	2667.150992
374.128710	2668.507062
374.515262	2670.117711
374.901751	2673.442352
375.288177	2676.088958
375.674540	2679.801767
376.060841	2685.062211
376.447079	2695.598223
376.833254	2700.863708
377.219367	2710.716643
377.605417	2724.400855
377.991404	2740.459451
378.377329	2761.589447
378.763191	2778.588218
379.148991	2808.779688
379.534727	2836.264059
379.920402	2860.136443
380.306013	2888.702142
380.691563	2939.297682
381.077049	2964.858853
381.462474	3004.056344
381.847835	3055.115671
382.233134	3099.140068
382.618371	3133.608957
383.003545	3195.476518
383.388657	3233.028073
383.773706	3295.740027
384.158693	3338.438600
384.543618	3380.053325
384.928480	3447.579580
385.313280	3509.590814
385.698017	3548.029612
386.082692	3637.129486
386.467305	3657.778052
386.851856	3709.414591
387.236344	3794.859628
387.620770	3835.070391
388.005133	3898.672109
388.389435	3955.579174
388.773674	3977.984582
389.157851	4058.464083
389.541965	4137.927791
389.926018	4112.147330
390.310008	4223.193867
390.693936	4283.226448
391.077802	4325.804033
391.461606	4332.302080
391.845348	4403.952000
392.229027	4472.544460
392.612645	4476.544615
392.996200	4579.908434
393.379694	4647.394360
393.763125	4750.354887
394.146494	4777.713228
394.529801	4845.131099
394.913047	4926.797792
395.296230	4878.095204
395.679351	4990.764993
396.062410	5040.851377
396.445408	5015.219630
396.828343	5074.291871
397.211217	5138.158249
397.594028	5013.863560
397.976778	5132.993587
398.359466	5179.536040
398.742092	5203.665523
399.124656	5118.028922
399.507158	5242.137088
399.889598	5303.860976
400.271977	5427.144914
400.654294	5424.853709
401.036549	5462.846365
401.418742	5386.276280
401.800874	5595.254792
402.182944	5652.116487
402.564952	5760.224031
402.946898	5818.129244
403.328783	5653.873329
403.710606	5673.468294
404.092367	6000.061966
404.474067	6016.468401
404.855705	5920.184883
405.237282	5853.137537
405.618797	6102.823367
406.000250	6088.791315
406.381642	6283.916736
406.762972	6308.958668
407.144240	6365.633840
407.525447	6352.763774
407.906593	6372.537700
408.287677	6527.036463
408.668700	6444.895902
409.049661	6562.614406
409.430560	6585.211378
409.811399	6446.249452
410.192176	6718.305402
410.572891	6725.509210
410.953545	6923.576145
411.334138	6654.892727
411.714669	6824.514951
412.095139	6617.787314
412.475547	6865.242433
412.855894	6936.113495
413.236180	7115.621421
413.616405	6789.536905
413.996568	7001.381313
414.376670	7050.950979
414.756711	6941.580626
415.136691	7038.320368
415.516609	7249.877431
415.896466	7226.267187
416.276262	7431.023732
416.655997	7422.872187
417.035670	7599.952798
417.415283	7946.703524
417.794834	7997.321750
418.174324	7857.911161
418.553753	7779.236393
418.933121	8089.234587
419.312428	8183.814195
419.691674	7961.222047
420.070859	8442.866488
420.449983	8119.552086
420.829045	8482.827715
421.208047	8261.566431
421.586988	8561.729334
421.965867	8583.711286
422.344686	8689.618366
422.723444	8745.814629
423.102141	8092.385308
423.480777	8853.276905
423.859352	8371.156075
424.237866	8994.872834
424.616319	8858.912915
424.994712	9284.824880
425.373044	8830.180859
425.751314	9314.025764
426.129524	9192.947331
426.507673	9285.792782
426.885762	9434.842057
427.263789	9357.150314
427.641756	9286.251527
428.019662	9377.020022
428.397508	9645.496753
428.775292	9303.320874
429.153016	9699.369043
429.530679	9522.497640
429.908282	9542.100167
430.285824	9272.148899
430.663305	9957.955030
431.040726	9406.669569
431.418086	9382.303152
431.795385	9725.819977
432.172624	9807.958018
432.549802	9720.700686
432.926920	9796.494434
433.303977	9664.305298
433.680974	9871.831958
434.057910	9968.254107
434.434786	10039.994767
434.811601	9867.541936
435.188355	10433.605539
435.565050	10175.042238
435.941683	10095.076935
436.318257	10576.179452
436.694770	10740.533671
437.071222	10790.877153
437.447614	10623.064704
437.823946	10546.119052
438.200218	10636.179265
438.576429	10487.296348
438.952580	10732.745088
439.328670	10763.150807
439.704700	10553.645495
440.080670	10548.614423
440.456580	11070.789741
440.832429	10856.144972
441.208218	10454.135638
441.583947	10751.954405
441.959616	10930.726323
442.335224	10742.580379
442.710773	10858.925169
443.086261	11083.521175
443.461689	10354.734167
443.837057	11040.827643
444.212365	11277.073757
444.587612	10916.301061
444.962800	11132.858948
445.337927	10876.470905
445.712995	10541.680316
446.088002	11587.008936
446.462949	11272.851790
446.837837	11240.578323
447.212664	11169.737509
447.587431	11758.682910
447.962139	12505.159327
448.336786	14800.487414
448.711374	15293.119051
449.085901	13110.165845
449.460369	12760.730704
449.834776	12201.036598
450.209124	13125.916930
450.583412	13555.496334
450.957640	14476.774761
451.331808	13530.086398
451.705917	12595.711053
452.079965	11846.935870
452.453954	12765.751693
452.827883	12416.298909
453.201752	12703.228783
453.575562	12250.666758
453.949311	12660.527689
454.323001	12638.210501
454.696632	12867.792209
455.070202	13155.715190
455.443713	13349.146784
455.817164	13851.311242
456.190556	13813.550479
456.563888	14181.491695
456.937160	14325.464529
457.310373	13687.254452
457.683526	13788.795893
458.056619	13310.955002
458.429653	13515.164583
458.802628	12883.608829
459.175542	13292.035552
459.548398	14245.227003
459.921194	14598.763123
460.293930	14674.511500
460.666607	15531.643765
461.039224	16590.172647
461.411782	17308.138819
461.784280	17091.069255
462.156719	17196.908280
462.529099	16867.128598
462.901419	15828.363560
463.273680	15589.954792
463.645882	15477.625281
464.018024	15205.909610
464.390106	15442.470795
464.762130	16153.923796
465.134094	16951.633460
465.505999	19006.420371
465.877845	22274.928084
466.249631	25082.535704
466.621358	24695.574215
466.993026	23281.013843
467.364634	22694.704965
467.736184	21215.864840
468.107674	20420.128788
468.479105	20553.812626
468.850477	20021.638179
469.221790	19619.885944
469.593043	18922.094470
469.964238	18349.830247
470.335373	17997.778747
470.706449	18497.087392
471.077467	18077.494513
471.448425	19954.873138
471.819324	24083.043775
472.190164	25933.875684
472.560945	22248.925813
472.931667	19967.533996
473.302330	19326.062292
473.672934	18963.207600
474.043479	19198.538744
474.413965	19011.678294
474.784393	18601.928268
475.154761	19376.962822
475.525070	19302.822573
475.895321	19013.717441
476.265513	19618.965933
476.635645	20206.709019
477.005719	19966.334201
477.375734	20152.904784
477.745691	20642.690689
478.115588	21186.966426
478.485427	21738.478739
478.855207	22831.569771
479.224928	24615.371977
479.594591	26841.611051
479.964194	26756.614677
480.333739	27003.273293
480.703226	26581.192605
481.072653	26301.693392
481.442022	26904.743941
481.811333	27819.052973
482.180584	27717.561943
482.549777	26757.721210
482.918912	26431.480418
483.287988	26577.126914
483.657005	26202.579266
484.025964	25990.155125
484.394864	25855.364754
484.763706	25514.239955
485.132489	24979.295394
485.501213	25175.728995
485.869879	25083.029738
486.238487	24924.641725
486.607036	25062.797067
486.975527	24803.490195
487.343959	25085.545273
487.712333	24997.083106
488.080648	24650.297091
488.448905	25161.429762
488.817104	24915.829788
489.185244	25623.542253
489.553326	25574.852268
489.921350	26624.591898
490.289315	28967.800865
490.657222	30694.771623
491.025070	31205.558975
491.392861	30939.058377
491.760593	30084.028273
492.128267	29174.132771
492.495883	28113.209341
492.863440	27253.990038
493.230939	26373.721398
493.598380	26217.042336
493.965763	25826.058006
494.333088	25339.584139
494.700354	25311.814943
495.067563	25157.018753
495.434713	24902.574074
495.801805	25079.188378
496.168839	24832.504556
496.535815	24706.705082
496.902733	24928.783033
497.269593	24626.172650
497.636395	24790.199193
498.003139	24721.256373
498.369825	24469.193639
498.736453	24700.834659
499.103023	24563.001951
499.469535	24567.690224
499.835989	24787.976044
500.202385	24806.507326
500.568723	24345.466080
500.935003	24533.254102
501.301226	24215.011101
501.667390	25065.652880
502.033497	25257.758650
502.399546	24992.266283
502.765537	24529.258987
503.131470	24918.163842
503.497345	25057.960079
503.863163	24292.748214
504.228923	24847.554921
504.594625	25081.025879
504.960269	24645.462625
505.325856	25116.785304
505.691385	24515.209292
506.056856	25129.620081
506.422270	25110.811536
506.787625	24626.459995
507.152924	25068.319651
507.518164	25107.539828
507.883347	24929.201448
508.248472	24596.684420
508.613540	25373.110333
508.978550	25180.142525
509.343503	25197.055596
509.708398	25397.607820
510.073236	25555.393415
510.438016	25772.379800
510.802738	25425.175370
511.167403	25700.858429
511.532010	25437.599293
511.896561	26186.727358
512.261053	26142.337478
512.625488	25984.695556
512.989866	25857.071184
513.354186	25702.310282
513.718449	25831.207544
514.082655	26195.670365
514.446803	25934.825941
514.810894	26414.131287
515.174927	25912.952375
515.538904	25947.030575
515.902822	26433.572497
516.266684	26185.996390
516.630488	26085.049805
516.994235	26033.004933
517.357925	26372.710647
517.721558	26525.747474
518.085133	26642.309034
518.448651	26542.055607
518.812112	26313.565309
519.175516	26521.790169
519.538863	26667.242581
519.902152	26450.677132
520.265385	26723.464049
520.628560	26518.047112
520.991678	26497.292682
521.354739	26563.477990
521.717743	26655.267320
522.080690	26441.174557
522.443580	26785.109799
522.806413	26738.365700
523.169189	26850.299480
523.531908	26889.222228
523.894569	26522.067432
524.257174	26620.327082
524.619722	26755.256086
524.982213	26444.564733
525.344647	26489.499058
525.707025	26672.548395
526.069345	26608.137572
526.431608	26581.220331
526.793815	26761.262620
527.155964	26249.676246
527.518057	26428.480932
527.880093	26334.717991
528.242072	26563.601499
528.603995	26293.909850
528.965860	26077.823311
529.327669	26115.788241
529.689421	26112.582067
530.051117	25948.331192
530.412755	26125.731917
530.774337	25899.245477
531.135862	25803.917258
531.497331	25975.818084
531.858743	25570.000158
532.220098	26025.511258
532.581396	25726.759878
532.942638	25621.235925
533.303824	25739.566929
533.664953	25722.414403
534.026025	25392.112962
534.387040	25637.097916
534.747999	25677.545613
535.108902	25852.009866
535.469748	25357.399577
535.830537	25510.857341
536.191270	25655.815720
536.551947	25458.202489
536.912567	25105.094868
537.273131	25537.000765
537.633638	25203.483067
537.994089	25423.239567
538.354483	24930.650780
538.714821	25426.995226
539.075103	25480.033206
539.435328	25250.484265
539.795497	24851.439130
540.155609	25191.699370
540.515665	25512.689800
540.875665	24718.045158
541.235609	25059.822786
541.595496	24987.169677
541.955328	25349.127043
542.315102	25258.260245
542.674821	24776.371308
543.034483	24667.517673
543.394090	24847.464180
543.753640	24650.725589
544.113134	25279.206239
544.472571	24867.175092
544.831953	25174.241855
545.191278	24818.321270
545.550548	24696.779050
545.909761	24887.241404
546.268918	25131.936492
546.628019	25117.712876
546.987064	24793.397805
547.346053	24532.208063
547.704986	24645.865917
548.063863	24798.418794
548.422684	24822.868390
548.781449	24318.611853
549.140158	24734.381017
549.498811	24315.672861
549.857408	24081.208795
550.215949	24478.494568
550.574434	24159.994468
550.932864	24363.044583
551.291237	24554.610950
551.649555	24394.400560
552.007817	24454.355003
552.366022	24297.922958
552.724173	24328.651311
553.082267	24300.960253
553.440305	24784.308605
553.798288	24003.446477
554.156215	24515.297512
554.514086	24640.512212
554.871902	24024.437841
555.229661	24294.759634
555.587365	24147.399145
555.945014	24050.326687
556.302606	24253.986782
556.660143	24254.677420
557.017625	24481.234435
557.375050	23989.147244
557.732421	24371.135635
558.089735	24202.259502
558.446994	24253.865794
558.804197	24291.535816
559.161345	24189.664179
559.518437	23997.160158
559.875474	24174.112220
560.232455	24353.262224
560.589381	24173.146839
560.946251	24176.126161
561.303065	24473.823939
561.659825	24573.618621
562.016528	24179.685215
562.373177	23898.691300
562.729770	24272.717189
563.086307	24109.219967
563.442789	24271.257775
563.799216	24131.869871
564.155587	24111.097797
564.511904	24092.488377
564.868164	24042.795203
565.224370	24009.591643
565.580520	23939.217136
565.936615	24059.625095
566.292654	23771.986939
566.648638	24010.254555
567.004567	23854.424928
567.360441	23797.719509
567.716260	23533.865517
568.072023	23837.360622
568.427732	23631.376555
568.783385	23375.510271
569.138982	23644.279389
569.494525	23663.687831
569.850013	23416.436879
570.205445	23504.740250
570.560823	23325.842303
570.916145	23092.885543
571.271412	23277.860601
571.626625	23021.152444
571.981782	23124.264205
572.336884	22940.042799
572.691931	23089.757507
573.046923	22816.259787
573.401860	22690.651877
573.756743	22735.324062
574.111570	22603.591150
574.466342	22527.810005
574.821059	22611.077264
575.175722	22320.003561
575.530330	22298.167803
575.884882	22299.780973
576.239380	22215.628992
576.593823	22113.689299
576.948211	22095.972164
577.302544	21939.013318
577.656823	21795.254734
578.011047	21907.952249
578.365216	21778.220675
578.719330	21650.258547
579.073389	21529.848066
579.427394	21689.113240
579.781344	21443.593924
580.135239	21333.482521
580.489080	21279.874891
580.842866	21060.509082
581.196597	21284.825304
581.550273	21228.253476
581.903895	21115.611414
582.257463	21431.106986
582.610975	20955.489244
582.964434	21286.168772
583.317837	20959.355809
583.671186	21046.111546
584.024481	21033.627129
584.377721	20796.788680
584.730906	20891.101107
585.084037	20872.547140
585.437113	20796.675254
585.790135	21004.627891
586.143103	20453.503747
586.496016	20472.738269
586.848874	20714.174251
587.201679	20621.500199
587.554428	20323.414251
587.907124	20651.079169
588.259765	20418.198026
588.612352	20490.876341
588.964884	20061.044879
589.317362	20230.951928
589.669786	20289.976278
590.022155	20281.955802
590.374470	20537.663290
590.726731	20286.908736
591.078937	20092.814230
591.431090	20168.665952
591.783188	19934.592576
592.135232	19896.204189
592.487222	19989.546194
592.839157	19994.052985
593.191038	19877.468741
593.542866	19765.194683
593.894639	19465.813159
594.246358	19688.838846
594.598022	19568.773685
594.949633	19334.962449
595.301190	19313.472010
595.652692	19495.286265
596.004141	19712.199553
596.355535	19037.413385
596.706876	19059.113031
597.058162	18947.486762
597.409395	19195.478763
597.760573	19234.409074
598.111698	19003.685545
598.462768	18958.975551
598.813785	18929.207538
599.164748	18728.657835
599.515657	18785.577503
599.866511	18585.660465
600.217312	18941.548282
600.568060	18450.255073
600.918753	18756.144726
601.269392	18663.042177
601.619978	18453.458726
601.970510	18640.115009
602.320988	18606.306511
602.671412	18796.534451
603.021783	18729.184636
603.372100	18439.056149
603.722363	18591.198173
604.072572	18527.919089
604.422728	18691.496969
604.772830	18431.295293
605.122878	18396.516373
605.472872	18368.482516
605.822813	18355.370475
606.172701	18344.726079
606.522534	18512.160442
606.872314	18547.985402
607.222041	18381.375267
607.571714	18600.761241
607.921333	18421.160053
608.270899	18505.914452
608.620411	18660.095622
608.969870	18454.890414
609.319276	18449.768601
609.668627	18473.462024
610.017926	18604.592518
610.367171	18716.438078
610.716362	18775.306152
611.065500	18593.852340
611.414585	18741.674094
611.763616	18711.767449
612.112594	18646.849990
612.461518	18612.371019
612.810389	18815.733685
613.159207	18668.942847
613.507971	18579.999249
613.856682	18835.573146
614.205340	18763.048587
614.553945	18921.736548
614.902496	18661.207197
615.250994	18872.267705
615.599439	18832.072065
615.947830	18816.391556
616.296169	18893.473319
616.644454	18839.296038
616.992686	18812.958530
617.340864	19040.967398
617.688990	18778.535011
618.037063	18955.855077
618.385082	18810.964754
618.733048	19086.955324
619.080961	18980.871803
619.428821	18998.616665
619.776628	18874.508498
620.124382	18813.366864
620.472083	18863.526344
620.819731	18873.361636
621.167326	18569.319565
621.514868	18606.982025
621.862357	18397.174243
622.209793	18386.663437
622.557176	18220.038179
622.904506	18058.161688
623.251783	17986.068147
623.599007	17723.545019
623.946179	17659.925658
624.293297	17594.912417
624.640363	17335.015731
624.987376	17359.288887
625.334336	17170.396852
625.681243	17004.280750
626.028097	17029.874688
626.374899	16938.108044
626.721647	16802.405224
627.068343	16642.915719
627.414987	16586.704333
627.761577	16549.253601
628.108115	16567.981488
628.454600	16312.077395
628.801032	16400.274902
629.147412	16347.463775
629.493739	16357.228490
629.840014	16159.136349
630.186236	16260.100578
630.532405	16025.434867
630.878521	16221.051801
631.224585	16132.075435
631.570597	15946.011488
631.916556	15969.359592
632.262462	15941.461847
632.608316	15860.218611
632.954117	15800.528829
633.299866	15790.748991
633.645562	15709.011722
633.991206	15477.887421
634.336797	15345.305075
634.682336	15309.132276
635.027823	15182.821125
635.373257	15048.665939
635.718639	14968.085615
636.063968	14912.247275
636.409245	14664.714018
636.754470	14691.684191
637.099642	14540.726839
637.444762	14321.212315
637.789829	14357.937121
638.134845	14185.564948
638.479808	14221.715062
638.824719	14142.261436
639.169577	14012.703782
639.514383	14053.549731
639.859137	13877.205129
640.203839	13972.936640
640.548489	13815.945027
640.893086	13797.912820
641.237632	13668.723170
641.582125	13832.842975
641.926566	13659.301254
642.270955	13668.271987
642.615292	13619.178710
642.959576	13633.732521
643.303809	13660.732941
643.647990	13598.154578
643.992118	13657.410821
644.336195	13424.234770
644.680219	13663.157736
645.024192	13558.750399
645.368112	13806.533193
645.711981	13844.109954
646.055797	14040.016754
646.399562	14024.726934
646.743274	14279.451397
647.086935	14553.163366
647.430544	14519.352347
647.774101	14560.331886
648.117606	14692.306773
648.461059	14670.261808
648.804460	14649.749353
649.147810	14373.216858
649.491108	14285.818374
649.834354	14291.986226
650.177548	13970.781547
650.520690	13787.570893
650.863781	13713.302094
651.206820	13755.350358
651.549807	13586.756529
651.892742	13375.393551
652.235626	13318.030262
652.578458	13321.339779
652.921238	13017.653110
653.263967	13220.632649
653.606644	13040.812171
653.949269	13025.809697
654.291843	12824.536588
654.634365	12987.154129
654.976836	12838.883712
655.319255	12831.432887
655.661622	12794.415694
656.003938	12722.957338
656.346203	12639.606901
656.688416	12727.189387
657.030577	12680.427644
657.372687	12582.132706
657.714746	12571.851272
658.056753	12770.150100
658.398708	12566.210221
658.740612	12572.297414
659.082465	12684.884024
659.424266	12651.451092
659.766016	12679.505113
660.107715	12591.415990
660.449362	12667.532372
660.790958	12610.610184
661.132503	12552.742779
661.473996	12634.220428
661.815438	12642.051860
662.156829	12677.695338
662.498168	12636.070531
662.839456	12638.434832
663.180693	12660.948625
663.521879	12759.911517
663.863013	12730.738359
664.204097	12701.799616
664.545129	12828.141013
664.886110	12807.615955
665.227040	12898.875963
665.567918	12905.802509
665.908746	12916.915732
666.249522	12909.636306
666.590248	12968.897590
666.930922	13076.208632
667.271545	13045.439950
667.612118	13140.342192
667.952639	13032.567363
668.293109	13066.375862
668.633528	13008.155576
668.973896	12987.232267
669.314213	13053.452864
669.654480	12788.941001
669.994695	12882.593037
670.334859	12909.520360
670.674973	12848.746730
671.015035	12872.979556
671.355047	12815.641472
671.695008	12798.367959
672.034918	12806.232159
672.374777	12847.995598
672.714585	12753.748706
673.054342	12794.854274
673.394049	12746.998601
673.733705	12842.165503
674.073310	12742.731264
674.412864	12756.934715
674.752368	12608.389555
675.091820	12664.648832
675.431223	12636.811581
675.770574	12502.026250
676.109875	12415.693970
676.449125	12374.192671
676.788324	12325.885814
677.127473	12155.119248
677.466571	12153.203610
677.805619	12032.374714
678.144616	11970.560086
678.483562	11948.618463
678.822458	11810.432875
679.161303	11783.487908
679.500098	11771.081628
679.838842	11729.146790
680.177535	11762.534352
680.516179	11830.388282
680.854771	11772.467945
681.193314	11987.566418
681.531805	12158.121256
681.870247	12601.871343
682.208638	13006.638189
682.546978	13310.299652
682.885268	13326.761540
683.223508	13044.005742
683.561697	12880.942059
683.899836	12786.730455
684.237925	12580.398549
684.575963	12498.263029
684.913951	12408.442270
685.251889	12372.191333
685.589776	12471.560037
685.927614	12382.187941
686.265401	12363.903676
686.603137	12413.468301
686.940824	12569.711303
687.278460	12707.002086
687.616046	12735.872774
687.953582	12892.763564
688.291068	12836.675687
688.628504	13066.146489
688.965889	13073.282242
689.303224	13025.935726
689.640510	12911.783838
689.977745	12588.388777
690.314930	12371.760314
690.652065	12277.445367
690.989150	11981.852270
691.326185	11756.003537
691.663170	11553.465099
692.000105	11313.957359
692.336990	11193.579646
692.673825	10933.267064
693.010610	10824.209263
693.347345	10609.435944
693.684030	10419.117263
694.020665	10356.589311
694.357251	10157.897274
694.693786	10080.414739
695.030272	9940.966341
695.366707	9816.699378
695.703093	9755.630841
696.039429	9751.232434
696.375716	9652.393051
696.711952	9528.844453
697.048139	9575.825486
697.384276	9529.787148
697.720363	9554.629955
698.056400	9489.089913
698.392388	9433.662427
698.728326	9393.701200
699.064214	9337.320936
699.400053	9373.130772
699.735842	9191.351806
700.071581	9149.452255
700.407270	9072.443589
700.742910	9003.536057
701.078501	8902.473526
701.414042	8769.019060
701.749533	8715.522335
702.084974	8574.324657
702.420366	8696.675982
702.755709	8570.568998
703.091002	8436.393647
703.426246	8467.454716
703.761440	8417.113754
704.096584	8373.875777
704.431679	8309.943864
704.766725	8290.570710
705.101721	8248.104030
705.436668	8300.060682
705.771565	8187.690842
706.106413	8273.607227
706.441212	8299.402812
706.775961	8270.927854
707.110661	8319.085997
707.445311	8443.680635
707.779913	8347.770162
708.114465	8469.952608
708.448967	8506.899224
708.783421	8677.648146
709.117825	8846.360442
709.452180	8886.203202
709.786485	8967.953073
710.120742	9256.823791
710.454949	9259.248586
710.789107	9368.344197
711.123216	9583.593904
711.457275	9757.549000
711.791286	9900.841277
712.125247	9908.181197
712.459159	9899.212985
712.793023	10120.582653
713.126837	9695.464670
713.460602	9866.702583
713.794318	9689.306900
714.127985	9717.975942
714.461602	9370.544660
714.795171	9325.015479
715.128691	9066.812620
715.462162	8835.131272
715.795584	8774.181201
716.128957	8606.479657
716.462281	8446.453269
716.795556	8497.436979
717.128782	8283.976881
717.461960	8035.934467
717.795088	8102.833100
718.128167	8006.100919
718.461198	7838.835434
718.794180	7787.672764
719.127113	7777.527442
719.459997	7605.419929
719.792833	7386.769963
720.125619	7452.335210
720.458357	7304.188302
720.791046	7302.544885
721.123686	7287.890251
721.456278	7124.534181
721.788821	7144.068652
722.121315	7046.547531
722.453761	7111.936338
722.786158	7049.058026
723.118506	7058.858029
723.450805	7025.462905
723.783056	7085.528253
724.115259	7008.912797
724.447412	7007.460945
724.779518	7056.755868
725.111574	7055.772843
725.443582	7130.558360
725.775542	7110.613035
726.107453	7315.916546
726.439315	7211.257151
726.771129	7288.343955
727.102895	7470.420350
727.434612	7575.112512
727.766281	7614.448636
728.097901	7684.182917
728.429473	7692.369751
728.760996	7672.684045
729.092471	7646.132288
729.423897	7582.028975
729.755276	7588.211950
730.086606	7500.934454
730.417887	7610.125846
730.749120	7832.397881
731.080305	8020.140532
731.411442	8125.934187
731.742530	8124.716748
732.073570	8234.344201
732.404562	8319.121285
732.735506	8176.935541
733.066401	8303.181156
733.397249	8225.353303
733.728048	7981.154769
734.058798	7644.526680
734.389501	7409.445073
734.720156	7238.199598
735.050762	7014.954620
735.381320	6927.389778
735.711831	6863.485591
736.042293	6757.056751
736.372707	6768.555623
736.703073	6633.800540
737.033391	6677.303177
737.363661	6688.827254
737.693883	6728.612041
738.024056	6807.798485
738.354182	6845.803744
738.684260	6879.463528
739.014290	7004.610172
739.344272	7113.184023
739.674207	7144.902963
740.004093	7218.849129
740.333931	7227.446817
740.663722	7238.262612
740.993464	7309.110988
741.323159	7290.650283
741.652806	7042.675925
741.982405	7081.737306
742.311956	7118.923377
742.641460	6933.925634
742.970915	6746.500575
743.300323	6742.384473
743.629683	6700.467279
743.958996	6560.255146
744.288260	6474.432023
744.617477	6420.158960
744.946647	6410.419451
745.275768	6250.975317
745.604842	6206.104006
745.933869	6182.970151
746.262847	6149.164173
746.591778	6135.449714
746.920662	6089.711326
747.249498	6089.920533
747.578286	6139.792668
747.907027	6211.586261
748.235720	6268.115240
748.564365	6247.232260
748.892963	6289.918230
749.221514	6423.208858
749.550017	6237.943934
749.878473	6129.057531
750.206881	6192.230751
750.535242	6138.522298
750.863555	6063.512449
751.191821	6075.517957
751.520039	6073.148615
751.848210	5976.872658
752.176334	6015.994533
752.504411	6054.176232
752.832440	5981.139995
753.160421	5914.279172
753.488356	5959.188291
753.816243	5985.949256
754.144082	5837.386452
754.471875	5814.315612
754.799620	5855.912693
755.127318	5870.927769
755.454969	5821.015305
755.782572	5787.322753
756.110129	5837.210012
756.437638	5810.471732
756.765100	5749.388071
757.092515	5761.733856
757.419882	5821.995809
757.747203	5792.779802
758.074477	5850.485890
758.401703	5829.091233
758.728882	5791.181757
759.056014	5859.950657
759.383099	5974.203367
759.710138	5985.702239
760.037129	5975.776208
760.364073	5986.793649
760.690970	6061.405247
761.017820	6038.157966
761.344623	6001.165979
761.671379	6106.662205
761.998088	6234.954530
762.324751	6501.014027
762.651366	7147.262223
762.977935	8516.787448
763.304456	10181.298310
763.630931	11034.206088
763.957359	10569.061343
764.283740	9606.755485
764.610074	8726.554900
764.936362	7727.768733
765.262602	7134.455172
765.588796	6605.209636
765.914943	6276.276868
766.241044	6102.566268
766.567097	5883.321446
766.893104	5629.973218
767.219064	5453.046362
767.544978	5392.595366
767.870845	5309.655782
768.196665	5203.708373
768.522438	5129.802537
768.848165	5090.524386
769.173846	5028.112381
769.499479	4980.329804
769.825066	4933.202578
770.150607	4869.951220
770.476101	4850.386502
770.801548	4842.116489
771.126949	4759.665898
771.452303	4708.783011
771.777611	4671.518802
772.102872	4684.519938
772.428087	4650.839989
772.753256	4604.007670
773.078378	4555.693251
773.403453	4487.604907
773.728482	4473.434223
774.053465	4428.746915
774.378401	4416.007919
774.703291	4413.827620
775.028135	4336.075384
775.352932	4293.180206
775.677683	4284.206952
776.002388	4297.918891
776.327046	4302.329900
776.651658	4231.738623
776.976224	4168.961134
777.300743	4175.935570
777.625216	4196.465669
777.949643	4186.146428
778.274024	4145.335767
778.598359	4109.304119
778.922647	4137.093480
779.246889	4119.986324
779.571086	4112.139768
779.895236	4097.943879
780.219339	4086.646653
780.543397	4082.575922
780.867409	4137.262359
781.191374	4143.667145
781.515294	4078.109459
781.839167	4075.546033
782.162995	4099.672995
782.486776	4085.270418
782.810511	4099.206688
783.134201	4086.621448
783.457844	4036.416597
783.781441	3986.756190
784.104993	3993.576871
784.428498	4012.277031
784.751958	4004.163294
785.075372	3984.543123
785.398739	3950.076755
785.722061	3961.071511
786.045337	4010.689068
786.368568	4032.219836
786.691752	3944.690282
787.014891	4007.974407
787.337983	4142.323677
787.661030	4305.692350
787.984031	4464.362667
788.306987	4629.649499
788.629897	4716.795925
788.952760	4667.243904
789.275579	4605.250314
789.598351	4534.369171
789.921078	4380.346797
790.243759	4182.640305
790.566395	4168.630938
790.888984	4160.144156
791.211529	4052.528124
791.534027	3990.685769
791.856480	3975.312771
792.178888	3916.895880
792.501249	3876.251577
792.823566	3883.120149
793.145836	3904.799631
793.468062	3853.001776
793.790241	3808.039724
794.112375	3842.228830
794.434464	3911.254829
794.756507	3932.145370
795.078505	3906.614447
795.400457	3952.191519
795.722364	4095.319959
796.044226	4198.494734
796.366042	4272.856794
796.687812	4242.667844
797.009538	4246.617588
797.331218	4208.642577
797.652852	4185.405378
797.974442	4162.984846
798.295986	4162.440402
798.617484	4072.140733
798.938938	3994.602746
799.260346	4037.439951
799.581709	4023.919576
799.903026	3947.238585
800.224299	3916.117022
800.545526	3907.111000
800.866708	3873.342831
801.187845	3813.844613
801.508936	3846.095395
801.829983	3837.348993
802.150984	3760.297477
802.471940	3756.282198
802.792851	3757.890326
803.113717	3759.710183
803.434538	3762.286212
803.755314	3700.887479
804.076045	3682.638502
804.396731	3701.794887
804.717372	3729.874113
805.037967	3708.308057
805.358518	3698.145091
805.679024	3729.082652
805.999485	3744.385075
806.319901	3746.388933
806.640272	3760.602467
806.960598	3774.546298
807.280879	3746.961104
807.601115	3763.826285
807.921306	3779.844551
808.241453	3815.823266
808.561554	3789.004328
808.881611	3725.074935
809.201623	3765.540277
809.521590	3774.216103
809.841513	3747.457658
810.161390	3777.424797
810.481223	3751.500663
810.801011	3697.124258
811.120755	3696.443702
811.440453	3728.742374
811.760107	3728.286150
812.079716	3681.453831
812.399281	3657.493227
812.718801	3675.187677
813.038276	3654.067762
813.357707	3652.835200
813.677093	3666.867252
813.996434	3610.166874
814.315731	3622.616004
814.634983	3627.052219
814.954191	3644.265239
815.273354	3670.948066
815.592473	3664.291222
815.911547	3677.549457
816.230577	3722.808936
816.549562	3774.778191
816.868502	3814.908297
817.187399	3833.401769
817.506250	3834.135257
817.825058	3810.227585
818.143821	3906.828696
818.462539	4010.179911
818.781213	4052.586097
819.099843	4118.287456
819.418429	4385.176222
819.736970	4631.086228
820.055466	4888.656422
820.373919	5261.099388
820.692327	5682.895251
821.010691	6180.275654
821.329011	7674.524066
821.647286	10583.458878
821.965517	15346.436814
822.283704	19374.482575
822.601847	21367.853108
822.919945	19426.754299
823.237999	16750.924961
823.556010	14215.050657
823.873976	12054.923795
824.191897	9929.061657
824.509775	8583.418899
824.827609	7451.669778
825.145398	6925.953049
825.463144	6805.146838
825.780845	6915.374188
826.098502	7150.228942
826.416116	8103.422915
826.733685	9485.180499
827.051210	10572.963196
827.368692	10508.867446
827.686129	9169.468157
828.003522	7656.897672
828.320872	6629.896166
828.638177	5915.700777
828.955439	5336.139484
829.272656	4829.541331
829.589830	4561.160383
829.906960	4381.597003
830.224046	4188.946788
830.541088	4067.439857
830.858086	4019.246427
831.175041	3937.804066
831.491952	3926.521963
831.808819	3935.840536
832.125642	4020.131149
832.442421	4181.773227
832.759157	4472.433554
833.075849	5056.650353
833.392497	5963.072500
833.709101	6755.209168
834.025662	7056.493728
834.342179	6639.726416
834.658653	5955.538495
834.975083	5288.603924
835.291469	4705.251683
835.607811	4304.152277
835.924110	4158.823374
836.240366	3951.979790
836.556578	3745.932709
836.872746	3639.047645
837.188871	3594.710697
837.504952	3522.228987
837.820990	3440.640432
838.136984	3400.951428
838.452935	3426.268103
838.768842	3419.500353
839.084706	3444.272583
839.400526	3616.793471
839.716303	3983.849965
840.032037	4538.376888
840.347727	4769.680150
840.663373	4457.821770
840.978977	4061.745874
841.294537	3751.661980
841.610054	3525.689739
841.925527	3422.562854
842.240957	3352.057277
842.556344	3293.743730
842.871687	3232.758371
843.186987	3182.820701
843.502244	3146.484064
843.817458	3110.893518
844.132629	3079.048549
844.447756	3090.476845
844.762840	3068.326015
845.077881	3035.881149
845.392879	3025.259438
845.707833	3022.249869
846.022745	3021.105527
846.337613	3017.296935
846.652438	3004.741941
846.967221	3001.893689
847.281960	2989.595795
847.596656	2982.974239
847.911309	2984.700834
848.225919	2978.936275
848.540485	2974.051397
848.855009	2973.761530
849.169490	2956.548511
849.483928	2950.705813
849.798323	2955.416772
850.112675	2949.533745
850.426984	2963.903554
850.741251	2957.897019
851.055474	2945.334464
851.369654	2943.000410
851.683792	2946.735905
851.997887	2958.310394
852.311938	2959.056485
852.625947	2943.045780
852.939914	2949.911832
853.253837	2951.285546
853.567718	2940.802467
853.881555	2940.217693
854.195350	2956.530867
854.509103	2949.377469
854.822812	2940.845316
855.136479	2936.550253
855.450103	2940.978907
855.763685	2932.751744
856.077224	2934.062444
856.390720	2945.379834
856.704173	2954.126236
857.017584	2945.629371
857.330953	2946.272118
857.644278	2955.003397
857.957561	2963.810293
858.270802	2969.257259
858.584000	2959.792493
858.897155	2947.703806
859.210268	2948.283539
859.523339	2947.320678
859.836367	2948.207922
860.149352	2943.048301
860.462295	2937.661828
860.775195	2945.657098
861.088054	2944.903445
861.400869	2927.191351
861.713642	2927.506423
862.026373	2941.651901
862.339062	2942.259360
862.651708	2946.042746
862.964312	2949.082562
863.276873	2941.840944
863.589392	2959.051443
863.901869	2968.843885
864.214303	2991.597133
864.526696	3005.107425
864.839045	2999.620129
865.151353	3001.132475
865.463619	3001.084584
865.775842	3004.512569
866.088023	3022.133922
866.400162	3024.813295
866.712258	2995.090652
867.024313	2985.464569
867.336325	2997.349089
867.648296	3018.335413
867.960224	3010.193949
868.272110	2993.094355
868.583954	3000.436796
868.895755	3015.270391
869.207515	3000.091477
869.519233	3008.369052
869.830909	3018.844569
870.142542	3028.306815
870.454134	3024.538553
870.765684	3030.061137
871.077191	3028.407638
871.388657	3039.321736
871.700081	3054.036864
872.011463	3062.558935
872.322803	3063.887279
872.634101	3060.638255
872.945357	3083.603232
873.256571	3108.904783
873.567744	3098.172166
873.878874	3096.508585
874.189963	3116.214456
874.501010	3116.693365
874.812015	3105.438989
875.122979	3107.155502
875.433900	3105.549895
875.744780	3109.852520
876.055618	3119.884416
876.366415	3114.553396
876.677169	3126.846249
876.987882	3121.956330
877.298554	3119.176134
877.609183	3145.871564
877.919771	3168.707991
878.230317	3194.848894
878.540822	3250.218407
878.851285	3286.567647
879.161707	3335.555060
879.472087	3451.181485
879.782425	3703.924774
880.092722	4165.016431
880.402977	4714.020770
880.713191	5380.720928
881.023363	6612.340348
881.333494	7926.130575
881.643583	8443.607538
881.953631	8112.381045
882.263637	7432.478105
882.573602	6806.946530
882.883526	6219.095060
883.193408	5637.497140
883.503248	5184.730949
883.813048	4865.817474
884.122806	4538.001322
884.432522	4212.620047
884.742197	3969.011328
885.051831	3771.156122
885.361424	3644.960918
885.670975	3569.361254
885.980485	3470.650421
886.289954	3393.314080
886.599382	3347.069055
886.908768	3312.068324
887.218113	3266.849174
887.527417	3207.718960
887.836680	3155.384221
888.145901	3150.547234
888.455082	3137.697333
888.764221	3085.660022
889.073319	3057.230435
889.382376	3053.986453
889.691392	3061.991805
890.000366	3058.369736
890.309300	3043.478168
890.618193	3056.577606
890.927044	3072.401788
891.235855	3070.536561
891.544625	3061.704459
891.853353	3074.105698
892.162041	3094.356013
892.470687	3139.068527
892.779293	3189.379242
893.087858	3238.354052
893.396381	3315.085454
893.704864	3447.798871
894.013306	3706.082388
894.321707	4019.531252
894.630068	4215.407805
894.938387	4202.056309
895.246665	4161.860669
895.554903	4031.088097
895.863100	3820.065397
896.171256	3649.399654
896.479371	3502.351717
896.787446	3371.720297
897.095480	3267.496962
897.403473	3205.402550
897.711425	3171.352076
898.019336	3159.722134
898.327207	3127.118472
898.635038	3090.207143
898.942827	3078.526790
899.250576	3063.239491
899.558284	3032.039789
899.865952	3013.654701
900.173579	2988.824498
900.481165	2982.578508
900.788711	2969.521920
901.096216	2945.888991
901.403681	2933.021446
901.711105	2943.917900
902.018489	2938.012188
902.325832	2938.261725
902.633135	2950.090793
902.940397	2988.413644
903.247619	3077.992427
903.554800	3289.050415
903.861941	3663.008249
904.169041	4109.745220
904.476101	4400.541659
904.783121	4328.667408
905.090100	4067.752409
905.397039	3783.116260
905.703938	3525.780479
906.010796	3338.168898
906.317614	3221.461145
906.624391	3127.887247
906.931129	3053.404199
907.237826	2988.983294
907.544483	2942.377827
907.851099	2910.580749
908.157675	2890.020403
908.464211	2866.183307
908.770707	2852.922552
909.077163	2841.247240
909.383578	2822.529436
909.689954	2810.750780
909.996289	2814.597180
910.302584	2814.519042
910.608839	2814.629947
910.915054	2805.719708
911.221229	2799.445992
911.527363	2803.768782
911.833458	2812.822694
912.139513	2816.331337
912.445527	2816.656491
912.751502	2827.283244
913.057436	2837.892352
913.363331	2852.052953
913.669186	2876.593290
913.975000	2912.864392
914.280775	2979.039618
914.586510	3049.976215
914.892205	3136.232878
915.197859	3273.601799
915.503475	3484.443018
915.809050	3710.969787
916.114585	3855.814739
916.420081	3869.299826
916.725536	3800.856080
917.030952	3670.358251
917.336328	3540.883776
917.641665	3402.476377
917.946961	3299.641880
918.252218	3226.003225
918.557435	3145.453148
918.862612	3081.750607
919.167750	3028.919315
919.472848	2989.638644
919.777906	2962.408852
920.082925	2933.313833
920.387904	2901.065571
920.692843	2885.889178
920.997743	2874.667569
921.302603	2858.125023
921.607423	2846.900894
921.912204	2833.675427
922.216946	2823.010866
922.521647	2812.923517
922.826310	2805.089564
923.130932	2798.793163
923.435516	2791.128088
923.740059	2782.306069
924.044564	2771.732249
924.349028	2767.500200
924.653454	2762.280085
924.957840	2754.738519
925.262186	2750.665267
925.566493	2745.883732
925.870761	2741.565984
926.174989	2733.931157
926.479178	2732.685992
926.783328	2724.637790
927.087438	2727.934704
927.391509	2725.025958
927.695541	2720.587222
927.999533	2717.297870
928.303486	2715.457848
928.607400	2712.763352
928.911275	2712.738146
929.215110	2710.431818
929.518906	2708.518700
929.822663	2712.629761
930.126381	2710.867878
930.430060	2711.336705
930.733699	2711.964329
931.037299	2714.550441
931.340861	2715.858620
931.644383	2714.968857
931.947866	2713.247302
932.251309	2712.329812
932.554714	2713.476675
932.858080	2708.286807
933.161407	2710.083978
933.464694	2706.267825
933.767943	2700.911599
934.071153	2706.169522
934.374323	2705.781354
934.677455	2704.190870
934.980548	2701.821527
935.283602	2702.905375
935.586617	2702.791949
935.889593	2703.626260
936.192530	2703.217927
936.495428	2705.947712
936.798287	2705.378061
937.101108	2709.413505
937.403890	2712.407950
937.706632	2717.134032
938.009336	2725.111658
938.312002	2736.237485
938.614628	2743.831983
938.917216	2747.675863
939.219765	2749.888929
939.522275	2748.905904
939.824747	2747.214597
940.127179	2746.244175
940.429573	2741.071951
940.731929	2738.352249
941.034246	2734.430231
941.336524	2732.317987
941.638763	2728.027966
941.940964	2726.949159
942.243126	2723.561503
942.545250	2723.866493
942.847335	2718.905998
943.149381	2716.849207
943.451389	2711.936602
943.753359	2712.589432
944.055290	2705.680531
944.357182	2708.990048
944.659036	2705.491487
944.960851	2706.333360
945.262628	2705.763710
945.564367	2704.145499
945.866067	2707.765048
946.167729	2707.419729
946.469352	2706.295551
946.770937	2706.126673
947.072484	2703.051569
947.373992	2703.167515
947.675462	2700.780529
947.976893	2696.999664
948.278286	2697.733152
948.579641	2696.447657
948.880958	2695.076463
949.182236	2695.653676
949.483476	2695.769622
949.784678	2695.663758
950.085841	2696.656865
950.386967	2694.244673
950.688054	2697.528985
950.989103	2697.690302
951.290114	2697.581917
951.591087	2700.422607
951.892021	2703.822865
952.192917	2704.059800
952.493776	2708.248998
952.794596	2710.540203
953.095378	2708.034749
953.396122	2706.373689
953.696828	2703.406970
953.997496	2703.452341
954.298126	2701.269521
954.598718	2698.915302
954.899272	2696.669468
955.199788	2693.218798
955.500266	2694.302646
955.800706	2691.257789
956.101108	2688.792665
956.401472	2685.531039
956.701798	2684.197653
957.002087	2679.295131
957.302337	2680.487364
957.602550	2681.399813
957.902724	2678.798578
958.202861	2676.560305
958.502960	2676.038546
958.803022	2677.634071
959.103045	2673.593586
959.403031	2674.319512
959.702979	2672.116528
960.002889	2673.454955
960.302762	2669.003616
960.602596	2670.253822
960.902393	2670.674758
961.202153	2670.127793
961.501875	2669.162412
961.801559	2670.389933
962.101205	2666.558656
962.400814	2669.046466
962.700385	2670.006805
962.999918	2664.637977
963.299414	2666.057061
963.598873	2664.461536
963.898293	2662.644200
964.197677	2667.536640
964.497022	2668.885149
964.796331	2667.309788
965.095601	2667.725683
965.394835	2666.533450
965.694030	2666.919099
965.993189	2664.728717
966.292309	2666.651918
966.591393	2668.708708
966.890439	2669.086795
967.189447	2667.428255
967.488419	2665.658810
967.787353	2667.738286
968.086249	2667.564366
968.385108	2666.616629
968.683930	2666.815755
968.982714	2668.292813
969.281462	2665.494973
969.580172	2668.000426
969.878844	2666.730055
970.177480	2666.518327
970.476078	2664.610250
970.774639	2666.833399
971.073162	2668.270128
971.371649	2668.033194
971.670098	2667.478667
971.968510	2667.655107
972.266885	2667.392967
972.565223	2667.715601
972.863524	2667.524037
973.161788	2666.573780
973.460014	2666.238543
973.758204	2667.098060
974.056356	2668.277690
974.354471	2665.557987
974.652550	2666.104952
974.950591	2667.723163
975.248595	2666.790549
975.546563	2666.581341
975.844493	2664.191834
976.142386	2666.024294
976.440243	2666.230981
976.738062	2665.726866
977.035845	2668.890190
977.333590	2667.786177
977.631299	2664.211999
977.928971	2661.779642
978.226606	2662.152688
978.524204	2662.001453
978.821765	2661.325938
979.119290	2663.009684
979.416777	2662.929025
979.714228	2664.206958
980.011642	2662.661844
980.309020	2664.025476
980.606360	2667.113183
980.903664	2664.184273
981.200931	2662.641680
981.498162	2665.832730
981.795356	2664.877431
982.092513	2668.527227
982.389633	2671.809018
982.686717	2676.449400
982.983764	2679.416119
983.280775	2680.494926
983.577749	2683.570030
983.874686	2682.264371
984.171587	2680.404185
984.468451	2677.339164
984.765279	2675.484019
985.062070	2672.207269
985.358824	2671.206600
985.655543	2669.719460
985.952224	2667.657628
986.248869	2669.787515
986.545478	2667.627381
986.842050	2664.600168
987.138586	2664.479180
987.435086	2665.943635
987.731549	2659.770742
988.027975	2662.364416
988.324366	2662.256031
988.620719	2661.787204
988.917037	2661.429282
989.213318	2661.449447
989.509563	2660.060609
989.805772	2662.177893
990.101944	2661.872904
990.398080	2660.801658
990.694180	2659.435506
990.990244	2659.884168
991.286271	2657.761843
991.582262	2660.675630
991.878217	2660.698315
992.174136	2663.405414
992.470019	2660.108500
992.765865	2655.455515
993.061676	2656.481390
993.357450	2660.032882
993.653188	2656.985505
993.948890	2660.978099
994.244556	2662.802997
994.540186	2663.057575
994.835780	2659.417862
995.131337	2663.453305
995.426859	2663.264262
995.722345	2663.947338
996.017795	2663.838954
996.313208	2666.591424
996.608586	2666.931702
996.903928	2665.837771
997.199234	2667.133348
997.494504	2667.362720
997.789738	2665.046310
998.084936	2665.585713
998.380099	2665.094201
998.675225	2664.060764
998.970316	2663.596978
999.265371	2662.314005
999.560390	2660.073212
999.855373	2661.230157
1000.150320	2661.444406
1000.445232	2660.736123
1000.740108	2660.814261
1001.034948	2661.696463
1001.329752	2660.657986
1001.624521	2657.272851
1001.919254	2657.862666
1002.213951	2661.348624
1002.508613	2659.427944
1002.803239	2659.632111
1003.097829	2660.176555
1003.392384	2658.702018
1003.686903	2659.070022
1003.981386	2659.664878
1004.275834	2657.106493
1004.570246	2657.857625
1004.864623	2662.369457
1005.158964	2657.285454
1005.453270	2659.916936
1005.747540	2657.779487
1006.041775	2659.339724
1006.335974	2659.422903
1006.630138	2658.843170
1006.924266	2658.949034
1007.218359	2658.137409
1007.512416	2656.118427
1007.806438	2654.774959
1008.100425	2656.337717
1008.394376	2655.873931
1008.688292	2656.793941
1008.982172	2659.841319
1009.276017	2657.212357
1009.569827	2658.853252
1009.863602	2656.002480
1010.157341	2658.389466
1010.451045	2657.149342
1010.744714	2660.234529
1011.038347	2659.448109
1011.331945	2659.226298
1011.625508	2655.732778
1011.919036	2658.102121
1012.212528	2657.759322
1012.505986	2658.147491
1012.799408	2658.765032
1013.092795	2657.953407
1013.386147	2655.919301
1013.679464	2658.124806
1013.972745	2657.905516
1014.265992	2657.030875
1014.559204	2658.341575
1014.852380	2659.241421
1015.145521	2657.779487
1015.438628	2657.923160
1015.731699	2656.418375
1016.024736	2661.615805
1016.317737	2657.235042
1016.610703	2657.749240
1016.903635	2659.460712
1017.196531	2657.436688
1017.489393	2658.109682
1017.782219	2658.311328
1018.075011	2656.849394
1018.367768	2658.669250
1018.660490	2657.166987
1018.953177	2657.166987
1019.245829	2657.166987
