Dividing Wavelength (nm)	Counts (n)	Blue Motor Position (mm): 42.400000	Red Motor Position (mm): 0.000000	
326.493990	2256.685122
326.888308	2256.685122
327.282561	2256.685122
327.676750	2218.493341
328.070874	2213.482434
328.464933	2216.449153
328.858929	2218.115254
329.252859	2225.026676
329.646726	2231.759137
330.040528	2243.071486
330.434265	2257.975658
330.827938	2274.581218
331.221547	2292.013528
331.615091	2309.307207
332.008571	2328.876966
332.401986	2346.556292
332.795338	2369.629653
333.188625	2385.761346
333.581847	2407.352608
333.975006	2423.464135
334.368100	2445.869544
334.761129	2461.383695
335.154095	2479.199132
335.546996	2506.580159
335.939833	2546.233876
336.332606	2563.487225
336.725315	2574.131621
337.117960	2590.699373
337.510540	2599.259252
337.903056	2607.188987
338.295508	2618.924793
338.687896	2626.504168
339.080220	2630.504324
339.472480	2638.981024
339.864676	2642.479585
340.256807	2651.190699
340.648875	2656.982984
341.040879	2653.983498
341.432818	2660.887358
341.824694	2663.095383
342.216506	2661.593120
342.608253	2666.281393
342.999937	2663.501196
343.391557	2667.234171
343.783113	2665.615960
344.174605	2662.440033
344.566033	2663.052534
344.957397	2661.361227
345.348697	2658.523057
345.739934	2657.582882
346.131106	2658.059271
346.522215	2656.720844
346.913260	2655.039620
347.304241	2651.513332
347.695159	2648.435708
348.086012	2650.268167
348.476802	2647.503095
348.867528	2639.903555
349.258191	2641.705768
349.648789	2637.869450
350.039324	2635.487504
350.429796	2639.550674
350.820203	2636.581435
351.210548	2639.543113
351.600828	2636.939357
351.991045	2635.263173
352.381198	2634.229737
352.771288	2633.869294
353.161314	2633.995323
353.551276	2633.629839
353.941175	2630.806793
354.331010	2632.177987
354.720782	2629.939715
355.110490	2634.126393
355.500135	2632.810652
355.889717	2632.679582
356.279235	2631.515075
356.668689	2632.130096
357.058080	2634.096146
357.447408	2634.711167
357.836672	2633.672689
358.225873	2633.317288
358.615010	2635.036321
359.004084	2635.553039
359.393095	2634.801907
359.782043	2639.338946
360.170927	2636.694861
360.559748	2638.118987
360.948505	2638.615540
361.337199	2638.292907
361.725830	2639.787609
362.114398	2639.951446
362.502903	2641.693165
362.891344	2643.694503
363.279722	2641.393216
363.668037	2640.226189
364.056289	2643.452527
364.444478	2644.163330
364.832603	2643.329019
365.220665	2647.800523
365.608665	2646.323465
365.996601	2645.325316
366.384474	2644.851448
366.772284	2648.367652
367.160031	2646.774648
367.547715	2647.800523
367.935336	2648.816315
368.322893	2646.260450
368.710388	2645.957981
369.097820	2646.862868
369.485189	2647.752632
369.872495	2648.803712
370.259738	2653.129022
370.646918	2652.629948
371.034035	2654.170021
371.421090	2652.569454
371.808081	2655.654640
372.195010	2652.387973
372.581875	2655.180772
372.968678	2654.951399
373.355418	2655.188334
373.742096	2656.257058
374.128710	2655.359733
374.515262	2658.170176
374.901751	2658.785197
375.288177	2659.473314
375.674540	2657.759322
376.060841	2659.203613
376.447079	2660.836947
376.833254	2661.426762
377.219367	2661.449447
377.605417	2662.185455
377.991404	2662.757626
378.377329	2664.640497
378.763191	2662.298881
379.148991	2664.761485
379.534727	2666.062102
379.920402	2667.143430
380.306013	2667.597134
380.691563	2675.468896
381.077049	2674.125428
381.462474	2679.169102
381.847835	2684.512726
382.233134	2695.220136
382.618371	2702.340766
383.003545	2718.328786
383.388657	2735.100704
383.773706	2757.304467
384.158693	2775.908845
384.543618	2802.846250
384.928480	2836.972341
385.313280	2875.103629
385.698017	2909.186870
386.082692	2962.441619
386.467305	2998.730365
386.851856	3042.658980
387.236344	3104.461006
387.620770	3150.027995
388.005133	3207.862633
388.389435	3267.307919
388.773674	3310.578663
389.157851	3387.715878
389.541965	3467.340903
389.926018	3490.094151
390.310008	3589.432608
390.693936	3668.021676
391.077802	3731.716655
391.461606	3770.778036
391.845348	3857.077548
392.229027	3939.732307
392.612645	3987.310717
392.996200	4102.422944
393.379694	4185.087785
393.763125	4302.176145
394.146494	4362.859034
394.529801	4453.698106
394.913047	4560.588212
395.296230	4551.720822
395.679351	4682.022046
396.062410	4758.014920
396.445408	4766.416003
396.828343	4853.625444
397.211217	4929.759470
397.594028	4843.535574
397.976778	4977.584896
398.359466	5039.006315
398.742092	5079.607768
399.124656	5009.402139
399.507158	5137.298732
399.889598	5220.336618
400.271977	5346.937636
400.654294	5350.385785
401.036549	5396.096447
401.418742	5324.847299
401.800874	5532.205081
402.182944	5595.998362
402.564952	5709.439447
402.946898	5770.565958
403.328783	5619.613647
403.710606	5634.351460
404.092367	5961.774403
404.474067	5981.323997
404.855705	5887.041818
405.237282	5824.365152
405.618797	6071.396814
406.000250	6057.147992
406.381642	6255.867756
406.762972	6284.393125
407.144240	6337.047977
407.525447	6322.910061
407.906593	6348.264545
408.287677	6501.989490
408.668700	6414.359113
409.049661	6533.393358
409.430560	6564.812349
409.811399	6420.272386
410.192176	6695.781526
410.572891	6699.617844
410.953545	6897.072279
411.334138	6630.952288
411.714669	6799.646939
412.095139	6594.580363
412.475547	6845.148394
412.855894	6912.427633
413.236180	7085.707214
413.616405	6772.651561
413.996568	6991.185580
414.376670	7019.708428
414.756711	6922.693943
415.136691	7017.883531
415.516609	7219.960703
415.896466	7202.961932
416.276262	7402.521048
416.655997	7394.339256
417.035670	7576.266936
417.415283	7917.900891
417.794834	7968.440979
418.174324	7832.445772
418.553753	7749.702793
418.933121	8061.803148
419.312428	8160.829054
419.691674	7941.425436
420.070859	8417.801871
420.449983	8094.432017
420.829045	8460.318963
421.208047	8235.808656
421.586988	8537.569604
421.965867	8556.708345
422.344686	8658.317842
422.723444	8708.089154
423.102141	8065.833551
423.480777	8823.082914
423.859352	8344.674894
424.237866	8968.636149
424.616319	8836.983896
424.994712	9248.258871
425.373044	8810.583373
425.751314	9273.744424
426.129524	9145.983942
426.507673	9263.949462
426.885762	9412.353470
427.263789	9327.031941
427.641756	9255.293801
428.019662	9346.558850
428.397508	9606.480742
428.775292	9279.468654
429.153016	9664.464094
429.530679	9493.700049
429.908282	9527.009473
430.285824	9243.048838
430.663305	9929.762377
431.040726	9379.306186
431.418086	9361.853711
431.795385	9688.558289
432.172624	9777.511969
432.549802	9693.717910
432.926920	9767.631307
433.303977	9641.330239
433.680974	9848.148617
434.057910	9939.985837
434.434786	10011.600468
434.811601	9840.614612
435.188355	10412.500749
435.565050	10151.149689
435.941683	10072.018697
436.318257	10561.366022
436.694770	10713.422345
437.071222	10761.106619
437.447614	10595.734088
437.823946	10509.676551
438.200218	10632.887392
438.576429	10452.414084
438.952580	10694.739829
439.328670	10740.619370
439.704700	10535.351147
440.080670	10520.499908
440.456580	11059.374048
440.832429	10830.631693
441.208218	10431.405076
441.583947	10755.901628
441.959616	10913.800649
442.335224	10716.951153
442.710773	10846.539054
443.086261	11058.731301
443.461689	10330.985291
443.837057	11005.085863
444.212365	11258.781930
444.587612	10898.253730
444.962800	11122.390992
445.337927	10875.626511
445.712995	10510.989771
446.088002	11567.640823
446.462949	11254.590211
446.837837	11217.847761
447.212664	11174.703046
447.587431	11731.175854
447.962139	12464.731794
448.336786	14746.163941
448.711374	15263.245173
449.085901	13095.052465
449.460369	12739.184812
449.834776	12174.825119
450.209124	13076.092686
450.583412	13498.566584
450.957640	14434.262711
451.331808	13517.574254
451.705917	12558.376268
452.079965	11828.888539
452.453954	12739.386459
452.827883	12384.287582
453.201752	12674.451356
453.575562	12208.260572
453.949311	12620.143006
454.323001	12600.348915
454.696632	12833.250223
455.070202	13117.851084
455.443713	13323.139471
455.817164	13811.269357
456.190556	13782.232311
456.563888	14151.733764
456.937160	14302.318071
457.310373	13662.525072
457.683526	13754.379936
458.056619	13291.302064
458.429653	13481.280467
458.802628	12860.469933
459.175542	13261.292075
459.548398	14213.167786
459.921194	14564.528647
460.293930	14635.432476
460.666607	15483.505787
461.039224	16552.142182
461.411782	17260.956140
461.784280	17077.478304
462.156719	17162.971232
462.529099	16848.733428
462.901419	15787.358815
463.273680	15554.550768
463.645882	15449.185612
464.018024	15177.331308
464.390106	15402.502007
464.762130	16115.979031
465.134094	16903.790390
465.505999	18940.103992
465.877845	22208.510882
466.249631	25030.838672
466.621358	24669.158568
466.993026	23239.288212
467.364634	22676.682840
467.736184	21191.652178
468.107674	20385.238962
468.479105	20522.771721
468.850477	19981.432457
469.221790	19587.919987
469.593043	18895.827538
469.964238	18319.381678
470.335373	17966.715157
470.706449	18452.616853
471.077467	18026.352007
471.448425	19883.439988
471.819324	24006.708103
472.190164	25889.296760
472.560945	22245.278538
472.931667	19939.381672
473.302330	19317.575510
473.672934	18910.348581
474.043479	19173.156534
474.413965	18980.435743
474.784393	18591.614068
475.154761	19339.859930
475.525070	19276.326268
475.895321	18972.001893
476.265513	19572.773841
476.635645	20162.586320
477.005719	19928.815413
477.375734	20108.945923
477.745691	20607.256419
478.115588	21133.648662
478.485427	21688.162982
478.855207	22773.162963
479.224928	24553.204468
479.594591	26792.923587
479.964194	26729.538639
480.333739	26970.843550
480.703226	26544.324126
481.072653	26232.009522
481.442022	26842.135331
481.811333	27771.288040
482.180584	27652.054670
482.549777	26708.262449
482.918912	26379.760700
483.287988	26504.131007
483.657005	26139.753886
484.025964	25921.479486
484.394864	25796.040455
484.763706	25479.690407
485.132489	24923.089049
485.501213	25110.234324
485.869879	25007.571226
486.238487	24848.943759
486.607036	24989.050027
486.975527	24723.834923
487.343959	25020.925243
487.712333	24931.986686
488.080648	24602.673311
488.448905	25106.602173
488.817104	24867.391861
489.185244	25571.270529
489.553326	25500.613716
489.921350	26541.687603
490.289315	28879.447082
490.657222	30618.224222
491.025070	31119.604781
491.392861	30872.517666
491.760593	30021.414621
492.128267	29096.536810
492.495883	28059.863851
492.863440	27175.242174
493.230939	26307.478116
493.598380	26149.022048
493.965763	25767.202535
494.333088	25270.326247
494.700354	25234.967594
495.067563	25092.827220
495.434713	24833.548075
495.801805	25003.041749
496.168839	24785.072339
496.535815	24647.398428
496.902733	24876.286977
497.269593	24555.626743
497.636395	24732.621654
498.003139	24668.072200
498.369825	24417.448716
498.736453	24624.753565
499.103023	24493.877649
499.469535	24491.462937
499.835989	24713.099786
500.202385	24741.239507
500.568723	24265.924234
500.935003	24459.575118
501.301226	24129.608913
501.667390	24976.147194
502.033497	25197.416039
502.399546	24921.004532
502.765537	24464.545696
503.131470	24852.701939
503.497345	24995.132179
503.863163	24224.551484
504.228923	24785.430261
504.594625	25031.521748
504.960269	24577.409568
505.325856	25058.353289
505.691385	24445.167500
506.056856	25056.586365
506.422270	25038.644898
506.787625	24574.725154
507.152924	25000.526214
507.518164	25047.537494
507.883347	24856.679409
508.248472	24524.505179
508.613540	25303.746576
508.978550	25100.842655
509.343503	25118.353102
509.708398	25337.368552
510.073236	25503.225034
510.438016	25711.487702
510.802738	25370.468768
511.167403	25633.798480
511.532010	25355.025193
511.896561	26108.876819
512.261053	26092.344355
512.625488	25903.996765
512.989866	25804.736446
513.354186	25629.442923
513.718449	25774.706292
514.082655	26139.874874
514.446803	25864.504366
514.810894	26344.661667
515.174927	25845.378228
515.538904	25868.635591
515.902822	26361.305036
516.266684	26117.290505
516.630488	26023.542687
516.994235	25982.379145
517.357925	26312.161348
517.721558	26460.570396
518.085133	26579.702944
518.448651	26468.409391
518.812112	26236.075213
519.175516	26461.185417
519.538863	26599.403773
519.902152	26388.101289
520.265385	26654.927042
520.628560	26453.117050
520.991678	26441.373682
521.354739	26502.648907
521.717743	26585.845590
522.080690	26359.651538
522.443580	26704.163991
522.806413	26664.827868
523.169189	26786.037371
523.531908	26829.028331
523.894569	26442.472654
524.257174	26538.304989
524.619722	26685.466352
524.982213	26387.478707
525.344647	26425.456239
525.707025	26593.588802
526.069345	26552.137915
526.431608	26519.214139
526.793815	26701.950925
527.155964	26188.738778
527.518057	26361.867125
527.880093	26275.688600
528.242072	26498.053896
528.603995	26227.936270
528.965860	26021.294333
529.327669	26065.250673
529.689421	26042.429370
530.051117	25881.263682
530.412755	26057.139457
530.774337	25837.806415
531.135862	25728.592337
531.497331	25915.427581
531.858743	25509.639902
532.220098	25963.580683
532.581396	25656.473590
532.942638	25549.051643
533.303824	25668.070765
533.664953	25658.195144
534.026025	25338.069272
534.387040	25578.060963
534.747999	25633.483408
535.108902	25788.755988
535.469748	25286.480624
535.830537	25454.325842
536.191270	25594.154847
536.551947	25422.662354
536.912567	25049.934562
537.273131	25477.235365
537.633638	25152.224615
537.994089	25372.623861
538.354483	24872.201122
538.714821	25382.544852
539.075103	25429.324239
539.435328	25203.551123
539.795497	24787.648369
540.155609	25139.039477
540.515665	25456.606964
540.875665	24675.117212
541.235609	25011.727657
541.595496	24933.403250
541.955328	25306.672966
542.315102	25220.968310
542.674821	24739.820422
543.034483	24617.726196
543.394090	24805.103364
543.753640	24599.091571
544.113134	25228.043569
544.472571	24806.671163
544.831953	25122.237312
545.191278	24769.729588
545.550548	24650.738192
545.909761	24867.321285
546.268918	25101.044301
546.628019	25069.950464
546.987064	24737.902263
547.346053	24487.808100
547.704986	24605.241779
548.063863	24760.831951
548.422684	24782.564365
548.781449	24294.285766
549.140158	24708.618200
549.498811	24279.343786
549.857408	24026.129148
550.215949	24433.386324
550.574434	24126.102791
550.932864	24326.962525
551.291237	24497.592980
551.649555	24349.413303
552.007817	24417.877214
552.366022	24258.642287
552.724173	24289.574807
553.082267	24267.557568
553.440305	24737.940072
553.798288	23989.243026
554.156215	24482.398942
554.514086	24604.969557
554.871902	23982.878569
555.229661	24270.015130
555.587365	24116.547284
555.945014	24007.282795
556.302606	24231.102464
556.660143	24213.995308
557.017625	24442.173055
557.375050	23968.168482
557.732421	24351.659137
558.089735	24175.962323
558.446994	24218.313057
558.804197	24264.825263
559.161345	24163.457741
559.518437	23950.050575
559.875474	24135.358349
560.232455	24311.332427
560.589381	24123.861998
560.946251	24143.383866
561.303065	24438.712303
561.659825	24522.672720
562.016528	24123.960301
562.373177	23867.373132
562.729770	24224.334715
563.086307	24087.968983
563.442789	24241.497323
563.799216	24098.162196
564.155587	24078.567231
564.511904	24070.226642
564.868164	24014.736141
565.224370	23982.112314
565.580520	23915.062447
565.936615	24036.289594
566.292654	23734.758018
566.648638	23979.422858
567.004567	23819.716584
567.360441	23758.794239
567.716260	23499.167255
568.072023	23794.031905
568.427732	23578.421755
568.783385	23345.961548
569.138982	23588.849382
569.494525	23623.658549
569.850013	23392.446028
570.205445	23485.273835
570.560823	23307.666423
570.916145	23061.728691
571.271412	23257.247323
571.626625	22997.731243
571.981782	23107.303243
572.336884	22908.165063
572.691931	23060.944792
573.046923	22786.305251
573.401860	22658.355725
573.756743	22699.582281
574.111570	22583.688675
574.466342	22505.172704
574.821059	22579.494435
575.175722	22300.169142
575.530330	22264.412237
575.884882	22282.283128
576.239380	22198.322710
576.593823	22082.718970
576.948211	22062.531670
577.302544	21906.916292
577.656823	21770.001074
578.011047	21879.283207
578.365216	21752.218404
578.719330	21628.664764
579.073389	21512.801405
579.427394	21675.524810
579.781344	21422.834452
580.135239	21303.792646
580.489080	21267.773601
580.842866	21044.848737
581.196597	21250.560582
581.550273	21206.800846
581.903895	21088.671488
582.257463	21392.310266
582.610975	20928.176272
582.964434	21257.729102
583.317837	20936.274886
583.671186	21028.235615
584.024481	21015.516783
584.377721	20770.294896
584.730906	20859.425016
585.084037	20848.500836
585.437113	20764.235429
585.790135	20981.269705
586.143103	20417.933365
586.496016	20448.944023
586.848874	20686.213491
587.201679	20613.381421
587.554428	20301.759975
587.907124	20627.053030
588.259765	20397.902341
588.612352	20472.357662
588.964884	20038.210973
589.317362	20209.985769
589.669786	20275.026736
590.022155	20275.729977
590.374470	20510.776296
590.726731	20261.831516
591.078937	20062.963038
591.431090	20142.971191
591.783188	19906.518390
592.135232	19865.700167
592.487222	19967.397884
592.839157	19978.241406
593.191038	19858.395535
593.542866	19752.153218
593.894639	19454.359658
594.246358	19668.598614
594.598022	19557.778929
594.949633	19318.707249
595.301190	19291.721952
595.652692	19463.907603
596.004141	19692.102993
596.355535	19018.993008
596.706876	19035.583446
597.058162	18934.783054
597.409395	19177.204581
597.760573	19216.182782
598.111698	18998.737652
598.462768	18945.671946
598.813785	18915.145239
599.164748	18716.259117
599.515657	18776.258930
599.866511	18559.958142
600.217312	18915.730013
600.568060	18430.662628
600.918753	18736.844669
601.269392	18653.360641
601.619978	18436.543134
601.970510	18615.491493
602.320988	18569.702692
602.671412	18783.838305
603.021783	18706.204536
603.372100	18405.872754
603.722363	18571.058763
604.072572	18513.181276
604.422728	18661.970931
604.772830	18413.316018
605.122878	18369.929327
605.472872	18351.660186
605.822813	18333.559923
606.172701	18319.979054
606.522534	18503.177106
606.872314	18524.286938
607.222041	18365.074696
607.571714	18580.364733
607.921333	18411.289474
608.270899	18482.049630
608.620411	18643.575761
608.969870	18433.687321
609.319276	18423.247091
609.668627	18457.325291
610.017926	18584.193489
610.367171	18707.852993
610.716362	18762.904914
611.065500	18570.201767
611.414585	18718.205002
611.763616	18694.582156
612.112594	18633.443042
612.461518	18595.994830
612.810389	18793.343401
613.159207	18645.985432
613.507971	18568.046673
613.856682	18821.478080
614.205340	18750.294467
614.553945	18901.145955
614.902496	18638.675759
615.250994	18858.107104
615.599439	18813.011462
615.947830	18784.826371
616.296169	18868.726295
616.644454	18824.873297
616.992686	18798.959246
617.340864	19016.563172
617.688990	18765.329709
618.037063	18932.111243
618.385082	18790.003636
618.733048	19063.529082
619.080961	18965.261870
619.428821	18979.319128
619.776628	18858.079378
620.124382	18786.845353
620.472083	18845.103448
620.819731	18854.449747
621.167326	18535.299338
621.514868	18585.534436
621.862357	18363.801805
622.209793	18362.155868
622.557176	18202.724337
622.904506	18034.740487
623.251783	17962.135269
623.599007	17699.478551
623.946179	17641.772463
624.293297	17581.674347
624.640363	17309.837688
624.987376	17335.620669
625.334336	17140.787635
625.681243	16995.720871
626.028097	16999.763877
626.374899	16913.408911
626.721647	16782.268335
627.068343	16618.410670
627.414987	16550.675207
627.761577	16526.439860
628.108115	16554.206535
628.454600	16280.628157
628.801032	16394.273409
629.147412	16314.202242
629.493739	16326.550548
629.840014	16138.719676
630.186236	16235.706435
630.532405	16000.496279
630.878521	16193.290167
631.224585	16095.549755
631.570597	15925.120947
631.916556	15939.029490
632.262462	15923.134732
632.608316	15840.316136
632.954117	15783.633402
633.299866	15771.378357
633.645562	15689.134453
633.991206	15449.823318
634.336797	15325.485779
634.682336	15286.245437
635.027823	15165.971068
635.373257	15034.923753
635.718639	14950.096258
636.063968	14895.760181
636.409245	14647.800947
636.754470	14678.529300
637.099642	14529.036403
637.444762	14295.197441
637.789829	14336.381147
638.134845	14173.473740
638.479808	14205.638822
638.824719	14121.126399
639.169577	13991.480525
639.514383	14032.954097
639.859137	13860.065206
640.203839	13950.347230
640.548489	13790.139361
640.893086	13779.169810
641.237632	13661.791584
641.582125	13812.060818
641.926566	13633.057007
642.270955	13644.210560
642.615292	13599.999640
642.959576	13608.176392
643.303809	13635.186894
643.647990	13568.976380
643.992118	13637.422646
644.336195	13398.968507
644.680219	13633.160350
645.024192	13541.895301
645.368112	13781.844142
645.711981	13817.646417
646.055797	14013.517929
646.399562	13988.654958
646.743274	14249.479217
647.086935	14518.472665
647.430544	14489.037368
647.774101	14528.043296
648.117606	14665.540767
648.461059	14647.082582
648.804460	14622.320435
649.147810	14356.507954
649.491108	14266.142751
649.834354	14267.521506
650.177548	13952.567858
650.520690	13765.518365
650.863781	13680.874872
651.206820	13732.652563
651.549807	13561.931367
651.892742	13351.899254
652.235626	13295.387919
652.578458	13302.659784
652.921238	12995.590500
653.263967	13195.729349
653.606644	13022.558152
653.949269	13005.675328
654.291843	12805.279381
654.634365	12971.143424
654.976836	12817.665496
655.319255	12808.851038
655.661622	12769.396447
656.003938	12691.724870
656.346203	12621.650311
656.688416	12697.557485
657.030577	12653.391936
657.372687	12551.553066
657.714746	12556.548850
658.056753	12742.748908
658.398708	12547.852859
658.740612	12547.457129
659.082465	12650.407573
659.424266	12628.690282
659.766016	12654.591730
660.107715	12562.570508
660.449362	12638.409627
660.790958	12594.007143
661.132503	12532.338708
661.473996	12612.692180
661.815438	12618.827264
662.156829	12646.329279
662.498168	12615.668982
662.839456	12621.262142
663.180693	12627.182977
663.521879	12733.316909
663.863013	12698.472454
664.204097	12684.800845
664.545129	12810.126450
664.886110	12778.694856
665.227040	12877.418292
665.567918	12875.104403
665.908746	12900.111046
666.249522	12885.806772
666.590248	12939.495061
666.930922	13050.985219
667.271545	13030.601313
667.612118	13116.008542
667.952639	13002.567457
668.293109	13029.925799
668.633528	12972.502015
668.973896	12957.618009
669.314213	13028.083257
669.654480	12765.451745
669.994695	12855.580014
670.334859	12884.105383
670.674973	12812.823467
671.015035	12852.535157
671.355047	12798.204121
671.695008	12769.396447
672.034918	12785.200465
672.374777	12821.310250
672.714585	12729.004202
673.054342	12777.880709
673.394049	12719.017677
673.733705	12816.790855
674.073310	12723.428686
674.412864	12735.776993
674.752368	12582.233529
675.091820	12631.747742
675.431223	12603.512239
675.770574	12472.162455
676.109875	12392.073644
676.449125	12347.850122
676.788324	12303.125005
677.127473	12119.211110
677.466571	12124.494239
677.805619	12012.986436
678.144616	11937.512802
678.483562	11915.377095
678.822458	11788.007302
679.161303	11760.101995
679.500098	11753.747620
679.838842	11703.908253
680.177535	11737.502502
680.516179	11806.498254
680.854771	11745.180179
681.193314	11954.078033
681.531805	12127.516411
681.870247	12563.480436
682.208638	12975.327582
682.546978	13275.946709
682.885268	13301.770020
683.223508	13009.315041
683.561697	12849.944004
683.899836	12757.315322
684.237925	12553.186400
684.575963	12468.255561
684.913951	12380.300029
685.251889	12340.936179
685.589776	12436.168617
685.927614	12358.585259
686.265401	12331.355466
686.603137	12379.024617
686.940824	12535.519677
687.278460	12662.836538
687.616046	12698.227958
687.953582	12854.397863
688.291068	12795.693627
688.628504	13020.093028
688.965889	13033.033670
689.303224	12990.927433
689.640510	12872.639278
689.977745	12560.790981
690.314930	12342.274606
690.652065	12245.733989
690.989150	11959.109105
691.326185	11733.320865
691.663170	11517.761127
692.000105	11284.176742
692.336990	11169.369505
692.673825	10896.990921
693.010610	10792.379417
693.347345	10578.798332
693.684030	10388.827490
694.020665	10330.854221
694.357251	10134.413058
694.693786	10062.102748
695.030272	9912.614892
695.366707	9801.802769
695.703093	9724.529442
696.039429	9716.201456
696.375716	9628.182910
696.711952	9504.742696
697.048139	9559.313187
697.384276	9506.902831
697.720363	9530.576089
698.056400	9462.097055
698.392388	9405.583200
698.728326	9369.647335
699.064214	9308.586359
699.400053	9349.371814
699.735842	9168.490173
700.071581	9134.608578
700.407270	9054.071104
700.742910	8971.988517
701.078501	8879.216162
701.414042	8746.948888
701.749533	8695.060292
702.084974	8550.384217
702.420366	8666.857557
702.755709	8545.854741
703.091002	8409.912466
703.426246	8440.494625
703.761440	8396.986947
704.096584	8355.830967
704.431679	8290.578272
704.766725	8271.832741
705.101721	8230.326401
705.436668	8276.770551
705.771565	8167.049838
706.106413	8253.654340
706.441212	8281.378166
706.775961	8242.112619
707.110661	8294.316287
707.445311	8425.005680
707.779913	8314.269174
708.114465	8448.815050
708.448967	8480.947364
708.783421	8645.664546
709.117825	8821.951175
709.452180	8849.637192
709.786485	8947.173437
710.120742	9234.413342
710.454949	9228.608453
710.789107	9334.734824
711.123216	9563.520029
711.457275	9734.468077
711.791286	9875.103666
712.125247	9883.774451
712.459159	9868.703922
712.793023	10096.090207
713.126837	9674.158233
713.460602	9828.079783
713.794318	9656.839349
714.127985	9688.553248
714.461602	9351.108492
714.795171	9306.005288
715.128691	9046.685814
715.462162	8806.106829
715.795584	8743.291531
716.128957	8584.192716
716.462281	8417.718692
716.795556	8468.538564
717.128782	8262.872090
717.461960	8000.532965
717.795088	8075.043739
718.128167	7977.220149
718.461198	7820.004204
718.794180	7760.876511
719.127113	7752.172959
719.459997	7581.683656
719.792833	7361.244081
720.125619	7433.662776
720.458357	7284.290867
720.791046	7276.625793
721.123686	7268.133969
721.456278	7103.290759
721.788821	7123.263811
722.121315	7028.628750
722.453761	7098.995696
722.786158	7030.672938
723.118506	7040.263733
723.450805	7007.070256
723.783056	7068.219452
724.115259	6984.407748
724.447412	6983.623849
724.779518	7035.545213
725.111574	7034.645367
725.443582	7110.996163
725.775542	7090.221568
726.107453	7289.389994
726.439315	7198.606375
726.771129	7270.866275
727.102895	7445.113757
727.434612	7551.209881
727.766281	7591.186231
728.097901	7661.623753
728.429473	7670.965011
728.760996	7652.897516
729.092471	7626.035728
729.423897	7558.857312
729.755276	7557.027373
730.086606	7484.379305
730.417887	7587.728000
730.749120	7801.946791
731.080305	7992.502407
731.411442	8099.768078
731.742530	8083.545645
732.073570	8198.521761
732.404562	8288.934856
732.735506	8144.914131
733.066401	8274.917927
733.397249	8196.427162
733.728048	7946.587577
734.058798	7618.539532
734.389501	7394.513176
734.720156	7218.942390
735.050762	6992.443348
735.381320	6901.543782
735.711831	6843.142015
736.042293	6736.158648
736.372707	6751.277068
736.703073	6615.221367
737.033391	6655.298540
737.363661	6662.978738
737.693883	6706.050357
738.024056	6789.698222
738.354182	6822.158212
738.684260	6855.480239
739.014290	6986.565362
739.344272	7088.484890
739.674207	7120.017307
740.004093	7193.648401
740.333931	7209.054167
740.663722	7215.930301
740.993464	7290.756147
741.323159	7268.789319
741.652806	7018.201123
741.982405	7054.731845
742.311956	7093.397495
742.641460	6920.193531
742.970915	6729.196814
743.300323	6717.259362
743.629683	6677.078845
743.958996	6536.380242
744.288260	6451.295647
744.617477	6397.136011
744.946647	6391.409260
745.275768	6229.391616
745.604842	6181.583834
745.933869	6170.604201
746.262847	6128.807994
746.591778	6108.746723
746.920662	6076.518626
747.249498	6071.129633
747.578286	6115.741323
747.907027	6192.467685
748.235720	6252.427169
748.564365	6222.268466
748.892963	6263.391678
749.221514	6404.869141
749.550017	6217.300409
749.878473	6110.380056
750.206881	6172.668553
750.535242	6116.348782
750.863555	6043.809099
751.191821	6053.173042
751.520039	6052.568104
751.848210	5958.167457
752.176334	5991.156768
752.504411	6034.596391
752.832440	5959.669721
753.160421	5893.297889
753.488356	5938.164159
753.816243	5968.854703
754.144082	5820.659904
754.471875	5796.860616
754.799620	5834.422254
755.127318	5850.861456
755.454969	5805.969981
755.782572	5771.322131
756.110129	5816.417773
756.437638	5794.113188
756.765100	5732.500205
757.092515	5742.264920
757.419882	5798.617458
757.747203	5768.095792
758.074477	5825.045708
758.401703	5813.887113
758.728882	5770.422285
759.056014	5839.619683
759.383099	5954.827693
759.710138	5965.025947
760.037129	5956.082940
760.364073	5955.498166
760.690970	6043.113420
761.017820	6021.023084
761.344623	5975.713193
761.671379	6084.027425
761.998088	6209.370674
762.324751	6473.063349
762.651366	7107.628672
762.977935	8470.892783
763.304456	10129.455084
763.630931	10987.633388
763.957359	10541.516478
764.283740	9579.001413
764.610074	8709.185605
764.936362	7712.552010
765.262602	7119.394725
765.588796	6584.251038
765.914943	6254.325163
766.241044	6081.406025
766.567097	5867.015834
766.893104	5614.247339
767.219064	5434.537766
767.544978	5374.217840
767.870845	5289.168533
768.196665	5183.586607
768.522438	5113.570021
768.848165	5076.779680
769.173846	5010.992623
769.499479	4963.469665
769.825066	4915.089712
770.150607	4852.685268
770.476101	4833.299511
770.801548	4824.641330
771.126949	4740.368361
771.452303	4687.355587
771.777611	4648.899145
772.102872	4672.065767
772.428087	4633.634531
772.753256	4590.799847
773.078378	4538.830592
773.403453	4470.122185
773.728482	4458.709013
774.053465	4415.276952
774.378401	4400.899581
774.703291	4396.228952
775.028135	4321.236748
775.352932	4275.470633
775.677683	4262.456894
776.002388	4279.208648
776.327046	4288.706182
776.651658	4216.002661
776.976224	4154.268691
777.300743	4158.231038
777.625216	4183.903114
777.949643	4173.667051
778.274024	4130.988643
778.598359	4094.226028
778.922647	4120.344246
779.246889	4105.238429
779.571086	4101.964199
779.895236	4082.437290
780.219339	4072.251639
780.543397	4067.739806
780.867409	4119.603197
781.191374	4130.343375
781.515294	4068.183427
781.839167	4060.301583
782.162995	4084.501642
782.486776	4072.904468
782.810511	4079.795725
783.134201	4069.965475
783.457844	4024.017879
783.781441	3972.277996
784.104993	3977.041887
784.428498	3997.887058
784.751958	3991.573012
785.075372	3968.678612
785.398739	3935.477573
785.722061	3945.484263
786.045337	3991.295749
786.368568	4020.426057
786.691752	3928.561110
787.014891	3990.262312
787.337983	4124.437663
787.661030	4282.742497
787.984031	4443.754430
788.306987	4612.517137
788.629897	4697.896640
788.952760	4650.214886
789.275579	4587.482767
789.598351	4513.085419
789.921078	4366.027400
790.243759	4163.637676
790.566395	4155.788599
790.888984	4143.228564
791.211529	4038.760733
791.534027	3978.017350
791.856480	3961.255513
792.178888	3901.636307
792.501249	3856.432281
792.823566	3866.668344
793.145836	3891.213722
793.468062	3838.863860
793.790241	3798.716110
794.112375	3824.713341
794.434464	3895.100451
794.756507	3917.178185
795.078505	3889.542579
795.400457	3930.829629
795.722364	4079.699943
796.044226	4180.734749
796.366042	4258.202160
796.687812	4227.861976
797.009538	4231.950351
797.331218	4197.073128
797.652852	4170.934746
797.974442	4148.204183
798.295986	4143.936846
798.617484	4060.609094
798.938938	3976.101711
799.260346	4022.003938
799.581709	4010.583204
799.903026	3935.986730
800.224299	3899.934918
800.545526	3891.896798
800.866708	3857.085110
801.187845	3796.440029
801.508936	3829.847756
801.829983	3821.481961
802.150984	3746.676279
802.471940	3738.522213
802.792851	3747.523193
803.113717	3749.227103
803.434538	3748.682658
803.755314	3688.972712
804.076045	3665.223836
804.396731	3688.602187
804.717372	3712.605641
805.037967	3695.753064
805.358518	3685.312834
805.679024	3713.868450
805.999485	3727.875296
806.319901	3732.377046
806.640272	3743.946494
806.960598	3757.875203
807.280879	3736.026842
807.601115	3750.661311
807.921306	3766.808127
808.241453	3805.123417
808.561554	3773.654014
808.881611	3710.478274
809.201623	3749.698451
809.521590	3760.136160
809.841513	3736.089856
810.161390	3765.741923
810.481223	3740.463057
810.801011	3685.025488
811.120755	3684.803677
811.440453	3714.065055
811.760107	3713.918862
812.079716	3669.566790
812.399281	3643.294817
812.718801	3665.914474
813.038276	3640.978407
813.357707	3634.041779
813.677093	3651.622803
813.996434	3594.685491
814.315731	3610.373562
814.634983	3613.831793
814.954191	3632.605050
815.273354	3657.001714
815.592473	3651.045591
815.911547	3661.430368
816.230577	3708.058520
816.549562	3758.097013
816.868502	3797.554124
817.187399	3821.504646
817.506250	3817.693534
817.825058	3796.939104
818.143821	3892.458887
818.462539	3995.237931
818.781213	4034.967265
819.099843	4100.381277
819.418429	4362.848952
819.736970	4606.452629
820.055466	4863.972412
820.373919	5238.089042
820.692327	5647.846629
821.010691	6134.479292
821.329011	7610.297245
821.647286	10494.464869
821.965517	15207.860536
822.283704	19227.301047
822.601847	21237.221688
822.919945	19327.385595
823.237999	16671.362950
823.556010	14162.146268
823.873976	12007.239521
824.191897	9894.368436
824.509775	8549.902787
824.827609	7423.169615
825.145398	6890.707822
825.463144	6774.146263
825.780845	6885.989302
826.098502	7107.850483
826.416116	8046.110037
826.733685	9412.177029
827.051210	10511.428352
827.368692	10462.188882
827.686129	9131.472980
828.003522	7625.239225
828.320872	6602.568071
828.638177	5895.284104
828.955439	5319.420497
829.272656	4816.245288
829.589830	4538.210530
829.906960	4363.113613
830.224046	4171.743851
830.541088	4052.162641
830.858086	4001.120958
831.175041	3924.351747
831.491952	3909.558481
831.808819	3920.170109
832.125642	4001.829240
832.442421	4157.691635
832.759157	4455.467551
833.075849	5027.532648
833.392497	5922.987765
833.709101	6711.787190
834.025662	7020.530136
834.342179	6611.422858
834.658653	5930.531852
834.975083	5269.777735
835.291469	4690.110577
835.607811	4290.329433
835.924110	4142.401815
836.240366	3937.221812
836.556578	3736.084815
836.872746	3622.931076
837.188871	3578.997420
837.504952	3510.654497
837.820990	3427.563679
838.136984	3388.156979
838.452935	3412.800660
838.768842	3406.196748
839.084706	3428.428237
839.400526	3600.339145
839.716303	3963.473621
840.032037	4506.988143
840.347727	4746.105194
840.663373	4441.332156
840.978977	4053.105336
841.294537	3738.812079
841.610054	3512.834796
841.925527	3411.621030
842.240957	3338.688137
842.556344	3282.322996
842.871687	3218.900239
843.186987	3170.056499
843.502244	3131.211888
843.817458	3097.849532
844.132629	3069.966910
844.447756	3074.856830
844.762840	3055.929817
845.077881	3026.706249
845.392879	3010.259484
845.707833	3006.239164
846.022745	3007.020543
846.337613	3009.813342
846.652438	2995.219202
846.967221	2990.321721
847.281960	2974.086685
847.596656	2972.276911
847.911309	2974.419401
848.225919	2967.974286
848.540485	2960.904068
848.855009	2962.401290
849.169490	2950.413426
849.483928	2945.067283
849.798323	2944.298507
850.112675	2941.079730
850.426984	2949.783282
850.741251	2949.682459
851.055474	2933.631425
851.369654	2933.245777
851.683792	2937.044286
851.997887	2942.902107
852.311938	2946.388065
852.625947	2935.388267
852.939914	2938.786005
853.253837	2941.243568
853.567718	2929.495158
853.881555	2930.636980
854.195350	2942.213990
854.509103	2939.582507
854.822812	2931.277206
855.136479	2928.353337
855.450103	2928.497010
855.763685	2922.377049
856.077224	2920.474014
856.390720	2933.646549
856.704173	2943.801953
857.017584	2933.656631
857.330953	2932.406425
857.644278	2942.234154
857.957561	2951.033488
858.270802	2954.935341
858.584000	2950.547017
858.897155	2937.389605
859.210268	2940.762137
859.523339	2935.355500
859.836367	2939.378341
860.149352	2930.515992
860.462295	2925.089190
860.775195	2933.535643
861.088054	2934.347269
861.400869	2915.637027
861.713642	2915.657191
862.026373	2932.794594
862.339062	2932.550098
862.651708	2935.647887
862.964312	2939.925306
863.276873	2932.845005
863.589392	2944.613579
863.901869	2958.023048
864.214303	2979.266470
864.526696	2993.961434
864.839045	2988.975733
865.151353	2989.767194
865.463619	2988.461535
865.775842	2992.224756
866.088023	3011.068589
866.400162	3011.890298
866.712258	2982.833087
867.024313	2975.074751
867.336325	2983.629589
867.648296	3005.888804
867.960224	3000.615757
868.272110	2982.134887
868.583954	2989.426916
868.895755	3004.527692
869.207515	2989.404231
869.519233	2998.455623
869.830909	3007.050790
870.142542	3014.728467
870.454134	3012.041532
870.765684	3015.466996
871.077191	3016.981863
871.388657	3026.739016
871.700081	3039.064637
872.011463	3049.978735
872.322803	3052.131308
872.634101	3049.608211
872.945357	3070.695357
873.256571	3093.637648
873.567744	3086.315372
873.878874	3082.287490
874.189963	3104.937395
874.501010	3104.924792
874.812015	3091.122112
875.122979	3094.842484
875.433900	3093.254521
875.744780	3100.687702
876.055618	3106.414453
876.366415	3103.243567
876.677169	3111.372428
876.987882	3106.981583
877.298554	3105.522168
877.609183	3131.658031
877.919771	3153.650064
878.230317	3180.970597
878.540822	3235.039493
878.851285	3274.393261
879.161707	3323.284891
879.472087	3432.085594
879.782425	3678.154396
880.092722	4136.037358
880.402977	4676.091129
880.713191	5338.281974
881.023363	6555.529064
881.333494	7857.598609
881.643583	8380.255358
881.953631	8050.589102
882.263637	7381.665795
882.573602	6763.819459
882.883526	6180.936046
883.193408	5611.149550
883.503248	5150.625023
883.813048	4842.368547
884.122806	4511.217672
884.432522	4189.521480
884.742197	3947.841003
885.051831	3756.418309
885.361424	3629.537508
885.670975	3550.870302
885.980485	3458.506281
886.289954	3379.536606
886.599382	3334.360306
886.908768	3298.414359
887.218113	3253.666557
887.527417	3192.199768
887.836680	3144.414670
888.145901	3138.224133
888.455082	3126.861373
888.764221	3073.152920
889.073319	3043.911707
889.382376	3043.284083
889.691392	3048.627706
890.000366	3044.728374
890.309300	3029.425951
890.618193	3044.725853
890.927044	3061.903585
891.235855	3057.946279
891.544625	3045.960936
891.853353	3060.653379
892.162041	3078.418405
892.470687	3118.407358
892.779293	3174.802746
893.087858	3223.238152
893.396381	3296.115593
893.704864	3426.794903
894.013306	3678.517359
894.321707	3992.598887
894.630068	4190.794371
894.938387	4180.719625
895.246665	4136.115496
895.554903	4005.912575
895.863100	3804.037048
896.171256	3628.768732
896.479371	3483.971670
896.787446	3361.038092
897.095480	3254.684870
897.403473	3191.524253
897.711425	3156.442863
898.019336	3146.060607
898.327207	3113.920731
898.635038	3077.800863
898.942827	3062.707649
899.250576	3051.768345
899.558284	3021.287008
899.865952	2999.095849
900.173579	2977.827221
900.481165	2971.074595
900.788711	2958.489355
901.096216	2933.117228
901.403681	2921.835125
901.711105	2929.099428
902.018489	2926.641865
902.325832	2927.057761
902.633135	2937.593772
902.940397	2975.047025
903.247619	3063.937690
903.554800	3272.326387
903.861941	3638.745175
904.169041	4081.252619
904.476101	4376.341600
904.783121	4305.626815
905.090100	4048.343967
905.397039	3764.083383
905.703938	3510.843541
906.010796	3323.189109
906.317614	3210.421018
906.624391	3111.211111
906.931129	3040.483722
907.237826	2976.022488
907.544483	2929.298553
907.851099	2900.906775
908.157675	2876.368959
908.464211	2854.588653
908.770707	2843.752693
909.077163	2829.125785
909.383578	2813.372180
909.689954	2801.969090
909.996289	2803.025211
910.302584	2804.514872
910.608839	2803.879687
910.915054	2796.333080
911.221229	2788.521812
911.527363	2792.731175
911.833458	2799.483801
912.139513	2804.041004
912.445527	2806.702733
912.751502	2817.939465
913.057436	2826.799293
913.363331	2839.964266
913.669186	2863.115765
913.975000	2900.322001
914.280775	2964.901703
914.586510	3038.326108
914.892205	3121.154787
915.197859	3254.463059
915.503475	3461.682208
915.809050	3687.404913
916.114585	3830.596367
916.420081	3841.639015
916.725536	3777.505456
917.030952	3653.888802
917.336328	3517.419726
917.641665	3383.811505
917.946961	3285.841721
918.252218	3208.520503
918.557435	3130.339769
918.862612	3067.111097
919.167750	3015.333406
919.472848	2975.490646
919.777906	2948.981739
920.082925	2921.388983
920.387904	2892.369581
920.692843	2875.522045
920.997743	2862.641897
921.302603	2849.885257
921.607423	2838.290603
921.912204	2820.180258
922.216946	2812.348825
922.521647	2805.409677
922.826310	2795.728141
923.130932	2788.630197
923.435516	2777.655605
923.740059	2772.367434
924.044564	2761.339910
924.349028	2756.321442
924.653454	2751.141656
924.957840	2744.099164
925.262186	2739.809142
925.566493	2736.146744
925.870761	2731.161043
926.174989	2723.059908
926.479178	2723.069991
926.783328	2716.700493
927.087438	2714.744525
927.391509	2714.086655
927.695541	2710.015923
927.999533	2705.201621
928.303486	2704.984851
928.607400	2704.573997
928.911275	2703.969059
929.215110	2704.208514
929.518906	2702.242464
929.822663	2700.641897
930.126381	2703.638863
930.430060	2703.288503
930.733699	2701.899665
931.037299	2706.318237
931.340861	2707.132383
931.644383	2707.089533
931.947866	2705.922506
932.251309	2704.354707
932.554714	2702.338246
932.858080	2698.582586
933.161407	2699.416897
933.464694	2696.772812
933.767943	2693.516226
934.071153	2696.412369
934.374323	2695.207533
934.677455	2696.467822
934.980548	2692.921370
935.283602	2692.775177
935.586617	2692.911288
935.889593	2694.607636
936.192530	2693.193592
936.495428	2695.066381
936.798287	2696.815662
937.101108	2698.844726
937.403890	2702.242464
937.706632	2707.918803
938.009336	2716.282077
938.312002	2724.045454
938.614628	2733.936198
938.917216	2740.451889
939.219765	2737.964080
939.522275	2740.527507
939.824747	2738.276631
940.127179	2733.081722
940.429573	2730.641804
940.731929	2727.682647
941.034246	2722.422202
941.336524	2722.195351
941.638763	2717.895246
941.940964	2718.742160
942.243126	2715.762838
942.545250	2715.651933
942.847335	2711.621530
943.149381	2706.880325
943.451389	2700.778008
943.753359	2700.193235
944.055290	2698.275076
944.357182	2699.424459
944.659036	2698.882535
944.960851	2696.225847
945.262628	2694.113603
945.564367	2696.455219
945.866067	2696.704756
946.167729	2697.473532
946.469352	2697.150898
946.770937	2696.319108
947.072484	2696.538398
947.373992	2695.013449
947.675462	2694.610157
947.976893	2687.401307
948.278286	2686.645134
948.579641	2689.258972
948.880958	2683.743950
949.182236	2687.514733
949.483476	2684.220339
949.784678	2687.625638
950.085841	2685.873837
950.386967	2687.534897
950.688054	2689.536235
950.989103	2687.250072
951.290114	2687.212263
951.591087	2692.029086
951.892021	2694.383305
952.192917	2698.320446
952.493776	2697.339942
952.794596	2700.024356
953.095378	2698.322967
953.396122	2700.538554
953.696828	2695.038655
953.997496	2696.155270
954.298126	2695.071422
954.598718	2690.335258
954.899272	2686.909794
955.199788	2684.699248
955.500266	2682.970132
955.800706	2681.220852
956.101108	2675.988134
956.401472	2679.297652
956.701798	2674.541323
957.002087	2672.766837
957.302337	2670.818431
957.602550	2672.497135
957.902724	2666.921619
958.202861	2668.446568
958.502960	2667.854233
958.803022	2666.541012
959.103045	2663.738131
959.403031	2666.326763
959.702979	2663.944818
960.002889	2664.504386
960.302762	2662.939108
960.602596	2662.500527
960.902393	2661.409117
961.202153	2660.942811
961.501875	2662.566062
961.801559	2659.906854
962.101205	2660.877276
962.400814	2661.716628
962.700385	2661.603202
962.999918	2657.361071
963.299414	2657.076246
963.598873	2656.814106
963.898293	2655.266472
964.197677	2659.483397
964.497022	2659.125475
964.796331	2657.124137
965.095601	2662.303922
965.394835	2658.449960
965.694030	2659.586740
965.993189	2658.079435
966.292309	2660.947852
966.591393	2656.551966
966.890439	2658.538180
967.189447	2659.967347
967.488419	2657.172028
967.787353	2656.108344
968.086249	2656.572130
968.385108	2656.804023
968.683930	2658.432316
968.982714	2657.098931
969.281462	2656.403252
969.580172	2658.969199
969.878844	2656.635145
970.177480	2658.573468
970.476078	2657.204795
970.774639	2659.004487
971.073162	2658.414672
971.371649	2659.624549
971.670098	2659.170845
971.968510	2658.260917
972.266885	2658.661689
972.565223	2661.492297
972.863524	2659.085146
973.161788	2660.937770
973.460014	2659.944662
973.758204	2659.311997
974.056356	2659.395177
974.354471	2656.506595
974.652550	2658.802841
974.950591	2658.371822
975.248595	2659.430465
975.546563	2659.629590
975.844493	2656.105824
976.142386	2656.993067
976.440243	2658.321411
976.738062	2658.379384
977.035845	2656.788900
977.333590	2655.493323
977.631299	2655.894095
977.928971	2652.125833
978.226606	2653.497027
978.524204	2652.153559
978.821765	2651.732623
979.119290	2654.306132
979.416777	2655.778149
979.714228	2655.465597
980.011642	2656.325114
980.309020	2658.709580
980.606360	2659.143119
980.903664	2655.871410
981.200931	2655.584064
981.498162	2657.222439
981.795356	2655.069867
982.092513	2661.497338
982.389633	2660.668068
982.686717	2665.573111
982.983764	2670.982269
983.280775	2675.718433
983.577749	2675.413443
983.874686	2674.916889
984.171587	2670.359686
984.468451	2668.292813
984.765279	2665.676454
985.062070	2664.285096
985.358824	2661.225115
985.655543	2662.190496
985.952224	2658.417193
986.248869	2659.473314
986.545478	2655.430309
986.842050	2656.443581
987.138586	2654.880823
987.435086	2652.917294
987.731549	2653.456697
988.027975	2653.915442
988.324366	2651.480565
988.620719	2651.364618
988.917037	2653.192037
989.213318	2652.153559
989.509563	2655.037099
989.805772	2653.706234
990.101944	2653.991060
990.398080	2649.380924
990.694180	2653.678508
990.990244	2652.047695
991.286271	2652.685401
991.582262	2651.228507
991.878217	2652.145997
992.174136	2653.096255
992.470019	2654.112047
992.765865	2649.174237
993.061676	2651.793117
993.357450	2651.034423
993.653188	2648.198774
993.948890	2654.381749
994.244556	2654.170021
994.540186	2652.657674
994.835780	2653.713796
995.131337	2653.224804
995.426859	2653.595329
995.722345	2656.226811
996.017795	2657.920639
996.313208	2658.654127
996.608586	2656.705721
996.903928	2656.783859
997.199234	2659.564055
997.494504	2658.984322
997.789738	2657.184631
998.084936	2657.585402
998.380099	2656.867038
998.675225	2653.423930
998.970316	2653.517191
999.265371	2655.445432
999.560390	2650.046357
999.855373	2654.139774
1000.150320	2652.345123
1000.445232	2652.955102
1000.740108	2652.619866
1001.034948	2652.082983
1001.329752	2651.185657
1001.624521	2653.101296
1001.919254	2650.502581
1002.213951	2649.426295
1002.508613	2650.661377
1002.803239	2652.173724
1003.097829	2652.715648
1003.392384	2652.123312
1003.686903	2650.479896
1003.981386	2649.998466
1004.275834	2647.520739
1004.570246	2647.964360
1004.864623	2649.146511
1005.158964	2650.079124
1005.453270	2651.092396
1005.747540	2650.971408
1006.041775	2651.314207
1006.335974	2651.432674
1006.630138	2650.245482
1006.924266	2651.939310
1007.218359	2649.653147
1007.512416	2647.119967
1007.806438	2648.657519
1008.100425	2643.502939
1008.394376	2647.218269
1008.688292	2647.225831
1008.982172	2649.620379
1009.276017	2649.562406
1009.569827	2649.895122
1009.863602	2650.482417
1010.157341	2648.975112
1010.451045	2648.536531
1010.744714	2648.914618
1011.038347	2649.353198
1011.331945	2649.756490
1011.625508	2649.234731
1011.919036	2652.919814
1012.212528	2648.828918
1012.505986	2648.627272
1012.799408	2651.830925
1013.092795	2648.269350
1013.386147	2649.317910
1013.679464	2649.564927
1013.972745	2651.742705
1014.265992	2648.723054
1014.559204	2650.457211
1014.852380	2648.271871
1015.145521	2649.559885
1015.438628	2649.068373
1015.731699	2650.512663
1016.024736	2649.396048
1016.317737	2647.765235
1016.610703	2649.159114
1016.903635	2650.142139
1017.196531	2649.015441
1017.489393	2649.176758
1017.782219	2649.131387
1018.075011	2649.950575
1018.367768	2649.149031
1018.660490	2647.684576
1018.953177	2647.684576
1019.245829	2647.684576
