Dividing Wavelength (nm)	Counts (n)	Blue Motor Position (mm): 24.400000	Red Motor Position (mm): 0.000000	
326.493990	2196.080371
326.888308	2196.080371
327.282561	2196.080371
327.676750	2156.098979
328.070874	2153.724596
328.464933	2155.163845
328.858929	2156.439257
329.252859	2164.207675
329.646726	2171.726556
330.040528	2185.710717
330.434265	2197.940556
330.827938	2213.303473
331.221547	2231.421380
331.615091	2248.533576
332.008571	2267.188366
332.401986	2285.023968
332.795338	2303.701443
333.188625	2321.232056
333.581847	2342.034377
333.975006	2361.810824
334.368100	2377.524100
334.761129	2396.798952
335.154095	2414.939544
335.546996	2440.057093
335.939833	2476.282825
336.332606	2489.770432
336.725315	2502.774088
337.117960	2513.408402
337.510540	2527.269055
337.903056	2539.660211
338.295508	2544.197249
338.687896	2556.240566
339.080220	2565.319684
339.472480	2569.700447
339.864676	2575.906107
340.256807	2580.944740
340.648875	2585.965730
341.040879	2588.738364
341.432818	2591.236256
341.824694	2594.442430
342.216506	2593.083839
342.608253	2594.026535
342.999937	2594.770105
343.391557	2594.850763
343.783113	2593.139292
344.174605	2594.412183
344.566033	2590.981678
344.957397	2589.998653
345.348697	2591.258941
345.739934	2589.602922
346.131106	2586.396748
346.522215	2583.858527
346.913260	2582.056315
347.304241	2579.402147
347.695159	2580.692683
348.086012	2577.123546
348.476802	2574.103895
348.867528	2571.716908
349.258191	2565.813717
349.648789	2566.751372
350.039324	2562.713408
350.429796	2568.389747
350.820203	2569.067782
351.210548	2565.617112
351.600828	2563.688871
351.991045	2561.306926
352.381198	2560.457491
352.771288	2561.934549
353.161314	2562.128634
353.551276	2561.460681
353.941175	2559.199723
354.331010	2559.335834
354.720782	2558.675443
355.110490	2560.396997
355.500135	2558.940104
355.889717	2559.189641
356.279235	2560.593602
356.668689	2558.176369
357.058080	2559.419013
357.447408	2557.510937
357.836672	2561.216185
358.225873	2560.460012
358.615010	2559.459343
359.004084	2561.062430
359.393095	2564.523182
359.782043	2564.908830
360.170927	2562.310115
360.559748	2563.025959
360.948505	2562.229457
361.337199	2566.153995
361.725830	2563.633418
362.114398	2561.400187
362.502903	2566.373285
362.891344	2566.189283
363.279722	2567.981413
363.668037	2568.777916
364.056289	2570.713719
364.444478	2568.553584
364.832603	2568.926630
365.220665	2570.103739
365.608665	2572.664645
365.996601	2571.792526
366.384474	2566.925292
366.772284	2571.318657
367.160031	2572.412587
367.547715	2571.111970
367.935336	2569.370251
368.322893	2568.402350
368.710388	2570.653225
369.097820	2570.010478
369.485189	2568.359500
369.872495	2575.608679
370.259738	2572.256312
370.646918	2575.245716
371.034035	2574.469378
371.421090	2573.297310
371.808081	2573.808987
372.195010	2575.656570
372.581875	2574.741601
372.968678	2575.149934
373.355418	2576.763103
373.742096	2578.741756
374.128710	2577.463824
374.515262	2579.928948
374.901751	2580.579257
375.288177	2580.294432
375.674540	2576.639595
376.060841	2578.875347
376.447079	2577.478947
376.833254	2576.148082
377.219367	2578.489698
377.605417	2582.729309
377.991404	2580.977508
378.377329	2579.734863
378.763191	2579.409709
379.148991	2580.092785
379.534727	2580.445666
379.920402	2579.591191
380.306013	2580.576736
380.691563	2581.098496
381.077049	2577.584811
381.462474	2580.415419
381.847835	2579.908783
382.233134	2580.493557
382.618371	2584.604618
383.003545	2582.008424
383.388657	2580.453228
383.773706	2584.894484
384.158693	2583.820719
384.543618	2582.441963
384.928480	2583.956830
385.313280	2584.077817
385.698017	2586.699217
386.082692	2583.316603
386.467305	2586.938672
386.851856	2586.646285
387.236344	2587.319279
387.620770	2583.573702
388.005133	2582.683938
388.389435	2582.315934
388.773674	2582.184864
389.157851	2584.002200
389.541965	2586.711820
389.926018	2588.884558
390.310008	2587.205853
390.693936	2585.743919
391.077802	2587.367170
391.461606	2590.389342
391.845348	2585.804413
392.229027	2587.667119
392.612645	2588.710638
392.996200	2590.843046
393.379694	2588.950093
393.763125	2592.181472
394.146494	2589.809609
394.529801	2590.447315
394.913047	2587.823395
395.296230	2590.490165
395.679351	2587.841039
396.062410	2591.543766
396.445408	2590.497727
396.828343	2590.979157
397.211217	2593.121648
397.594028	2593.529981
397.976778	2592.927563
398.359466	2592.534353
398.742092	2594.220619
399.124656	2592.912440
399.507158	2593.966041
399.889598	2597.522575
400.271977	2593.098962
400.654294	2592.733479
401.036549	2594.081987
401.418742	2592.783890
401.800874	2594.961669
402.182944	2594.734817
402.564952	2594.913778
402.946898	2598.195569
403.328783	2597.411669
403.710606	2596.673140
404.092367	2595.034765
404.474067	2594.636514
404.855705	2597.663727
405.237282	2597.048706
405.618797	2599.944849
406.000250	2599.060127
406.381642	2599.130703
406.762972	2594.906216
407.144240	2595.962338
407.525447	2597.903182
407.906593	2595.241453
408.287677	2597.494848
408.668700	2598.956783
409.049661	2600.743872
409.430560	2599.589448
409.811399	2599.292020
410.192176	2600.645570
410.572891	2601.807556
410.953545	2600.441403
411.334138	2603.178749
411.714669	2602.399891
412.095139	2601.815117
412.475547	2603.095570
412.855894	2603.340066
413.236180	2602.286465
413.616405	2605.890890
413.996568	2603.755962
414.376670	2600.771598
414.756711	2602.803183
415.136691	2601.590786
415.516609	2604.837289
415.896466	2603.798811
416.276262	2603.057762
416.655997	2604.471805
417.035670	2605.969028
417.415283	2607.110849
417.794834	2607.120932
418.174324	2602.326794
418.553753	2604.907865
418.933121	2605.863164
419.312428	2608.393823
419.691674	2608.088833
420.070859	2607.418360
420.449983	2604.998606
420.829045	2608.219903
421.208047	2607.851899
421.586988	2607.856940
421.965867	2609.147476
422.344686	2609.545727
422.723444	2609.923813
423.102141	2610.548916
423.480777	2612.661160
423.859352	2608.764348
424.237866	2608.880294
424.616319	2610.697630
424.994712	2613.926489
425.373044	2611.199225
425.751314	2609.089502
426.129524	2606.364759
426.507673	2608.930706
426.885762	2608.197218
427.263789	2612.298197
427.641756	2610.836262
428.019662	2613.666870
428.397508	2610.669904
428.775292	2613.745008
429.153016	2614.518825
429.530679	2613.273660
429.908282	2614.513784
430.285824	2613.555965
430.663305	2614.997735
431.040726	2615.960595
431.418086	2613.792899
431.795385	2617.483023
432.172624	2616.802468
432.549802	2616.747015
432.926920	2613.351798
433.303977	2618.682818
433.680974	2619.988477
434.057910	2617.442694
434.434786	2616.792385
434.811601	2617.477982
435.188355	2617.004114
435.565050	2616.898250
435.941683	2618.702983
436.318257	2619.776748
436.694770	2621.163066
437.071222	2619.590226
437.447614	2621.344547
437.823946	2621.478138
438.200218	2620.091821
438.576429	2623.350927
438.952580	2621.929321
439.328670	2624.369240
439.704700	2624.107100
440.080670	2621.909157
440.456580	2625.594240
440.832429	2627.519961
441.208218	2625.707666
441.583947	2625.851339
441.959616	2627.575413
442.335224	2626.761267
442.710773	2626.778911
443.086261	2625.211112
443.461689	2626.557100
443.837057	2629.249077
444.212365	2629.773357
444.587612	2629.581793
444.962800	2628.361833
445.337927	2631.275620
445.712995	2627.303191
446.088002	2632.392236
446.462949	2636.687299
446.837837	2636.261322
447.212664	2636.672176
447.587431	2638.234933
447.962139	2639.679224
448.336786	2646.630975
448.711374	2648.576860
449.085901	2647.452683
449.460369	2644.551499
449.834776	2646.268012
450.209124	2651.581388
450.583412	2654.616163
450.957640	2657.666061
451.331808	2656.380567
451.705917	2653.917963
452.079965	2659.506082
452.453954	2664.285096
452.827883	2665.510096
453.201752	2665.137051
453.575562	2674.316992
453.949311	2677.518125
454.323001	2686.352747
454.696632	2692.785259
455.070202	2700.455375
455.443713	2710.492312
455.817164	2720.010010
456.190556	2731.655076
456.563888	2749.256264
456.937160	2763.275713
457.310373	2766.897782
457.683526	2779.982097
458.056619	2789.083900
458.429653	2807.060655
458.802628	2818.491471
459.175542	2841.249760
459.548398	2885.995042
459.921194	2922.787903
460.293930	2958.703604
460.666607	3019.308355
461.039224	3102.479832
461.411782	3173.159330
461.784280	3207.933209
462.156719	3246.916452
462.529099	3278.451389
462.901419	3273.037190
463.273680	3308.100936
463.645882	3347.505115
464.018024	3390.778379
464.390106	3460.515181
464.762130	3581.535641
465.134094	3713.371896
465.505999	3987.587980
465.877845	4436.240590
466.249631	4826.332637
466.621358	4874.039596
466.993026	4820.971370
467.364634	4847.371892
467.736184	4813.828055
468.107674	4821.767872
468.479105	4948.537768
468.850477	5011.602602
469.221790	5064.317948
469.593043	5069.858176
469.964238	5110.837716
470.335373	5165.304863
470.706449	5351.857802
471.077467	5386.238471
471.448425	5852.764492
471.819324	6804.902342
472.190164	7413.404900
472.560945	6869.177054
472.931667	6484.113558
473.302330	6488.237222
473.672934	6498.319530
474.043479	6746.331696
474.413965	6851.911102
474.784393	6916.967192
475.154761	7248.453305
475.525070	7403.496512
475.895321	7445.688449
476.265513	7786.394832
476.635645	8116.585367
477.005719	8231.564004
477.375734	8465.841547
477.745691	8825.497627
478.115588	9145.459662
478.485427	9546.546464
478.855207	10102.772256
479.224928	10946.585793
479.594591	12065.626165
479.964194	12302.570478
480.333739	12729.223492
480.703226	12712.393600
481.072653	12848.338396
481.442022	13364.113970
481.811333	13986.378877
482.180584	14240.747938
482.549777	14014.574050
482.918912	14131.780877
483.287988	14405.875974
483.657005	14510.681562
484.025964	14588.867338
484.394864	14805.521007
484.763706	14885.869437
485.132489	14862.027300
485.501213	15123.375839
485.869879	15360.002559
486.238487	15376.739190
486.607036	15771.433810
486.975527	15773.203255
487.343959	16179.852971
487.712333	16432.709686
488.080648	16379.112138
488.448905	16924.287721
488.817104	16966.792210
489.185244	17616.112990
489.553326	17875.253503
489.921350	18672.403599
490.289315	20418.364384
490.657222	21932.043923
491.025070	22545.164177
491.392861	22654.592504
491.760593	22279.820524
492.128267	21951.316254
492.495883	21378.784850
492.863440	20965.175821
493.230939	20464.690067
493.598380	20560.618184
493.965763	20408.786192
494.333088	20243.701006
494.700354	20351.569096
495.067563	20442.753486
495.434713	20398.356044
495.801805	20629.739965
496.168839	20681.048829
496.535815	20673.870226
496.902733	20974.459106
497.269593	20805.015843
497.636395	21141.386833
498.003139	21250.159810
498.369825	21189.683608
498.736453	21454.966767
499.103023	21461.986574
499.469535	21593.089341
499.835989	21892.569168
500.202385	22043.397970
500.568723	21692.510977
500.935003	22017.947705
501.301226	21746.569791
501.667390	22556.836969
502.033497	22903.179362
502.399546	22725.072876
502.765537	22462.955561
503.131470	22876.494014
503.497345	23089.147527
503.863163	22399.570613
504.228923	23086.125355
504.594625	23327.813394
504.960269	22904.598447
505.325856	23452.067754
505.691385	22958.478299
506.056856	23585.527261
506.422270	23615.751499
506.787625	23274.407410
507.152924	23717.885276
507.518164	23778.812661
507.883347	23615.259987
508.248472	23376.843657
508.613540	24166.479913
508.978550	23991.597245
509.343503	24007.658361
509.708398	24311.856707
510.073236	24504.701007
510.438016	24733.408074
510.802738	24452.741834
511.167403	24714.899478
511.532010	24414.814713
511.896561	25233.578756
512.261053	25229.492901
512.625488	25098.173364
512.989866	25000.836245
513.354186	24875.941658
513.718449	24982.884696
514.082655	25377.914552
514.446803	25128.677386
514.810894	25586.804844
515.174927	25084.088380
515.538904	25141.192050
515.902822	25633.264118
516.266684	25391.966769
516.630488	25311.509953
516.994235	25317.284595
517.357925	25603.838903
517.721558	25808.681148
518.085133	25891.275413
518.448651	25836.790622
518.812112	25551.783948
519.175516	25732.022842
519.538863	25935.282166
519.902152	25700.051845
520.265385	26011.474165
520.628560	25784.009742
520.991678	25820.994167
521.354739	25903.253195
521.717743	25950.198940
522.080690	25751.761480
522.443580	26080.069145
522.806413	26090.068274
523.169189	26181.653436
523.531908	26253.177327
523.894569	25842.945871
524.257174	25905.899800
524.619722	26120.877286
524.982213	25799.617154
525.344647	25889.977316
525.707025	25995.589489
526.069345	26003.849420
526.431608	25950.292201
526.793815	26144.301007
527.155964	25586.237714
527.518057	25749.455153
527.880093	25686.677664
528.242072	25927.455774
528.603995	25621.919001
528.965860	25424.893065
529.327669	25474.601363
529.689421	25478.246117
530.051117	25287.544308
530.412755	25482.541180
530.774337	25287.730831
531.135862	25149.144470
531.497331	25362.760844
531.858743	24897.749690
532.220098	25379.777259
532.581396	25062.545009
532.942638	25022.856005
533.303824	25098.375010
533.664953	25132.632171
534.026025	24795.898217
534.387040	25031.932602
534.747999	25095.325112
535.108902	25259.601192
535.469748	24744.672533
535.830537	24958.765295
536.191270	25051.744337
536.551947	24944.919766
536.912567	24614.404076
537.273131	24917.458081
537.633638	24641.286029
537.994089	24841.019065
538.354483	24405.249123
538.714821	24913.291567
539.075103	24944.536638
539.435328	24729.856581
539.795497	24274.257261
540.155609	24688.758575
540.515665	24981.785724
540.875665	24229.852258
541.235609	24492.975283
541.595496	24469.851510
541.955328	24828.101108
542.315102	24734.375976
542.674821	24315.947604
543.034483	24184.529764
543.394090	24356.506207
543.753640	24138.723320
544.113134	24779.040599
544.472571	24372.907601
544.831953	24660.013915
545.191278	24279.618528
545.550548	24206.547003
545.909761	24417.448716
546.268918	24641.086903
546.628019	24601.692807
546.987064	24316.189579
547.346053	24066.234048
547.704986	24202.108268
548.063863	24355.644170
548.422684	24351.462532
548.781449	23915.024638
549.140158	24307.647344
549.498811	23882.158836
549.857408	23609.553400
550.215949	24065.374531
550.574434	23732.595363
550.932864	23967.926507
551.291237	24087.459826
551.649555	23976.995543
552.007817	24014.128682
552.366022	23897.234406
552.724173	23938.579430
553.082267	23873.553586
553.440305	24351.134858
553.798288	23619.136634
554.156215	24144.417303
554.514086	24227.346804
554.871902	23588.408281
555.229661	23884.629001
555.587365	23745.218412
555.945014	23583.573814
556.302606	23867.569737
556.660143	23772.054995
557.017625	24057.081833
557.375050	23591.432973
557.732421	23971.475479
558.089735	23794.024343
558.446994	23846.626263
558.804197	23871.131312
559.161345	23829.347708
559.518437	23567.535383
559.875474	23777.716210
560.232455	23946.395739
560.589381	23770.116671
560.946251	23736.492175
561.303065	24075.371139
561.659825	24155.172605
562.016528	23763.386731
562.373177	23505.637576
562.729770	23862.112687
563.086307	23732.797009
563.442789	23915.211161
563.799216	23730.888932
564.155587	23748.220419
564.511904	23727.609662
564.868164	23653.494618
565.224370	23649.839781
565.580520	23533.449621
565.936615	23683.234905
566.292654	23345.603626
566.648638	23663.886957
567.004567	23479.244615
567.360441	23435.005969
567.716260	23167.038395
568.072023	23488.321212
568.427732	23239.585640
568.783385	23034.703066
569.138982	23265.885340
569.494525	23303.507471
569.850013	23054.638308
570.205445	23146.440241
570.560823	22950.596455
570.916145	22713.195917
571.271412	22884.514490
571.626625	22644.805104
571.981782	22759.884564
572.336884	22560.131363
572.691931	22696.537424
573.046923	22422.974170
573.401860	22315.186739
573.756743	22327.570333
574.111570	22230.639027
574.466342	22160.491371
574.821059	22256.921083
575.175722	21959.490485
575.530330	21936.709511
575.884882	21969.663534
576.239380	21872.069316
576.593823	21766.749530
576.948211	21745.702712
577.302544	21593.081780
577.656823	21462.200823
578.011047	21552.818084
578.365216	21429.622366
578.719330	21309.834468
579.073389	21215.572453
579.427394	21348.268225
579.781344	21135.735700
580.135239	21024.348885
580.489080	20991.929225
580.842866	20748.990980
581.196597	20941.996596
581.550273	20925.466652
581.903895	20817.197791
582.257463	21131.002056
582.610975	20656.261475
582.964434	20958.410593
583.317837	20671.326963
583.671186	20769.843712
584.024481	20729.695963
584.377721	20511.948364
584.730906	20559.819161
585.084037	20598.507496
585.437113	20487.891978
585.790135	20692.378822
586.143103	20169.036477
586.496016	20173.954122
586.848874	20423.808830
587.201679	20353.683860
587.554428	20019.412510
587.907124	20345.116419
588.259765	20134.479367
588.612352	20206.827486
588.964884	19780.726478
589.317362	19949.287539
589.669786	20002.012967
590.022155	20068.977134
590.374470	20242.513814
590.726731	20038.536127
591.078937	19778.596591
591.431090	19889.832171
591.783188	19642.903852
592.135232	19611.900756
592.487222	19711.022444
592.839157	19744.407485
593.191038	19620.584144
593.542866	19508.617596
593.894639	19227.560667
594.246358	19447.707855
594.598022	19362.671151
594.949633	19114.079252
595.301190	19076.169775
595.652692	19229.405729
596.004141	19477.415375
596.355535	18809.336461
596.706876	18816.033634
597.058162	18700.008958
597.409395	18923.576569
597.760573	19010.380197
598.111698	18789.139078
598.462768	18730.003823
598.813785	18691.484367
599.164748	18521.968007
599.515657	18548.388694
599.866511	18336.516560
600.217312	18696.107105
600.568060	18232.527638
600.918753	18536.431077
601.269392	18439.429195
601.619978	18216.403508
601.970510	18429.757741
602.320988	18372.434781
602.671412	18579.197706
603.021783	18485.961565
603.372100	18216.746306
603.722363	18353.112038
604.072572	18290.778171
604.422728	18429.306558
604.772830	18189.854271
605.122878	18141.144122
605.472872	18135.162793
605.822813	18113.881562
606.172701	18090.530937
606.522534	18297.782854
606.872314	18304.091858
607.222041	18142.278381
607.571714	18352.996092
607.921333	18186.166667
608.270899	18256.657121
608.620411	18446.542263
608.969870	18208.428402
609.319276	18210.661633
609.668627	18248.898785
610.017926	18379.353764
610.367171	18498.647629
610.716362	18524.687709
611.065500	18354.863839
611.414585	18490.246546
611.763616	18476.569896
612.112594	18420.199713
612.461518	18393.602586
612.810389	18577.289629
613.159207	18437.165717
613.507971	18340.410851
613.856682	18621.306464
614.205340	18549.951452
614.553945	18696.321354
614.902496	18435.378628
615.250994	18679.337706
615.599439	18610.939331
615.947830	18614.692470
616.296169	18644.468045
616.644454	18619.370661
616.992686	18576.450277
617.340864	18796.174008
617.688990	18558.271876
618.037063	18726.384275
618.385082	18582.734075
618.733048	18862.969297
619.080961	18725.307988
619.428821	18757.024408
619.776628	18652.614550
620.124382	18586.356144
620.472083	18617.926370
620.819731	18648.097676
621.167326	18338.742229
621.514868	18384.722593
621.862357	18138.111868
622.209793	18158.024425
622.557176	17993.944950
622.904506	17806.318245
623.251783	17713.026652
623.599007	17491.760327
623.946179	17435.979960
624.293297	17369.827419
624.640363	17127.668032
624.987376	17147.174777
625.334336	16940.691636
625.681243	16783.755475
626.028097	16789.343594
626.374899	16727.965026
626.721647	16585.065958
627.068343	16417.755103
627.414987	16353.697161
627.761577	16330.165055
628.108115	16378.222375
628.454600	16087.299907
628.801032	16194.260589
629.147412	16119.815349
629.493739	16139.266641
629.840014	15958.914321
630.186236	16051.318671
630.532405	15806.734490
630.878521	16018.452869
631.224585	15911.983700
631.570597	15729.841770
631.916556	15762.193375
632.262462	15738.492390
632.608316	15657.362581
632.954117	15600.795793
633.299866	15597.012407
633.645562	15512.058883
633.991206	15268.031748
634.336797	15138.300175
634.682336	15106.598879
635.027823	14994.597043
635.373257	14873.682448
635.718639	14773.348363
636.063968	14730.838833
636.409245	14481.969670
636.754470	14510.353887
637.099642	14354.859497
637.444762	14129.114107
637.789829	14174.335777
638.134845	14013.371735
638.479808	14036.661866
638.824719	13987.495493
639.169577	13842.554758
639.514383	13887.710893
639.859137	13704.306155
640.203839	13788.022076
640.548489	13625.170122
640.893086	13615.581847
641.237632	13486.364471
641.582125	13640.961536
641.926566	13463.704484
642.270955	13471.888798
642.615292	13446.700672
642.959576	13450.663019
643.303809	13491.090553
643.647990	13423.211416
643.992118	13481.477072
644.336195	13247.534766
644.680219	13436.883025
645.024192	13370.475906
645.368112	13615.607053
645.711981	13676.821784
646.055797	13845.133308
646.399562	13814.530983
646.743274	14089.977109
647.086935	14360.336710
647.430544	14324.592409
647.774101	14356.094579
648.117606	14507.959339
648.461059	14471.171519
648.804460	14474.508763
649.147810	14195.377554
649.491108	14092.951390
649.834354	14115.460142
650.177548	13816.386128
650.520690	13624.489566
650.863781	13538.855485
651.206820	13587.333741
651.549807	13410.364036
651.892742	13227.546591
652.235626	13164.075944
652.578458	13166.878825
652.921238	12852.046165
653.263967	13046.314590
653.606644	12871.842776
653.949269	12843.937469
654.291843	12654.876556
654.634365	12811.001090
654.976836	12658.919561
655.319255	12675.446984
655.661622	12619.694343
656.003938	12543.991336
656.346203	12477.498516
656.688416	12543.973692
657.030577	12507.614369
657.372687	12423.356524
657.714746	12393.003737
658.056753	12585.046493
658.398708	12403.766600
658.740612	12408.817836
659.082465	12510.558403
659.424266	12474.438536
659.766016	12493.973007
660.107715	12404.396744
660.449362	12475.671098
660.790958	12440.493927
661.132503	12376.776263
661.473996	12446.203033
661.815438	12461.956639
662.156829	12470.549286
662.498168	12456.582769
662.839456	12459.340280
663.180693	12477.697642
663.521879	12565.116291
663.863013	12537.881457
664.204097	12516.829599
664.545129	12642.129998
664.886110	12606.070625
665.227040	12699.112681
665.567918	12702.694420
665.908746	12733.914286
666.249522	12722.778377
666.590248	12766.061724
666.930922	12880.198488
667.271545	12857.140251
667.612118	12945.330196
667.952639	12851.300074
668.293109	12860.737114
668.633528	12813.619970
668.973896	12787.756330
669.314213	12869.932179
669.654480	12613.201337
669.994695	12683.144826
670.334859	12698.056559
670.674973	12650.568890
671.015035	12683.147346
671.355047	12630.358904
671.695008	12599.726333
672.034918	12606.201695
672.374777	12650.112665
672.714585	12558.739231
673.054342	12585.996750
673.394049	12546.786655
673.733705	12639.737971
674.073310	12552.331925
674.412864	12569.290366
674.752368	12437.968308
675.091820	12448.408538
675.431223	12437.814553
675.770574	12318.167808
676.109875	12230.918038
676.449125	12193.769775
676.788324	12132.731484
677.127473	11973.937659
677.466571	11957.206069
677.805619	11858.354083
678.144616	11774.842329
678.483562	11748.250242
678.822458	11621.992023
679.161303	11591.147724
679.500098	11587.628998
679.838842	11540.484127
680.177535	11566.627551
680.516179	11615.393153
680.854771	11566.879609
681.193314	11782.464553
681.531805	11924.940164
681.870247	12345.674864
682.208638	12752.029673
682.546978	13073.481368
682.885268	13131.966314
683.223508	12815.482676
683.561697	12653.528047
683.899836	12559.513048
684.237925	12357.025022
684.575963	12277.364709
684.913951	12203.894932
685.251889	12148.351499
685.589776	12241.151580
685.927614	12173.852176
686.265401	12135.224335
686.603137	12174.537773
686.940824	12334.785972
687.278460	12451.985237
687.616046	12499.036846
687.953582	12675.000842
688.291068	12593.301382
688.628504	12825.456599
688.965889	12833.582939
689.303224	12808.541007
689.640510	12699.039584
689.977745	12396.015826
690.314930	12170.613235
690.652065	12082.995460
690.989150	11790.457303
691.326185	11563.192005
691.663170	11363.693383
692.000105	11120.314037
692.336990	11010.147181
692.673825	10765.973853
693.010610	10642.422734
693.347345	10440.176683
693.684030	10231.213295
694.020665	10179.440645
694.357251	9977.325663
694.693786	9927.463611
695.030272	9759.794834
695.366707	9640.952152
695.703093	9574.197193
696.039429	9568.961955
696.375716	9497.516202
696.711952	9366.032828
697.048139	9404.363241
697.384276	9352.953554
697.720363	9377.705619
698.056400	9311.681627
698.392388	9264.022559
698.728326	9227.688443
699.064214	9159.897526
699.400053	9208.960556
699.735842	9018.387297
700.071581	8981.874219
700.407270	8904.230368
700.742910	8823.524015
701.078501	8735.422290
701.414042	8615.243703
701.749533	8543.855923
702.084974	8410.247702
702.420366	8521.581585
702.755709	8405.970283
703.091002	8270.670755
703.426246	8301.056310
703.761440	8247.151252
704.096584	8208.500725
704.431679	8138.348028
704.766725	8123.448898
705.101721	8075.099192
705.436668	8117.528063
705.771565	8010.524532
706.106413	8093.055782
706.441212	8135.630847
706.775961	8089.239628
707.110661	8125.490566
707.445311	8275.124615
707.779913	8165.340887
708.114465	8295.493397
708.448967	8336.672062
708.783421	8472.261456
709.117825	8658.927822
709.452180	8692.733799
709.786485	8781.420298
710.120742	9061.065705
710.454949	9062.172238
710.789107	9167.000512
711.123216	9372.939208
711.457275	9535.380309
711.791286	9700.284013
712.125247	9691.877889
712.459159	9680.721815
712.793023	9936.512482
713.126837	9507.558181
713.460602	9663.352520
713.794318	9485.162855
714.127985	9509.836782
714.461602	9201.043424
714.795171	9151.312441
715.128691	8909.624402
715.462162	8648.916090
715.795584	8597.329963
716.128957	8456.641441
716.462281	8277.224255
716.795556	8332.089653
717.128782	8128.704301
717.461960	7858.397632
717.795088	7938.357894
718.128167	7840.166299
718.461198	7676.343923
718.794180	7615.333358
719.127113	7605.160310
719.459997	7457.358720
719.792833	7223.534881
720.125619	7290.425952
720.458357	7149.908829
720.791046	7133.129349
721.123686	7132.380737
721.456278	6977.793755
721.788821	6993.592731
722.121315	6885.424693
722.453761	6957.566125
722.786158	6899.126549
723.118506	6903.784575
723.450805	6876.627879
723.783056	6941.792354
724.115259	6853.367995
724.447412	6846.567479
724.779518	6895.030611
725.111574	6890.281844
725.443582	6976.041954
725.775542	6954.768284
726.107453	7142.208467
726.439315	7057.446506
726.771129	7113.065556
727.102895	7282.501258
727.434612	7395.337404
727.766281	7429.541633
728.097901	7506.396544
728.429473	7501.458734
728.760996	7478.607183
729.092471	7451.866383
729.423897	7400.005513
729.755276	7410.962461
730.086606	7339.854465
730.417887	7433.110770
730.749120	7620.427444
731.080305	7812.984397
731.411442	7941.536341
731.742530	7940.170188
732.073570	8046.140283
732.404562	8128.616081
732.735506	7973.353584
733.066401	8119.927652
733.397249	8053.142446
733.728048	7820.064698
734.058798	7483.527350
734.389501	7255.437823
734.720156	7083.973057
735.050762	6848.369691
735.381320	6749.991574
735.711831	6704.971550
736.042293	6596.344767
736.372707	6612.511747
736.703073	6479.455532
737.033391	6514.705801
737.363661	6527.419591
737.693883	6551.619650
738.024056	6637.944368
738.354182	6680.731161
738.684260	6718.633077
739.014290	6826.904458
739.344272	6941.091634
739.674207	6967.270346
740.004093	7033.218721
740.333931	7053.955507
740.663722	7059.241157
740.993464	7137.000955
741.323159	7128.554502
741.652806	6876.443877
741.982405	6883.199023
742.311956	6950.952131
742.641460	6789.693181
742.970915	6589.556853
743.300323	6584.490493
743.629683	6532.969901
743.958996	6405.622793
744.288260	6310.367671
744.617477	6260.838334
744.946647	6265.322440
745.275768	6094.545792
745.604842	6048.835130
745.933869	6037.623603
746.262847	5993.405123
746.591778	5978.279140
746.920662	5939.913439
747.249498	5927.509680
747.578286	5975.942566
747.907027	6055.484412
748.235720	6113.356858
748.564365	6083.498103
748.892963	6106.979798
749.221514	6269.178923
749.550017	6104.441577
749.878473	5976.819726
750.206881	6029.245206
750.535242	5974.296629
750.863555	5901.797275
751.191821	5919.814359
751.520039	5928.104536
751.848210	5833.562737
752.176334	5851.544533
752.504411	5901.361215
752.832440	5829.416388
753.160421	5753.695737
753.488356	5802.478982
753.816243	5844.441547
754.144082	5693.955543
754.471875	5657.830634
754.799620	5702.969126
755.127318	5717.280962
755.454969	5667.517212
755.782572	5628.889370
756.110129	5671.212377
756.437638	5660.550337
756.765100	5602.831646
757.092515	5602.105720
757.419882	5646.848481
757.747203	5635.820957
758.074477	5694.870512
758.401703	5687.281055
758.728882	5632.592098
759.056014	5679.053892
759.383099	5818.093956
759.710138	5827.901521
760.037129	5813.682947
760.364073	5816.805942
760.690970	5899.183437
761.017820	5880.589141
761.344623	5836.544579
761.671379	5935.351195
761.998088	6053.057096
762.324751	6288.819258
762.651366	6875.072683
762.977935	8165.842482
763.304456	9788.572261
763.630931	10709.311284
763.957359	10336.477628
764.283740	9399.889217
764.610074	8570.435407
764.936362	7579.379849
765.262602	6982.489589
765.588796	6441.916580
765.914943	6105.596001
766.241044	5944.228667
766.567097	5748.689871
766.893104	5488.132793
767.219064	5312.307429
767.544978	5247.042131
767.870845	5170.993805
768.196665	5063.143359
768.522438	4993.139376
768.848165	4959.106547
769.173846	4894.541969
769.499479	4849.789126
769.825066	4797.903050
770.150607	4737.920881
770.476101	4711.908527
770.801548	4712.689906
771.126949	4637.775839
771.452303	4584.490843
771.777611	4537.235067
772.102872	4556.542686
772.428087	4521.652860
772.753256	4481.467302
773.078378	4435.537349
773.403453	4367.398593
773.728482	4356.537428
774.053465	4306.851815
774.378401	4293.906132
774.703291	4296.053664
775.028135	4226.044640
775.352932	4178.103267
775.677683	4160.827232
776.002388	4178.846837
776.327046	4195.535577
776.651658	4116.454996
776.976224	4061.156059
777.300743	4058.806881
777.625216	4085.290583
777.949643	4078.447217
778.274024	4036.524981
778.598359	3989.531345
778.922647	4010.704191
779.246889	4001.778828
779.571086	4001.451153
779.895236	3983.557578
780.219339	3971.262204
780.543397	3963.708035
780.867409	4013.817104
781.191374	4031.420813
781.515294	3968.847491
781.839167	3960.693425
782.162995	3983.930623
782.486776	3969.553252
782.810511	3978.274449
783.134201	3976.883090
783.457844	3929.649999
783.781441	3876.612020
784.104993	3877.776526
784.428498	3897.157242
784.751958	3896.171697
785.075372	3878.220148
785.398739	3838.631967
785.722061	3845.228316
786.045337	3892.768918
786.368568	3927.605811
786.691752	3835.846729
787.014891	3884.410685
787.337983	4007.850898
787.661030	4167.310156
787.984031	4326.114064
788.306987	4498.592102
788.629897	4584.523610
788.952760	4539.674985
789.275579	4470.260817
789.598351	4407.788318
789.921078	4271.074746
790.243759	4070.363727
790.566395	4047.590314
790.888984	4044.777350
791.211529	3936.982357
791.534027	3877.305178
791.856480	3873.738562
792.178888	3809.715908
792.501249	3754.769852
792.823566	3768.254938
793.145836	3796.770225
793.468062	3746.693923
793.790241	3699.833878
794.112375	3730.695822
794.434464	3794.053043
794.756507	3815.732525
795.078505	3797.297026
795.400457	3830.288857
795.722364	3966.009321
796.044226	4071.853387
796.366042	4142.916013
796.687812	4130.673571
797.009538	4135.165239
797.331218	4090.520780
797.652852	4062.310483
797.974442	4046.599727
798.295986	4043.915313
798.617484	3964.166780
798.938938	3877.985734
799.260346	3915.769182
799.581709	3916.558123
799.903026	3840.877801
800.224299	3802.007984
800.545526	3796.291315
800.866708	3761.388887
801.187845	3698.160215
801.508936	3734.978282
801.829983	3734.217068
802.150984	3654.173627
802.471940	3642.082419
802.792851	3655.693535
803.113717	3650.677587
803.434538	3658.108247
803.755314	3600.724793
804.076045	3572.847212
804.396731	3592.968978
804.717372	3619.785396
805.037967	3606.191924
805.358518	3594.579627
805.679024	3621.254892
805.999485	3636.080926
806.319901	3636.985813
806.640272	3649.548368
806.960598	3667.338600
807.280879	3642.231133
807.601115	3655.597753
807.921306	3669.934794
808.241453	3708.943243
808.561554	3681.491639
808.881611	3618.767083
809.201623	3655.121364
809.521590	3668.167870
809.841513	3640.567552
810.161390	3669.629804
810.481223	3647.415960
810.801011	3591.973350
811.120755	3586.412957
811.440453	3622.444604
811.760107	3627.321921
812.079716	3584.464551
812.399281	3547.477606
812.718801	3572.431317
813.038276	3546.310578
813.357707	3541.702964
813.677093	3560.493865
813.996434	3510.480577
814.315731	3517.417205
814.634983	3522.813760
814.954191	3534.937735
815.273354	3568.045513
815.592473	3558.936148
815.911547	3567.281778
816.230577	3605.551698
816.549562	3655.562465
816.868502	3697.467056
817.187399	3722.660222
817.506250	3718.352556
817.825058	3691.518494
818.143821	3781.235909
818.462539	3883.077299
818.781213	3930.335596
819.099843	3982.453565
819.418429	4221.623548
819.736970	4469.822237
820.055466	4708.717476
820.373919	5065.565634
820.692327	5475.852542
821.010691	5906.399848
821.329011	7256.062926
821.647286	9951.129308
821.965517	14454.760042
822.283704	18482.836050
822.601847	20695.249759
822.919945	18916.803779
823.237999	16356.855444
823.556010	13880.350809
823.873976	11815.121148
824.191897	9728.552283
824.509775	8369.830251
824.827609	7245.973057
825.145398	6699.509459
825.463144	6577.183341
825.780845	6692.492173
826.098502	6870.901128
826.416116	7724.945687
826.733685	9040.712046
827.051210	10155.454835
827.368692	10223.326409
827.686129	8990.633224
828.003522	7482.231773
828.320872	6463.717050
828.638177	5768.635196
828.955439	5217.155650
829.272656	4714.277869
829.589830	4428.331020
829.906960	4254.474227
830.224046	4074.250456
830.541088	3948.413174
830.858086	3897.202612
831.175041	3826.026561
831.491952	3806.318170
831.808819	3814.361331
832.125642	3888.730953
832.442421	4031.519116
832.759157	4301.029283
833.075849	4840.684802
833.392497	5693.995872
833.709101	6468.501105
834.025662	6811.203785
834.342179	6468.228883
834.658653	5806.501823
834.975083	5171.412220
835.291469	4587.855813
835.607811	4181.253988
835.924110	4042.526475
836.240366	3843.988192
836.556578	3642.004281
836.872746	3533.770708
837.188871	3492.135819
837.504952	3425.196857
837.820990	3345.904548
838.136984	3296.992753
838.452935	3321.903615
838.768842	3318.067297
839.084706	3338.360462
839.400526	3493.305366
839.716303	3827.576716
840.032037	4341.807176
840.347727	4617.293631
840.663373	4344.973021
840.978977	3963.256851
841.294537	3657.132784
841.610054	3434.301181
841.925527	3327.947958
842.240957	3252.832246
842.556344	3201.556149
842.871687	3144.076913
843.186987	3092.294181
843.502244	3055.062739
843.817458	3022.950589
844.132629	2993.689212
844.447756	3002.604492
844.762840	2986.518170
845.077881	2952.588684
845.392879	2935.292485
845.707833	2933.321394
846.022745	2930.200920
846.337613	2931.282248
846.652438	2921.474683
846.967221	2920.431164
847.281960	2905.320305
847.596656	2901.176477
847.911309	2900.992475
848.225919	2891.961247
848.540485	2888.069477
848.855009	2888.059394
849.169490	2880.510267
849.483928	2869.535675
849.798323	2868.199769
850.112675	2865.686754
850.426984	2877.795605
850.741251	2876.142107
851.055474	2864.509644
851.369654	2859.695342
851.683792	2862.835981
851.997887	2872.293186
852.311938	2872.809904
852.625947	2862.737679
852.939914	2868.572814
853.253837	2870.929554
853.567718	2856.050588
853.881555	2855.914477
854.195350	2869.112218
854.509103	2865.263297
854.822812	2857.578058
855.136479	2855.410362
855.450103	2857.320959
855.763685	2849.171934
856.077224	2845.149093
856.390720	2860.882534
856.704173	2870.969883
857.017584	2860.307842
857.330953	2862.082329
857.644278	2869.255891
857.957561	2879.186964
858.270802	2883.114023
858.584000	2883.366080
858.897155	2866.773122
859.210268	2866.705067
859.523339	2863.554346
859.836367	2865.003677
860.149352	2855.647296
860.462295	2852.206708
860.775195	2862.851105
861.088054	2863.161136
861.400869	2843.117508
861.713642	2842.510049
862.026373	2855.087728
862.339062	2861.053933
862.651708	2867.914944
862.964312	2868.938298
863.276873	2860.055785
863.589392	2871.022815
863.901869	2882.551934
864.214303	2903.881056
864.526696	2920.153900
864.839045	2916.554517
865.151353	2914.165010
865.463619	2911.432704
865.775842	2913.930596
866.088023	2935.579831
866.400162	2940.434462
866.712258	2911.956984
867.024313	2900.803431
867.336325	2911.367169
867.648296	2926.591454
867.960224	2922.435023
868.272110	2908.629823
868.583954	2914.825401
868.895755	2927.778646
869.207515	2916.640216
869.519233	2918.523087
869.830909	2929.664037
870.142542	2940.903290
870.454134	2939.408588
870.765684	2944.540482
871.077191	2945.024433
871.388657	2946.211625
871.700081	2962.933132
872.011463	2974.179946
872.322803	2975.576346
872.634101	2973.748928
872.945357	2992.786845
873.256571	3015.976153
873.567744	3006.778568
873.878874	3001.313957
874.189963	3027.787576
874.501010	3029.748585
874.812015	3016.223169
875.122979	3017.463293
875.433900	3012.714526
875.744780	3018.713499
876.055618	3027.086856
876.366415	3024.417565
876.677169	3031.684388
876.987882	3032.440561
877.298554	3023.502595
877.609183	3045.088816
877.919771	3069.823238
878.230317	3091.802668
878.540822	3147.673776
878.851285	3184.978315
879.161707	3227.608832
879.472087	3326.009635
879.782425	3546.093809
880.092722	3977.425014
880.402977	4502.521681
880.713191	5115.024394
881.023363	6257.942191
881.333494	7537.495422
881.643583	8099.553829
881.953631	7806.267060
882.263637	7187.339397
882.573602	6610.021417
882.883526	6030.949116
883.193408	5461.003824
883.503248	4998.808154
883.813048	4699.736661
884.122806	4402.003594
884.432522	4089.782251
884.742197	3855.003114
885.051831	3660.389369
885.361424	3521.026671
885.670975	3453.281125
885.980485	3370.417159
886.289954	3292.972433
886.599382	3246.994589
886.908768	3210.615103
887.218113	3166.194976
887.527417	3109.890328
887.836680	3058.578944
888.145901	3054.044426
888.455082	3042.210317
888.764221	2994.077380
889.073319	2966.923205
889.382376	2961.690488
889.691392	2969.683237
890.000366	2964.533698
890.309300	2951.257820
890.618193	2966.472022
890.927044	2980.269660
891.235855	2983.183447
891.544625	2967.749954
891.853353	2976.866881
892.162041	2996.580313
892.470687	3039.258722
892.779293	3087.878130
893.087858	3132.212557
893.396381	3203.741489
893.704864	3320.434119
894.013306	3558.346333
894.321707	3856.170141
894.630068	4065.826688
894.938387	4065.554466
895.246665	4017.988659
895.554903	3896.494330
895.863100	3699.385215
896.171256	3535.903116
896.479371	3396.351375
896.787446	3276.321502
897.095480	3172.284689
897.403473	3107.210955
897.711425	3073.150399
898.019336	3062.909295
898.327207	3034.262938
898.635038	3001.392095
898.942827	2985.484734
899.250576	2975.173053
899.558284	2942.960080
899.865952	2922.291350
900.173579	2902.187228
900.481165	2894.441495
900.788711	2883.131667
901.096216	2858.755167
901.403681	2847.150431
901.711105	2852.025227
902.018489	2852.988087
902.325832	2853.293077
902.633135	2862.624253
902.940397	2895.603481
903.247619	2973.156592
903.554800	3160.894202
903.861941	3498.449864
904.169041	3925.092796
904.476101	4225.638827
904.783121	4185.057538
905.090100	3942.210034
905.397039	3670.285154
905.703938	3425.915222
906.010796	3239.553846
906.317614	3129.961682
906.624391	3034.933412
906.931129	2965.110910
907.237826	2902.593041
907.544483	2855.022193
907.851099	2826.985816
908.157675	2804.706436
908.464211	2786.686832
908.770707	2772.775768
909.077163	2759.908222
909.383578	2746.034967
909.689954	2733.971486
909.996289	2733.898389
910.302584	2735.667834
910.608839	2734.841085
910.915054	2728.337997
911.221229	2721.746688
911.527363	2725.789693
911.833458	2730.911506
912.139513	2735.945098
912.445527	2738.642115
912.751502	2745.835842
913.057436	2756.883530
913.363331	2768.289141
913.669186	2788.466359
913.975000	2822.978098
914.280775	2882.987994
914.586510	2951.855196
914.892205	3028.087525
915.197859	3157.473779
915.503475	3346.905218
915.809050	3556.909604
916.114585	3701.255483
916.420081	3724.311200
916.725536	3668.414886
917.030952	3547.170095
917.336328	3425.083431
917.641665	3295.145170
917.946961	3195.116075
918.252218	3126.621918
918.557435	3047.591749
918.862612	2991.851711
919.167750	2938.390274
919.472848	2898.282854
919.777906	2874.186139
920.082925	2847.954495
920.387904	2819.797130
920.692843	2803.471353
920.997743	2789.343520
921.302603	2778.764658
921.607423	2766.645725
921.912204	2755.136770
922.216946	2741.550861
922.521647	2735.415777
922.826310	2727.312122
923.130932	2720.413303
923.435516	2711.324102
923.740059	2705.206662
924.044564	2699.880683
924.349028	2691.217460
924.653454	2686.597243
924.957840	2679.741273
925.262186	2675.695747
925.566493	2673.253308
925.870761	2667.803821
926.174989	2662.535815
926.479178	2656.975423
926.783328	2653.464259
927.087438	2653.154228
927.391509	2653.000473
927.695541	2646.446973
927.999533	2644.208701
928.303486	2639.860705
928.607400	2640.478247
928.911275	2639.427166
929.215110	2639.598565
929.518906	2637.720736
929.822663	2638.262660
930.126381	2638.585293
930.430060	2638.353400
930.733699	2639.059162
931.037299	2640.034625
931.340861	2642.535037
931.644383	2641.630150
931.947866	2642.381282
932.251309	2639.638895
932.554714	2639.003709
932.858080	2635.689151
933.161407	2637.622433
933.464694	2634.252422
933.767943	2631.220168
934.071153	2631.883079
934.374323	2632.621608
934.677455	2632.467853
934.980548	2628.782770
935.283602	2633.680251
935.586617	2627.346041
935.889593	2631.961217
936.192530	2628.296298
936.495428	2629.606998
936.798287	2632.742596
937.101108	2634.005405
937.403890	2640.158133
937.706632	2642.691313
938.009336	2651.483086
938.312002	2658.709580
938.614628	2666.924140
938.917216	2673.250788
939.219765	2675.310099
939.522275	2675.383196
939.824747	2672.098884
940.127179	2668.945642
940.429573	2666.601506
940.731929	2664.408604
941.034246	2660.244611
941.336524	2657.214877
941.638763	2653.260092
941.940964	2653.300422
942.243126	2650.558034
942.545250	2653.802016
942.847335	2645.274905
943.149381	2644.899339
943.451389	2638.595376
943.753359	2636.586476
944.055290	2636.457927
944.357182	2633.667648
944.659036	2633.755868
944.960851	2631.426855
945.262628	2633.150930
945.564367	2632.979530
945.866067	2632.586320
946.167729	2633.362658
946.469352	2635.638739
946.770937	2632.039355
947.072484	2630.403501
947.373992	2629.538943
947.675462	2627.015845
947.976893	2625.458129
948.278286	2623.600464
948.579641	2624.593571
948.880958	2622.491410
949.182236	2624.613736
949.483476	2622.136008
949.784678	2622.017541
950.085841	2621.195833
950.386967	2623.761781
950.688054	2622.410751
950.989103	2623.660957
951.290114	2628.142543
951.591087	2629.047430
951.892021	2631.888121
952.192917	2632.505662
952.493776	2633.161012
952.794596	2634.910292
953.095378	2636.067237
953.396122	2634.408697
953.696828	2631.699077
953.997496	2633.297123
954.298126	2629.191103
954.598718	2626.264713
954.899272	2625.009466
955.199788	2621.336986
955.500266	2619.925462
955.800706	2616.726850
956.101108	2614.662498
956.401472	2612.749380
956.701798	2610.813577
957.002087	2608.608072
957.302337	2611.519338
957.602550	2611.116046
957.902724	2604.043307
958.202861	2605.522886
958.502960	2604.305447
958.803022	2603.138420
959.103045	2600.343100
959.403031	2601.948708
959.702979	2600.154057
960.002889	2599.665065
960.302762	2600.474170
960.602596	2599.584407
960.902393	2600.191866
961.202153	2598.593820
961.501875	2600.902668
961.801559	2596.531988
962.101205	2598.823192
962.400814	2598.608943
962.700385	2596.849581
962.999918	2593.187182
963.299414	2594.061823
963.598873	2595.337235
963.898293	2591.420258
964.197677	2596.789087
964.497022	2597.759509
964.796331	2596.443768
965.095601	2596.627770
965.394835	2594.180290
965.694030	2597.406628
965.993189	2597.300764
966.292309	2593.809765
966.591393	2597.462081
966.890439	2593.035948
967.189447	2593.809765
967.488419	2597.451999
967.787353	2595.049889
968.086249	2593.313211
968.385108	2593.945876
968.683930	2596.297574
968.982714	2593.734148
969.281462	2594.772625
969.580172	2598.427462
969.878844	2594.550815
970.177480	2595.614498
970.476078	2596.131216
970.774639	2594.964189
971.073162	2595.964858
971.371649	2594.442430
971.670098	2594.848243
971.968510	2597.908223
972.266885	2596.093408
972.565223	2598.041814
972.863524	2595.697677
973.161788	2596.204313
973.460014	2596.375712
973.758204	2597.419231
974.056356	2597.283120
974.354471	2597.285641
974.652550	2594.165166
974.950591	2595.853953
975.248595	2595.001998
975.546563	2596.605085
975.844493	2595.352358
976.142386	2594.205496
976.440243	2594.535691
976.738062	2594.369333
977.035845	2595.959817
977.333590	2590.845567
977.631299	2593.504775
977.928971	2588.612335
978.226606	2589.348344
978.524204	2588.171234
978.821765	2590.298601
979.119290	2592.975454
979.416777	2594.145002
979.714228	2593.719024
980.011642	2593.257759
980.309020	2593.872779
980.606360	2592.146184
980.903664	2596.423603
981.200931	2594.573500
981.498162	2591.478231
981.795356	2593.466967
982.092513	2597.363778
982.389633	2597.986361
982.686717	2604.189501
982.983764	2606.904162
983.280775	2611.126128
983.577749	2611.978083
983.874686	2612.688886
984.171587	2608.582866
984.468451	2606.268977
984.765279	2601.810076
985.062070	2602.440220
985.358824	2600.360744
985.655543	2597.769591
985.952224	2595.619539
986.248869	2596.957966
986.545478	2593.860177
986.842050	2595.443099
987.138586	2590.865731
987.435086	2592.105855
987.731549	2592.146184
988.027975	2591.513519
988.324366	2590.217943
988.620719	2591.589137
988.917037	2589.071080
989.213318	2587.135277
989.509563	2590.157449
989.805772	2588.720720
990.101944	2591.223653
990.398080	2589.245000
990.694180	2588.579568
990.990244	2589.517222
991.286271	2588.980340
991.582262	2592.143664
991.878217	2588.965216
992.174136	2589.250041
992.470019	2588.491348
992.765865	2585.995977
993.061676	2585.398600
993.357450	2584.549165
993.653188	2583.538414
993.948890	2588.617377
994.244556	2588.597212
994.540186	2590.732141
994.835780	2591.997470
995.131337	2590.510330
995.426859	2592.587285
995.722345	2590.091914
996.017795	2591.833633
996.313208	2593.812286
996.608586	2594.374374
996.903928	2596.163984
997.199234	2593.834971
997.494504	2593.560228
997.789738	2595.450661
998.084936	2592.947728
998.380099	2591.972264
998.675225	2595.581731
998.970316	2589.688622
999.265371	2591.490834
999.560390	2589.439085
999.855373	2589.897830
1000.150320	2589.950762
1000.445232	2586.885740
1000.740108	2586.918508
1001.034948	2591.884044
1001.329752	2588.771132
1001.624521	2586.613518
1001.919254	2587.165524
1002.213951	2587.997315
1002.508613	2589.345823
1002.803239	2589.040833
1003.097829	2588.256934
1003.392384	2586.873137
1003.686903	2588.030082
1003.981386	2588.388004
1004.275834	2588.514033
1004.570246	2589.398755
1004.864623	2586.933631
1005.158964	2589.055957
1005.453270	2587.747777
1005.747540	2588.342634
1006.041775	2588.756008
1006.335974	2588.675350
1006.630138	2585.827098
1006.924266	2587.117633
1007.218359	2588.728282
1007.512416	2586.013621
1007.806438	2580.864082
1008.100425	2586.694176
1008.394376	2582.094123
1008.688292	2588.503951
1008.982172	2585.446491
1009.276017	2587.856162
1009.569827	2586.941193
1009.863602	2586.316090
1010.157341	2586.885740
1010.451045	2587.846080
1010.744714	2586.684094
1011.038347	2588.035123
1011.331945	2584.082859
1011.625508	2586.225349
1011.919036	2585.862386
1012.212528	2587.117633
1012.505986	2589.078642
1012.799408	2587.256265
1013.092795	2590.013776
1013.386147	2584.251737
1013.679464	2586.789958
1013.972745	2586.973960
1014.265992	2587.576378
1014.559204	2586.084197
1014.852380	2585.176789
1015.145521	2588.574527
1015.438628	2588.171234
1015.731699	2587.770463
1016.024736	2585.980853
1016.317737	2585.171748
1016.610703	2586.134608
1016.903635	2587.783066
1017.196531	2586.011100
1017.489393	2584.619742
1017.782219	2584.874320
1018.075011	2586.026223
1018.367768	2586.742067
1018.660490	2585.113775
1018.953177	2585.113775
1019.245829	2585.113775
