Dividing Wavelength (nm)	Counts (n)	Blue Motor Position (mm): 21.600000	Red Motor Position (mm): 0.000000	
326.493990	2191.082067
326.888308	2191.082067
327.282561	2191.082067
327.676750	2147.546662
328.070874	2142.681948
328.464933	2145.852834
328.858929	2149.356436
329.252859	2154.508495
329.646726	2163.822027
330.040528	2171.020795
330.434265	2187.820440
330.827938	2208.254757
331.221547	2223.363095
331.615091	2239.010837
332.008571	2258.298291
332.401986	2275.581887
332.795338	2297.379837
333.188625	2315.777528
333.581847	2333.018274
333.975006	2352.638444
334.368100	2369.874149
334.761129	2388.375184
335.154095	2407.410581
335.546996	2430.090732
335.939833	2461.655917
336.332606	2476.638226
336.725315	2489.939311
337.117960	2504.654439
337.510540	2515.011489
337.903056	2523.914167
338.295508	2536.065868
338.687896	2544.469472
339.080220	2550.612118
339.472480	2555.809547
339.864676	2563.083932
340.256807	2568.006619
340.648875	2570.383523
341.040879	2575.497774
341.432818	2576.269070
341.824694	2582.522622
342.216506	2580.654874
342.608253	2583.578743
342.999937	2583.556058
343.391557	2584.347519
343.783113	2583.359453
344.174605	2581.312745
344.566033	2580.493557
344.957397	2581.204360
345.348697	2578.610686
345.739934	2576.107753
346.131106	2575.485171
346.522215	2573.597259
346.913260	2567.943605
347.304241	2570.078533
347.695159	2566.184242
348.086012	2567.240364
348.476802	2562.738613
348.867528	2558.655279
349.258191	2554.725699
349.648789	2556.225442
350.039324	2552.855431
350.429796	2552.830225
350.820203	2555.436502
351.210548	2554.675288
351.600828	2548.318393
351.991045	2550.397869
352.381198	2548.381407
352.771288	2549.205636
353.161314	2547.312683
353.551276	2549.011551
353.941175	2546.206149
354.331010	2547.295038
354.720782	2547.761345
355.110490	2549.031716
355.500135	2546.259081
355.889717	2546.914431
356.279235	2546.727909
356.668689	2548.562889
357.058080	2549.422405
357.447408	2547.776469
357.836672	2544.141797
358.225873	2549.387117
358.615010	2548.401572
359.004084	2548.499874
359.393095	2550.977601
359.782043	2548.293187
360.170927	2551.716130
360.559748	2552.747046
360.948505	2550.458363
361.337199	2555.547407
361.725830	2553.460370
362.114398	2552.931048
362.502903	2553.425082
362.891344	2557.132850
363.279722	2557.221070
363.668037	2555.570092
364.056289	2554.713096
364.444478	2553.551110
364.832603	2554.866852
365.220665	2557.210988
365.608665	2557.364743
365.996601	2557.049671
366.384474	2557.795762
366.772284	2557.851215
367.160031	2556.681667
367.547715	2558.771225
367.935336	2560.545711
368.322893	2557.944476
368.710388	2555.491955
369.097820	2559.121585
369.485189	2554.924825
369.872495	2562.751216
370.259738	2562.637790
370.646918	2561.019580
371.034035	2560.845660
371.421090	2559.295505
371.808081	2563.073850
372.195010	2565.057544
372.581875	2562.509241
372.968678	2563.734241
373.355418	2563.565363
373.742096	2563.096535
374.128710	2564.598799
374.515262	2563.945970
374.901751	2563.335990
375.288177	2565.874211
375.674540	2567.041238
376.060841	2566.222051
376.447079	2564.503017
376.833254	2563.393963
377.219367	2564.382029
377.605417	2568.793039
377.991404	2567.847823
378.377329	2569.203893
378.763191	2566.892524
379.148991	2570.630540
379.534727	2568.256156
379.920402	2567.817576
380.306013	2570.209603
380.691563	2570.754048
381.077049	2568.082236
381.462474	2566.446382
381.847835	2566.345559
382.233134	2566.811866
382.618371	2569.201372
383.003545	2569.443348
383.388657	2570.552402
383.773706	2570.116342
384.158693	2571.865622
384.543618	2569.705488
384.928480	2570.333112
385.313280	2571.858061
385.698017	2571.205231
386.082692	2573.070458
386.467305	2571.863102
386.851856	2572.246229
387.236344	2571.875705
387.620770	2568.951835
388.005133	2569.269428
388.389435	2569.559294
388.773674	2570.381002
389.157851	2573.945098
389.541965	2574.686148
389.926018	2574.348391
390.310008	2572.720098
390.693936	2575.439800
391.077802	2574.257650
391.461606	2577.902404
391.845348	2575.601117
392.229027	2578.386355
392.612645	2575.553226
392.996200	2575.580953
393.379694	2573.887125
393.763125	2576.763103
394.146494	2576.082547
394.529801	2575.807805
394.913047	2577.431056
395.296230	2579.671849
395.679351	2578.651015
396.062410	2575.134811
396.445408	2578.613207
396.828343	2577.312589
397.211217	2580.145717
397.594028	2579.757549
397.976778	2580.133115
398.359466	2580.884247
398.742092	2580.077662
399.124656	2579.722261
399.507158	2581.146387
399.889598	2578.051118
400.271977	2579.260995
400.654294	2579.069431
401.036549	2583.001531
401.418742	2581.010275
401.800874	2580.528845
402.182944	2580.818712
402.564952	2582.560430
402.946898	2583.419947
403.328783	2580.730491
403.710606	2582.739391
404.092367	2582.003383
404.474067	2583.518249
404.855705	2583.152766
405.237282	2583.941706
405.618797	2582.341140
406.000250	2585.900195
406.381642	2584.672674
406.762972	2581.940368
407.144240	2578.719071
407.525447	2583.825760
407.906593	2580.733012
408.287677	2585.078487
408.668700	2584.692838
409.049661	2586.797520
409.430560	2585.980853
409.811399	2587.004207
410.192176	2585.645616
410.572891	2587.493199
410.953545	2586.245514
411.334138	2584.188723
411.714669	2588.776173
412.095139	2585.973291
412.475547	2584.060173
412.855894	2587.523446
413.236180	2588.582088
413.616405	2588.584609
413.996568	2588.231728
414.376670	2585.718713
414.756711	2587.004207
415.136691	2587.556214
415.516609	2587.984712
415.896466	2587.775504
416.276262	2589.754157
416.655997	2589.391194
417.035670	2589.968406
417.415283	2592.418407
417.794834	2590.699373
418.174324	2589.451688
418.553753	2588.821543
418.933121	2589.287850
419.312428	2592.572162
419.691674	2590.689291
420.070859	2593.227512
420.449983	2589.665937
420.829045	2592.632656
421.208047	2591.644589
421.586988	2591.422779
421.965867	2592.778849
422.344686	2595.622060
422.723444	2594.172728
423.102141	2591.347161
423.480777	2593.512337
423.859352	2594.669282
424.237866	2594.334045
424.616319	2594.898654
424.994712	2595.377564
425.373044	2593.834971
425.751314	2593.293047
426.129524	2591.952100
426.507673	2591.639548
426.885762	2593.620722
427.263789	2596.587441
427.641756	2593.905547
428.019662	2594.271031
428.397508	2594.331524
428.775292	2596.272369
429.153016	2598.818151
429.530679	2598.114910
429.908282	2595.032245
430.285824	2598.079622
430.663305	2595.685074
431.040726	2597.648604
431.418086	2595.256576
431.795385	2599.463419
432.172624	2596.615167
432.549802	2598.379571
432.926920	2596.254725
433.303977	2598.228336
433.680974	2597.363778
434.057910	2598.203131
434.434786	2597.714139
434.811601	2600.945518
435.188355	2598.482915
435.565050	2600.073399
435.941683	2598.480394
436.318257	2599.052565
436.694770	2599.559201
437.071222	2599.700353
437.447614	2601.663883
437.823946	2602.377206
438.200218	2601.608430
438.576429	2599.307143
438.952580	2604.300406
439.328670	2603.720673
439.704700	2601.109356
440.080670	2601.686568
440.456580	2604.708740
440.832429	2603.103132
441.208218	2602.810745
441.583947	2602.979624
441.959616	2602.457864
442.335224	2603.445931
442.710773	2604.431476
443.086261	2604.257556
443.461689	2604.544902
443.837057	2602.757813
444.212365	2604.214707
444.587612	2602.551126
444.962800	2599.849067
445.337927	2601.497525
445.712995	2601.346290
446.088002	2603.272011
446.462949	2604.761672
446.837837	2604.791919
447.212664	2605.154882
447.587431	2607.657815
447.962139	2607.030191
448.336786	2612.560337
448.711374	2610.929523
449.085901	2607.579677
449.460369	2609.754935
449.834776	2610.349791
450.209124	2610.979935
450.583412	2614.186109
450.957640	2611.605038
451.331808	2610.768207
451.705917	2609.765017
452.079965	2610.516149
452.453954	2609.893566
452.827883	2610.306941
453.201752	2608.338370
453.575562	2612.154524
453.949311	2612.451952
454.323001	2611.579832
454.696632	2610.362394
455.070202	2615.227107
455.443713	2611.804164
455.817164	2612.439349
456.190556	2612.875409
456.563888	2617.755246
456.937160	2615.164093
457.310373	2616.787344
457.683526	2617.374639
458.056619	2614.579319
458.429653	2616.638630
458.802628	2616.883126
459.175542	2614.014710
459.548398	2620.406893
459.921194	2618.753394
460.293930	2622.120885
460.666607	2624.250773
461.039224	2623.595422
461.411782	2626.264713
461.784280	2627.693881
462.156719	2626.342851
462.529099	2627.666154
462.901419	2626.267234
463.273680	2623.403859
463.645882	2620.893364
464.018024	2623.819754
464.390106	2623.257665
464.762130	2628.036679
465.134094	2631.283182
465.505999	2636.982207
465.877845	2642.923206
466.249631	2648.531490
466.621358	2647.626603
466.993026	2649.446459
467.364634	2653.517191
467.736184	2650.323620
468.107674	2647.079638
468.479105	2649.438898
468.850477	2650.121974
469.221790	2651.452839
469.593043	2651.173055
469.964238	2650.255565
470.335373	2654.122130
470.706449	2657.933242
471.077467	2659.788387
471.448425	2668.312978
471.819324	2684.905936
472.190164	2700.483101
472.560945	2688.638910
472.931667	2687.262675
473.302330	2686.967767
473.672934	2691.504806
474.043479	2698.690971
474.413965	2703.457382
474.784393	2709.834441
475.154761	2719.737788
475.525070	2729.472256
475.895321	2735.582135
476.265513	2749.155441
476.635645	2766.126486
477.005719	2774.358690
477.375734	2790.387039
477.745691	2809.646767
478.115588	2830.539829
478.485427	2851.243848
478.855207	2889.896895
479.224928	2944.406892
479.594591	3013.420288
479.964194	3042.459854
480.333739	3061.913667
480.703226	3083.315886
481.072653	3117.774693
481.442022	3169.660769
481.811333	3241.908065
482.180584	3280.828293
482.549777	3298.845377
482.918912	3335.953311
483.287988	3396.870614
483.657005	3447.511525
484.025964	3489.448884
484.394864	3538.917726
484.763706	3583.257195
485.132489	3632.741161
485.501213	3695.236345
485.869879	3769.472377
486.238487	3817.728822
486.607036	3920.621293
486.975527	3969.989312
487.343959	4074.903286
487.712333	4160.547448
488.080648	4211.115263
488.448905	4346.959235
488.817104	4413.550357
489.185244	4569.387546
489.553326	4681.490204
489.921350	4870.256210
490.289315	5241.577520
490.657222	5591.799081
491.025070	5768.559579
491.392861	5878.590323
491.760593	5909.459829
492.128267	5946.199758
492.495883	5924.522796
492.863440	5948.397701
493.230939	5945.625066
493.598380	6068.785496
493.965763	6138.567668
494.333088	6204.800868
494.700354	6323.472150
495.067563	6458.292768
495.434713	6560.396298
495.801805	6685.101842
496.168839	6835.655901
496.535815	6949.134795
496.902733	7133.956098
497.269593	7182.124323
497.636395	7396.587610
498.003139	7540.197481
498.369825	7683.290633
498.736453	7851.513936
499.103023	7975.246537
499.469535	8146.244996
499.835989	8358.220474
500.202385	8554.752377
500.568723	8585.783200
500.935003	8782.794013
501.301226	8870.595789
501.667390	9239.119259
502.033497	9546.995127
502.399546	9589.494575
502.765537	9683.398668
503.131470	9949.836252
503.497345	10180.380820
503.863163	10080.288710
504.228923	10480.909206
504.594625	10737.244318
504.960269	10718.813859
505.325856	11099.859555
505.691385	11088.305230
506.056856	11464.143414
506.422270	11693.208404
506.787625	11670.445074
507.152924	12076.172259
507.518164	12226.063407
507.883347	12328.524858
508.248472	12369.287628
508.613540	12936.235955
508.978550	13065.418043
509.343503	13240.913211
509.708398	13570.072831
510.073236	13817.134739
510.438016	14106.817083
510.802738	14174.673535
511.167403	14474.475995
511.532010	14511.674669
511.896561	15116.202277
512.261053	15333.165977
512.625488	15412.448203
512.989866	15544.939809
513.354186	15620.884791
513.718449	15920.467962
514.082655	16285.260977
514.446803	16361.039602
514.810894	16802.571582
515.174927	16673.150039
515.538904	16882.657873
515.902822	17354.935850
516.266684	17426.605934
516.630488	17528.873302
516.994235	17721.644504
517.357925	18094.581504
517.721558	18428.515097
518.085133	18660.269542
518.448651	18782.174724
518.812112	18786.036248
519.175516	19030.935502
519.538863	19372.163644
519.902152	19358.885245
520.265385	19788.499937
520.628560	19764.226782
520.991678	19959.382450
521.354739	20174.022178
521.717743	20381.805936
522.080690	20364.555108
522.443580	20810.183026
522.806413	20943.521545
523.169189	21193.275430
523.531908	21347.139007
523.894569	21211.663038
524.257174	21396.416286
524.619722	21712.622661
524.982213	21558.680946
525.344647	21792.431688
525.707025	21999.411382
526.069345	22141.919761
526.431608	22242.306778
526.793815	22535.679246
527.155964	22133.690077
527.518057	22435.047733
527.880093	22500.184482
528.242072	22769.162807
528.603995	22630.669708
528.965860	22564.738978
529.327669	22740.140885
529.689421	22806.782418
530.051117	22751.549016
530.412755	23036.830432
530.774337	22925.907404
531.135862	22896.845152
531.497331	23178.965765
531.858743	22840.124609
532.220098	23380.374985
532.581396	23129.373414
532.942638	23200.766235
533.303824	23333.451925
533.664953	23430.242079
534.026025	23194.109391
534.387040	23471.463594
534.747999	23614.181180
535.108902	23817.251459
535.469748	23402.001535
535.830537	23657.535103
536.191270	23794.956957
536.551947	23765.899746
536.912567	23486.763496
537.273131	23812.575789
537.633638	23603.766156
537.994089	23858.576318
538.354483	23466.966884
538.714821	23992.542461
539.075103	24070.445932
539.435328	23914.235698
539.795497	23501.907122
540.155609	23941.057157
540.515665	24249.832871
540.875665	23551.229771
541.235609	23843.972095
541.595496	23863.236865
541.955328	24222.156936
542.315102	24167.825901
542.674821	23776.584471
543.034483	23688.896121
543.394090	23866.521177
543.753640	23676.625952
544.113134	24337.453166
544.472571	23956.362100
544.831953	24261.578759
545.191278	23880.515420
545.550548	23853.651111
545.909761	24065.251023
546.268918	24311.496265
546.628019	24279.278251
546.987064	24008.354040
547.346053	23786.903713
547.704986	23930.705147
548.063863	24101.728812
548.422684	24079.451953
548.781449	23671.831815
549.140158	24069.601539
549.498811	23658.341687
549.857408	23400.032964
550.215949	23853.197407
550.574434	23529.338560
550.932864	23780.138485
551.291237	23915.405245
551.649555	23801.608759
552.007817	23851.586758
552.366022	23740.525098
552.724173	23784.725935
553.082267	23715.899061
553.440305	24193.825652
553.798288	23470.972081
554.156215	24009.999977
554.514086	24080.394649
554.871902	23465.545279
555.229661	23752.258383
555.587365	23617.465491
555.945014	23450.552888
556.302606	23745.195727
556.660143	23663.372759
557.017625	23940.091776
557.375050	23483.179235
557.732421	23867.892370
558.089735	23675.519419
558.446994	23748.260748
558.804197	23756.878601
559.161345	23730.122677
559.518437	23451.414925
559.875474	23673.727289
560.232455	23851.914433
560.589381	23680.936139
560.946251	23650.270800
561.303065	23975.636952
561.659825	24067.741353
562.016528	23674.871631
562.373177	23415.100973
562.729770	23771.049284
563.086307	23643.503051
563.442789	23805.109840
563.799216	23636.871413
564.155587	23643.747547
564.511904	23640.927021
564.868164	23568.788110
565.224370	23548.376478
565.580520	23447.293782
565.936615	23585.726387
566.292654	23258.046346
566.648638	23584.163629
567.004567	23407.718203
567.360441	23352.784750
567.716260	23077.447009
568.072023	23406.069746
568.427732	23164.880781
568.783385	22961.548362
569.138982	23188.453217
569.494525	23231.797058
569.850013	22968.570689
570.205445	23074.369385
570.560823	22875.768088
570.916145	22637.510554
571.271412	22805.469197
571.626625	22566.979771
571.981782	22690.866126
572.336884	22496.590139
572.691931	22623.591928
573.046923	22348.964990
573.401860	22243.705698
573.756743	22226.200291
574.111570	22161.855003
574.466342	22093.499478
574.821059	22189.430115
575.175722	21889.027757
575.530330	21873.077547
575.884882	21901.081156
576.239380	21803.313018
576.593823	21697.446267
576.948211	21690.229855
577.302544	21520.554699
577.656823	21393.144577
578.011047	21483.131694
578.365216	21361.644927
578.719330	21249.877505
579.073389	21153.352012
579.427394	21288.417126
579.781344	21074.160526
580.135239	20966.625153
580.489080	20937.157088
580.842866	20697.334276
581.196597	20878.044518
581.550273	20865.197138
581.903895	20763.915316
582.257463	21072.532233
582.610975	20593.073132
582.964434	20889.487937
583.317837	20622.284098
583.671186	20711.086544
584.024481	20670.969042
584.377721	20454.842173
584.730906	20496.197279
585.084037	20528.949655
585.437113	20437.475398
585.790135	20632.371447
586.143103	20103.992989
586.496016	20109.936509
586.848874	20362.594099
587.201679	20309.205759
587.554428	19971.088009
587.907124	20296.958276
588.259765	20080.818805
588.612352	20157.083901
588.964884	19716.025789
589.317362	19898.918851
589.669786	19941.032650
590.022155	20009.781385
590.374470	20172.840027
590.726731	19982.218877
591.078937	19727.116328
591.431090	19829.519806
591.783188	19578.072093
592.135232	19553.456139
592.487222	19656.134361
592.839157	19682.837353
593.191038	19562.323529
593.542866	19453.784966
593.894639	19175.684673
594.246358	19397.271111
594.598022	19308.919848
594.949633	19049.943172
595.301190	19015.358337
595.652692	19177.108799
596.004141	19421.662734
596.355535	18749.278675
596.706876	18769.057642
597.058162	18648.473242
597.409395	18874.969764
597.760573	18961.223906
598.111698	18748.489734
598.462768	18676.350823
598.813785	18639.351274
599.164748	18469.580336
599.515657	18495.053286
599.866511	18288.476884
600.217312	18648.649682
600.568060	18178.466304
600.918753	18486.253952
601.269392	18390.232574
601.619978	18150.747520
601.970510	18386.832316
602.320988	18322.035845
602.671412	18544.610349
603.021783	18430.912165
603.372100	18176.127209
603.722363	18304.883319
604.072572	18236.779851
604.422728	18374.451242
604.772830	18143.115213
605.122878	18096.960929
605.472872	18080.166325
605.822813	18074.411848
606.172701	18028.696144
606.522534	18230.319613
606.872314	18254.711236
607.222041	18085.928364
607.571714	18297.714798
607.921333	18134.908214
608.270899	18213.877889
608.620411	18408.930214
608.969870	18151.554104
609.319276	18160.471906
609.668627	18194.235033
610.017926	18330.542792
610.367171	18441.057488
610.716362	18478.828333
611.065500	18302.274522
611.414585	18430.478626
611.763616	18419.067974
612.112594	18367.368421
612.461518	18344.847066
612.810389	18522.557822
613.159207	18370.098206
613.507971	18283.561759
613.856682	18563.290345
614.205340	18507.847735
614.553945	18645.657757
614.902496	18378.368219
615.250994	18628.656466
615.599439	18568.581036
615.947830	18556.023522
616.296169	18584.957224
616.644454	18560.873112
616.992686	18531.558802
617.340864	18739.493795
617.688990	18499.998658
618.037063	18680.227470
618.385082	18516.238735
618.733048	18811.199167
619.080961	18664.859513
619.428821	18707.865596
619.776628	18605.247868
620.124382	18521.973048
620.472083	18563.670952
620.819731	18585.789014
621.167326	18278.104710
621.514868	18321.781267
621.862357	18083.390143
622.209793	18097.661649
622.557176	17938.409079
622.904506	17751.382271
623.251783	17660.001275
623.599007	17436.736133
623.946179	17374.218264
624.293297	17325.699678
624.640363	17079.217502
624.987376	17098.212570
625.334336	16880.069240
625.681243	16737.512971
626.028097	16737.359216
626.374899	16674.211202
626.721647	16539.559462
627.068343	16365.448091
627.414987	16295.600384
627.761577	16275.173628
628.108115	16317.622664
628.454600	16044.596293
628.801032	16138.807896
629.147412	16068.617391
629.493739	16087.246975
629.840014	15895.872172
630.186236	16008.191600
630.532405	15757.242962
630.878521	15959.433560
631.224585	15843.976014
631.570597	15682.202866
631.916556	15716.550768
632.262462	15691.569330
632.608316	15608.937257
632.954117	15555.924483
633.299866	15544.261773
633.645562	15464.916532
633.991206	15222.134563
634.336797	15088.569192
634.682336	15059.585078
635.027823	14959.170335
635.373257	14841.739176
635.718639	14727.811620
636.063968	14676.497715
636.409245	14437.872177
636.754470	14466.541219
637.099642	14312.216376
637.444762	14088.172376
637.789829	14129.620743
638.134845	13966.325167
638.479808	13987.661851
638.824719	13946.205922
639.169577	13797.771667
639.514383	13838.118542
639.859137	13656.211026
640.203839	13739.148089
640.548489	13577.490888
640.893086	13566.113004
641.237632	13438.682717
641.582125	13595.185338
641.926566	13422.442640
642.270955	13429.570832
642.615292	13397.342735
642.959576	13407.770362
643.303809	13444.293522
643.647990	13374.604611
643.992118	13437.311523
644.336195	13203.278477
644.680219	13401.053024
645.024192	13324.147702
645.368112	13558.107652
645.711981	13622.415131
646.055797	13802.835507
646.399562	13765.861164
646.743274	14030.945198
647.086935	14309.902487
647.430544	14269.916054
647.774101	14302.060972
648.117606	14458.770280
648.461059	14421.745526
648.804460	14422.713427
649.147810	14152.051357
649.491108	14044.939441
649.834354	14074.047063
650.177548	13766.400567
650.520690	13579.998862
650.863781	13499.652953
651.206820	13537.017985
651.549807	13371.912635
651.892742	13178.596987
652.235626	13121.299233
652.578458	13117.420065
652.921238	12802.204277
653.263967	12999.895645
653.606644	12828.808966
653.949269	12794.551805
654.291843	12609.231428
654.634365	12762.056527
654.976836	12608.192950
655.319255	12631.470478
655.661622	12573.023341
656.003938	12498.139521
656.346203	12433.252309
656.688416	12493.204231
657.030577	12457.215434
657.372687	12380.736089
657.714746	12347.774504
658.056753	12532.615972
658.398708	12356.488139
658.740612	12361.201618
659.082465	12458.553860
659.424266	12421.206472
659.766016	12445.041047
660.107715	12349.904392
660.449362	12429.312647
660.790958	12391.365362
661.132503	12335.905108
661.473996	12397.508008
661.815438	12410.892271
662.156829	12426.250146
662.498168	12408.822877
662.839456	12400.066393
663.180693	12426.267790
663.521879	12514.225843
663.863013	12489.186432
664.204097	12464.285652
664.545129	12584.872573
664.886110	12549.007284
665.227040	12649.527891
665.567918	12641.625883
665.908746	12690.358717
666.249522	12665.735201
666.590248	12708.423692
666.930922	12830.044049
667.271545	12812.465545
667.612118	12900.169019
667.952639	12801.843834
668.293109	12805.042446
668.633528	12767.992486
668.973896	12739.953588
669.314213	12824.662617
669.654480	12561.368193
669.994695	12627.054428
670.334859	12643.544042
670.674973	12597.684665
671.015035	12634.404430
671.355047	12576.123650
671.695008	12543.446891
672.034918	12555.830485
672.374777	12590.319539
672.714585	12505.736540
673.054342	12544.331613
673.394049	12495.318995
673.733705	12583.496338
674.073310	12500.203873
674.412864	12514.896316
674.752368	12389.061554
675.091820	12397.190415
675.431223	12378.986808
675.770574	12263.340219
676.109875	12186.361799
676.449125	12143.217084
676.788324	12076.043709
677.127473	11918.217785
677.466571	11913.897516
677.805619	11819.065851
678.144616	11725.577653
678.483562	11698.254599
678.822458	11568.661657
679.161303	11542.200640
679.500098	11538.003880
679.838842	11491.138793
680.177535	11510.020435
680.516179	11575.169787
680.854771	11517.776250
681.193314	11725.592776
681.531805	11880.026004
681.870247	12281.604319
682.208638	12685.864528
682.546978	13010.514836
682.885268	13070.486923
683.223508	12760.985282
683.561697	12598.607196
683.899836	12502.913493
684.237925	12311.452991
684.575963	12221.415463
684.913951	12152.011377
685.251889	12096.218407
685.589776	12191.750793
685.927614	12121.759413
686.265401	12080.984040
686.603137	12130.044549
686.940824	12271.940427
687.278460	12388.716235
687.616046	12442.916201
687.953582	12611.815019
688.291068	12532.126980
688.628504	12770.823094
688.965889	12775.884412
689.303224	12748.067326
689.640510	12641.719144
689.977745	12338.062722
690.314930	12111.742640
690.652065	12025.695185
690.989150	11744.517268
691.326185	11518.537464
691.663170	11309.805969
692.000105	11070.426778
692.336990	10966.846190
692.673825	10714.531399
693.010610	10597.924469
693.347345	10394.798737
693.684030	10191.791472
694.020665	10130.876689
694.357251	9939.103635
694.693786	9884.442404
695.030272	9714.648781
695.366707	9601.890772
695.703093	9536.834682
696.039429	9532.988281
696.375716	9455.934245
696.711952	9323.924069
697.048139	9361.624338
697.384276	9309.687851
697.720363	9331.473197
698.056400	9272.779043
698.392388	9222.488492
698.728326	9182.560033
699.064214	9118.676011
699.400053	9165.762909
699.735842	8983.822625
700.071581	8941.550030
700.407270	8863.472639
700.742910	8784.308879
701.078501	8695.700518
701.414042	8574.281807
701.749533	8508.943412
702.084974	8373.835448
702.420366	8484.438363
702.755709	8365.779684
703.091002	8230.152481
703.426246	8259.615505
703.761440	8212.503402
704.096584	8168.899941
704.431679	8097.504600
704.766725	8094.991585
705.101721	8041.958646
705.436668	8085.809123
705.771565	7976.095971
706.106413	8054.541366
706.441212	8101.824869
706.775961	8055.080770
707.110661	8085.783917
707.445311	8234.961742
707.779913	8127.597768
708.114465	8257.611646
708.448967	8303.019839
708.783421	8428.531967
709.117825	8616.125905
709.452180	8653.274167
709.786485	8735.840706
710.120742	9017.031226
710.454949	9016.143983
710.789107	9118.502091
711.123216	9325.020520
711.457275	9484.076486
711.791286	9657.174586
712.125247	9646.880549
712.459159	9637.330083
712.793023	9887.411643
713.126837	9473.200197
713.460602	9615.486764
713.794318	9439.132079
714.127985	9477.762441
714.461602	9162.133278
714.795171	9113.518911
715.128691	8866.114203
715.462162	8611.379658
715.795584	8555.889158
716.128957	8421.456708
716.462281	8244.895336
716.795556	8293.973489
717.128782	8088.667457
717.461960	7826.015780
717.795088	7890.749237
718.128167	7803.214641
718.461198	7636.622151
718.794180	7576.776093
719.127113	7568.127993
719.459997	7420.293636
719.792833	7194.828031
720.125619	7255.468070
720.458357	7113.483972
720.791046	7098.352949
721.123686	7100.828155
721.456278	6943.372756
721.788821	6962.844213
722.121315	6852.541246
722.453761	6919.316370
722.786158	6867.757969
723.118506	6874.316510
723.450805	6851.026379
723.783056	6914.963334
724.115259	6818.435320
724.447412	6816.353323
724.779518	6855.717173
725.111574	6856.904365
725.443582	6944.156656
725.775542	6920.291833
726.107453	7107.573219
726.439315	7026.312340
726.771129	7076.320586
727.102895	7241.617500
727.434612	7358.816765
727.766281	7389.545118
728.097901	7477.929148
728.429473	7466.299206
728.760996	7437.882222
729.092471	7416.527894
729.423897	7368.946964
729.755276	7380.113120
730.086606	7304.188302
730.417887	7403.783858
730.749120	7582.467556
731.080305	7775.687421
731.411442	7907.019561
731.742530	7896.221409
732.073570	8005.022112
732.404562	8088.400276
732.735506	7937.669776
733.066401	8077.690345
733.397249	8019.646499
733.728048	7786.208309
734.058798	7448.088038
734.389501	7232.472847
734.720156	7058.179994
735.050762	6818.717624
735.381320	6718.786832
735.711831	6674.341499
736.042293	6568.968781
736.372707	6585.380257
736.703073	6450.869669
737.033391	6483.501058
737.363661	6494.102605
737.693883	6520.432551
738.024056	6603.198215
738.354182	6648.974413
738.684260	6682.354413
739.014290	6791.535723
739.344272	6902.441108
739.674207	6930.064110
740.004093	6995.226065
740.333931	7014.962182
740.663722	7021.245980
740.993464	7104.971984
741.323159	7102.312775
741.652806	6845.344999
741.982405	6851.230546
742.311956	6914.635659
742.641460	6762.165961
742.970915	6564.363687
743.300323	6555.975207
743.629683	6500.741804
743.958996	6369.762545
744.288260	6278.011025
744.617477	6228.655608
744.946647	6238.069963
745.275768	6072.266413
745.604842	6024.715729
745.933869	6004.341906
746.262847	5967.329754
746.591778	5956.221572
746.920662	5912.474439
747.249498	5901.535135
747.578286	5947.308812
747.907027	6021.933012
748.235720	6082.570531
748.564365	6056.117076
748.892963	6078.588020
749.221514	6228.078396
749.550017	6077.599953
749.878473	5950.255366
750.206881	6000.364435
750.535242	5942.096259
750.863555	5871.719230
751.191821	5898.822994
751.520039	5899.264095
751.848210	5805.327234
752.176334	5819.076981
752.504411	5877.476228
752.832440	5803.446884
753.160421	5726.685234
753.488356	5779.229181
753.816243	5810.564993
754.144082	5661.051932
754.471875	5631.349453
754.799620	5673.707748
755.127318	5686.960942
755.454969	5641.401514
755.782572	5601.619248
756.110129	5649.220344
756.437638	5640.017717
756.765100	5575.488427
757.092515	5568.387962
757.419882	5622.338391
757.747203	5605.185865
758.074477	5666.645092
758.401703	5657.099667
758.728882	5603.512202
759.056014	5654.914327
759.383099	5790.445748
759.710138	5795.330626
760.037129	5781.578358
760.364073	5786.007012
760.690970	5869.097830
761.017820	5851.423545
761.344623	5802.552079
761.671379	5903.123098
761.998088	6016.959914
762.324751	6253.538743
762.651366	6827.108625
762.977935	8108.519521
763.304456	9720.713289
763.630931	10639.942487
763.957359	10277.453278
764.283740	9358.768525
764.610074	8541.100933
764.936362	7554.773977
765.262602	6956.928419
765.588796	6418.051758
765.914943	6074.539973
766.241044	5922.655049
766.567097	5723.915120
766.893104	5468.056398
767.219064	5287.343635
767.544978	5222.622782
767.870845	5147.053365
768.196665	5043.865987
768.522438	4970.829750
768.848165	4936.834729
769.173846	4870.092373
769.499479	4827.338347
769.825066	4772.795583
770.150607	4717.098395
770.476101	4690.924724
770.801548	4689.303993
771.126949	4611.730718
771.452303	4562.778593
771.777611	4522.467006
772.102872	4533.658368
772.428087	4497.170496
772.753256	4463.324189
773.078378	4417.709309
773.403453	4346.835727
773.728482	4332.609591
774.053465	4286.440183
774.378401	4275.226137
774.703291	4280.060603
775.028135	4209.391188
775.352932	4156.290194
775.677683	4142.182525
776.002388	4162.936955
776.327046	4176.923637
776.651658	4099.809106
776.976224	4036.507337
777.300743	4044.008574
777.625216	4064.526070
777.949643	4063.457346
778.274024	4015.563864
778.598359	3969.580979
778.922647	3992.427488
779.246889	3989.690142
779.571086	3981.309223
779.895236	3971.113490
780.219339	3952.095737
780.543397	3945.562401
780.867409	3997.924866
781.191374	4008.929705
781.515294	3951.044656
781.839167	3942.404118
782.162995	3961.691573
782.486776	3952.995583
782.810511	3958.094710
783.134201	3958.324082
783.457844	3916.356477
783.781441	3857.926983
784.104993	3859.182230
784.428498	3879.611506
784.751958	3878.376423
785.075372	3859.235162
785.398739	3819.780572
785.722061	3827.783403
786.045337	3874.030949
786.368568	3910.178542
786.691752	3818.852999
787.014891	3865.440823
787.337983	3989.405316
787.661030	4147.911796
787.984031	4306.262000
788.306987	4476.085870
788.629897	4557.745001
788.952760	4515.318650
789.275579	4449.279535
789.598351	4391.041605
789.921078	4254.252416
790.243759	4055.320923
790.566395	4028.612890
790.888984	4026.878733
791.211529	3921.692538
791.534027	3864.276316
791.856480	3853.974718
792.178888	3795.618321
792.501249	3739.898448
792.823566	3753.335643
793.145836	3784.570633
793.468062	3732.661872
793.790241	3683.634130
794.112375	3713.273594
794.434464	3776.197276
794.756507	3802.267603
795.078505	3787.456693
795.400457	3809.899910
795.722364	3948.113225
796.044226	4051.918145
796.366042	4123.792396
796.687812	4106.481073
797.009538	4115.925675
797.331218	4073.310281
797.652852	4046.503945
797.974442	4023.841438
798.295986	4028.917880
798.617484	3947.067186
798.938938	3856.737271
799.260346	3899.771080
799.581709	3896.053229
799.903026	3826.248372
800.224299	3790.985501
800.545526	3781.286321
800.866708	3743.744848
801.187845	3678.691278
801.508936	3714.851475
801.829983	3718.476065
802.150984	3637.885659
802.471940	3629.214874
802.792851	3637.812562
803.113717	3640.628046
803.434538	3643.811535
803.755314	3587.224583
804.076045	3558.605953
804.396731	3577.268304
804.717372	3605.067747
805.037967	3588.240376
805.358518	3580.948347
805.679024	3605.024897
805.999485	3621.020478
806.319901	3621.280098
806.640272	3633.767036
806.960598	3648.414108
807.280879	3628.231849
807.601115	3634.949187
807.921306	3650.687669
808.241453	3693.655944
808.561554	3672.886390
808.881611	3608.173098
809.201623	3637.764671
809.521590	3650.740601
809.841513	3625.900315
810.161390	3655.890140
810.481223	3635.531440
810.801011	3575.251843
811.120755	3571.745720
811.440453	3607.253087
811.760107	3609.493880
812.079716	3567.853949
812.399281	3536.470246
812.718801	3555.367011
813.038276	3533.422869
813.357707	3529.626880
813.677093	3548.032132
813.996434	3493.529698
814.315731	3499.730317
814.634983	3502.631501
814.954191	3521.936600
815.273354	3549.557082
815.592473	3545.209086
815.911547	3551.389541
816.230577	3588.595777
816.549562	3637.247953
816.868502	3681.844520
817.187399	3704.116338
817.506250	3703.493755
817.825058	3674.255063
818.143821	3765.562962
818.462539	3866.038199
818.781213	3912.109304
819.099843	3963.113178
819.418429	4199.714693
819.736970	4441.579172
820.055466	4679.108259
820.373919	5041.332807
820.692327	5445.635866
821.010691	5865.722778
821.329011	7191.077412
821.647286	9850.762455
821.965517	14304.601713
822.283704	18311.028486
822.601847	20544.511697
822.919945	18793.151837
823.237999	16264.471259
823.556010	13815.662722
823.873976	11765.957295
824.191897	9681.220889
824.509775	8331.746855
824.827609	7216.479786
825.145398	6663.855899
825.463144	6547.322066
825.780845	6660.843809
826.098502	6830.700447
826.416116	7665.056779
826.733685	8965.220767
827.051210	10082.554709
827.368692	10167.258696
827.686129	8952.025547
828.003522	7441.804240
828.320872	6432.608090
828.638177	5740.956741
828.955439	5191.856620
829.272656	4700.374367
829.589830	4408.307557
829.906960	4238.760950
830.224046	4052.744894
830.541088	3926.703445
830.858086	3883.092423
831.175041	3810.202379
831.491952	3787.129018
831.808819	3798.764001
832.125642	3867.898385
832.442421	4008.793594
832.759157	4276.562042
833.075849	4809.485101
833.392497	5655.010109
833.709101	6423.468478
834.025662	6765.583863
834.342179	6440.048833
834.658653	5784.252691
834.975083	5144.842819
835.291469	4572.192948
835.607811	4164.608098
835.924110	4027.866800
836.240366	3832.242304
836.556578	3624.382928
836.872746	3516.749252
837.188871	3477.944971
837.504952	3415.101947
837.820990	3332.661437
838.136984	3284.183181
838.452935	3307.143117
838.768842	3303.165646
839.084706	3323.385714
839.400526	3477.700475
839.716303	3800.598981
840.032037	4308.684275
840.347727	4587.336574
840.663373	4324.916790
840.978977	3952.269657
841.294537	3646.306906
841.610054	3418.605549
841.925527	3312.486740
842.240957	3238.974114
842.556344	3190.831094
842.871687	3131.239615
843.186987	3082.952923
843.502244	3043.531100
843.817458	3012.714526
844.132629	2976.952581
844.447756	2987.869199
844.762840	2975.399905
845.077881	2943.605348
845.392879	2923.891916
845.707833	2922.119950
846.022745	2920.781524
846.337613	2924.333017
846.652438	2910.905904
846.967221	2907.102353
847.281960	2896.170611
847.596656	2889.138201
847.911309	2888.147615
848.225919	2883.905484
848.540485	2877.160420
848.855009	2878.786192
849.169490	2867.541898
849.483928	2860.698532
849.798323	2859.299612
850.112675	2854.500433
850.426984	2866.473174
850.741251	2865.026362
851.055474	2855.128057
851.369654	2845.844772
851.683792	2853.681246
851.997887	2860.562421
852.311938	2864.580220
852.625947	2856.342975
852.939914	2855.422964
853.253837	2859.990250
853.567718	2847.795699
853.881555	2841.700944
854.195350	2859.128213
854.509103	2855.485979
854.822812	2848.594722
855.136479	2843.452745
855.450103	2844.743280
855.763685	2837.383195
856.077224	2833.234326
856.390720	2849.182016
856.704173	2860.524612
857.017584	2850.918693
857.330953	2849.061028
857.644278	2857.552852
857.957561	2864.618029
858.270802	2870.362424
858.584000	2867.572145
858.897155	2855.944724
859.210268	2855.438088
859.523339	2853.282995
859.836367	2853.376256
860.149352	2846.651357
860.462295	2841.287569
860.775195	2850.797706
861.088054	2854.593695
861.400869	2834.663493
861.713642	2827.802482
862.026373	2847.231089
862.339062	2846.351408
862.651708	2853.540093
862.964312	2858.404807
863.276873	2850.200329
863.589392	2857.247862
863.901869	2871.577342
864.214303	2891.217677
864.526696	2909.428846
864.839045	2904.891807
865.151353	2902.688823
865.463619	2902.376271
865.775842	2904.100346
866.088023	2922.833274
866.400162	2926.820826
866.712258	2900.788308
867.024313	2891.595764
867.336325	2898.943246
867.648296	2919.682553
867.960224	2911.551171
868.272110	2897.872000
868.583954	2900.808473
868.895755	2917.741708
869.207515	2903.026580
869.519233	2908.687796
869.830909	2915.392531
870.142542	2927.380394
870.454134	2928.812082
870.765684	2932.151847
871.077191	2929.321239
871.388657	2935.100922
871.700081	2948.936368
872.011463	2961.952628
872.322803	2961.022535
872.634101	2962.862556
872.945357	2975.203300
873.256571	3004.562980
873.567744	2997.505365
873.878874	2987.723006
874.189963	3011.338291
874.501010	3015.966070
874.812015	3006.526510
875.122979	3006.405522
875.433900	3001.316477
875.744780	3006.836541
876.055618	3013.730319
876.366415	3009.669669
876.677169	3022.065867
876.987882	3020.180475
877.298554	3011.595390
877.609183	3031.177752
877.919771	3054.858572
878.230317	3079.492171
878.540822	3131.814306
878.851285	3168.213958
879.161707	3210.443703
879.472087	3308.521872
879.782425	3523.985829
880.092722	3950.308648
880.402977	4463.987101
880.713191	5073.273558
881.023363	6194.090937
881.333494	7456.910057
881.643583	8028.193776
881.953631	7740.185095
882.263637	7134.296376
882.573602	6566.130611
882.883526	5994.819166
883.193408	5426.892856
883.503248	4965.869255
883.813048	4671.085263
884.122806	4374.647773
884.432522	4066.731575
884.742197	3835.929908
885.051831	3643.451093
885.361424	3506.430010
885.670975	3437.124227
885.980485	3351.205322
886.289954	3275.187242
886.599382	3236.398084
886.908768	3192.638348
887.218113	3153.944972
887.527417	3094.582865
887.836680	3044.977911
888.145901	3043.515976
888.455082	3032.191024
888.764221	2983.362408
889.073319	2952.961730
889.382376	2951.981225
889.691392	2954.945424
890.000366	2953.324693
890.309300	2941.117539
890.618193	2954.854683
890.927044	2971.402270
891.235855	2971.394709
891.544625	2955.131946
891.853353	2965.294913
892.162041	2984.905001
892.470687	3021.299611
892.779293	3073.314237
893.087858	3117.913325
893.396381	3187.665250
893.704864	3305.003147
894.013306	3532.596119
894.321707	3829.973785
894.630068	4037.313922
894.938387	4039.267369
895.246665	3993.397910
895.554903	3878.651166
895.863100	3680.601876
896.171256	3515.680528
896.479371	3382.135321
896.787446	3260.482197
897.095480	3159.885972
897.403473	3091.497678
897.711425	3058.059705
898.019336	3048.547048
898.327207	3020.442615
898.635038	2988.398521
898.942827	2971.442600
899.250576	2962.124027
899.558284	2929.800148
899.865952	2910.391706
900.173579	2890.978223
900.481165	2882.806512
900.788711	2871.060624
901.096216	2851.221163
901.403681	2833.312464
901.711105	2839.903772
902.018489	2841.285048
902.325832	2836.644666
902.633135	2850.119671
902.940397	2879.186964
903.247619	2956.644293
903.554800	3141.823517
903.861941	3474.121255
904.169041	3890.727250
904.476101	4194.804609
904.783121	4156.849762
905.090100	3920.041560
905.397039	3650.483502
905.703938	3406.383271
906.010796	3225.443657
906.317614	3120.978346
906.624391	3023.863038
906.931129	2952.951647
907.237826	2893.556773
907.544483	2846.457272
907.851099	2815.360915
908.157675	2797.986578
908.464211	2777.552261
908.770707	2761.160949
909.077163	2749.329361
909.383578	2734.692371
909.689954	2724.368088
909.996289	2721.355998
910.302584	2723.516133
910.608839	2727.816237
910.915054	2718.958930
911.221229	2711.813094
911.527363	2712.614638
911.833458	2725.076370
912.139513	2723.611915
912.445527	2727.435630
912.751502	2736.688668
913.057436	2746.518918
913.363331	2758.965527
913.669186	2779.014196
913.975000	2811.885039
914.280775	2869.608771
914.586510	2938.188628
914.892205	3013.178312
915.197859	3136.432003
915.503475	3324.668688
915.809050	3528.963968
916.114585	3675.192718
916.420081	3700.895041
916.725536	3643.473778
917.030952	3531.247611
917.336328	3408.692120
917.641665	3275.305709
917.946961	3176.453724
918.252218	3107.621809
918.557435	3035.160264
918.862612	2976.531644
919.167750	2926.087338
919.472848	2887.958571
919.777906	2864.736496
920.082925	2836.836230
920.387904	2808.618372
920.692843	2788.612552
920.997743	2780.962602
921.302603	2765.919798
921.607423	2754.743560
921.912204	2743.900038
922.216946	2735.511558
922.521647	2724.703325
922.826310	2717.799464
923.130932	2711.525748
923.435516	2701.508976
923.740059	2694.642924
924.044564	2685.677232
924.349028	2682.607169
924.653454	2676.441838
924.957840	2671.320026
925.262186	2665.817607
925.566493	2661.270486
925.870761	2656.993067
926.174989	2652.327479
926.479178	2648.160965
926.783328	2641.436066
927.087438	2645.035450
927.391509	2643.170223
927.695541	2638.360962
927.999533	2635.873153
928.303486	2630.128758
928.607400	2630.005250
928.911275	2632.243522
929.215110	2631.421814
929.518906	2630.209416
929.822663	2631.552884
930.126381	2629.722945
930.430060	2630.930301
930.733699	2629.503655
931.037299	2630.118676
931.340861	2635.179994
931.644383	2631.472225
931.947866	2633.632360
932.251309	2630.148922
932.554714	2628.785290
932.858080	2627.535084
933.161407	2625.430402
933.464694	2625.221195
933.767943	2620.192644
934.071153	2625.558952
934.374323	2623.033334
934.677455	2625.677419
934.980548	2621.465535
935.283602	2618.725668
935.586617	2619.222222
935.889593	2623.197171
936.192530	2619.789351
936.495428	2622.720782
936.798287	2623.623149
937.101108	2625.780763
937.403890	2629.846453
937.706632	2632.810652
938.009336	2640.263998
938.312002	2648.407982
938.614628	2658.417193
938.917216	2663.609581
939.219765	2664.910199
939.522275	2665.033707
939.824747	2663.065137
940.127179	2661.209992
940.429573	2655.258910
940.731929	2653.615494
941.034246	2651.273878
941.336524	2647.321613
941.638763	2645.496715
941.940964	2642.469502
942.243126	2638.981024
942.545250	2642.504791
942.847335	2637.612351
943.149381	2632.752678
943.451389	2629.574231
943.753359	2627.386370
944.055290	2629.186062
944.357182	2625.727831
944.659036	2626.426030
944.960851	2623.476955
945.262628	2623.166924
945.564367	2621.899074
945.866067	2623.978550
946.167729	2624.669188
946.469352	2625.266565
946.770937	2624.792697
947.072484	2622.241873
947.373992	2623.257665
947.675462	2620.059053
947.976893	2614.259206
948.278286	2615.287601
948.579641	2618.029989
948.880958	2612.031016
949.182236	2614.062601
949.483476	2610.952209
949.784678	2615.499329
950.085841	2612.855244
950.386967	2613.170316
950.688054	2617.924124
950.989103	2618.309773
951.290114	2616.280708
951.591087	2619.844804
951.892021	2622.599795
952.192917	2623.860083
952.493776	2625.823612
952.794596	2625.231277
953.095378	2626.899899
953.396122	2626.494086
953.696828	2623.489558
953.997496	2621.463014
954.298126	2617.256172
954.598718	2617.208281
954.899272	2615.325410
955.199788	2612.782147
955.500266	2611.005141
955.800706	2608.111518
956.101108	2607.804008
956.401472	2604.103801
956.701798	2601.772267
957.002087	2601.956270
957.302337	2598.961824
957.602550	2598.538367
957.902724	2599.324787
958.202861	2594.172728
958.502960	2594.782708
958.803022	2596.418562
959.103045	2592.115937
959.403031	2592.156267
959.702979	2593.149374
960.002889	2591.455546
960.302762	2592.007552
960.602596	2592.995619
960.902393	2590.217943
961.202153	2589.368508
961.501875	2587.934300
961.801559	2589.623087
962.101205	2588.937490
962.400814	2591.697522
962.700385	2589.073601
962.999918	2585.653178
963.299414	2582.096644
963.598873	2584.362643
963.898293	2583.414906
964.197677	2590.464959
964.497022	2583.772828
964.796331	2586.948755
965.095601	2587.649475
965.394835	2587.843559
965.694030	2586.101841
965.993189	2587.397417
966.292309	2586.124526
966.591393	2586.449680
966.890439	2587.057139
967.189447	2585.630493
967.488419	2585.524629
967.787353	2588.720720
968.086249	2585.532190
968.385108	2586.328693
968.683930	2586.956316
968.982714	2586.532859
969.281462	2586.636203
969.580172	2584.047571
969.878844	2587.006728
970.177480	2586.442119
970.476078	2587.352047
970.774639	2586.046388
971.073162	2585.073445
971.371649	2586.555545
971.670098	2585.055801
971.968510	2589.033272
972.266885	2587.992273
972.565223	2588.985381
972.863524	2590.659044
973.161788	2586.651327
973.460014	2585.781727
973.758204	2588.083014
974.056356	2586.220308
974.354471	2587.770463
974.652550	2583.321644
974.950591	2587.319279
975.248595	2589.418920
975.546563	2586.885740
975.844493	2586.066553
976.142386	2584.962540
976.440243	2586.968919
976.738062	2584.501274
977.035845	2583.094793
977.333590	2585.045719
977.631299	2582.610842
977.928971	2582.784762
978.226606	2577.453741
978.524204	2581.905080
978.821765	2580.102868
979.119290	2584.385328
979.416777	2584.682756
979.714228	2583.142683
980.011642	2586.381625
980.309020	2582.356263
980.606360	2584.687797
980.903664	2583.629155
981.200931	2584.138311
981.498162	2584.816347
981.795356	2587.523446
982.092513	2588.839187
982.389633	2588.428333
982.686717	2594.318922
982.983764	2594.538212
983.280775	2599.629777
983.577749	2601.278234
983.874686	2602.362082
984.171587	2599.057606
984.468451	2597.265476
984.765279	2591.798345
985.062070	2590.810278
985.358824	2590.442274
985.655543	2588.788776
985.952224	2587.795668
986.248869	2585.980853
986.545478	2584.670153
986.842050	2583.760225
987.138586	2586.744588
987.435086	2586.177458
987.731549	2583.614031
988.027975	2583.755184
988.324366	2581.668146
988.620719	2580.911973
988.917037	2582.232755
989.213318	2580.778382
989.509563	2581.526994
989.805772	2581.595049
990.101944	2580.927096
990.398080	2582.235276
990.694180	2583.039340
990.990244	2581.842066
991.286271	2580.629668
991.582262	2583.722416
991.878217	2580.866602
992.174136	2582.729309
992.470019	2582.638568
992.765865	2577.269739
993.061676	2578.666139
993.357450	2578.361149
993.653188	2575.548185
993.948890	2581.428691
994.244556	2579.240830
994.540186	2578.892991
994.835780	2583.709813
995.131337	2581.423650
995.426859	2583.172930
995.722345	2582.983887
996.017795	2581.337950
996.313208	2586.230390
996.608586	2587.571337
996.903928	2586.749629
997.199234	2589.623087
997.494504	2586.487489
997.789738	2582.661253
998.084936	2586.638724
998.380099	2585.726275
998.675225	2584.859196
998.970316	2584.024885
999.265371	2583.135122
999.560390	2582.134453
999.855373	2580.226376
1000.150320	2577.418453
1000.445232	2582.517580
1000.740108	2580.120512
1001.034948	2580.644792
1001.329752	2580.896849
1001.624521	2580.062538
1001.919254	2580.571695
1002.213951	2582.920873
1002.508613	2579.084555
1002.803239	2576.642116
1003.097829	2580.183526
1003.392384	2577.877198
1003.686903	2576.669842
1003.981386	2578.257805
1004.275834	2580.062538
1004.570246	2579.346695
1004.864623	2581.564802
1005.158964	2577.607497
1005.453270	2579.228227
1005.747540	2578.716550
1006.041775	2574.862588
1006.335974	2577.519276
1006.630138	2578.580439
1006.924266	2581.539597
1007.218359	2578.524987
1007.512416	2577.305027
1007.806438	2575.603638
1008.100425	2575.850654
1008.394376	2574.343349
1008.688292	2576.208576
1008.982172	2579.593711
1009.276017	2579.278639
1009.569827	2579.981880
1009.863602	2578.043556
1010.157341	2578.280491
1010.451045	2580.349884
1010.744714	2576.490881
1011.038347	2579.109760
1011.331945	2577.536920
1011.625508	2578.772003
1011.919036	2581.819381
1012.212528	2579.518094
1012.505986	2576.208576
1012.799408	2578.439287
1013.092795	2576.574060
1013.386147	2578.325861
1013.679464	2579.576067
1013.972745	2576.710171
1014.265992	2575.901066
1014.559204	2577.720922
1014.852380	2574.434090
1015.145521	2579.145048
1015.438628	2577.065572
1015.731699	2578.807291
1016.024736	2577.357959
1016.317737	2575.996848
1016.610703	2575.752352
1016.903635	2578.237641
1017.196531	2578.388875
1017.489393	2577.478947
1017.782219	2576.432908
1018.075011	2574.943247
1018.367768	2574.877712
1018.660490	2576.755542
1018.953177	2576.755542
1019.245829	2576.755542
