Dividing Wavelength (nm)	Counts (n)	Blue Motor Position (mm): 7.900000	Red Motor Position (mm): 0.000000	
326.493990	2158.811120
326.888308	2158.811120
327.282561	2158.811120
327.676750	2119.202774
328.070874	2117.024996
328.464933	2113.080293
328.858929	2117.549276
329.252859	2124.521192
329.646726	2129.993364
330.040528	2145.285704
330.434265	2159.073260
330.827938	2178.312824
331.221547	2194.678930
331.615091	2212.063349
332.008571	2227.632953
332.401986	2246.872516
332.795338	2266.275917
333.188625	2284.315686
333.581847	2300.328912
333.975006	2319.752477
334.368100	2340.713595
334.761129	2356.560462
335.154095	2375.139635
335.546996	2392.327449
335.939833	2409.585839
336.332606	2429.815989
336.725315	2436.853440
337.117960	2451.031685
337.510540	2464.569704
337.903056	2474.752835
338.295508	2481.588639
338.687896	2494.176400
339.080220	2500.775271
339.472480	2505.700478
339.864676	2510.666015
340.256807	2517.131294
340.648875	2520.680267
341.040879	2521.799403
341.432818	2527.856349
341.824694	2528.113448
342.216506	2530.533202
342.608253	2531.460774
342.999937	2530.520599
343.391557	2529.734179
343.783113	2529.514889
344.174605	2531.296937
344.566033	2529.461957
344.957397	2527.826102
345.348697	2525.550021
345.739934	2526.729651
346.131106	2521.635565
346.522215	2519.104906
346.913260	2518.648682
347.304241	2519.120030
347.695159	2513.927641
348.086012	2511.457476
348.476802	2513.398320
348.867528	2510.542506
349.258191	2505.420694
349.648789	2504.573780
350.039324	2503.101763
350.429796	2505.007319
350.820203	2504.357011
351.210548	2502.741321
351.600828	2500.480363
351.991045	2499.305774
352.381198	2498.632780
352.771288	2499.409118
353.161314	2497.559015
353.551276	2497.569097
353.941175	2499.293172
354.331010	2495.920640
354.720782	2497.191010
355.110490	2496.951556
355.500135	2495.673623
355.889717	2494.700680
356.279235	2494.509117
356.668689	2496.886021
357.058080	2495.971051
357.447408	2494.703201
357.836672	2497.057420
358.225873	2495.464415
358.615010	2498.784015
359.004084	2498.980620
359.393095	2497.513644
359.782043	2497.606906
360.170927	2499.721670
360.559748	2497.024652
360.948505	2499.056237
361.337199	2503.545385
361.725830	2498.090856
362.114398	2501.092863
362.502903	2500.094715
362.891344	2503.699140
363.279722	2501.894407
363.668037	2506.544871
364.056289	2504.873729
364.444478	2501.934736
364.832603	2504.452792
365.220665	2506.207114
365.608665	2507.157372
365.996601	2505.345077
366.384474	2506.330622
366.772284	2508.521004
367.160031	2507.386744
367.547715	2510.779441
367.935336	2504.493122
368.322893	2506.983452
368.710388	2502.101094
369.097820	2506.416322
369.485189	2503.973883
369.872495	2508.601662
370.259738	2510.542506
370.646918	2511.185253
371.034035	2509.478823
371.421090	2510.552589
371.808081	2509.551920
372.195010	2512.115346
372.581875	2509.824142
372.968678	2511.790192
373.355418	2508.876405
373.742096	2511.107116
374.128710	2510.424039
374.515262	2513.242044
374.901751	2512.342198
375.288177	2515.805471
375.674540	2514.184740
376.060841	2516.334792
376.447079	2515.707168
376.833254	2514.043588
377.219367	2515.538290
377.605417	2515.886129
377.991404	2514.950995
378.377329	2511.555778
378.763191	2514.988804
379.148991	2512.695079
379.534727	2513.463855
379.920402	2513.307579
380.306013	2512.490912
380.691563	2516.775893
381.077049	2517.524504
381.462474	2516.216325
381.847835	2516.581809
382.233134	2514.519977
382.618371	2514.265398
383.003545	2516.811181
383.388657	2517.910153
383.773706	2514.635923
384.158693	2515.939062
384.543618	2519.059536
384.928480	2517.791686
385.313280	2517.769000
385.698017	2518.036182
386.082692	2516.319669
386.467305	2521.277643
386.851856	2517.733712
387.236344	2518.439474
387.620770	2516.475944
388.005133	2514.817405
388.389435	2516.627179
388.773674	2516.541479
389.157851	2520.339989
389.541965	2524.738396
389.926018	2521.040709
390.310008	2521.491893
390.693936	2522.164887
391.077802	2520.854187
391.461606	2521.300329
391.845348	2520.181192
392.229027	2522.646317
392.612645	2519.367046
392.996200	2522.734537
393.379694	2521.751512
393.763125	2521.055833
394.146494	2523.324352
394.529801	2525.078673
394.913047	2524.821575
395.296230	2522.326203
395.679351	2523.331914
396.062410	2522.258148
396.445408	2521.285205
396.828343	2525.892820
397.211217	2523.808303
397.594028	2525.938190
397.976778	2527.321987
398.359466	2525.650844
398.742092	2523.972140
399.124656	2523.538601
399.507158	2526.848118
399.889598	2527.357275
400.271977	2524.052799
400.654294	2527.465660
401.036549	2526.860721
401.418742	2527.112779
401.800874	2525.766791
402.182944	2527.720238
402.564952	2525.401307
402.946898	2527.306863
403.328783	2527.599250
403.710606	2528.027748
404.092367	2528.100845
404.474067	2527.269055
404.855705	2525.020700
405.237282	2527.765608
405.618797	2529.245187
406.000250	2526.283509
406.381642	2528.579755
406.762972	2526.270906
407.144240	2523.914167
407.525447	2527.672347
407.906593	2522.963909
408.287677	2529.456916
408.668700	2526.717048
409.049661	2529.945908
409.430560	2529.225023
409.811399	2531.072605
410.192176	2529.671165
410.572891	2531.024714
410.953545	2530.076977
411.334138	2529.421628
411.714669	2529.666123
412.095139	2532.463964
412.475547	2528.241997
412.855894	2530.056813
413.236180	2532.214427
413.616405	2533.389016
413.996568	2529.676206
414.376670	2532.506814
414.756711	2530.974303
415.136691	2529.726617
415.516609	2531.914478
415.896466	2532.504293
416.276262	2530.215609
416.655997	2532.728624
417.035670	2532.405991
417.415283	2534.475384
417.794834	2535.342463
418.174324	2530.996988
418.553753	2532.073274
418.933121	2535.004705
419.312428	2533.192411
419.691674	2532.194262
420.070859	2533.968748
420.449983	2532.763913
420.829045	2532.287523
421.208047	2534.780374
421.586988	2533.318439
421.965867	2532.640404
422.344686	2536.736342
422.723444	2532.141330
423.102141	2532.408511
423.480777	2533.663758
423.859352	2534.820703
424.237866	2537.033770
424.616319	2535.891948
424.994712	2533.348686
425.373044	2536.423790
425.751314	2533.018491
426.129524	2530.424817
426.507673	2531.065044
426.885762	2532.874818
427.263789	2537.172402
427.641756	2532.098480
428.019662	2536.466640
428.397508	2534.341794
428.775292	2535.816331
429.153016	2537.179963
429.530679	2535.634850
429.908282	2536.224665
430.285824	2536.728780
430.663305	2536.144006
431.040726	2536.499407
431.418086	2534.974458
431.795385	2538.757844
432.172624	2537.174922
432.549802	2534.624098
432.926920	2536.708615
433.303977	2538.316743
433.680974	2537.172402
434.057910	2539.516538
434.434786	2536.370858
434.811601	2538.493184
435.188355	2537.895807
435.565050	2539.246836
435.941683	2537.454706
436.318257	2538.132741
436.694770	2537.679037
437.071222	2540.260108
437.447614	2539.866898
437.823946	2538.848585
438.200218	2537.429500
438.576429	2539.831610
438.952580	2537.454706
439.328670	2540.335726
439.704700	2536.506969
440.080670	2542.019471
440.456580	2537.202648
440.832429	2542.044677
441.208218	2541.601055
441.583947	2539.755993
441.959616	2540.260108
442.335224	2541.028884
442.710773	2540.111394
443.086261	2538.992258
443.461689	2540.416384
443.837057	2541.096940
444.212365	2540.655839
444.587612	2537.051414
444.962800	2538.941847
445.337927	2534.956814
445.712995	2534.142668
446.088002	2538.851106
446.462949	2541.172557
446.837837	2541.921168
447.212664	2540.048380
447.587431	2540.693647
447.962139	2540.330684
448.336786	2542.805891
448.711374	2541.505273
449.085901	2544.459389
449.460369	2540.020653
449.834776	2542.568957
450.209124	2543.367980
450.583412	2540.723894
450.957640	2542.836138
451.331808	2539.181301
451.705917	2539.030067
452.079965	2542.286652
452.453954	2541.840510
452.827883	2540.683565
453.201752	2541.475026
453.575562	2545.976777
453.949311	2541.840510
454.323001	2544.386293
454.696632	2540.988555
455.070202	2541.361600
455.443713	2540.517207
455.817164	2542.415202
456.190556	2542.881508
456.563888	2542.969728
456.937160	2544.310675
457.310373	2543.267157
457.683526	2542.311858
458.056619	2543.342774
458.429653	2543.168854
458.802628	2540.819676
459.175542	2545.969215
459.548398	2543.965356
459.921194	2544.456869
460.293930	2544.179605
460.666607	2544.227496
461.039224	2544.361087
461.411782	2545.409647
461.784280	2541.051569
462.156719	2544.242620
462.529099	2541.490150
462.901419	2542.861344
463.273680	2541.190201
463.645882	2539.705581
464.018024	2542.011909
464.390106	2538.440252
464.762130	2544.287990
465.134094	2543.690613
465.505999	2546.349822
465.877845	2544.928217
466.249631	2544.295552
466.621358	2546.591797
466.993026	2544.008206
467.364634	2547.360573
467.736184	2546.841335
468.107674	2544.550130
468.479105	2543.962836
468.850477	2546.407795
469.221790	2546.130532
469.593043	2546.191026
469.964238	2547.345450
470.335373	2546.233876
470.706449	2547.831921
471.077467	2544.648433
471.448425	2545.891077
471.819324	2547.652960
472.190164	2545.008875
472.560945	2547.453835
472.931667	2544.542568
473.302330	2543.846889
473.672934	2544.245140
474.043479	2545.359235
474.413965	2545.792775
474.784393	2546.236396
475.154761	2548.567930
475.525070	2547.214380
475.895321	2545.155069
476.265513	2546.460727
476.635645	2551.126315
477.005719	2549.281253
477.375734	2544.459389
477.745691	2546.417878
478.115588	2546.206149
478.485427	2545.608772
478.855207	2546.511139
479.224928	2548.056253
479.594591	2548.197405
479.964194	2548.940975
480.333739	2547.514329
480.703226	2544.270346
481.072653	2548.948537
481.442022	2546.148176
481.811333	2546.001982
482.180584	2545.470141
482.549777	2546.049873
482.918912	2544.451828
483.287988	2550.171017
483.657005	2549.281253
484.025964	2550.443239
484.394864	2548.071376
484.763706	2548.696479
485.132489	2548.290666
485.501213	2548.338557
485.869879	2546.921993
486.238487	2547.642878
486.607036	2548.696479
486.975527	2549.646737
487.343959	2548.872920
487.712333	2547.791592
488.080648	2549.709751
488.448905	2550.352498
488.817104	2548.913249
489.185244	2551.955585
489.553326	2546.614483
489.921350	2549.016592
490.289315	2547.572302
490.657222	2550.488609
491.025070	2549.308979
491.392861	2549.732436
491.760593	2550.153373
492.128267	2550.095399
492.495883	2549.888712
492.863440	2548.933413
493.230939	2551.045657
493.598380	2553.304094
493.965763	2550.249155
494.333088	2553.946841
494.700354	2548.630944
495.067563	2552.742005
495.434713	2550.123126
495.801805	2551.325441
496.168839	2550.276881
496.535815	2550.357539
496.902733	2549.334185
497.269593	2551.693445
497.636395	2551.103630
498.003139	2550.811243
498.369825	2549.485420
498.736453	2548.961140
499.103023	2551.287632
499.469535	2550.977601
499.835989	2549.929041
500.202385	2547.678166
500.568723	2548.348640
500.935003	2548.812426
501.301226	2546.722867
501.667390	2551.890050
502.033497	2551.227138
502.399546	2552.207643
502.765537	2552.169834
503.131470	2549.490461
503.497345	2553.215874
503.863163	2551.038095
504.228923	2550.178578
504.594625	2550.034906
504.960269	2549.775286
505.325856	2550.531459
505.691385	2550.405430
506.056856	2551.166645
506.422270	2550.647406
506.787625	2551.459032
507.152924	2550.478527
507.518164	2547.809236
507.883347	2552.865513
508.248472	2549.432488
508.613540	2552.394166
508.978550	2551.375852
509.343503	2551.864844
509.708398	2549.409802
510.073236	2551.650595
510.438016	2550.929710
510.802738	2551.985832
511.167403	2553.437684
511.532010	2553.909032
511.896561	2556.099414
512.261053	2552.026161
512.625488	2554.251831
512.989866	2552.389124
513.354186	2553.777962
513.718449	2552.358877
514.082655	2552.164793
514.446803	2553.873744
514.810894	2550.778476
515.174927	2551.824515
515.538904	2555.572613
515.902822	2552.684032
516.266684	2552.525236
516.630488	2551.648075
516.994235	2554.491286
517.357925	2552.686553
517.721558	2554.629917
518.085133	2552.989022
518.448651	2551.390976
518.812112	2548.590615
519.175516	2551.340564
519.538863	2550.355019
519.902152	2551.892571
520.265385	2551.963147
520.628560	2553.031872
520.991678	2554.060267
521.354739	2554.793755
521.717743	2552.484906
522.080690	2553.634289
522.443580	2552.598332
522.806413	2555.136553
523.169189	2554.556821
523.531908	2553.001625
523.894569	2553.294012
524.257174	2551.433826
524.619722	2550.271840
524.982213	2555.025648
525.344647	2555.774259
525.707025	2552.928528
526.069345	2552.079093
526.431608	2553.883827
526.793815	2553.530946
527.155964	2553.364588
527.518057	2553.523384
527.880093	2551.887530
528.242072	2552.928528
528.603995	2553.737633
528.965860	2554.428271
529.327669	2555.307953
529.689421	2553.725030
530.051117	2553.649413
530.412755	2556.850546
530.774337	2554.846687
531.135862	2555.038251
531.497331	2555.285267
531.858743	2554.627397
532.220098	2556.250648
532.581396	2554.743343
532.942638	2557.636966
533.303824	2555.038251
533.664953	2557.780638
534.026025	2558.161246
534.387040	2556.353992
534.747999	2558.251986
535.108902	2558.188972
535.469748	2555.116389
535.830537	2558.889692
536.191270	2556.628735
536.551947	2552.812581
536.912567	2556.167469
537.273131	2557.699980
537.633638	2554.319886
537.994089	2559.784497
538.354483	2558.551935
538.714821	2561.629559
539.075103	2560.626370
539.435328	2562.058057
539.795497	2563.777091
540.155609	2565.581824
540.515665	2563.005794
540.875665	2564.087122
541.235609	2563.504869
541.595496	2561.130485
541.955328	2564.692060
542.315102	2566.159036
542.674821	2563.998902
543.034483	2564.744992
543.394090	2563.696432
543.753640	2566.958059
544.113134	2567.522668
544.472571	2569.128276
544.831953	2569.955025
545.191278	2566.751372
545.550548	2570.121383
545.909761	2570.476784
546.268918	2570.045766
546.628019	2569.612227
546.987064	2570.867474
547.346053	2571.661456
547.704986	2575.212948
548.063863	2573.332598
548.422684	2570.287741
548.781449	2572.251271
549.140158	2571.099367
549.498811	2577.007599
549.857408	2575.162537
550.215949	2572.291600
550.574434	2572.677248
550.932864	2572.437793
551.291237	2574.096333
551.649555	2576.634554
552.007817	2575.596076
552.366022	2576.304358
552.724173	2577.569688
553.082267	2577.380645
553.440305	2577.788978
553.798288	2576.047259
554.156215	2574.514749
554.514086	2575.858216
554.871902	2573.839234
555.229661	2576.319482
555.587365	2571.583318
555.945014	2574.910479
556.302606	2578.467013
556.660143	2577.211766
557.017625	2580.249061
557.375050	2579.926427
557.732421	2578.945923
558.089735	2577.791499
558.446994	2580.138156
558.804197	2580.533886
559.161345	2580.173444
559.518437	2578.550192
559.875474	2578.522466
560.232455	2579.336612
560.589381	2580.654874
560.946251	2580.107909
561.303065	2580.443146
561.659825	2582.809967
562.016528	2578.991293
562.373177	2578.978690
562.729770	2576.528690
563.086307	2582.079000
563.442789	2580.753177
563.799216	2579.510532
564.155587	2581.287539
564.511904	2581.592529
564.868164	2579.689493
565.224370	2581.990780
565.580520	2578.777044
565.936615	2582.550348
566.292654	2579.694534
566.648638	2582.305852
567.004567	2579.283680
567.360441	2580.470872
567.716260	2580.964905
568.072023	2582.089082
568.427732	2578.643454
568.783385	2582.953640
569.138982	2578.784606
569.494525	2578.245203
569.850013	2579.006417
570.205445	2579.056828
570.560823	2580.244020
570.916145	2578.330902
571.271412	2576.921900
571.626625	2581.668146
571.981782	2580.526325
572.336884	2577.947774
572.691931	2574.368555
573.046923	2574.771847
573.401860	2571.616085
573.756743	2579.208063
574.111570	2578.038515
574.466342	2578.257805
574.821059	2578.262847
575.175722	2575.308730
575.530330	2577.199163
575.884882	2577.862075
576.239380	2577.831828
576.593823	2579.475244
576.948211	2577.277301
577.302544	2577.854513
577.656823	2575.429718
578.011047	2575.394430
578.365216	2574.751683
578.719330	2576.785788
579.073389	2577.620099
579.427394	2577.519276
579.781344	2572.856209
580.135239	2575.659091
580.489080	2575.500294
580.842866	2577.327713
581.196597	2575.878381
581.550273	2574.360993
581.903895	2572.712536
582.257463	2576.637074
582.610975	2572.997361
582.964434	2575.679255
583.317837	2572.490725
583.671186	2574.413926
584.024481	2576.400140
584.377721	2571.696744
584.730906	2573.781261
585.084037	2573.632547
585.437113	2573.844275
585.790135	2573.153637
586.143103	2574.045921
586.496016	2573.962742
586.848874	2573.950139
587.201679	2570.801939
587.554428	2571.399316
587.907124	2574.381158
588.259765	2570.859912
588.612352	2573.680438
588.964884	2570.078533
589.317362	2571.366548
589.669786	2570.804459
590.022155	2569.826476
590.374470	2566.917730
590.726731	2568.067113
591.078937	2565.944787
591.431090	2571.185067
591.783188	2569.561815
592.135232	2571.474933
592.487222	2571.379151
592.839157	2570.141548
593.191038	2569.355128
593.542866	2570.381003
593.894639	2570.423852
594.246358	2569.781105
594.598022	2570.438976
594.949633	2567.719273
595.301190	2567.114335
595.652692	2568.419994
596.004141	2568.203224
596.355535	2569.040056
596.706876	2569.337484
597.058162	2568.641804
597.409395	2566.826989
597.760573	2568.634243
598.111698	2568.198183
598.462768	2569.380333
598.813785	2567.318502
599.164748	2568.097360
599.515657	2567.003429
599.866511	2568.669531
600.217312	2565.939746
600.568060	2564.656772
600.918753	2568.540981
601.269392	2566.259859
601.619978	2567.404201
601.970510	2568.883780
602.320988	2565.254149
602.671412	2566.075857
603.021783	2568.291444
603.372100	2563.630897
603.722363	2566.617781
604.072572	2566.269942
604.422728	2569.143399
604.772830	2569.995354
605.122878	2567.000909
605.472872	2568.062072
605.822813	2567.958728
606.172701	2570.880077
606.522534	2567.898234
606.872314	2568.689695
607.222041	2567.300858
607.571714	2566.048131
607.921333	2564.752554
608.270899	2565.647359
608.620411	2565.516289
608.969870	2572.115159
609.319276	2576.810994
609.668627	2578.283011
610.017926	2583.614031
610.367171	2583.235945
610.716362	2584.607139
611.065500	2584.544124
611.414585	2579.747466
611.763616	2580.415419
612.112594	2577.010120
612.461518	2575.878381
612.810389	2575.212948
613.159207	2575.306210
613.507971	2577.365521
613.856682	2577.418453
614.205340	2574.907959
614.553945	2578.136818
614.902496	2576.256467
615.250994	2575.409553
615.599439	2575.102043
615.947830	2577.657908
616.296169	2575.548185
616.644454	2572.589028
616.992686	2572.715057
617.340864	2575.412074
617.688990	2576.473237
618.037063	2577.368042
618.385082	2575.820407
618.733048	2578.724112
619.080961	2573.917372
619.428821	2576.808474
619.776628	2580.211252
620.124382	2577.317630
620.472083	2579.220666
620.819731	2581.978177
621.167326	2576.543813
621.514868	2580.085224
621.862357	2578.530028
622.209793	2580.531366
622.557176	2579.041705
622.904506	2574.045921
623.251783	2578.827456
623.599007	2580.758218
623.946179	2576.868968
624.293297	2579.329051
624.640363	2576.591704
624.987376	2577.985583
625.334336	2576.989955
625.681243	2575.918710
626.028097	2575.288566
626.374899	2579.671849
626.721647	2581.385841
627.068343	2583.470358
627.414987	2578.746797
627.761577	2580.155800
628.108115	2577.635223
628.454600	2580.760738
628.801032	2580.947261
629.147412	2581.345512
629.493739	2580.738053
629.840014	2583.858527
630.186236	2580.208732
630.532405	2583.422468
630.878521	2581.751325
631.224585	2583.856007
631.570597	2583.268712
631.916556	2582.963723
632.262462	2583.356932
632.608316	2584.884402
632.954117	2583.021696
633.299866	2586.618559
633.645562	2586.217787
633.991206	2585.320462
634.336797	2583.634196
634.682336	2586.671491
635.027823	2584.047571
635.373257	2587.387335
635.718639	2583.971953
636.063968	2586.749629
636.409245	2583.651840
636.754470	2589.802048
637.099642	2583.185533
637.444762	2585.070925
637.789829	2582.928434
638.134845	2585.312900
638.479808	2589.464290
638.824719	2587.904053
639.169577	2587.732654
639.514383	2586.805082
639.859137	2587.951944
640.203839	2586.653847
640.548489	2585.489341
640.893086	2589.968406
641.237632	2584.218970
641.582125	2590.522933
641.926566	2591.067377
642.270955	2587.160483
642.615292	2585.171748
642.959576	2586.618559
643.303809	2584.894484
643.647990	2589.544949
643.992118	2593.088880
644.336195	2587.500761
644.680219	2594.621391
645.024192	2593.429158
645.368112	2595.309508
645.711981	2595.513675
646.055797	2597.416711
646.399562	2599.415528
646.743274	2598.951742
647.086935	2605.563215
647.430544	2606.334512
647.774101	2606.256374
648.117606	2606.740325
648.461059	2610.586725
648.804460	2614.927158
649.147810	2613.573609
649.491108	2608.494646
649.834354	2610.972373
650.177548	2609.056735
650.520690	2611.007661
650.863781	2613.069493
651.206820	2611.723505
651.549807	2611.174019
651.892742	2612.058742
652.235626	2613.077055
652.578458	2614.415481
652.921238	2614.659977
653.263967	2617.241048
653.606644	2614.211315
653.949269	2617.540997
654.291843	2618.249279
654.634365	2619.660802
654.976836	2620.853035
655.319255	2619.600308
655.661622	2624.341513
656.003938	2624.921246
656.346203	2622.675412
656.688416	2626.685650
657.030577	2628.694550
657.372687	2629.175980
657.714746	2628.462657
658.056753	2629.927112
658.398708	2632.848460
658.740612	2635.177473
659.082465	2634.270066
659.424266	2635.910961
659.766016	2637.035139
660.107715	2639.023874
660.449362	2638.544964
660.790958	2647.311531
661.132503	2646.467138
661.473996	2650.389155
661.815438	2650.653816
662.156829	2652.367808
662.498168	2653.623055
662.839456	2657.383756
663.180693	2658.762512
663.521879	2660.035403
663.863013	2664.975734
664.204097	2666.357010
664.545129	2666.798111
664.886110	2668.381033
665.227040	2671.950170
665.567918	2676.451921
665.908746	2684.669001
666.249522	2679.741273
666.590248	2683.010462
666.930922	2692.573531
667.271545	2695.729293
667.612118	2702.749100
667.952639	2700.588965
668.293109	2702.585262
668.633528	2707.278576
668.973896	2705.604913
669.314213	2716.002293
669.654480	2708.286807
669.994695	2709.496684
670.334859	2714.394165
670.674973	2716.463559
671.015035	2721.371122
671.355047	2724.748695
671.695008	2722.422202
672.034918	2729.958727
672.374777	2735.181363
672.714585	2734.339490
673.054342	2745.568660
673.394049	2743.355594
673.733705	2749.916656
674.073310	2755.585433
674.412864	2762.748913
674.752368	2759.459560
675.091820	2755.537542
675.431223	2768.384923
675.770574	2759.830085
676.109875	2768.790736
676.449125	2765.274531
676.788324	2767.530447
677.127473	2764.180600
677.466571	2768.455499
677.805619	2774.560336
678.144616	2772.982455
678.483562	2779.407406
678.822458	2774.908176
679.161303	2774.590583
679.500098	2789.106586
679.838842	2790.765125
680.177535	2788.801596
680.516179	2793.255455
680.854771	2801.245684
681.193314	2813.694813
681.531805	2817.011893
681.870247	2844.758403
682.208638	2855.128057
682.546978	2881.465565
682.885268	2892.614077
683.223508	2881.652088
683.561697	2873.629092
683.899836	2882.637633
684.237925	2882.332644
684.575963	2882.630072
684.913951	2901.420973
685.251889	2892.611556
685.589776	2909.849782
685.927614	2916.083169
686.265401	2906.240316
686.603137	2928.244952
686.940824	2942.909669
687.278460	2956.866103
687.616046	2974.961325
687.953582	2994.556290
688.291068	2985.940958
688.628504	3001.825634
688.965889	3018.620238
689.303224	3037.650594
689.640510	3032.803524
689.977745	3014.350381
690.314930	3012.275946
690.652065	3014.214269
690.989150	2991.912205
691.326185	2989.575630
691.663170	2980.758652
692.000105	2969.216930
692.336990	2981.348467
692.673825	2961.037658
693.010610	2962.648307
693.347345	2944.419494
693.684030	2935.058072
694.020665	2942.944957
694.357251	2941.142744
694.693786	2954.582461
695.030272	2928.890220
695.366707	2931.143616
695.703093	2933.268462
696.039429	2939.254832
696.375716	2950.715896
696.711952	2933.611261
697.048139	2951.167079
697.384276	2957.922225
697.720363	2955.792338
698.056400	2956.462811
698.392388	2965.962865
698.728326	2964.808441
699.064214	2965.340283
699.400053	2987.816267
699.735842	2971.810604
700.071581	2968.029738
700.407270	2964.107721
700.742910	2963.908595
701.078501	2971.016622
701.414042	2958.877524
701.749533	2963.457412
702.084974	2951.998869
702.420366	2958.612863
702.755709	2962.406331
703.091002	2955.129426
703.426246	2958.370888
703.761440	2960.379788
704.096584	2963.724593
704.431679	2957.690332
704.766725	2964.876497
705.101721	2965.161322
705.436668	2967.785243
705.771565	2968.770788
706.106413	2983.367449
706.441212	2995.282216
706.775961	2987.130670
707.110661	2988.743840
707.445311	3020.298942
707.779913	3012.578415
708.114465	3030.935777
708.448967	3041.890204
708.783421	3044.693086
709.117825	3076.114598
709.452180	3091.727051
709.786485	3090.597832
710.120742	3137.359576
710.454949	3143.527427
710.789107	3156.619304
711.123216	3180.887418
711.457275	3215.862944
711.791286	3245.822521
712.125247	3233.748958
712.459159	3261.641662
712.793023	3293.448822
713.126837	3251.324941
713.460602	3269.432765
713.794318	3228.644789
714.127985	3269.853702
714.461602	3245.890577
714.795171	3229.774008
715.128691	3211.845144
715.462162	3176.761234
715.795584	3196.918288
716.128957	3177.235102
716.462281	3135.864873
716.795556	3178.139990
717.128782	3147.676297
717.461960	3106.681634
717.795088	3133.982003
718.128167	3131.103504
718.461198	3110.913682
718.794180	3105.295317
719.127113	3125.606125
719.459997	3112.277315
719.792833	3071.348187
720.125619	3091.096907
720.458357	3069.873649
720.791046	3073.629309
721.123686	3104.004781
721.456278	3074.128383
721.788821	3071.378433
722.121315	3058.755384
722.453761	3076.520410
722.786158	3088.049529
723.118506	3090.023141
723.450805	3089.513984
723.783056	3093.703183
724.115259	3077.740370
724.447412	3094.807196
724.779518	3099.019080
725.111574	3095.548246
725.443582	3118.787965
725.775542	3118.152779
726.107453	3152.372132
726.439315	3145.843837
726.771129	3148.283756
727.102895	3175.679907
727.434612	3202.950028
727.766281	3210.007644
728.097901	3227.313925
728.429473	3218.900239
728.760996	3226.651013
729.092471	3229.779049
729.423897	3233.315418
729.755276	3250.483068
730.086606	3241.724063
730.417887	3242.215576
730.749120	3263.887496
731.080305	3332.890810
731.411442	3354.517360
731.742530	3338.499093
732.073570	3388.731671
732.404562	3409.904517
732.735506	3359.374512
733.066401	3407.908220
733.397249	3398.962693
733.728048	3364.582023
734.058798	3312.204435
734.389501	3299.725059
734.720156	3275.010802
735.050762	3219.225393
735.381320	3207.325750
735.711831	3219.033830
736.042293	3205.354659
736.372707	3223.122205
736.703073	3194.707742
737.033391	3193.477700
737.363661	3192.146836
737.693883	3210.355483
738.024056	3241.300606
738.354182	3249.671442
738.684260	3248.650608
739.014290	3276.046759
739.344272	3300.811427
739.674207	3297.943011
740.004093	3313.036225
740.333931	3323.531908
740.663722	3325.349244
740.993464	3359.258565
741.323159	3382.394941
741.652806	3298.096766
741.982405	3297.232208
742.311956	3361.764018
742.641460	3328.416786
742.970915	3270.579628
743.300323	3289.793986
743.629683	3275.411574
743.958996	3249.379055
744.288260	3242.097108
744.617477	3253.643871
744.946647	3264.237856
745.275768	3210.168961
745.604842	3218.237327
745.933869	3216.782954
746.262847	3197.520706
746.591778	3211.787171
746.920662	3206.688044
747.249498	3202.929864
747.578286	3218.580126
747.907027	3247.584404
748.235720	3264.550408
748.564365	3236.589648
748.892963	3241.643405
749.221514	3315.183757
749.550017	3275.865277
749.878473	3228.226374
750.206881	3262.508740
750.535242	3252.272677
750.863555	3228.508678
751.191821	3252.514653
751.520039	3264.532764
751.848210	3232.105542
752.176334	3229.501786
752.504411	3274.020215
752.832440	3253.351484
753.160421	3206.619988
753.488356	3241.396388
753.816243	3279.671349
754.144082	3227.767629
754.471875	3205.508414
754.799620	3241.323291
755.127318	3245.451996
755.454969	3230.585634
755.782572	3221.592215
756.110129	3252.988521
756.437638	3265.165428
756.765100	3230.971282
757.092515	3224.511043
757.419882	3251.836618
757.747203	3245.192377
758.074477	3277.833848
758.401703	3284.581433
758.728882	3241.587952
759.056014	3252.953233
759.383099	3322.952175
759.710138	3322.735405
760.037129	3294.658699
760.364073	3296.672640
760.690970	3347.106864
761.017820	3351.898480
761.344623	3309.341060
761.671379	3342.930268
761.998088	3384.171947
762.324751	3437.477108
762.651366	3585.921445
762.977935	3874.348542
763.304456	4240.517792
763.630931	4444.273669
763.957359	4372.190210
764.283740	4228.308118
764.610074	4091.758383
764.936362	3837.427131
765.262602	3675.623736
765.588796	3530.867004
765.914943	3428.922270
766.241044	3422.945982
766.567097	3392.623442
766.893104	3309.396512
767.219064	3245.822521
767.544978	3246.845875
767.870845	3241.424114
768.196665	3198.876776
768.522438	3178.271060
768.848165	3179.624609
769.173846	3175.916841
769.499479	3162.275478
769.825066	3139.134062
770.150607	3128.928246
770.476101	3124.945734
770.801548	3137.901500
771.126949	3123.128398
771.452303	3105.648197
771.777611	3088.102461
772.102872	3098.719131
772.428087	3087.709251
772.753256	3093.047833
773.078378	3080.109712
773.403453	3055.362688
773.728482	3060.328224
774.053465	3044.584701
774.378401	3041.159237
774.703291	3060.542473
775.028135	3034.590613
775.352932	3011.734022
775.677683	3008.757220
776.002388	3026.754140
776.327046	3040.917261
776.651658	3002.904441
776.976224	2973.035604
777.300743	2982.265957
777.625216	3006.382837
777.949643	3009.541120
778.274024	2983.569095
778.598359	2965.494038
778.922647	2973.718681
779.246889	2981.832418
779.571086	2987.591936
779.895236	2980.330154
780.219339	2968.082671
780.543397	2962.345838
780.867409	2989.341216
781.191374	3000.731703
781.515294	2979.304279
781.839167	2971.803042
782.162995	2983.362408
782.486776	2980.672952
782.810511	2990.359529
783.134201	2997.487721
783.457844	2980.304948
783.781441	2956.152780
784.104993	2958.199488
784.428498	2971.545943
784.751958	2984.710917
785.075372	2972.685244
785.398739	2947.393775
785.722061	2952.553396
786.045337	2982.850731
786.368568	3003.133813
786.691752	2955.842749
787.014891	2966.293061
787.337983	3011.996162
787.661030	3055.902091
787.984031	3109.517283
788.306987	3162.111641
788.629897	3180.070752
788.952760	3167.195645
789.275579	3161.093328
789.598351	3170.454751
789.921078	3132.315901
790.243759	3046.323899
790.566395	3043.294165
790.888984	3060.219839
791.211529	3013.967253
791.534027	3000.950994
791.856480	3008.842920
792.178888	2975.210862
792.501249	2948.510391
792.823566	2958.829633
793.145836	2983.574136
793.468062	2964.117803
793.790241	2937.326591
794.112375	2949.374949
794.434464	2977.441573
794.756507	2996.449243
795.078505	2981.459372
795.400457	2973.897642
795.722364	3022.322965
796.044226	3062.342165
796.366042	3084.465269
796.687812	3087.663881
797.009538	3089.113213
797.331218	3073.069741
797.652852	3068.013463
797.974442	3070.992785
798.295986	3086.423757
798.617484	3051.075186
798.938938	3011.456758
799.260346	3039.291489
799.581709	3049.477141
799.903026	3017.503622
800.224299	3000.555263
800.545526	3004.809997
800.866708	2992.144098
801.187845	2959.535394
801.508936	2984.473982
801.829983	2995.655262
802.150984	2952.480299
802.471940	2943.832200
802.792851	2956.064560
803.113717	2959.406845
803.434538	2967.903710
803.755314	2934.710232
804.076045	2912.816501
804.396731	2930.551280
804.717372	2948.797737
805.037967	2945.669701
805.358518	2935.352979
805.679024	2942.995368
805.999485	2948.323868
806.319901	2945.266408
806.640272	2961.113275
806.960598	2967.654173
807.280879	2947.381172
807.601115	2948.437294
807.921306	2965.743575
808.241453	2988.345588
808.561554	2981.797130
808.881611	2943.537293
809.201623	2960.626804
809.521590	2979.236223
809.841513	2965.224336
810.161390	2981.580360
810.481223	2979.084989
810.801011	2947.411419
811.120755	2939.214503
811.440453	2969.100984
811.760107	2979.213538
812.079716	2958.612863
812.399281	2936.353648
812.718801	2951.368725
813.038276	2939.973197
813.357707	2946.849331
813.677093	2961.904737
813.996434	2935.108483
814.315731	2933.656631
814.634983	2938.178546
814.954191	2944.941254
815.273354	2968.614512
815.592473	2969.716004
815.911547	2960.140333
816.230577	2974.147179
816.549562	3004.815038
816.868502	3030.434182
817.187399	3045.156872
817.506250	3032.546425
817.825058	3018.685773
818.143821	3067.511868
818.462539	3128.381281
818.781213	3149.649909
819.099843	3161.554593
819.418429	3257.391969
819.736970	3356.332175
820.055466	3449.200311
820.373919	3628.224287
820.692327	3815.926610
821.010691	3960.844659
821.329011	4469.481959
821.647286	5380.042893
821.965517	6655.278376
822.283704	7669.009044
822.601847	8310.694996
822.919945	8089.080832
823.237999	7628.891541
823.556010	7015.100814
823.873976	6437.533297
824.191897	5614.746413
824.509775	5062.155293
824.827609	4594.641206
825.145398	4363.529508
825.463144	4334.996577
825.780845	4384.306623
826.098502	4383.041294
826.416116	4651.152541
826.733685	5123.566629
827.051210	5591.519297
827.368692	5731.444083
827.686129	5312.728366
828.003522	4696.588460
828.320872	4305.170590
828.638177	4030.631872
828.955439	3795.472128
829.272656	3559.042013
829.589830	3415.021288
829.906960	3343.270546
830.224046	3255.919952
830.541088	3196.769574
830.858086	3182.762728
831.175041	3149.780979
831.491952	3138.025008
831.808819	3149.770896
832.125642	3182.543437
832.442421	3249.207656
832.759157	3371.259032
833.075849	3595.711366
833.392497	3934.076132
833.709101	4206.001012
834.025662	4384.077251
834.342179	4314.005212
834.658653	4067.583530
834.975083	3807.553253
835.291469	3544.268911
835.607811	3330.665140
835.924110	3282.754014
836.240366	3181.046215
836.556578	3070.138310
836.872746	3016.339116
837.188871	3006.471057
837.504952	2978.404433
837.820990	2932.623194
838.136984	2902.729152
838.452935	2918.419743
838.768842	2920.942841
839.084706	2932.056065
839.400526	2997.066785
839.716303	3120.060856
840.032037	3327.252279
840.347727	3483.480157
840.663373	3406.773961
840.978977	3250.722523
841.294537	3107.541151
841.610054	2985.852738
841.925527	2927.425765
842.240957	2892.430075
842.556344	2865.338914
842.871687	2840.135665
843.186987	2814.947540
843.502244	2793.585651
843.817458	2774.943464
844.132629	2751.865062
844.447756	2763.510127
844.762840	2759.615836
845.077881	2739.993144
845.392879	2729.331104
845.707833	2725.822461
846.022745	2725.083932
846.337613	2730.480487
846.652438	2725.310784
846.967221	2721.920608
847.281960	2714.341233
847.596656	2712.032384
847.911309	2712.165975
848.225919	2707.129862
848.540485	2704.306816
848.855009	2707.142465
849.169490	2703.515355
849.483928	2697.864222
849.798323	2694.509334
850.112675	2693.675023
850.426984	2701.738348
850.741251	2702.325643
851.055474	2695.588141
851.369654	2691.703932
851.683792	2694.358099
851.997887	2698.887576
852.311938	2701.347659
852.625947	2694.665609
852.939914	2698.179294
853.253837	2702.219778
853.567718	2692.578572
853.881555	2688.570854
854.195350	2700.820858
854.509103	2700.752803
854.822812	2697.541588
855.136479	2695.905733
855.450103	2693.808613
855.763685	2687.446677
856.077224	2685.115143
856.390720	2694.789118
856.704173	2701.645087
857.017584	2698.791794
857.330953	2692.548325
857.644278	2699.071578
857.957561	2704.964687
858.270802	2706.512321
858.584000	2709.854606
858.897155	2702.000488
859.210268	2699.432020
859.523339	2702.749100
859.836367	2698.602751
860.149352	2697.798687
860.462295	2696.835826
860.775195	2702.915458
861.088054	2703.129707
861.400869	2691.590506
861.713642	2688.706966
862.026373	2699.195086
862.339062	2699.701722
862.651708	2701.622402
862.964312	2707.102136
863.276873	2703.901003
863.589392	2701.067875
863.901869	2709.302600
864.214303	2720.839280
864.526696	2729.721793
864.839045	2729.439489
865.151353	2726.261041
865.463619	2726.346741
865.775842	2724.108468
866.088023	2742.576736
866.400162	2748.011099
866.712258	2731.206413
867.024313	2724.930177
867.336325	2728.363202
867.648296	2742.581777
867.960224	2738.044738
868.272110	2730.387226
868.583954	2737.112125
868.895755	2745.934144
869.207515	2735.188925
869.519233	2737.432238
869.830909	2744.250399
870.142542	2751.814650
870.454134	2750.922366
870.765684	2752.210381
871.077191	2750.080493
871.388657	2758.257245
871.700081	2762.302771
872.011463	2769.965324
872.322803	2770.721497
872.634101	2769.017587
872.945357	2777.597631
873.256571	2793.326031
873.567744	2786.286060
873.878874	2780.022426
874.189963	2797.328707
874.501010	2800.182001
874.812015	2795.619756
875.122979	2798.100004
875.433900	2793.978861
875.744780	2798.853657
876.055618	2803.216775
876.366415	2803.574697
876.677169	2817.914259
876.987882	2819.431647
877.298554	2808.164668
877.609183	2824.130002
877.919771	2837.640294
878.230317	2854.513036
878.540822	2897.514078
878.851285	2921.789755
879.161707	2939.111159
879.472087	2994.364726
879.782425	3119.329889
880.092722	3376.887480
880.402977	3648.194818
880.713191	3865.229094
881.023363	4227.864496
881.333494	4653.174043
881.643583	4850.694013
881.953631	4838.746478
882.263637	4737.053802
882.573602	4603.533801
882.883526	4394.056215
883.193408	4112.026343
883.503248	3875.326525
883.813048	3747.313985
884.122806	3615.911269
884.432522	3440.920216
884.742197	3309.603200
885.051831	3191.927545
885.361424	3108.345215
885.670975	3068.431879
885.980485	3021.564272
886.289954	2971.553505
886.599382	2949.359825
886.908768	2920.358067
887.218113	2894.007956
887.527417	2863.884541
887.836680	2831.258193
888.145901	2832.548729
888.455082	2836.924450
888.764221	2799.347690
889.073319	2782.807664
889.382376	2782.134670
889.691392	2782.953857
890.000366	2781.859927
890.309300	2773.620161
890.618193	2781.721295
890.927044	2796.791825
891.235855	2795.561783
891.544625	2782.200205
891.853353	2784.529218
892.162041	2800.481949
892.470687	2822.831905
892.779293	2853.265351
893.087858	2879.249978
893.396381	2918.918818
893.704864	2981.156903
894.013306	3108.443517
894.321707	3275.048611
894.630068	3395.043196
894.938387	3396.973958
895.246665	3386.314438
895.554903	3339.174608
895.863100	3227.634038
896.171256	3134.788587
896.479371	3059.446022
896.787446	2984.494147
897.095480	2919.090217
897.403473	2873.137579
897.711425	2846.033815
898.019336	2843.339319
898.327207	2829.720642
898.635038	2806.644760
898.942827	2795.939870
899.250576	2788.468880
899.558284	2762.874942
899.865952	2751.824732
900.173579	2744.255440
900.481165	2739.652866
900.788711	2735.216651
901.096216	2718.056563
901.403681	2706.930737
901.711105	2713.446428
902.018489	2712.148331
902.325832	2709.688248
902.633135	2718.651419
902.940397	2738.437948
903.247619	2783.079886
903.554800	2885.299363
903.861941	3063.607495
904.169041	3289.577216
904.476101	3464.996767
904.783121	3477.702995
905.090100	3363.712424
905.397039	3218.643140
905.703938	3073.462951
906.010796	2958.239818
906.317614	2890.786659
906.624391	2832.563852
906.931129	2787.725309
907.237826	2750.193919
907.544483	2717.456666
907.851099	2697.939839
908.157675	2685.034485
908.464211	2671.410767
908.770707	2664.290137
909.077163	2655.770587
909.383578	2644.909421
909.689954	2637.309882
909.996289	2634.983389
910.302584	2636.677217
910.608839	2639.951446
910.915054	2634.726290
911.221229	2627.237656
911.527363	2631.683954
911.833458	2634.265025
912.139513	2636.324336
912.445527	2639.724594
912.751502	2646.920841
913.057436	2652.907212
913.363331	2658.465084
913.669186	2674.062414
913.975000	2691.285516
914.280775	2729.026114
914.586510	2770.615633
914.892205	2819.681184
915.197859	2886.242058
915.503475	2990.351968
915.809050	3104.256839
916.114585	3192.895447
916.420081	3218.186916
916.725536	3197.918957
917.030952	3140.563229
917.336328	3066.226374
917.641665	2984.902480
917.946961	2922.122471
918.252218	2885.758108
918.557435	2836.836230
918.862612	2802.732824
919.167750	2770.003133
919.472848	2743.705954
919.777906	2728.355641
920.082925	2713.469113
920.387904	2694.547142
920.692843	2680.119360
920.997743	2675.163906
921.302603	2666.155364
921.607423	2658.465084
921.912204	2652.682880
922.216946	2645.716006
922.521647	2640.004378
922.826310	2633.539098
923.130932	2629.213788
923.435516	2620.777418
923.740059	2616.701645
924.044564	2613.077055
924.349028	2611.083279
924.653454	2604.655807
924.957840	2597.560383
925.262186	2595.672471
925.566493	2594.127358
925.870761	2592.216760
926.174989	2590.603591
926.479178	2586.706779
926.783328	2578.991293
927.087438	2581.053125
927.391509	2580.024730
927.695541	2577.115984
927.999533	2576.407702
928.303486	2571.782443
928.607400	2573.476271
928.911275	2575.401992
929.215110	2573.690520
929.518906	2570.633060
929.822663	2573.178843
930.126381	2572.152968
930.430060	2571.926116
930.733699	2573.645150
931.037299	2573.141034
931.340861	2574.630695
931.644383	2574.955850
931.947866	2575.162537
932.251309	2573.032649
932.554714	2573.952660
932.858080	2569.115673
933.161407	2568.951835
933.464694	2567.769685
933.767943	2562.627708
934.071153	2567.205076
934.374323	2572.919223
934.677455	2570.996023
934.980548	2566.521999
935.283602	2564.626525
935.586617	2566.025446
935.889593	2568.041907
936.192530	2567.530230
936.495428	2570.605334
936.798287	2567.404201
937.101108	2572.649522
937.403890	2573.682958
937.706632	2574.618092
938.009336	2577.983062
938.312002	2587.992273
938.614628	2590.376739
938.917216	2600.932915
939.219765	2601.825200
939.522275	2600.370827
939.824747	2596.015270
940.127179	2597.623398
940.429573	2589.923035
940.731929	2591.942018
941.034246	2590.217943
941.336524	2586.963878
941.638763	2585.010431
941.940964	2583.208218
942.243126	2579.578588
942.545250	2582.383990
942.847335	2579.482806
943.149381	2579.006417
943.451389	2574.212279
943.753359	2572.321847
944.055290	2570.179356
944.357182	2574.759245
944.659036	2572.783112
944.960851	2569.927299
945.262628	2568.956877
945.564367	2568.551064
945.866067	2570.423852
946.167729	2569.413101
946.469352	2569.967628
946.770937	2569.372772
947.072484	2567.976372
947.373992	2568.936712
947.675462	2566.597617
947.976893	2563.865311
948.278286	2561.470763
948.579641	2564.482852
948.880958	2559.484548
949.182236	2563.436813
949.483476	2563.018397
949.784678	2564.099725
950.085841	2563.875393
950.386967	2564.724828
950.688054	2564.061916
950.989103	2564.044272
951.290114	2566.811866
951.591087	2567.802452
951.892021	2568.815724
952.192917	2567.739438
952.493776	2571.953842
952.794596	2571.333781
953.095378	2569.884449
953.396122	2569.745817
953.696828	2570.015519
953.997496	2567.784808
954.298126	2566.534602
954.598718	2566.731207
954.899272	2562.025290
955.199788	2562.627708
955.500266	2560.734755
955.800706	2560.568397
956.101108	2556.210319
956.401472	2555.065977
956.701798	2557.916750
957.002087	2552.948692
957.302337	2551.461552
957.602550	2552.676470
957.902724	2549.860986
958.202861	2549.069525
958.502960	2545.276056
958.803022	2549.467776
959.103045	2544.545089
959.403031	2547.000131
959.702979	2546.188505
960.002889	2546.669935
960.302762	2546.561551
960.602596	2546.874102
960.902393	2544.260264
961.202153	2543.254554
961.501875	2544.600542
961.801559	2546.629606
962.101205	2546.385110
962.400814	2546.760676
962.700385	2546.276725
962.999918	2544.469472
963.299414	2540.822197
963.598873	2542.702547
963.898293	2537.701723
964.197677	2543.995603
964.497022	2545.376879
964.796331	2544.681200
965.095601	2542.001827
965.394835	2545.197918
965.694030	2540.844882
965.993189	2542.964687
966.292309	2542.185829
966.591393	2540.769265
966.890439	2543.836807
967.189447	2544.517363
967.488419	2543.186498
967.787353	2542.954605
968.086249	2542.853782
968.385108	2545.056766
968.683930	2543.292362
968.982714	2543.158772
969.281462	2546.201108
969.580172	2542.037115
969.878844	2542.707588
970.177480	2544.829914
970.476078	2544.146838
970.774639	2544.061138
971.073162	2543.521735
971.371649	2542.553833
971.670098	2544.953423
971.968510	2543.002496
972.266885	2543.786395
972.565223	2543.625078
972.863524	2545.134904
973.161788	2545.727240
973.460014	2546.221273
973.758204	2542.034594
974.056356	2543.753628
974.354471	2546.110367
974.652550	2543.438556
974.950591	2547.844524
975.248595	2546.690100
975.546563	2544.504760
975.844493	2542.793288
976.142386	2540.857485
976.440243	2541.732125
976.738062	2544.950902
977.035845	2543.163813
977.333590	2543.960315
977.631299	2545.210521
977.928971	2539.582073
978.226606	2539.002340
978.524204	2541.124666
978.821765	2541.001158
979.119290	2544.761859
979.416777	2543.700696
979.714228	2545.187836
980.011642	2540.388658
980.309020	2544.381252
980.606360	2541.812784
980.903664	2544.068700
981.200931	2544.096426
981.498162	2544.247661
981.795356	2544.315717
982.092513	2544.671118
982.389633	2548.499874
982.686717	2550.370142
982.983764	2551.201933
983.280775	2552.497509
983.577749	2553.719989
983.874686	2555.219732
984.171587	2552.742005
984.468451	2551.774104
984.765279	2548.356201
985.062070	2548.290666
985.358824	2546.732950
985.655543	2546.637168
985.952224	2544.638350
986.248869	2543.088196
986.545478	2545.371838
986.842050	2544.451828
987.138586	2546.289328
987.435086	2543.962836
987.731549	2543.365459
988.027975	2542.853782
988.324366	2542.016950
988.620719	2542.450490
988.917037	2539.856816
989.213318	2542.001827
989.509563	2543.476364
989.805772	2539.894625
990.101944	2541.243133
990.398080	2543.287321
990.694180	2543.032743
990.990244	2540.781868
991.286271	2540.920499
991.582262	2542.289173
991.878217	2543.156251
992.174136	2541.936292
992.470019	2541.233051
992.765865	2541.648946
993.061676	2539.047711
993.357450	2539.612320
993.653188	2538.346990
993.948890	2540.870088
994.244556	2542.009389
994.540186	2542.286652
994.835780	2542.435366
995.131337	2544.439225
995.426859	2543.531817
995.722345	2543.962836
996.017795	2543.425953
996.313208	2545.654143
996.608586	2543.032743
996.903928	2543.189019
997.199234	2543.824204
997.494504	2545.427291
997.789738	2544.555171
998.084936	2544.439225
998.380099	2545.107178
998.675225	2543.158772
998.970316	2542.901673
999.265371	2543.080634
999.560390	2544.633309
999.855373	2544.998793
1000.150320	2540.237423
1000.445232	2541.762372
1000.740108	2539.861857
1001.034948	2541.354039
1001.329752	2540.784388
1001.624521	2539.355221
1001.919254	2539.390509
1002.213951	2539.929913
1002.508613	2541.492670
1002.803239	2540.212217
1003.097829	2540.174409
1003.392384	2541.422094
1003.686903	2539.612320
1003.981386	2541.361600
1004.275834	2540.176929
1004.570246	2541.623740
1004.864623	2540.441590
1005.158964	2540.025695
1005.453270	2542.485778
1005.747540	2541.013761
1006.041775	2542.483257
1006.335974	2540.479398
1006.630138	2537.570653
1006.924266	2543.264636
1007.218359	2541.906045
1007.512416	2536.035621
1007.806438	2535.448327
1008.100425	2538.137783
1008.394376	2536.181815
1008.688292	2541.086858
1008.982172	2540.912938
1009.276017	2540.116435
1009.569827	2539.997968
1009.863602	2539.874460
1010.157341	2542.067362
1010.451045	2542.931920
1010.744714	2543.705737
1011.038347	2540.645757
1011.331945	2540.194573
1011.625508	2540.423946
1011.919036	2541.170037
1012.212528	2540.300437
1012.505986	2539.836651
1012.799408	2538.967052
1013.092795	2540.111394
1013.386147	2538.982176
1013.679464	2539.672814
1013.972745	2540.123997
1014.265992	2541.293545
1014.559204	2537.356404
1014.852380	2536.774150
1015.145521	2538.919161
1015.438628	2542.049718
1015.731699	2540.058462
1016.024736	2539.859337
1016.317737	2540.948226
1016.610703	2539.067875
1016.903635	2540.912938
1017.196531	2540.615510
1017.489393	2540.358411
1017.782219	2543.166333
1018.075011	2539.098122
1018.367768	2537.510159
1018.660490	2540.459234
1018.953177	2540.459234
1019.245829	2540.459234
