Dividing Wavelength (nm)	Counts (n)	Blue Motor Position (mm): 2.100000	Red Motor Position (mm): 0.000000	
326.493990	2164.195073
326.888308	2164.195073
327.282561	2164.195073
327.676750	2123.913733
328.070874	2117.612290
328.464933	2117.249327
328.858929	2125.032869
329.252859	2125.516820
329.646726	2136.095681
330.040528	2146.331744
330.434265	2160.832623
330.827938	2181.672753
331.221547	2195.253621
331.615091	2214.611652
332.008571	2234.171329
332.401986	2251.051633
332.795338	2268.859509
333.188625	2291.136368
333.581847	2308.596404
333.975006	2322.298260
334.368100	2342.846003
334.761129	2362.367871
335.154095	2376.583925
335.546996	2398.505383
335.939833	2409.066600
336.332606	2429.142995
336.725315	2439.656322
337.117960	2452.115533
337.510540	2461.988633
337.903056	2475.771148
338.295508	2482.110399
338.687896	2490.314877
339.080220	2501.130672
339.472480	2507.031343
339.864676	2511.202897
340.256807	2518.252951
340.648875	2519.820750
341.040879	2523.775535
341.432818	2528.163860
341.824694	2531.576721
342.216506	2530.760054
342.608253	2533.217616
342.999937	2532.683254
343.391557	2531.115455
343.783113	2530.248377
344.174605	2533.058820
344.566033	2529.381298
344.957397	2528.637728
345.348697	2525.441637
345.739934	2528.231915
346.131106	2524.037675
346.522215	2522.643796
346.913260	2518.126922
347.304241	2519.876203
347.695159	2514.414112
348.086012	2513.269771
348.476802	2512.700120
348.867528	2510.194667
349.258191	2506.905314
349.648789	2508.130314
350.039324	2499.575476
350.429796	2504.430107
350.820203	2504.548574
351.210548	2504.351969
351.600828	2500.152688
351.991045	2502.461537
352.381198	2496.954076
352.771288	2497.531288
353.161314	2498.657986
353.551276	2500.046824
353.941175	2496.757471
354.331010	2497.947183
354.720782	2498.211844
355.110490	2496.681854
355.500135	2498.786536
355.889717	2495.111534
356.279235	2498.090856
356.668689	2498.766371
357.058080	2498.479025
357.447408	2497.795949
357.836672	2497.107831
358.225873	2497.087667
358.615010	2498.181597
359.004084	2498.204282
359.393095	2498.620178
359.782043	2498.872235
360.170927	2499.436844
360.559748	2502.020436
360.948505	2500.273676
361.337199	2502.015395
361.725830	2501.196207
362.114398	2500.157729
362.502903	2503.056393
362.891344	2501.561691
363.279722	2504.026815
363.668037	2503.845333
364.056289	2502.804335
364.444478	2506.154182
364.832603	2504.225941
365.220665	2508.644512
365.608665	2506.416322
365.996601	2507.674090
366.384474	2508.810870
366.772284	2506.703668
367.160031	2509.998062
367.547715	2510.603000
367.935336	2510.378669
368.322893	2508.236178
368.710388	2506.141579
369.097820	2509.292300
369.485189	2505.871877
369.872495	2511.218021
370.259738	2512.795902
370.646918	2510.222393
371.034035	2511.132321
371.421090	2511.772548
371.808081	2513.884791
372.195010	2514.056191
372.581875	2511.898577
372.968678	2513.534431
373.355418	2510.870181
373.742096	2514.514936
374.128710	2510.716426
374.515262	2512.753052
374.901751	2514.280522
375.288177	2514.431757
375.674540	2514.280522
376.060841	2514.439318
376.447079	2512.526200
376.833254	2515.054339
377.219367	2514.265398
377.605417	2517.227076
377.991404	2515.616428
378.377329	2513.776407
378.763191	2518.867972
379.148991	2514.411592
379.534727	2514.482168
379.920402	2517.763959
380.306013	2515.513084
380.691563	2514.668691
381.077049	2517.138856
381.462474	2516.808661
381.847835	2518.545338
382.233134	2517.869823
382.618371	2515.903773
383.003545	2517.756397
383.388657	2519.359484
383.773706	2518.656243
384.158693	2518.328568
384.543618	2518.406706
384.928480	2517.194309
385.313280	2518.058867
385.698017	2521.169259
386.082692	2518.683970
386.467305	2521.149094
386.851856	2521.549866
387.236344	2518.366377
387.620770	2517.159021
388.005133	2516.312107
388.389435	2519.261182
388.773674	2516.944772
389.157851	2520.627335
389.541965	2519.624145
389.926018	2520.400483
390.310008	2520.607170
390.693936	2521.721265
391.077802	2521.698580
391.461606	2524.940042
391.845348	2522.439629
392.229027	2524.196472
392.612645	2522.147242
392.996200	2525.189579
393.379694	2524.468694
393.763125	2525.605474
394.146494	2519.578775
394.529801	2524.350227
394.913047	2525.471883
395.296230	2527.435413
395.679351	2523.778056
396.062410	2525.303005
396.445408	2525.325690
396.828343	2526.563293
397.211217	2524.380474
397.594028	2526.470032
397.976778	2526.046575
398.359466	2523.271420
398.742092	2525.194620
399.124656	2527.281658
399.507158	2527.314425
399.889598	2525.282840
400.271977	2525.121523
400.654294	2529.184693
401.036549	2526.303674
401.418742	2527.193437
401.800874	2526.202851
402.182944	2528.173942
402.564952	2528.189065
402.946898	2527.430372
403.328783	2527.188396
403.710606	2526.865762
404.092367	2527.309384
404.474067	2528.368026
404.855705	2527.879034
405.237282	2530.374406
405.618797	2527.594209
406.000250	2528.239477
406.381642	2529.330887
406.762972	2526.565814
407.144240	2522.830319
407.525447	2526.752337
407.906593	2526.349044
408.287677	2530.182842
408.668700	2529.829961
409.049661	2531.173428
409.430560	2528.483973
409.811399	2528.728469
410.192176	2528.554549
410.572891	2531.057482
410.953545	2532.169056
411.334138	2532.542102
411.714669	2533.424304
412.095139	2530.278624
412.475547	2531.430527
412.855894	2535.085364
413.236180	2530.200486
413.616405	2530.694519
413.996568	2529.149405
414.376670	2533.262987
414.756711	2532.342976
415.136691	2532.640404
415.516609	2533.678882
415.896466	2533.963707
416.276262	2535.831455
416.655997	2532.632843
417.035670	2533.671320
417.415283	2533.033614
417.794834	2532.080836
418.174324	2534.815662
418.553753	2534.140147
418.933121	2533.152081
419.312428	2533.731814
419.691674	2535.755837
420.070859	2533.061341
420.449983	2535.271887
420.829045	2534.775333
421.208047	2533.222658
421.586988	2537.376568
421.965867	2536.249870
422.344686	2533.515044
422.723444	2537.154758
423.102141	2533.199972
423.480777	2536.448996
423.859352	2534.452699
424.237866	2535.425642
424.616319	2536.159130
424.994712	2537.563091
425.373044	2536.940508
425.751314	2534.051927
426.129524	2534.316588
426.507673	2532.660569
426.885762	2530.757533
427.263789	2536.247350
427.641756	2537.409336
428.019662	2538.793133
428.397508	2535.977648
428.775292	2537.941178
429.153016	2537.946219
429.530679	2535.639891
429.908282	2538.505787
430.285824	2538.757844
430.663305	2538.679707
431.040726	2538.135262
431.418086	2536.537216
431.795385	2538.644418
432.172624	2537.706764
432.549802	2536.408667
432.926920	2540.935623
433.303977	2539.229192
433.680974	2539.715664
434.057910	2536.552340
434.434786	2537.605941
434.811601	2538.856147
435.188355	2540.113915
435.565050	2539.193904
435.941683	2539.703061
436.318257	2539.647608
436.694770	2536.932947
437.071222	2542.115253
437.447614	2542.006868
437.823946	2542.021992
438.200218	2538.392361
438.576429	2539.632485
438.952580	2539.687937
439.328670	2540.986034
439.704700	2539.695499
440.080670	2541.412012
440.456580	2540.827238
440.832429	2540.794471
441.208218	2541.454862
441.583947	2542.803370
441.959616	2540.524769
442.335224	2542.619368
442.710773	2541.870757
443.086261	2541.656508
443.461689	2541.419574
443.837057	2540.262629
444.212365	2542.188350
444.587612	2540.280273
444.962800	2537.547967
445.337927	2539.700540
445.712995	2536.738862
446.088002	2542.740356
446.462949	2539.403112
446.837837	2544.456869
447.212664	2544.325799
447.587431	2542.866385
447.962139	2543.501570
448.336786	2543.352856
448.711374	2543.557023
449.085901	2545.177754
449.460369	2541.792619
449.834776	2541.139790
450.209124	2542.407640
450.583412	2542.233720
450.957640	2545.656663
451.331808	2542.659697
451.705917	2543.120963
452.079965	2542.077444
452.453954	2544.146838
452.827883	2542.435366
453.201752	2542.004348
453.575562	2544.177085
453.949311	2541.530479
454.323001	2547.083310
454.696632	2543.680531
455.070202	2544.870243
455.443713	2542.785726
455.817164	2544.668597
456.190556	2543.587270
456.563888	2547.385779
456.937160	2543.967877
457.310373	2544.227496
457.683526	2543.209183
458.056619	2543.965356
458.429653	2544.484595
458.802628	2545.281097
459.175542	2543.448638
459.548398	2543.579708
459.921194	2543.055428
460.293930	2544.850079
460.666607	2544.033412
461.039224	2545.671787
461.411782	2545.760007
461.784280	2543.801519
462.156719	2543.632640
462.529099	2548.517518
462.901419	2548.845193
463.273680	2541.706919
463.645882	2544.328319
464.018024	2543.922507
464.390106	2544.030891
464.762130	2549.440049
465.134094	2543.877136
465.505999	2544.305634
465.877845	2543.456200
466.249631	2550.181099
466.621358	2545.616334
466.993026	2548.026006
467.364634	2550.165976
467.736184	2546.001982
468.107674	2544.655994
468.479105	2547.668084
468.850477	2545.817980
469.221790	2547.254709
469.593043	2546.138094
469.964238	2548.308310
470.335373	2544.782023
470.706449	2545.444935
471.077467	2544.973587
471.448425	2546.332178
471.819324	2546.175902
472.190164	2547.373176
472.560945	2546.100285
472.931667	2549.417364
473.302330	2549.281253
473.672934	2547.267312
474.043479	2548.565409
474.413965	2546.954761
474.784393	2547.824360
475.154761	2548.028526
475.525070	2549.215718
475.895321	2548.845193
476.265513	2546.864020
476.635645	2550.599515
477.005719	2548.416695
477.375734	2549.162786
477.745691	2549.485420
478.115588	2546.251520
478.485427	2550.478527
478.855207	2550.055070
479.224928	2547.801674
479.594591	2547.317724
479.964194	2549.397200
480.333739	2550.980122
480.703226	2547.577343
481.072653	2546.372507
481.442022	2550.402910
481.811333	2546.153217
482.180584	2543.035263
482.549777	2544.817311
482.918912	2542.241282
483.287988	2549.490461
483.657005	2548.436860
484.025964	2548.073897
484.394864	2550.445760
484.763706	2548.557847
485.132489	2548.641027
485.501213	2549.608928
485.869879	2549.553475
486.238487	2549.591284
486.607036	2550.914587
486.975527	2549.366953
487.343959	2550.196222
487.712333	2546.770758
488.080648	2550.050029
488.448905	2549.727395
488.817104	2550.937272
489.185244	2548.278063
489.553326	2550.660009
489.921350	2550.135729
490.289315	2550.808723
490.657222	2549.064483
491.025070	2546.498536
491.392861	2551.663198
491.760593	2548.489792
492.128267	2552.754608
492.495883	2548.315872
492.863440	2546.382590
493.230939	2551.350647
493.598380	2548.550286
493.965763	2549.394679
494.333088	2549.833259
494.700354	2548.368804
495.067563	2550.097920
495.434713	2549.276212
495.801805	2551.141439
496.168839	2549.072045
496.535815	2552.532797
496.902733	2550.907025
497.269593	2551.426264
497.636395	2552.694114
498.003139	2550.188661
498.369825	2551.166645
498.736453	2550.811243
499.103023	2552.232849
499.469535	2551.466593
499.835989	2549.528270
500.202385	2549.608928
500.568723	2546.947199
500.935003	2548.898125
501.301226	2548.018444
501.667390	2551.002807
502.033497	2552.434495
502.399546	2550.203784
502.765537	2548.187323
503.131470	2551.320400
503.497345	2552.847869
503.863163	2552.966337
504.228923	2551.486758
504.594625	2553.112530
504.960269	2552.772252
505.325856	2554.352654
505.691385	2550.274360
506.056856	2551.012889
506.422270	2551.073383
506.787625	2551.209494
507.152924	2553.639331
507.518164	2550.080276
507.883347	2552.676470
508.248472	2550.644885
508.613540	2551.355688
508.978550	2550.788558
509.343503	2553.634289
509.708398	2552.142108
510.073236	2550.327293
510.438016	2552.832746
510.802738	2550.533980
511.167403	2553.228477
511.532010	2552.923487
511.896561	2552.789896
512.261053	2552.905843
512.625488	2552.888199
512.989866	2551.446429
513.354186	2551.925338
513.718449	2550.521377
514.082655	2551.378373
514.446803	2550.533980
514.810894	2552.696635
515.174927	2553.621687
515.538904	2551.469114
515.902822	2551.181768
516.266684	2554.327448
516.630488	2553.046995
516.994235	2551.708569
517.357925	2554.483724
517.721558	2552.502550
518.085133	2552.842828
518.448651	2550.279402
518.812112	2548.610780
519.175516	2549.616490
519.538863	2547.405944
519.902152	2551.517005
520.265385	2552.452139
520.628560	2553.157900
520.991678	2555.247459
521.354739	2552.142108
521.717743	2548.603218
522.080690	2551.103630
522.443580	2551.595143
522.806413	2555.207129
523.169189	2555.441543
523.531908	2552.172355
523.894569	2551.723692
524.257174	2551.816953
524.619722	2552.512633
524.982213	2549.424926
525.344647	2552.215205
525.707025	2551.625390
526.069345	2551.998435
526.431608	2556.091852
526.793815	2550.284443
527.155964	2555.824671
527.518057	2553.016748
527.880093	2552.071532
528.242072	2553.357026
528.603995	2551.368291
528.965860	2552.104299
529.327669	2552.278219
529.689421	2555.126471
530.051117	2554.881975
530.412755	2553.447767
530.774337	2551.701007
531.135862	2552.837787
531.497331	2553.674619
531.858743	2554.519012
532.220098	2554.524053
532.581396	2551.350647
532.942638	2552.043805
533.303824	2552.598332
533.664953	2554.090514
534.026025	2552.202602
534.387040	2553.813250
534.747999	2556.772408
535.108902	2554.871893
535.469748	2551.196892
535.830537	2554.829043
536.191270	2549.409803
536.551947	2550.596994
536.912567	2546.566592
537.273131	2551.464073
537.633638	2549.036757
537.994089	2553.823333
538.354483	2551.625390
538.714821	2553.795606
539.075103	2554.355174
539.435328	2553.238559
539.795497	2553.450287
540.155609	2552.222766
540.515665	2552.840308
540.875665	2554.181255
541.235609	2552.991542
541.595496	2555.000442
541.955328	2551.466593
542.315102	2553.586398
542.674821	2555.255020
543.034483	2553.059598
543.394090	2550.138249
543.753640	2552.938610
544.113134	2553.457849
544.472571	2552.996583
544.831953	2551.816953
545.191278	2557.510937
545.550548	2552.752088
545.909761	2554.884496
546.268918	2554.801317
546.628019	2551.781665
546.987064	2553.735113
547.346053	2552.991542
547.704986	2553.891388
548.063863	2554.826522
548.422684	2552.331151
548.781449	2554.997922
549.140158	2553.503219
549.498811	2553.916594
549.857408	2552.237890
550.215949	2550.607077
550.574434	2553.881306
550.932864	2553.954403
551.291237	2555.391132
551.649555	2553.906512
552.007817	2552.426933
552.366022	2553.732592
552.724173	2552.242931
553.082267	2551.287632
553.440305	2553.301573
553.798288	2556.124619
554.156215	2553.165462
554.514086	2550.876778
554.871902	2550.657488
555.229661	2551.534649
555.587365	2550.932231
555.945014	2553.770401
556.302606	2553.823333
556.660143	2558.635114
557.017625	2554.335010
557.375050	2556.573282
557.732421	2552.162272
558.089735	2553.760318
558.446994	2553.349464
558.804197	2554.128323
559.161345	2556.540515
559.518437	2555.128992
559.875474	2556.822819
560.232455	2554.055226
560.589381	2553.979608
560.946251	2551.998435
561.303065	2553.316697
561.659825	2555.456667
562.016528	2554.395504
562.373177	2553.258723
562.729770	2555.312994
563.086307	2551.315359
563.442789	2554.766028
563.799216	2555.378529
564.155587	2555.033210
564.511904	2554.080432
564.868164	2552.331151
565.224370	2552.782334
565.580520	2553.959444
565.936615	2555.169321
566.292654	2555.045813
566.648638	2554.564382
567.004567	2552.489947
567.360441	2554.992880
567.716260	2552.071532
568.072023	2555.204609
568.427732	2555.370967
568.783385	2555.920453
569.138982	2552.076573
569.494525	2555.078580
569.850013	2551.874927
570.205445	2557.510937
570.560823	2552.338713
570.916145	2553.964485
571.271412	2553.339382
571.626625	2554.902140
571.981782	2553.064639
572.336884	2551.206974
572.691931	2549.989535
573.046923	2554.627397
573.401860	2547.446273
573.756743	2553.873744
574.111570	2554.488765
574.466342	2555.587737
574.821059	2553.588919
575.175722	2555.257541
575.530330	2555.338199
575.884882	2556.492624
576.239380	2554.690411
576.593823	2556.573282
576.948211	2553.750236
577.302544	2553.505740
577.656823	2555.454146
578.011047	2553.268806
578.365216	2555.922973
578.719330	2556.664023
579.073389	2555.504557
579.427394	2556.371636
579.781344	2556.860628
580.135239	2552.321069
580.489080	2555.005483
580.842866	2556.187634
581.196597	2557.054712
581.550273	2555.292829
581.903895	2555.847356
582.257463	2553.263765
582.610975	2556.981616
582.964434	2555.786862
583.317837	2554.516491
583.671186	2557.049671
584.024481	2556.331307
584.377721	2553.828374
584.730906	2553.828374
585.084037	2556.212840
585.437113	2554.640000
585.790135	2556.361554
586.143103	2554.829043
586.496016	2555.930535
586.848874	2557.833571
587.201679	2554.594629
587.554428	2556.041440
587.907124	2554.672767
588.259765	2554.070349
588.612352	2555.439023
588.964884	2555.244938
589.317362	2556.822819
589.669786	2556.885834
590.022155	2553.687222
590.374470	2549.523228
590.726731	2554.347613
591.078937	2550.090358
591.431090	2556.159907
591.783188	2554.690411
592.135232	2552.868034
592.487222	2553.914073
592.839157	2555.645710
593.191038	2553.626728
593.542866	2553.977088
593.894639	2554.748384
594.246358	2555.789383
594.598022	2554.579506
594.949633	2553.639331
595.301190	2553.949362
595.652692	2556.464897
596.004141	2555.239897
596.355535	2553.498178
596.706876	2556.119578
597.058162	2555.355843
597.409395	2556.994218
597.760573	2560.286092
598.111698	2554.559341
598.462768	2555.378529
598.813785	2555.444064
599.164748	2556.638817
599.515657	2557.407593
599.866511	2555.139074
600.217312	2556.316183
600.568060	2554.405586
600.918753	2559.613098
601.269392	2554.239228
601.619978	2557.246276
601.970510	2555.098745
602.320988	2557.006821
602.671412	2557.946997
603.021783	2555.733930
603.372100	2556.454815
603.722363	2552.000956
604.072572	2553.019269
604.422728	2554.430792
604.772830	2555.885165
605.122878	2554.748384
605.472872	2555.232335
605.822813	2555.628066
606.172701	2554.728220
606.522534	2555.242418
606.872314	2557.732748
607.222041	2554.360216
607.571714	2552.091696
607.921333	2551.776624
608.270899	2552.943651
608.620411	2549.399720
608.969870	2556.187634
609.319276	2559.018242
609.668627	2564.089643
610.017926	2565.624674
610.367171	2571.164902
610.716362	2567.716753
611.065500	2567.124417
611.414585	2563.278017
611.763616	2562.274827
612.112594	2561.614436
612.461518	2559.618139
612.810389	2560.689384
613.159207	2558.809034
613.507971	2557.468087
613.856682	2562.378171
614.205340	2556.908519
614.553945	2558.483879
614.902496	2557.039589
615.250994	2558.491441
615.599439	2555.933056
615.947830	2558.703170
616.296169	2553.183106
616.644454	2556.207798
616.992686	2556.313663
617.340864	2558.279713
617.688990	2553.803168
618.037063	2556.800134
618.385082	2554.813919
618.733048	2556.296019
619.080961	2555.882644
619.428821	2555.812068
619.776628	2557.568910
620.124382	2554.226625
620.472083	2557.536142
620.819731	2555.343241
621.167326	2556.749722
621.514868	2556.444733
621.862357	2557.886503
622.209793	2556.774928
622.557176	2556.379198
622.904506	2556.177552
623.251783	2554.806358
623.599007	2554.186296
623.946179	2556.711914
624.293297	2557.072356
624.640363	2557.347099
624.987376	2555.744012
625.334336	2554.458518
625.681243	2552.217725
626.028097	2550.120605
626.374899	2556.049002
626.721647	2556.974054
627.068343	2557.034548
627.414987	2556.124619
627.761577	2556.154866
628.108115	2553.924156
628.454600	2554.859290
628.801032	2553.906512
629.147412	2556.971533
629.493739	2554.294681
629.840014	2556.636297
630.186236	2556.187634
630.532405	2555.224773
630.878521	2554.944989
631.224585	2555.844835
631.570597	2557.639486
631.916556	2554.032541
632.262462	2554.554300
632.608316	2554.831563
632.954117	2554.708055
633.299866	2553.755277
633.645562	2553.583878
633.991206	2553.286450
634.336797	2553.780483
634.682336	2552.812581
635.027823	2554.881975
635.373257	2555.570092
635.718639	2557.654610
636.063968	2556.585885
636.409245	2554.322407
636.754470	2556.643858
637.099642	2554.014897
637.444762	2554.450956
637.789829	2554.319886
638.134845	2555.595298
638.479808	2555.025648
638.824719	2554.186296
639.169577	2554.040102
639.514383	2553.979608
639.859137	2555.416337
640.203839	2555.582695
640.548489	2556.157387
640.893086	2555.015566
641.237632	2553.689742
641.582125	2553.117571
641.926566	2555.280226
642.270955	2552.799978
642.615292	2550.539021
642.959576	2557.175700
643.303809	2549.293856
643.647990	2554.236707
643.992118	2554.985319
644.336195	2554.445915
644.680219	2553.379711
645.024192	2555.983467
645.368112	2554.650082
645.711981	2553.619166
646.055797	2553.299053
646.399562	2553.125133
646.743274	2554.491286
647.086935	2551.653116
647.430544	2553.752757
647.774101	2555.859959
648.117606	2556.258210
648.461059	2554.844166
648.804460	2556.427089
649.147810	2552.749567
649.491108	2553.372149
649.834354	2554.365257
650.177548	2556.104455
650.520690	2553.420040
650.863781	2551.360729
651.206820	2555.665874
651.549807	2554.803837
651.892742	2555.360885
652.235626	2552.563044
652.578458	2554.458518
652.921238	2551.340564
653.263967	2557.394990
653.606644	2552.762170
653.949269	2555.060936
654.291843	2553.677139
654.634365	2555.842315
654.976836	2555.857438
655.319255	2555.524722
655.661622	2553.699824
656.003938	2555.257541
656.346203	2554.612273
656.688416	2556.797613
657.030577	2554.660164
657.372687	2554.922304
657.714746	2556.124619
658.056753	2553.120092
658.398708	2554.332489
658.740612	2553.687222
659.082465	2554.203940
659.424266	2553.034392
659.766016	2549.707231
660.107715	2552.036244
660.449362	2547.826880
660.790958	2555.222253
661.132503	2552.479865
661.473996	2556.832902
661.815438	2554.687891
662.156829	2556.187634
662.498168	2555.436502
662.839456	2555.197047
663.180693	2554.972716
663.521879	2556.031358
663.863013	2555.255020
664.204097	2555.136553
664.545129	2554.778631
664.886110	2555.111347
665.227040	2555.983467
665.567918	2554.042623
665.908746	2553.329300
666.249522	2557.021945
666.590248	2553.903991
666.930922	2553.523384
667.271545	2551.804351
667.612118	2554.811399
667.952639	2551.630431
668.293109	2554.161090
668.633528	2551.499361
668.973896	2554.642520
669.314213	2551.892571
669.654480	2555.423899
669.994695	2551.630431
670.334859	2553.793086
670.674973	2550.672612
671.015035	2553.656975
671.355047	2552.474824
671.695008	2554.445915
672.034918	2553.719989
672.374777	2555.781821
672.714585	2554.307283
673.054342	2553.737633
673.394049	2553.714948
673.733705	2553.228477
674.073310	2553.588919
674.412864	2552.736964
674.752368	2554.584547
675.091820	2553.213353
675.431223	2553.704866
675.770574	2558.075546
676.109875	2553.909032
676.449125	2551.935421
676.788324	2549.896274
677.127473	2553.684701
677.466571	2548.386448
677.805619	2551.373332
678.144616	2554.889537
678.483562	2555.416337
678.822458	2555.837274
679.161303	2553.624207
679.500098	2553.135215
679.838842	2553.414999
680.177535	2553.236038
680.516179	2553.120092
680.854771	2552.734443
681.193314	2553.314176
681.531805	2554.854249
681.870247	2553.021789
682.208638	2554.584547
682.546978	2553.982129
682.885268	2556.177552
683.223508	2554.753426
683.561697	2553.268806
683.899836	2555.285267
684.237925	2555.292829
684.575963	2554.234187
684.913951	2555.280226
685.251889	2553.082283
685.589776	2552.154711
685.927614	2555.464228
686.265401	2551.567416
686.603137	2553.475493
686.940824	2552.439536
687.278460	2555.736451
687.616046	2549.508105
687.953582	2554.287119
688.291068	2552.789896
688.628504	2553.175544
688.965889	2554.962633
689.303224	2552.588250
689.640510	2552.018600
689.977745	2555.159238
690.314930	2553.551110
690.652065	2554.788714
690.989150	2553.659495
691.326185	2553.924156
691.663170	2552.225287
692.000105	2554.274516
692.336990	2552.724361
692.673825	2553.624207
693.010610	2553.205791
693.347345	2550.866696
693.684030	2549.853424
694.020665	2551.484237
694.357251	2547.763866
694.693786	2552.694114
695.030272	2551.534649
695.366707	2552.943651
695.703093	2553.160421
696.039429	2553.336861
696.375716	2550.919628
696.711952	2550.657488
697.048139	2555.529763
697.384276	2555.859959
697.720363	2557.090000
698.056400	2554.350133
698.392388	2554.466080
698.728326	2551.534649
699.064214	2553.588919
699.400053	2552.648744
699.735842	2553.646892
700.071581	2553.563713
700.407270	2554.120761
700.742910	2553.745195
701.078501	2553.757798
701.414042	2554.697973
701.749533	2554.803837
702.084974	2553.069680
702.420366	2552.255534
702.755709	2553.805689
703.091002	2554.329969
703.426246	2554.314845
703.761440	2553.916594
704.096584	2555.096224
704.431679	2553.314176
704.766725	2551.312838
705.101721	2554.367777
705.436668	2554.024979
705.771565	2550.438198
706.106413	2554.357695
706.441212	2551.993394
706.775961	2553.437684
707.110661	2554.932387
707.445311	2553.979608
707.779913	2554.811399
708.114465	2552.026161
708.448967	2553.004145
708.783421	2553.009186
709.117825	2551.968188
709.452180	2552.757129
709.786485	2552.500030
710.120742	2551.327962
710.454949	2547.879812
710.789107	2552.106820
711.123216	2549.351829
711.457275	2555.587737
711.791286	2552.752088
712.125247	2554.713096
712.459159	2552.182437
712.793023	2552.174875
713.126837	2553.205791
713.460602	2552.532797
713.794318	2552.633620
714.127985	2553.500699
714.461602	2552.769732
714.795171	2550.697817
715.128691	2551.890050
715.462162	2552.137067
715.795584	2552.258054
716.128957	2552.227807
716.462281	2550.337375
716.795556	2553.087324
717.128782	2554.912222
717.461960	2551.287632
717.795088	2552.726882
718.128167	2553.762839
718.461198	2551.378373
718.794180	2554.357695
719.127113	2551.514484
719.459997	2550.549103
719.792833	2552.036244
720.125619	2555.076059
720.458357	2552.305945
720.791046	2550.191181
721.123686	2554.524053
721.456278	2552.615976
721.788821	2552.905843
722.121315	2554.398024
722.453761	2551.890050
722.786158	2554.062787
723.118506	2552.444577
723.450805	2551.554813
723.783056	2554.614794
724.115259	2552.666388
724.447412	2550.594474
724.779518	2553.170503
725.111574	2553.251162
725.443582	2550.692776
725.775542	2553.863662
726.107453	2555.726368
726.439315	2552.210163
726.771129	2555.318035
727.102895	2550.352498
727.434612	2552.842828
727.766281	2546.823691
728.097901	2549.266130
728.429473	2553.190668
728.760996	2552.021120
729.092471	2552.111861
729.423897	2550.607077
729.755276	2551.050698
730.086606	2551.794268
730.417887	2550.201264
730.749120	2553.397355
731.080305	2551.340564
731.411442	2552.623538
731.742530	2550.211346
732.073570	2552.631100
732.404562	2550.803682
732.735506	2552.696635
733.066401	2552.515153
733.397249	2553.535987
733.728048	2552.189999
734.058798	2553.079763
734.389501	2550.929710
734.720156	2550.927190
735.050762	2552.477345
735.381320	2553.044474
735.711831	2550.148332
736.042293	2550.924669
736.372707	2551.320400
736.703073	2553.004145
737.033391	2552.888199
737.363661	2551.857283
737.693883	2553.578837
738.024056	2555.444064
738.354182	2550.904505
738.684260	2551.789227
739.014290	2550.929710
739.344272	2552.109340
739.674207	2553.294012
740.004093	2552.885678
740.333931	2552.467262
740.663722	2552.820143
740.993464	2548.794782
741.323159	2555.169321
741.652806	2550.087838
741.982405	2551.143959
742.311956	2551.229659
742.641460	2554.118240
742.970915	2551.396017
743.300323	2553.248641
743.629683	2547.370656
743.958996	2546.516180
744.288260	2544.711447
744.617477	2550.871737
744.946647	2553.021789
745.275768	2553.697304
745.604842	2552.986501
745.933869	2553.359547
746.262847	2550.992725
746.591778	2553.147818
746.920662	2551.849721
747.249498	2553.339382
747.578286	2551.816953
747.907027	2552.401727
748.235720	2553.029351
748.564365	2551.680842
748.892963	2550.042467
749.221514	2551.302756
749.550017	2554.950031
749.878473	2552.958775
750.206881	2550.743188
750.535242	2553.115051
750.863555	2549.823177
751.191821	2552.058929
751.520039	2552.212684
751.848210	2551.809392
752.176334	2551.486758
752.504411	2552.777293
752.832440	2552.293342
753.160421	2551.937941
753.488356	2550.407951
753.816243	2551.711089
754.144082	2553.886347
754.471875	2553.175544
754.799620	2550.788558
755.127318	2551.254865
755.454969	2552.288301
755.782572	2550.370142
756.110129	2551.292673
756.437638	2551.607746
756.765100	2551.033054
757.092515	2550.276881
757.419882	2551.312838
757.747203	2550.470965
758.074477	2550.380225
758.401703	2549.034237
758.728882	2551.322920
759.056014	2551.322920
759.383099	2550.019782
759.710138	2548.439380
760.037129	2548.489792
760.364073	2548.825029
760.690970	2545.460058
761.017820	2552.651264
761.344623	2551.194371
761.671379	2553.898950
761.998088	2553.813250
762.324751	2549.366953
762.651366	2551.872406
762.977935	2550.425595
763.304456	2550.675132
763.630931	2556.051523
763.957359	2551.471634
764.283740	2553.140256
764.610074	2552.434495
764.936362	2550.755791
765.262602	2550.075235
765.588796	2553.868703
765.914943	2549.240924
766.241044	2550.849052
766.567097	2548.825029
766.893104	2551.968188
767.219064	2549.588763
767.544978	2553.636810
767.870845	2549.452652
768.196665	2550.876778
768.522438	2549.820657
768.848165	2553.863662
769.173846	2550.201264
769.499479	2551.441388
769.825066	2550.118085
770.150607	2552.729402
770.476101	2553.790565
770.801548	2549.956768
771.126949	2549.792930
771.452303	2553.702345
771.777611	2551.133877
772.102872	2552.255534
772.428087	2551.045657
772.753256	2550.342416
773.078378	2552.152190
773.403453	2550.130688
773.728482	2554.466080
774.053465	2550.269319
774.378401	2549.417364
774.703291	2551.078424
775.028135	2551.176727
775.352932	2551.915256
775.677683	2551.201933
776.002388	2547.073228
776.327046	2546.160779
776.651658	2548.028526
776.976224	2547.899977
777.300743	2550.922149
777.625216	2549.624052
777.949643	2548.338557
778.274024	2553.079762
778.598359	2551.864844
778.922647	2548.310831
779.246889	2553.467931
779.571086	2549.245965
779.895236	2551.695966
780.219339	2551.859803
780.543397	2551.058260
780.867409	2552.290822
781.191374	2552.908363
781.515294	2548.240255
781.839167	2551.393497
782.162995	2552.225287
782.486776	2552.227807
782.810511	2549.692107
783.134201	2550.102961
783.457844	2549.258568
783.781441	2550.120605
784.104993	2552.391645
784.428498	2548.441901
784.751958	2550.715461
785.075372	2549.069525
785.398739	2549.377035
785.722061	2550.448280
786.045337	2551.194371
786.368568	2549.316541
786.691752	2550.836449
787.014891	2551.879968
787.337983	2549.906356
787.661030	2548.179761
787.984031	2549.447611
788.306987	2550.964998
788.629897	2550.995245
788.952760	2550.849052
789.275579	2551.022972
789.598351	2549.382076
789.921078	2552.207643
790.243759	2551.963147
790.566395	2550.844011
790.888984	2551.171686
791.211529	2549.694628
791.534027	2551.756460
791.856480	2551.988353
792.178888	2547.118598
792.501249	2545.800336
792.823566	2549.800492
793.145836	2544.630789
793.468062	2550.445760
793.790241	2549.261088
794.112375	2551.388455
794.434464	2549.104813
794.756507	2550.707900
795.078505	2551.456511
795.400457	2550.602035
795.722364	2550.493651
796.044226	2552.235369
796.366042	2549.682025
796.687812	2549.034237
797.009538	2549.112374
797.331218	2550.055070
797.652852	2550.576830
797.974442	2548.411654
798.295986	2547.980635
798.617484	2551.237221
798.938938	2550.349978
799.260346	2548.580533
799.581709	2550.755791
799.903026	2551.065822
800.224299	2550.957437
800.545526	2552.873075
800.866708	2550.289484
801.187845	2550.327293
801.508936	2549.180430
801.829983	2549.245965
802.150984	2550.357539
802.471940	2550.712941
802.792851	2550.644885
803.113717	2551.688404
803.434538	2547.721016
803.755314	2550.881819
804.076045	2549.208156
804.396731	2548.353681
804.717372	2550.904505
805.037967	2550.581871
805.358518	2549.586243
805.679024	2548.545245
805.999485	2551.098589
806.319901	2552.406768
806.640272	2551.335523
806.960598	2549.326623
807.280879	2549.727395
807.601115	2547.239586
807.921306	2549.876109
808.241453	2548.036088
808.561554	2546.611962
808.881611	2546.543907
809.201623	2544.754297
809.521590	2549.881150
809.841513	2549.868547
810.161390	2550.884340
810.481223	2550.382745
810.801011	2549.639175
811.120755	2550.798640
811.440453	2550.080276
811.760107	2550.609597
812.079716	2547.675646
812.399281	2548.925852
812.718801	2549.770245
813.038276	2547.438711
813.357707	2551.390976
813.677093	2550.503733
813.996434	2551.844680
814.315731	2550.730585
814.634983	2550.312169
814.954191	2550.849052
815.273354	2549.233362
815.592473	2549.011551
815.911547	2548.817467
816.230577	2552.381563
816.549562	2551.703528
816.868502	2548.522559
817.187399	2549.755122
817.506250	2548.532642
817.825058	2548.149514
818.143821	2550.652447
818.462539	2548.978784
818.781213	2547.549617
819.099843	2550.901984
819.418429	2548.157076
819.736970	2550.957437
820.055466	2548.459545
820.373919	2548.565409
820.692327	2549.520708
821.010691	2548.101623
821.329011	2547.965512
821.647286	2549.049360
821.965517	2548.078938
822.283704	2549.926521
822.601847	2551.660678
822.919945	2550.042467
823.237999	2550.891902
823.556010	2553.288970
823.873976	2548.663712
824.191897	2547.174051
824.509775	2548.217570
824.827609	2546.085162
825.145398	2546.498536
825.463144	2549.934083
825.780845	2546.750594
826.098502	2548.830070
826.416116	2550.294525
826.733685	2548.111705
827.051210	2548.895605
827.368692	2545.530635
827.686129	2550.723023
828.003522	2551.917777
828.320872	2547.844524
828.638177	2548.139432
828.955439	2551.406099
829.272656	2547.093392
829.589830	2549.654298
829.906960	2548.734288
830.224046	2549.001469
830.541088	2549.755122
830.858086	2546.924514
831.175041	2548.436860
831.491952	2554.166131
831.808819	2551.506923
832.125642	2550.455842
832.442421	2549.596325
832.759157	2551.030533
833.075849	2550.110523
833.392497	2548.946016
833.709101	2548.968702
834.025662	2548.348640
834.342179	2548.116747
834.658653	2550.022303
834.975083	2550.347457
835.291469	2553.732592
835.607811	2550.715461
835.924110	2550.539021
836.240366	2548.449463
836.556578	2548.462066
836.872746	2549.054401
837.188871	2549.752601
837.504952	2550.995245
837.820990	2548.751932
838.136984	2549.165307
838.452935	2549.261088
838.768842	2550.425595
839.084706	2550.463404
839.400526	2548.174720
839.716303	2549.329144
840.032037	2548.013403
840.347727	2543.761190
840.663373	2545.334030
840.978977	2545.457538
841.294537	2548.547765
841.610054	2548.832590
841.925527	2549.994576
842.240957	2549.472817
842.556344	2547.554658
842.871687	2549.119936
843.186987	2546.357384
843.502244	2547.985677
843.817458	2549.908877
844.132629	2547.998279
844.447756	2551.118754
844.762840	2550.299566
845.077881	2550.060111
845.392879	2549.644216
845.707833	2547.431150
846.022745	2548.517518
846.337613	2549.767724
846.652438	2548.255378
846.967221	2548.625903
847.281960	2547.418547
847.596656	2548.527601
847.911309	2551.544731
848.225919	2548.532642
848.540485	2549.251006
848.855009	2548.444422
849.169490	2548.895605
849.483928	2548.462066
849.798323	2548.502395
850.112675	2549.608928
850.426984	2547.655481
850.741251	2549.656819
851.055474	2551.093548
851.369654	2549.308979
851.683792	2549.555996
851.997887	2547.668084
852.311938	2548.946016
852.625947	2547.410985
852.939914	2548.439380
853.253837	2550.196223
853.567718	2546.833773
853.881555	2549.041798
854.195350	2548.615821
854.509103	2549.820657
854.822812	2545.404606
855.136479	2548.913249
855.450103	2548.774617
855.763685	2548.152035
856.077224	2545.500388
856.390720	2544.282949
856.704173	2541.812784
857.017584	2547.186654
857.330953	2547.733619
857.644278	2547.940306
857.957561	2553.205791
858.270802	2549.694628
858.584000	2547.859648
858.897155	2549.097251
859.210268	2546.871582
859.523339	2547.126160
859.836367	2547.784030
860.149352	2547.708413
860.462295	2547.433670
860.775195	2547.761345
861.088054	2549.913918
861.400869	2550.130687
861.713642	2548.673794
862.026373	2548.464586
862.339062	2546.319575
862.651708	2546.503577
862.964312	2549.442570
863.276873	2547.794113
863.589392	2550.211346
863.901869	2549.369473
864.214303	2549.949206
864.526696	2549.596325
864.839045	2548.842673
865.151353	2550.128167
865.463619	2549.079607
865.775842	2547.768907
866.088023	2547.174051
866.400162	2547.544576
866.712258	2549.298897
867.024313	2547.849565
867.336325	2546.952240
867.648296	2548.431819
867.960224	2545.044163
868.272110	2548.353681
868.583954	2548.202446
868.895755	2547.826880
869.207515	2550.198743
869.519233	2549.424926
869.830909	2550.314690
870.142542	2547.232024
870.454134	2548.920811
870.765684	2552.162273
871.077191	2548.946016
871.388657	2547.910059
871.700081	2544.590459
872.011463	2548.719164
872.322803	2541.303627
872.634101	2546.866540
872.945357	2547.279915
873.256571	2546.541386
873.567744	2547.247148
873.878874	2546.947199
874.189963	2547.559699
874.501010	2548.373845
874.812015	2545.487785
875.122979	2547.390820
875.433900	2545.618855
875.744780	2549.024154
876.055618	2547.965512
876.366415	2548.552806
876.677169	2548.063814
876.987882	2549.182951
877.298554	2548.141952
877.609183	2547.559699
877.919771	2549.956768
878.230317	2547.559699
878.540822	2548.479710
878.851285	2547.960471
879.161707	2548.920811
879.472087	2549.268650
879.782425	2549.283774
880.092722	2547.733619
880.402977	2547.277394
880.713191	2549.558517
881.023363	2547.799154
881.333494	2545.336550
881.643583	2544.822352
881.953631	2549.737477
882.263637	2548.094061
882.573602	2548.517518
882.883526	2548.162117
883.193408	2548.721685
883.503248	2547.423588
883.813048	2549.314021
884.122806	2547.625234
884.432522	2552.966337
884.742197	2549.727395
885.051831	2549.435008
885.361424	2547.282436
885.670975	2547.340409
885.980485	2546.634647
886.289954	2547.751263
886.599382	2548.819987
886.908768	2545.119781
887.218113	2544.477033
887.527417	2546.163299
887.836680	2541.568288
888.145901	2548.172199
888.455082	2546.435522
888.764221	2547.337888
889.073319	2549.074566
889.382376	2548.580533
889.691392	2546.894267
890.000366	2545.452497
890.309300	2547.375697
890.618193	2549.061963
890.927044	2547.010213
891.235855	2546.556509
891.544625	2546.125491
891.853353	2548.812426
892.162041	2547.877292
892.470687	2548.870399
892.779293	2546.899308
893.087858	2548.635985
893.396381	2548.089020
893.704864	2546.712785
894.013306	2547.766386
894.321707	2545.661705
894.630068	2546.596839
894.938387	2548.394010
895.246665	2546.937117
895.554903	2546.768238
895.863100	2545.843186
896.171256	2546.032229
896.479371	2546.553989
896.787446	2548.809905
897.095480	2547.683207
897.403473	2546.488454
897.711425	2546.881664
898.019336	2547.746222
898.327207	2545.447456
898.635038	2545.220604
898.942827	2547.960471
899.250576	2550.952396
899.558284	2547.655481
899.865952	2548.446942
900.173579	2548.086500
900.481165	2546.231355
900.788711	2546.007024
901.096216	2546.037271
901.403681	2546.901828
901.711105	2548.018444
902.018489	2548.444422
902.325832	2543.851930
902.633135	2541.936292
902.940397	2547.584905
903.247619	2545.512991
903.554800	2549.949206
903.861941	2544.706406
904.169041	2546.821170
904.476101	2548.880481
904.783121	2547.342929
905.090100	2545.578526
905.397039	2549.823177
905.703938	2547.559699
906.010796	2549.603887
906.317614	2547.809236
906.624391	2547.025337
906.931129	2547.962991
907.237826	2547.922662
907.544483	2548.252858
907.851099	2546.470810
908.157675	2546.765717
908.464211	2549.366953
908.770707	2546.213711
909.077163	2548.847714
909.383578	2544.968546
909.689954	2547.226983
909.996289	2548.028526
910.302584	2548.532642
910.608839	2545.001313
910.915054	2546.047353
911.221229	2544.013247
911.527363	2546.448125
911.833458	2548.351160
912.139513	2546.417878
912.445527	2546.105326
912.751502	2548.336037
913.057436	2546.501057
913.363331	2546.493495
913.669186	2546.238917
913.975000	2548.361242
914.280775	2547.040460
914.586510	2546.901828
914.892205	2548.053732
915.197859	2549.462735
915.503475	2548.600697
915.809050	2546.680018
916.114585	2548.724206
916.420081	2544.860161
916.725536	2543.486447
917.030952	2545.792775
917.336328	2545.013916
917.641665	2547.542055
917.946961	2541.238092
918.252218	2547.032898
918.557435	2543.957795
918.862612	2548.323434
919.167750	2549.553475
919.472848	2547.894936
919.777906	2546.571633
920.082925	2546.009544
920.387904	2546.604400
920.692843	2547.229503
920.997743	2546.596839
921.302603	2545.981818
921.607423	2546.468289
921.912204	2545.986859
922.216946	2546.740512
922.521647	2548.159596
922.826310	2546.954761
923.130932	2547.279915
923.435516	2545.800336
923.740059	2546.717826
924.044564	2546.667415
924.349028	2546.183464
924.653454	2547.312683
924.957840	2546.279246
925.262186	2547.466438
925.566493	2545.583567
925.870761	2547.390820
926.174989	2547.098433
926.479178	2546.601880
926.783328	2547.310162
927.087438	2548.383928
927.391509	2545.603731
927.695541	2546.995090
927.999533	2545.069369
928.303486	2548.111705
928.607400	2545.873433
928.911275	2545.462579
929.215110	2547.922662
929.518906	2544.391334
929.822663	2546.856458
930.126381	2547.925183
930.430060	2543.539379
930.733699	2546.763197
931.037299	2544.729091
931.340861	2546.191026
931.644383	2548.772097
931.947866	2545.139945
932.251309	2549.881150
932.554714	2544.792106
932.858080	2543.514173
933.161407	2540.892773
933.464694	2545.999462
933.767943	2541.230530
934.071153	2544.330840
934.374323	2545.649102
934.677455	2546.112888
934.980548	2547.161448
935.283602	2545.452497
935.586617	2544.250182
935.889593	2545.981818
936.192530	2544.749256
936.495428	2545.976777
936.798287	2548.547765
937.101108	2546.231355
937.403890	2547.635316
937.706632	2546.256561
938.009336	2545.444935
938.312002	2546.778320
938.614628	2544.550130
938.917216	2547.849565
939.219765	2546.440563
939.522275	2545.684390
939.824747	2546.271684
940.127179	2545.956612
940.429573	2550.153373
940.731929	2548.091541
941.034246	2547.670604
941.336524	2546.047353
941.638763	2546.369987
941.940964	2545.606252
942.243126	2545.729760
942.545250	2549.316541
942.847335	2545.044163
943.149381	2547.045501
943.451389	2548.010882
943.753359	2545.722198
944.055290	2547.834442
944.357182	2546.667415
944.659036	2547.088351
944.960851	2546.387631
945.262628	2545.760007
945.564367	2547.027857
945.866067	2545.918803
946.167729	2545.747404
946.469352	2549.039278
946.770937	2545.011396
947.072484	2546.657332
947.373992	2546.211190
947.675462	2545.797816
947.976893	2545.674307
948.278286	2541.258257
948.579641	2543.572146
948.880958	2540.872608
949.182236	2545.956612
949.483476	2545.896118
949.784678	2547.012734
950.085841	2545.661705
950.386967	2543.919986
950.688054	2546.112888
950.989103	2546.516180
951.290114	2547.355532
951.591087	2546.246478
951.892021	2547.012734
952.192917	2545.041643
952.493776	2546.266643
952.794596	2543.577188
953.095378	2545.313865
953.396122	2546.513660
953.696828	2545.492826
953.997496	2544.764379
954.298126	2546.564071
954.598718	2546.039791
954.899272	2546.435522
955.199788	2547.105995
955.500266	2549.787889
955.800706	2545.787733
956.101108	2546.992569
956.401472	2545.989380
956.701798	2545.054246
957.002087	2545.036602
957.302337	2546.385110
957.602550	2546.470810
957.902724	2545.684390
958.202861	2545.482744
958.502960	2544.968546
958.803022	2547.501726
959.103045	2548.121788
959.403031	2546.556509
959.702979	2544.013247
960.002889	2546.992569
960.302762	2544.577857
960.602596	2544.976108
960.902393	2545.883515
961.202153	2546.153217
961.501875	2545.200439
961.801559	2542.992414
962.101205	2544.877805
962.400814	2545.013916
962.700385	2545.749925
962.999918	2541.263298
963.299414	2543.919986
963.598873	2544.058618
963.898293	2540.996117
964.197677	2544.224976
964.497022	2544.746735
964.796331	2546.276725
965.095601	2545.137425
965.394835	2543.269677
965.694030	2545.245809
965.993189	2547.592467
966.292309	2547.567261
966.591393	2546.846376
966.890439	2544.429142
967.189447	2545.601211
967.488419	2545.313865
967.787353	2545.659184
968.086249	2545.150028
968.385108	2546.410316
968.683930	2547.481561
968.982714	2545.066848
969.281462	2544.214893
969.580172	2544.552651
969.878844	2543.922507
970.177480	2548.845193
970.476078	2544.557692
970.774639	2545.946530
971.073162	2545.845707
971.371649	2543.798998
971.670098	2544.240099
971.968510	2546.049873
972.266885	2546.944678
972.565223	2547.627755
972.863524	2544.625747
973.161788	2543.597352
973.460014	2543.017619
973.758204	2542.203473
974.056356	2545.192877
974.354471	2544.381252
974.652550	2543.809081
974.950591	2543.783875
975.248595	2545.150027
975.546563	2544.867723
975.844493	2546.823691
976.142386	2546.372507
976.440243	2546.543907
976.738062	2543.955274
977.035845	2543.579708
977.333590	2545.437373
977.631299	2545.984338
977.928971	2543.617517
978.226606	2542.407640
978.524204	2543.768751
978.821765	2542.566436
979.119290	2542.616848
979.416777	2547.594987
979.714228	2544.860161
980.011642	2544.635830
980.309020	2545.134904
980.606360	2543.859492
980.903664	2543.622558
981.200931	2543.783875
981.498162	2543.804039
981.795356	2546.294369
982.092513	2545.001313
982.389633	2543.131045
982.686717	2545.447456
982.983764	2542.906714
983.280775	2546.206149
983.577749	2545.621375
983.874686	2545.492826
984.171587	2541.182639
984.468451	2546.435522
984.765279	2545.354194
985.062070	2546.420398
985.358824	2545.427291
985.655543	2543.501570
985.952224	2544.592980
986.248869	2541.820345
986.545478	2543.506611
986.842050	2544.300593
987.138586	2545.013916
987.435086	2545.248330
987.731549	2544.915614
988.027975	2546.140614
988.324366	2546.629606
988.620719	2546.143135
988.917037	2547.030378
989.213318	2546.906870
989.509563	2545.013916
989.805772	2544.361087
990.101944	2544.318237
990.398080	2544.174564
990.694180	2544.650953
990.990244	2545.639019
991.286271	2545.976777
991.582262	2545.228165
991.878217	2545.439894
992.174136	2543.798998
992.470019	2544.812270
992.765865	2542.684903
993.061676	2541.175078
993.357450	2542.742877
993.653188	2541.414533
993.948890	2544.015768
994.244556	2546.337219
994.540186	2543.662887
994.835780	2545.097095
995.131337	2542.135418
995.426859	2545.780172
995.722345	2544.870243
996.017795	2544.235058
996.313208	2547.640357
996.608586	2543.506611
996.903928	2545.991900
997.199234	2544.202291
997.494504	2545.056766
997.789738	2543.919986
998.084936	2547.186654
998.380099	2546.995090
998.675225	2545.081972
998.970316	2543.446118
999.265371	2543.607434
999.560390	2544.776982
999.855373	2546.551468
1000.150320	2547.683207
1000.445232	2544.313196
1000.740108	2545.681869
1001.034948	2545.041643
1001.329752	2546.632127
1001.624521	2543.451159
1001.919254	2542.747918
1002.213951	2547.264792
1002.508613	2546.672456
1002.803239	2542.884029
1003.097829	2540.466796
1003.392384	2545.417209
1003.686903	2543.766231
1003.981386	2545.548279
1004.275834	2541.512835
1004.570246	2544.431663
1004.864623	2543.627599
1005.158964	2544.408978
1005.453270	2543.730943
1005.747540	2544.598021
1006.041775	2543.541899
1006.335974	2542.213555
1006.630138	2545.543237
1006.924266	2544.557692
1007.218359	2543.516694
1007.512416	2543.811601
1007.806438	2538.528472
1008.100425	2543.335212
1008.394376	2542.364790
1008.688292	2545.013916
1008.982172	2542.979811
1009.276017	2546.664894
1009.569827	2547.347971
1009.863602	2545.747404
1010.157341	2545.213042
1010.451045	2544.658515
1010.744714	2541.404450
1011.038347	2543.362938
1011.331945	2546.700182
1011.625508	2545.548279
1011.919036	2544.093906
1012.212528	2543.874616
1012.505986	2543.282280
1012.799408	2543.720860
1013.092795	2544.535007
1013.386147	2542.790767
1013.679464	2545.341591
1013.972745	2542.155582
1014.265992	2545.570964
1014.559204	2545.691952
1014.852380	2544.577857
1015.145521	2542.422763
1015.438628	2542.810932
1015.731699	2544.421581
1016.024736	2542.868905
1016.317737	2543.277239
1016.610703	2544.713968
1016.903635	2545.029040
1017.196531	2546.112888
1017.489393	2542.677342
1017.782219	2544.492157
1018.075011	2544.325799
1018.367768	2544.381252
1018.660490	2543.849410
1018.953177	2543.849410
1019.245829	2543.849410
