Dividing Wavelength (nm)	Counts (n)	Blue Motor Position (mm): 5.100000	Red Motor Position (mm): 0.000000	
326.493990	2159.297592
326.888308	2159.297592
327.282561	2159.297592
327.676750	2116.682198
328.070874	2113.483585
328.464933	2115.013576
328.858929	2120.576489
329.252859	2122.290481
329.646726	2131.704836
330.040528	2144.998359
330.434265	2156.361119
330.827938	2172.709581
331.221547	2194.053827
331.615091	2208.547144
332.008571	2231.290310
332.401986	2247.117012
332.795338	2264.118303
333.188625	2284.146808
333.581847	2301.788326
333.975006	2321.050574
334.368100	2341.187463
334.761129	2356.593230
335.154095	2373.624768
335.546996	2390.464742
335.939833	2406.082237
336.332606	2420.058836
336.725315	2435.489808
337.117960	2447.434822
337.510540	2459.349589
337.903056	2469.479788
338.295508	2478.291725
338.687896	2491.376039
339.080220	2495.701349
339.472480	2501.052534
339.864676	2506.875067
340.256807	2511.991838
340.648875	2515.659277
341.040879	2521.640607
341.432818	2520.821419
341.824694	2525.164373
342.216506	2523.919208
342.608253	2525.907943
342.999937	2530.255938
343.391557	2528.105886
343.783113	2527.367357
344.174605	2524.332583
344.566033	2524.483817
344.957397	2524.025072
345.348697	2524.193951
345.739934	2521.116327
346.131106	2516.836387
346.522215	2514.671211
346.913260	2514.341016
347.304241	2510.040912
347.695159	2509.549399
348.086012	2511.618793
348.476802	2505.748369
348.867528	2502.794253
349.258191	2501.060096
349.648789	2499.973727
350.039324	2496.316370
350.429796	2501.725528
350.820203	2494.463746
351.210548	2499.041114
351.600828	2495.456853
351.991045	2497.102790
352.381198	2493.523571
352.771288	2492.875783
353.161314	2491.789414
353.551276	2493.566421
353.941175	2490.776142
354.331010	2491.802017
354.720782	2493.475680
355.110490	2490.546770
355.500135	2490.889568
355.889717	2490.798827
356.279235	2489.795638
356.668689	2492.210350
357.058080	2489.107520
357.447408	2492.941318
357.836672	2492.449805
358.225873	2492.454846
358.615010	2493.415186
359.004084	2491.887717
359.393095	2492.653972
359.782043	2492.162459
360.170927	2492.953921
360.559748	2499.819972
360.948505	2495.479539
361.337199	2496.480208
361.725830	2496.696977
362.114398	2497.768222
362.502903	2499.245281
362.891344	2498.282420
363.279722	2497.145640
363.668037	2499.608244
364.056289	2502.075888
364.444478	2501.319715
364.832603	2503.048831
365.220665	2500.951711
365.608665	2502.859788
365.996601	2502.222082
366.384474	2504.548574
366.772284	2499.328460
367.160031	2503.215189
367.547715	2503.172339
367.935336	2502.597648
368.322893	2499.149499
368.710388	2500.682009
369.097820	2502.622854
369.485189	2501.153357
369.872495	2506.106291
370.259738	2505.889521
370.646918	2503.749552
371.034035	2504.604027
371.421090	2507.674090
371.808081	2503.207627
372.195010	2507.691734
372.581875	2506.872546
372.968678	2510.368587
373.355418	2505.869357
373.742096	2508.049656
374.128710	2506.232320
374.515262	2508.654594
374.901751	2509.746004
375.288177	2509.347753
375.674540	2506.602845
376.060841	2509.057887
376.447079	2510.013185
376.833254	2509.897239
377.219367	2511.442352
377.605417	2511.502846
377.991404	2510.199708
378.377329	2510.781961
378.763191	2507.938750
379.148991	2511.225583
379.534727	2512.390089
379.920402	2511.099554
380.306013	2510.361025
380.691563	2514.328413
381.077049	2511.089472
381.462474	2511.742301
381.847835	2512.407733
382.233134	2515.114833
382.618371	2510.890346
383.003545	2512.432939
383.388657	2513.879750
383.773706	2512.107785
384.158693	2512.092661
384.543618	2512.674914
384.928480	2511.734739
385.313280	2514.106602
385.698017	2514.406551
386.082692	2514.711541
386.467305	2516.165913
386.851856	2515.782786
387.236344	2515.651716
387.620770	2510.935716
388.005133	2509.652743
388.389435	2512.233813
388.773674	2512.795902
389.157851	2519.152797
389.541965	2517.189268
389.926018	2518.111799
390.310008	2513.625172
390.693936	2518.447036
391.077802	2514.870337
391.461606	2517.012827
391.845348	2515.757580
392.229027	2517.700945
392.612645	2516.017199
392.996200	2519.477952
393.379694	2518.026099
393.763125	2519.641789
394.146494	2516.601973
394.529801	2520.942407
394.913047	2517.161541
395.296230	2519.281347
395.679351	2517.665657
396.062410	2514.988804
396.445408	2520.062725
396.828343	2519.936697
397.211217	2520.939886
397.594028	2519.198168
397.976778	2521.988446
398.359466	2521.330576
398.742092	2517.368229
399.124656	2519.480472
399.507158	2519.437622
399.889598	2522.074146
400.271977	2519.198168
400.654294	2522.681605
401.036549	2521.890144
401.418742	2522.789990
401.800874	2522.152284
402.182944	2521.685977
402.564952	2522.353930
402.946898	2521.048271
403.328783	2524.635052
403.710606	2523.765453
404.092367	2525.078673
404.474067	2521.418796
404.855705	2524.952645
405.237282	2525.665968
405.618797	2524.874507
406.000250	2523.780576
406.381642	2524.377953
406.762972	2521.078518
407.144240	2520.723117
407.525447	2520.438291
407.906593	2519.621624
408.287677	2523.110103
408.668700	2523.999867
409.049661	2525.726462
409.430560	2527.062368
409.811399	2526.442306
410.192176	2527.029600
410.572891	2525.943231
410.953545	2524.103210
411.334138	2528.284847
411.714669	2525.920546
412.095139	2527.710156
412.475547	2526.376771
412.855894	2526.172604
413.236180	2525.202182
413.616405	2528.836854
413.996568	2527.833664
414.376670	2527.430372
414.756711	2524.239321
415.136691	2529.151926
415.516609	2527.964734
415.896466	2529.255269
416.276262	2526.384332
416.655997	2528.458767
417.035670	2527.208561
417.415283	2531.123017
417.794834	2527.488345
418.174324	2527.899199
418.553753	2527.143026
418.933121	2531.037317
419.312428	2528.819210
419.691674	2527.291740
420.070859	2528.801566
420.449983	2529.406504
420.829045	2530.444982
421.208047	2527.821061
421.586988	2529.885414
421.965867	2527.654703
422.344686	2527.732841
422.723444	2530.482790
423.102141	2531.904396
423.480777	2530.167718
423.859352	2529.454395
424.237866	2528.889786
424.616319	2532.756351
424.994712	2528.562111
425.373044	2532.252235
425.751314	2528.027748
426.129524	2529.169570
426.507673	2527.644621
426.885762	2525.741585
427.263789	2533.260466
427.641756	2533.348686
428.019662	2531.790970
428.397508	2532.481608
428.775292	2528.267203
429.153016	2531.841381
429.530679	2532.305167
429.908282	2535.014788
430.285824	2534.548481
430.663305	2532.597554
431.040726	2531.654859
431.418086	2532.927750
431.795385	2535.755837
432.172624	2532.358100
432.549802	2532.267359
432.926920	2532.431196
433.303977	2533.704088
433.680974	2534.409849
434.057910	2532.761392
434.434786	2536.595189
434.811601	2535.145858
435.188355	2534.321629
435.565050	2533.086546
435.941683	2533.575538
436.318257	2536.138965
436.694770	2535.909592
437.071222	2535.024870
437.447614	2533.033614
437.823946	2534.298944
438.200218	2534.593851
438.576429	2535.463450
438.952580	2533.961187
439.328670	2536.368337
439.704700	2536.937988
440.080670	2535.813811
440.456580	2534.881197
440.832429	2535.292051
441.208218	2535.264325
441.583947	2536.834644
441.959616	2536.385982
442.335224	2535.934798
442.710773	2533.822555
443.086261	2535.846578
443.461689	2535.657535
443.837057	2534.913965
444.212365	2534.437576
444.587612	2532.622760
444.962800	2531.969931
445.337927	2534.351876
445.712995	2532.040507
446.088002	2536.847247
446.462949	2536.101156
446.837837	2536.058307
447.212664	2535.579397
447.587431	2537.767258
447.962139	2538.127700
448.336786	2538.238606
448.711374	2537.086702
449.085901	2538.838503
449.460369	2534.480425
449.834776	2538.828421
450.209124	2535.085364
450.583412	2538.236085
450.957640	2535.365148
451.331808	2538.241126
451.705917	2539.163657
452.079965	2540.365973
452.453954	2540.764224
452.827883	2539.884542
453.201752	2537.394212
453.575562	2539.345139
453.949311	2537.144675
454.323001	2536.726259
454.696632	2540.277752
455.070202	2540.318082
455.443713	2539.725746
455.817164	2540.335726
456.190556	2538.591486
456.563888	2540.653318
456.937160	2539.652649
457.310373	2541.805222
457.683526	2539.720705
458.056619	2540.834800
458.429653	2539.287166
458.802628	2542.541230
459.175542	2539.188863
459.548398	2540.413863
459.921194	2538.654501
460.293930	2542.606765
460.666607	2538.939326
461.039224	2540.388658
461.411782	2539.534182
461.784280	2539.060314
462.156719	2537.598379
462.529099	2542.216076
462.901419	2541.346477
463.273680	2537.265663
463.645882	2535.781043
464.018024	2538.238606
464.390106	2533.262987
464.762130	2540.368493
465.134094	2542.125335
465.505999	2538.354552
465.877845	2541.739687
466.249631	2541.767413
466.621358	2540.078627
466.993026	2540.381096
467.364634	2541.757331
467.736184	2540.683565
468.107674	2542.153062
468.479105	2543.025181
468.850477	2542.609286
469.221790	2541.175078
469.593043	2542.609286
469.964238	2544.219935
470.335373	2539.085519
470.706449	2539.955118
471.077467	2542.029553
471.448425	2542.823535
471.819324	2541.207845
472.190164	2542.382434
472.560945	2542.389996
472.931667	2541.613658
473.302330	2541.825387
473.672934	2539.929913
474.043479	2543.302445
474.413965	2541.401930
474.784393	2539.773637
475.154761	2542.165664
475.525070	2542.364790
475.895321	2542.747918
476.265513	2542.916796
476.635645	2542.800850
477.005719	2542.279090
477.375734	2543.902342
477.745691	2542.619368
478.115588	2542.332022
478.485427	2545.094575
478.855207	2542.160623
479.224928	2543.093237
479.594591	2542.805891
479.964194	2542.926879
480.333739	2545.510470
480.703226	2541.966539
481.072653	2546.032229
481.442022	2542.841179
481.811333	2540.081147
482.180584	2539.813966
482.549777	2543.156251
482.918912	2538.881353
483.287988	2543.249513
483.657005	2543.146169
484.025964	2543.080634
484.394864	2543.246992
484.763706	2543.965356
485.132489	2542.576518
485.501213	2544.076262
485.869879	2543.252033
486.238487	2545.432332
486.607036	2544.035932
486.975527	2544.391334
487.343959	2543.856972
487.712333	2543.075593
488.080648	2541.195242
488.448905	2543.733463
488.817104	2541.979142
489.185244	2545.923845
489.553326	2543.955274
489.921350	2543.282280
490.289315	2542.826056
490.657222	2542.291693
491.025070	2544.305634
491.392861	2544.293031
491.760593	2544.759338
492.128267	2542.339584
492.495883	2544.837476
492.863440	2541.943854
493.230939	2545.046684
493.598380	2545.200439
493.965763	2545.966694
494.333088	2544.953423
494.700354	2543.211704
495.067563	2543.564585
495.434713	2543.531817
495.801805	2544.782023
496.168839	2542.702547
496.535815	2545.291180
496.902733	2547.191695
497.269593	2545.581046
497.636395	2547.557178
498.003139	2542.755479
498.369825	2545.472661
498.736453	2544.245140
499.103023	2546.332178
499.469535	2546.614483
499.835989	2544.928217
500.202385	2540.776827
500.568723	2542.112732
500.935003	2542.064841
501.301226	2543.176416
501.667390	2547.365615
502.033497	2547.768907
502.399546	2547.710934
502.765537	2544.882846
503.131470	2544.993752
503.497345	2545.495347
503.863163	2543.708257
504.228923	2543.120963
504.594625	2546.755635
504.960269	2545.147507
505.325856	2545.520552
505.691385	2545.760007
506.056856	2547.063145
506.422270	2545.533155
506.787625	2546.034750
507.152924	2544.963505
507.518164	2548.149514
507.883347	2545.991900
508.248472	2545.238248
508.613540	2544.829914
508.978550	2549.719833
509.343503	2545.510470
509.708398	2546.564071
510.073236	2543.945192
510.438016	2544.580377
510.802738	2544.635830
511.167403	2546.349822
511.532010	2544.666077
511.896561	2548.918290
512.261053	2545.008875
512.625488	2545.616334
512.989866	2546.990049
513.354186	2544.900490
513.718449	2543.637681
514.082655	2549.135060
514.446803	2547.186654
514.810894	2548.089020
515.174927	2549.223280
515.538904	2547.794113
515.902822	2545.235727
516.266684	2545.477703
516.630488	2547.917621
516.994235	2546.238917
517.357925	2544.219935
517.721558	2545.046684
518.085133	2545.175233
518.448651	2544.494677
518.812112	2540.744059
519.175516	2543.685572
519.538863	2544.340922
519.902152	2546.112888
520.265385	2545.994421
520.628560	2548.930893
520.991678	2546.334699
521.354739	2548.033567
521.717743	2547.836962
522.080690	2548.174720
522.443580	2549.011551
522.806413	2546.967363
523.169189	2547.887374
523.531908	2549.177909
523.894569	2546.438042
524.257174	2548.242775
524.619722	2547.620193
524.982213	2549.487940
525.344647	2545.482744
525.707025	2548.956099
526.069345	2545.974256
526.431608	2547.927703
526.793815	2550.402910
527.155964	2547.983156
527.518057	2546.642209
527.880093	2548.293187
528.242072	2548.888043
528.603995	2546.168341
528.965860	2546.100285
529.327669	2548.371325
529.689421	2548.998948
530.051117	2550.561706
530.412755	2547.905018
530.774337	2547.831921
531.135862	2547.184133
531.497331	2546.937117
531.858743	2547.249668
532.220098	2548.623383
532.581396	2544.522404
532.942638	2547.698331
533.303824	2547.952909
533.664953	2548.903167
534.026025	2548.031047
534.387040	2546.206149
534.747999	2548.691438
535.108902	2547.544576
535.469748	2549.790410
535.830537	2547.660522
536.191270	2545.059287
536.551947	2543.282280
536.912567	2544.582898
537.273131	2546.062476
537.633638	2542.962167
537.994089	2544.719009
538.354483	2549.490461
538.714821	2549.747560
539.075103	2547.814277
539.435328	2547.496685
539.795497	2547.383259
540.155609	2548.779658
540.515665	2549.135060
540.875665	2549.472817
541.235609	2547.496685
541.595496	2548.323434
541.955328	2548.227652
542.315102	2549.636654
542.674821	2549.402241
543.034483	2547.201777
543.394090	2549.548434
543.753640	2549.702189
544.113134	2548.424257
544.472571	2547.678166
544.831953	2549.036757
545.191278	2549.397200
545.550548	2548.396531
545.909761	2550.607077
546.268918	2546.392672
546.628019	2550.017262
546.987064	2549.412323
547.346053	2548.744370
547.704986	2547.209339
548.063863	2551.254865
548.422684	2549.064483
548.781449	2549.001469
549.140158	2546.082641
549.498811	2550.526418
549.857408	2547.289997
550.215949	2547.857127
550.574434	2548.605738
550.932864	2548.885523
551.291237	2548.633465
551.649555	2549.107333
552.007817	2550.579350
552.366022	2548.635985
552.724173	2550.289484
553.082267	2545.999462
553.440305	2547.685728
553.798288	2548.567930
554.156215	2548.993907
554.514086	2545.487785
554.871902	2545.112219
555.229661	2545.119781
555.587365	2543.660367
555.945014	2547.584905
556.302606	2549.117416
556.660143	2547.665563
557.017625	2547.264792
557.375050	2548.615821
557.732421	2548.280584
558.089735	2550.067673
558.446994	2547.804195
558.804197	2549.722354
559.161345	2548.005841
559.518437	2546.899308
559.875474	2547.748742
560.232455	2546.808567
560.589381	2549.717313
560.946251	2551.612787
561.303065	2546.001983
561.659825	2547.458876
562.016528	2547.133722
562.373177	2549.155224
562.729770	2550.337375
563.086307	2548.683876
563.442789	2547.443753
563.799216	2549.631613
564.155587	2548.585574
564.511904	2549.823177
564.868164	2550.342416
565.224370	2550.120605
565.580520	2547.960471
565.936615	2550.057591
566.292654	2547.824360
566.648638	2548.242775
567.004567	2550.677653
567.360441	2547.640358
567.716260	2550.095399
568.072023	2551.612787
568.427732	2549.215718
568.783385	2546.556509
569.138982	2549.689587
569.494525	2550.173537
569.850013	2549.712272
570.205445	2549.480379
570.560823	2549.099772
570.916145	2546.657333
571.271412	2550.039947
571.626625	2550.849052
571.981782	2549.540873
572.336884	2548.832590
572.691931	2542.571477
573.046923	2545.291180
573.401860	2546.138094
573.756743	2549.954247
574.111570	2549.974412
574.466342	2554.271995
574.821059	2550.269319
575.175722	2548.038609
575.530330	2548.457024
575.884882	2548.376366
576.239380	2547.882333
576.593823	2548.741850
576.948211	2549.268650
577.302544	2548.993907
577.656823	2546.972405
578.011047	2549.742519
578.365216	2548.273022
578.719330	2548.479710
579.073389	2548.383928
579.427394	2548.998948
579.781344	2551.333003
580.135239	2549.303938
580.489080	2551.398538
580.842866	2549.003990
581.196597	2552.182437
581.550273	2550.927190
581.903895	2548.938455
582.257463	2549.198074
582.610975	2550.811243
582.964434	2550.823846
583.317837	2551.411141
583.671186	2553.079762
584.024481	2550.455842
584.377721	2550.377704
584.730906	2553.233518
585.084037	2551.859803
585.437113	2550.813764
585.790135	2550.133208
586.143103	2552.850390
586.496016	2551.842159
586.848874	2549.530790
587.201679	2551.927859
587.554428	2552.709238
587.907124	2548.320913
588.259765	2551.544731
588.612352	2551.948023
588.964884	2549.876109
589.317362	2549.727395
589.669786	2549.361912
590.022155	2546.312013
590.374470	2543.428473
590.726731	2549.417364
591.078937	2546.201108
591.431090	2550.526418
591.783188	2551.388455
592.135232	2548.167158
592.487222	2548.734288
592.839157	2552.132026
593.191038	2548.618341
593.542866	2550.934752
593.894639	2549.525749
594.246358	2552.512633
594.598022	2548.522559
594.949633	2549.180430
595.301190	2547.612631
595.652692	2550.344937
596.004141	2548.782179
596.355535	2549.992056
596.706876	2547.277394
597.058162	2549.137580
597.409395	2549.583722
597.760573	2550.596994
598.111698	2550.922149
598.462768	2550.118085
598.813785	2552.159752
599.164748	2547.027857
599.515657	2549.205636
599.866511	2550.596994
600.217312	2546.178423
600.568060	2552.429454
600.918753	2551.698486
601.269392	2552.232849
601.619978	2547.219421
601.970510	2547.801674
602.320988	2547.786551
602.671412	2548.381407
603.021783	2546.927034
603.372100	2549.515667
603.722363	2546.185985
604.072572	2548.777138
604.422728	2551.552293
604.772830	2550.362581
605.122878	2552.855431
605.472872	2548.961140
605.822813	2549.896274
606.172701	2550.612118
606.522534	2549.392158
606.872314	2551.653116
607.222041	2553.052036
607.571714	2549.301418
607.921333	2547.912580
608.270899	2549.833259
608.620411	2544.802188
608.969870	2553.142777
609.319276	2555.433981
609.668627	2560.492779
610.017926	2561.788356
610.367171	2564.482853
610.716362	2564.659293
611.065500	2558.289795
611.414585	2558.998077
611.763616	2558.869528
612.112594	2555.179403
612.461518	2557.026986
612.810389	2555.688560
613.159207	2553.848538
613.507971	2550.281922
613.856682	2554.075390
614.205340	2550.332334
614.553945	2552.137067
614.902496	2555.194527
615.250994	2550.768393
615.599439	2552.835267
615.947830	2552.852911
616.296169	2551.723692
616.644454	2547.005172
616.992686	2549.220759
617.340864	2550.009700
617.688990	2550.823846
618.037063	2550.818805
618.385082	2551.632951
618.733048	2552.830225
619.080961	2550.617159
619.428821	2548.764535
619.776628	2552.653785
620.124382	2551.191850
620.472083	2552.013558
620.819731	2548.474668
621.167326	2552.578168
621.514868	2550.521377
621.862357	2552.807540
622.209793	2551.353167
622.557176	2551.050698
622.904506	2551.975750
623.251783	2552.182437
623.599007	2553.069680
623.946179	2549.051881
624.293297	2551.239741
624.640363	2548.492312
624.987376	2547.224462
625.334336	2546.536345
625.681243	2548.852755
626.028097	2546.301931
626.374899	2550.733105
626.721647	2548.267981
627.068343	2551.736295
627.414987	2550.143290
627.761577	2549.079607
628.108115	2549.697148
628.454600	2548.600697
628.801032	2551.741336
629.147412	2551.156562
629.493739	2550.503733
629.840014	2550.440718
630.186236	2551.796789
630.532405	2549.694628
630.878521	2549.581202
631.224585	2552.631100
631.570597	2549.760163
631.916556	2549.311500
632.262462	2548.535162
632.608316	2548.588094
632.954117	2548.938455
633.299866	2550.770914
633.645562	2548.736808
633.991206	2548.880481
634.336797	2547.098433
634.682336	2550.425595
635.027823	2550.803682
635.373257	2549.755122
635.718639	2549.298897
636.063968	2550.768393
636.409245	2548.746891
636.754470	2549.566078
637.099642	2549.026675
637.444762	2551.701007
637.789829	2549.538352
638.134845	2548.532642
638.479808	2551.587581
638.824719	2550.090358
639.169577	2552.981460
639.514383	2551.688404
639.859137	2548.038609
640.203839	2549.697148
640.548489	2549.251006
640.893086	2550.528939
641.237632	2547.196736
641.582125	2550.690256
641.926566	2549.137580
642.270955	2546.559030
642.615292	2548.215049
642.959576	2546.115408
643.303809	2543.773793
643.647990	2549.674463
643.992118	2548.141952
644.336195	2548.651109
644.680219	2549.233362
645.024192	2549.311500
645.368112	2550.866696
645.711981	2550.158414
646.055797	2548.225131
646.399562	2548.769576
646.743274	2548.522559
647.086935	2547.678166
647.430544	2548.620862
647.774101	2551.017931
648.117606	2549.505584
648.461059	2551.968188
648.804460	2552.497509
649.147810	2547.499205
649.491108	2549.009031
649.834354	2547.292518
650.177548	2549.432488
650.520690	2551.925338
650.863781	2547.070707
651.206820	2549.883671
651.549807	2549.024154
651.892742	2546.420398
652.235626	2549.813095
652.578458	2548.419216
652.921238	2547.932744
653.263967	2549.606407
653.606644	2545.064328
653.949269	2549.548434
654.291843	2548.920811
654.634365	2551.138918
654.976836	2546.954761
655.319255	2551.363250
655.661622	2550.619679
656.003938	2550.995245
656.346203	2550.463404
656.688416	2551.655637
657.030577	2548.570450
657.372687	2550.917108
657.714746	2546.979966
658.056753	2548.870399
658.398708	2547.305121
658.740612	2551.612787
659.082465	2547.574823
659.424266	2545.127342
659.766016	2546.266643
660.107715	2549.518187
660.449362	2544.572815
660.790958	2549.810574
661.132503	2547.912580
661.473996	2548.809905
661.815438	2549.664381
662.156829	2548.812426
662.498168	2547.423588
662.839456	2550.251675
663.180693	2550.934752
663.521879	2546.858979
663.863013	2548.996428
664.204097	2547.095913
664.545129	2547.990718
664.886110	2550.591953
665.227040	2549.762683
665.567918	2548.386448
665.908746	2548.003321
666.249522	2547.607590
666.590248	2548.323434
666.930922	2549.064483
667.271545	2547.524411
667.612118	2548.446942
667.952639	2550.143290
668.293109	2546.196067
668.633528	2548.724206
668.973896	2547.489123
669.314213	2547.531973
669.654480	2546.042312
669.994695	2548.146993
670.334859	2548.179761
670.674973	2548.565409
671.015035	2548.348640
671.355047	2550.360060
671.695008	2551.038095
672.034918	2546.067518
672.374777	2547.453835
672.714585	2547.068187
673.054342	2549.036757
673.394049	2549.137580
673.733705	2549.102292
674.073310	2547.877292
674.412864	2548.830070
674.752368	2550.231511
675.091820	2548.199926
675.431223	2549.049360
675.770574	2549.903836
676.109875	2548.772097
676.449125	2546.954761
676.788324	2546.080120
677.127473	2547.088351
677.466571	2542.301776
677.805619	2548.411654
678.144616	2547.010213
678.483562	2549.901315
678.822458	2547.957950
679.161303	2547.302600
679.500098	2547.141283
679.838842	2549.293856
680.177535	2549.550955
680.516179	2547.506767
680.854771	2547.476520
681.193314	2547.968033
681.531805	2549.871068
681.870247	2549.351829
682.208638	2548.177240
682.546978	2547.763866
682.885268	2549.228321
683.223508	2549.251006
683.561697	2549.414844
683.899836	2549.429967
684.237925	2547.705893
684.575963	2546.644730
684.913951	2547.289997
685.251889	2549.036757
685.589776	2545.523073
685.927614	2549.127498
686.265401	2546.927034
686.603137	2549.679504
686.940824	2549.157745
687.278460	2547.491643
687.616046	2547.668084
687.953582	2548.618341
688.291068	2546.798485
688.628504	2548.041129
688.965889	2547.789072
689.303224	2546.165820
689.640510	2545.104657
689.977745	2547.567261
690.314930	2549.777807
690.652065	2547.395862
690.989150	2548.260419
691.326185	2549.871068
691.663170	2548.053732
692.000105	2548.310831
692.336990	2550.881819
692.673825	2547.189174
693.010610	2549.949206
693.347345	2544.222455
693.684030	2541.989224
694.020665	2546.531304
694.357251	2544.613145
694.693786	2549.251006
695.030272	2547.395862
695.366707	2548.182282
695.703093	2545.296221
696.039429	2549.074566
696.375716	2545.986859
696.711952	2547.353012
697.048139	2550.725544
697.384276	2548.726726
697.720363	2547.932744
698.056400	2548.189843
698.392388	2547.741181
698.728326	2550.453321
699.064214	2546.622044
699.400053	2550.844011
699.735842	2550.186140
700.071581	2550.256716
700.407270	2547.133722
700.742910	2548.056253
701.078501	2548.038609
701.414042	2548.555327
701.749533	2548.618341
702.084974	2546.238917
702.420366	2546.511139
702.755709	2547.219421
703.091002	2549.651778
703.426246	2549.145142
703.761440	2549.712272
704.096584	2548.661191
704.431679	2547.060625
704.766725	2549.520708
705.101721	2547.940306
705.436668	2546.579195
705.771565	2548.285625
706.106413	2548.404092
706.441212	2546.528783
706.775961	2548.653629
707.110661	2545.429812
707.445311	2548.015923
707.779913	2547.829401
708.114465	2548.089020
708.448967	2547.249668
708.783421	2547.763866
709.117825	2546.611962
709.452180	2549.558517
709.786485	2547.358053
710.120742	2547.020296
710.454949	2545.213042
710.789107	2548.220090
711.123216	2541.469985
711.457275	2551.602704
711.791286	2550.160934
712.125247	2545.646581
712.459159	2545.722198
712.793023	2547.458876
713.126837	2546.886705
713.460602	2548.540203
713.794318	2546.130532
714.127985	2548.857796
714.461602	2550.561706
714.795171	2549.019113
715.128691	2549.702189
715.462162	2549.384597
715.795584	2548.782179
716.128957	2549.901315
716.462281	2547.693290
716.795556	2547.617672
717.128782	2548.426777
717.461960	2549.014072
717.795088	2548.232693
718.128167	2548.041129
718.461198	2546.236396
718.794180	2548.482230
719.127113	2547.340409
719.459997	2546.727909
719.792833	2546.712785
720.125619	2547.143804
720.458357	2548.162117
720.791046	2547.027857
721.123686	2547.655481
721.456278	2547.552137
721.788821	2549.860986
722.121315	2547.713454
722.453761	2545.553320
722.786158	2548.391489
723.118506	2550.123126
723.450805	2547.378217
723.783056	2547.262271
724.115259	2547.698331
724.447412	2547.373176
724.779518	2548.283105
725.111574	2545.762528
725.443582	2548.240255
725.775542	2547.063145
726.107453	2548.104144
726.439315	2548.126829
726.771129	2547.297559
727.102895	2544.945861
727.434612	2542.919317
727.766281	2542.306817
728.097901	2547.680687
728.429473	2545.245809
728.760996	2548.010882
729.092471	2544.809750
729.423897	2545.795295
729.755276	2546.138094
730.086606	2546.969884
730.417887	2546.004503
730.749120	2547.421067
731.080305	2546.367466
731.411442	2548.635985
731.742530	2547.088351
732.073570	2549.979453
732.404562	2547.794113
732.735506	2548.993907
733.066401	2547.935265
733.397249	2549.314021
733.728048	2546.748073
734.058798	2547.035419
734.389501	2547.957950
734.720156	2546.357384
735.050762	2547.723537
735.381320	2549.722354
735.711831	2546.248999
736.042293	2547.196736
736.372707	2543.945192
736.703073	2544.779503
737.033391	2549.283774
737.363661	2547.337888
737.693883	2546.995090
738.024056	2546.632127
738.354182	2550.019782
738.684260	2546.836293
739.014290	2546.826211
739.344272	2547.312683
739.674207	2545.833104
740.004093	2548.318393
740.333931	2544.570295
740.663722	2548.260419
740.993464	2547.791592
741.323159	2543.869574
741.652806	2546.175902
741.982405	2546.874102
742.311956	2547.766386
742.641460	2548.797302
742.970915	2547.095913
743.300323	2546.843855
743.629683	2541.260777
743.958996	2547.473999
744.288260	2541.033925
744.617477	2549.094730
744.946647	2548.245296
745.275768	2546.725388
745.604842	2548.162117
745.933869	2547.287477
746.262847	2548.648588
746.591778	2549.276212
746.920662	2545.681869
747.249498	2547.310162
747.578286	2549.084648
747.907027	2547.514329
748.235720	2544.923176
748.564365	2546.286808
748.892963	2545.205480
749.221514	2549.543393
749.550017	2545.696993
749.878473	2550.042467
750.206881	2546.433001
750.535242	2548.404092
750.863555	2546.750594
751.191821	2546.246478
751.520039	2547.489123
751.848210	2545.152548
752.176334	2543.216745
752.504411	2546.473330
752.832440	2547.229503
753.160421	2546.947199
753.488356	2545.074410
753.816243	2544.905532
754.144082	2547.786551
754.471875	2545.986859
754.799620	2546.831252
755.127318	2548.210008
755.454969	2547.327806
755.782572	2545.001313
756.110129	2547.431150
756.437638	2551.895091
756.765100	2546.191026
757.092515	2549.051881
757.419882	2546.604400
757.747203	2547.310162
758.074477	2547.768907
758.401703	2548.540203
758.728882	2547.463917
759.056014	2546.896787
759.383099	2548.409133
759.710138	2544.706406
760.037129	2544.950902
760.364073	2546.049873
760.690970	2539.362783
761.017820	2547.925183
761.344623	2542.836138
761.671379	2549.366953
761.998088	2546.594318
762.324751	2544.577857
762.651366	2547.098433
762.977935	2545.394523
763.304456	2548.053732
763.630931	2547.194215
763.957359	2549.326623
764.283740	2549.142621
764.610074	2550.483568
764.936362	2546.654812
765.262602	2547.267312
765.588796	2546.478372
765.914943	2547.050542
766.241044	2545.253371
766.567097	2543.801519
766.893104	2545.349153
767.219064	2545.923845
767.544978	2548.363763
767.870845	2546.009544
768.196665	2548.323434
768.522438	2549.727395
768.848165	2547.973074
769.173846	2544.033412
769.499479	2544.585418
769.825066	2546.841335
770.150607	2544.829914
770.476101	2545.800336
770.801548	2544.527445
771.126949	2544.618186
771.452303	2548.101623
771.777611	2548.109185
772.102872	2544.915614
772.428087	2546.075079
772.753256	2546.445604
773.078378	2548.023485
773.403453	2545.815460
773.728482	2546.654812
774.053465	2545.084492
774.378401	2545.439894
774.703291	2545.772610
775.028135	2548.167158
775.352932	2548.620862
775.677683	2544.257743
776.002388	2539.302289
776.327046	2540.333205
776.651658	2546.952240
776.976224	2539.181301
777.300743	2548.343598
777.625216	2544.759338
777.949643	2545.238248
778.274024	2546.271684
778.598359	2547.685728
778.922647	2548.386448
779.246889	2545.893598
779.571086	2548.706562
779.895236	2545.681869
780.219339	2546.778320
780.543397	2547.655481
780.867409	2547.146324
781.191374	2548.605738
781.515294	2544.953422
781.839167	2547.980635
782.162995	2544.887888
782.486776	2546.856458
782.810511	2543.844369
783.134201	2546.112888
783.457844	2546.876623
783.781441	2547.272353
784.104993	2546.553989
784.428498	2545.429812
784.751958	2548.116747
785.075372	2546.385110
785.398739	2545.918803
785.722061	2547.942827
786.045337	2545.210521
786.368568	2547.037940
786.691752	2546.687579
787.014891	2545.205480
787.337983	2544.383772
787.661030	2546.228834
787.984031	2545.296221
788.306987	2547.539534
788.629897	2547.058104
788.952760	2547.317724
789.275579	2546.254040
789.598351	2546.571633
789.921078	2546.017106
790.243759	2547.859648
790.566395	2546.170861
790.888984	2546.589277
791.211529	2544.449307
791.534027	2545.757487
791.856480	2544.681200
792.178888	2540.844882
792.501249	2541.497712
792.823566	2544.056097
793.145836	2541.492670
793.468062	2546.160779
793.790241	2546.947199
794.112375	2549.770245
794.434464	2547.615152
794.756507	2545.762528
795.078505	2546.246478
795.400457	2545.545758
795.722364	2547.242106
796.044226	2544.144317
796.366042	2543.040305
796.687812	2546.440563
797.009538	2545.197918
797.331218	2546.788403
797.652852	2548.038609
797.974442	2545.265974
798.295986	2545.870913
798.617484	2548.641027
798.938938	2543.632640
799.260346	2548.116747
799.581709	2544.729091
799.903026	2546.266643
800.224299	2545.407126
800.545526	2547.093392
800.866708	2545.578526
801.187845	2542.445448
801.508936	2544.892929
801.829983	2545.868392
802.150984	2543.519214
802.471940	2545.059287
802.792851	2545.533155
803.113717	2545.898639
803.434538	2545.671787
803.755314	2547.325285
804.076045	2546.710265
804.396731	2545.613814
804.717372	2545.379400
805.037967	2546.737991
805.358518	2545.611293
805.679024	2545.190357
805.999485	2543.418391
806.319901	2544.358566
806.640272	2546.402754
806.960598	2545.734801
807.280879	2547.100954
807.601115	2546.014585
807.921306	2544.635830
808.241453	2543.224307
808.561554	2540.330684
808.881611	2544.167002
809.201623	2538.281455
809.521590	2544.582898
809.841513	2545.034081
810.161390	2544.557692
810.481223	2545.286139
810.801011	2546.516180
811.120755	2544.522404
811.440453	2545.099616
811.760107	2544.477033
812.079716	2546.017106
812.399281	2546.974925
812.718801	2546.707744
813.038276	2546.168341
813.357707	2544.323278
813.677093	2543.521735
813.996434	2545.008875
814.315731	2545.323947
814.634983	2543.650284
814.954191	2543.564585
815.273354	2546.579195
815.592473	2543.950233
815.911547	2544.290511
816.230577	2544.787064
816.549562	2548.300749
816.868502	2544.981149
817.187399	2546.357384
817.506250	2545.946530
817.825058	2542.747918
818.143821	2545.817980
818.462539	2548.061294
818.781213	2545.679349
819.099843	2545.608772
819.418429	2542.894111
819.736970	2547.569781
820.055466	2547.058104
820.373919	2545.323947
820.692327	2547.390820
821.010691	2551.993394
821.329011	2549.364432
821.647286	2550.498692
821.965517	2556.003632
822.283704	2558.430947
822.601847	2557.405072
822.919945	2558.617470
823.237999	2556.290978
823.556010	2556.142263
823.873976	2552.724361
824.191897	2550.342416
824.509775	2544.905532
824.827609	2548.847714
825.145398	2543.761190
825.463144	2547.070707
825.780845	2548.346119
826.098502	2550.947354
826.416116	2549.160265
826.733685	2551.877447
827.051210	2551.078424
827.368692	2553.541028
827.686129	2549.626572
828.003522	2552.608415
828.320872	2548.356201
828.638177	2548.683876
828.955439	2548.305790
829.272656	2547.408464
829.589830	2543.977959
829.906960	2545.397044
830.224046	2544.343443
830.541088	2546.309493
830.858086	2544.008206
831.175041	2545.807898
831.491952	2545.661705
831.808819	2543.423432
832.125642	2546.858979
832.442421	2547.156407
832.759157	2547.327806
833.075849	2548.946016
833.392497	2547.509288
833.709101	2546.586756
834.025662	2548.303269
834.342179	2550.309648
834.658653	2552.474824
834.975083	2546.279246
835.291469	2550.680173
835.607811	2547.925183
835.924110	2541.575849
836.240366	2547.365615
836.556578	2542.604245
836.872746	2545.323947
837.188871	2545.525593
837.504952	2545.069369
837.820990	2542.453010
838.136984	2545.366797
838.452935	2544.650953
838.768842	2544.779503
839.084706	2544.343443
839.400526	2544.257743
839.716303	2544.383772
840.032037	2546.039791
840.347727	2542.238761
840.663373	2545.989380
840.978977	2541.162475
841.294537	2543.451159
841.610054	2542.994934
841.925527	2545.583567
842.240957	2542.936961
842.556344	2543.985521
842.871687	2545.061807
843.186987	2545.951571
843.502244	2545.296221
843.817458	2545.185316
844.132629	2541.870757
844.447756	2544.986190
844.762840	2544.625748
845.077881	2542.145500
845.392879	2542.601724
845.707833	2546.359904
846.022745	2546.115408
846.337613	2545.051725
846.652438	2543.451159
846.967221	2544.509801
847.281960	2543.602393
847.596656	2543.637681
847.911309	2543.244471
848.225919	2544.046015
848.540485	2544.033412
848.855009	2542.304296
849.169490	2545.076931
849.483928	2541.127187
849.798323	2544.625747
850.112675	2543.458720
850.426984	2541.659028
850.741251	2543.541899
851.055474	2541.001158
851.369654	2545.523073
851.683792	2542.198432
851.997887	2544.897970
852.311938	2544.880326
852.625947	2542.536189
852.939914	2542.851261
853.253837	2543.110881
853.567718	2542.248843
853.881555	2544.943340
854.195350	2543.446118
854.509103	2544.497198
854.822812	2540.756662
855.136479	2541.538041
855.450103	2545.568443
855.763685	2538.047042
856.077224	2538.959491
856.390720	2542.725233
856.704173	2537.845396
857.017584	2542.006868
857.330953	2542.170706
857.644278	2542.904193
857.957561	2545.598690
858.270802	2544.797147
858.584000	2543.622558
858.897155	2545.087013
859.210268	2546.309493
859.523339	2542.838658
859.836367	2542.662218
860.149352	2542.581560
860.462295	2542.884029
860.775195	2545.944009
861.088054	2543.778834
861.400869	2540.832279
861.713642	2541.621220
862.026373	2542.821014
862.339062	2541.722043
862.651708	2542.684903
862.964312	2541.258257
863.276873	2544.774462
863.589392	2545.833104
863.901869	2545.865871
864.214303	2545.424770
864.526696	2543.274718
864.839045	2543.486447
865.151353	2542.193391
865.463619	2544.640871
865.775842	2542.205994
866.088023	2542.959646
866.400162	2543.194060
866.712258	2543.549461
867.024313	2543.980480
867.336325	2541.134748
867.648296	2542.107691
867.960224	2541.964018
868.272110	2541.205325
868.583954	2544.091385
868.895755	2543.030222
869.207515	2542.085006
869.519233	2542.747918
869.830909	2544.688762
870.142542	2540.552495
870.454134	2544.141797
870.765684	2544.955943
871.077191	2542.097609
871.388657	2541.853113
871.700081	2541.109543
872.011463	2541.406971
872.322803	2538.820859
872.634101	2541.734646
872.945357	2542.717671
873.256571	2542.994934
873.567744	2542.826056
873.878874	2543.708258
874.189963	2542.463092
874.501010	2543.262115
874.812015	2543.690613
875.122979	2546.816129
875.433900	2541.843031
875.744780	2543.718340
876.055618	2544.661036
876.366415	2543.254554
876.677169	2543.070552
876.987882	2545.318906
877.298554	2543.899821
877.609183	2544.497198
877.919771	2544.217414
878.230317	2545.132383
878.540822	2547.673125
878.851285	2545.555840
879.161707	2543.869574
879.472087	2544.340922
879.782425	2545.802857
880.092722	2546.286808
880.402977	2547.973074
880.713191	2548.643547
881.023363	2548.688917
881.333494	2549.984494
881.643583	2549.319062
881.953631	2550.367622
882.263637	2548.699000
882.573602	2546.783361
882.883526	2549.475338
883.193408	2547.658002
883.503248	2545.805377
883.813048	2548.951057
884.122806	2546.564071
884.432522	2546.755635
884.742197	2547.589946
885.051831	2546.349822
885.361424	2543.161292
885.670975	2544.081303
885.980485	2544.313196
886.289954	2548.167158
886.599382	2545.107178
886.908768	2540.698689
887.218113	2540.925541
887.527417	2542.150541
887.836680	2539.156096
888.145901	2543.554502
888.455082	2543.821683
888.764221	2542.788247
889.073319	2544.890408
889.382376	2542.647095
889.691392	2543.317568
890.000366	2544.535007
890.309300	2542.722712
890.618193	2544.981149
890.927044	2545.076931
891.235855	2543.804039
891.544625	2544.986190
891.853353	2543.572146
892.162041	2542.400078
892.470687	2542.591642
892.779293	2542.566436
893.087858	2544.280428
893.396381	2544.111550
893.704864	2546.140614
894.013306	2543.012578
894.321707	2546.864020
894.630068	2545.843186
894.938387	2544.303114
895.246665	2543.476364
895.554903	2545.805378
895.863100	2547.572302
896.171256	2545.586087
896.479371	2544.572815
896.787446	2545.669266
897.095480	2545.717157
897.403473	2543.196580
897.711425	2542.447969
898.019336	2542.029553
898.327207	2542.717671
898.635038	2545.104657
898.942827	2544.913093
899.250576	2542.717671
899.558284	2543.214224
899.865952	2541.694317
900.173579	2543.299924
900.481165	2545.903680
900.788711	2541.691796
901.096216	2544.204811
901.403681	2542.611807
901.711105	2543.282280
902.018489	2543.665408
902.325832	2543.662887
902.633135	2539.579552
902.940397	2539.680376
903.247619	2539.564429
903.554800	2543.894780
903.861941	2544.744215
904.169041	2547.007693
904.476101	2545.848227
904.783121	2546.914431
905.090100	2544.875285
905.397039	2546.498536
905.703938	2545.444935
906.010796	2546.866540
906.317614	2546.720347
906.624391	2542.261446
906.931129	2544.771941
907.237826	2543.945192
907.544483	2544.721529
907.851099	2544.056097
908.157675	2542.979811
908.464211	2546.385110
908.770707	2543.539379
909.077163	2542.266488
909.383578	2542.049718
909.689954	2542.861344
909.996289	2543.483926
910.302584	2540.267670
910.608839	2541.515356
910.915054	2542.911755
911.221229	2543.531817
911.527363	2543.446118
911.833458	2541.916127
912.139513	2541.986703
912.445527	2540.688606
912.751502	2544.406457
913.057436	2539.516538
913.363331	2544.287990
913.669186	2542.190870
913.975000	2544.272867
914.280775	2539.652649
914.586510	2542.853782
914.892205	2546.143135
915.197859	2542.415202
915.503475	2544.529966
915.809050	2544.474513
916.114585	2544.658515
916.420081	2546.748073
916.725536	2545.175233
917.030952	2545.880995
917.336328	2543.856972
917.641665	2540.088709
917.946961	2538.843544
918.252218	2540.081147
918.557435	2538.137782
918.862612	2542.705068
919.167750	2543.599873
919.472848	2543.090716
919.777906	2543.191539
920.082925	2540.499563
920.387904	2541.485109
920.692843	2543.481406
920.997743	2542.372352
921.302603	2545.023999
921.607423	2543.181457
921.912204	2543.725902
922.216946	2541.253216
922.521647	2545.485264
922.826310	2541.825387
923.130932	2542.455531
923.435516	2542.833617
923.740059	2542.231199
924.044564	2542.977290
924.349028	2541.895963
924.653454	2540.408822
924.957840	2542.984852
925.262186	2539.410674
925.566493	2539.607279
925.870761	2542.006868
926.174989	2539.917310
926.479178	2541.248174
926.783328	2539.692978
927.087438	2540.794471
927.391509	2542.357228
927.695541	2541.888401
927.999533	2540.217258
928.303486	2540.567619
928.607400	2541.419574
928.911275	2539.985365
929.215110	2540.796991
929.518906	2541.885880
929.822663	2542.538710
930.126381	2540.242464
930.430060	2541.752290
930.733699	2540.013092
931.037299	2542.904193
931.340861	2541.923689
931.644383	2541.026364
931.947866	2539.198945
932.251309	2538.755324
932.554714	2541.144831
932.858080	2540.572660
933.161407	2538.752803
933.464694	2540.973432
933.767943	2535.624767
934.071153	2542.727753
934.374323	2541.631302
934.677455	2541.449821
934.980548	2540.615510
935.283602	2540.499563
935.586617	2542.848741
935.889593	2540.219779
936.192530	2539.786240
936.495428	2538.949408
936.798287	2542.042156
937.101108	2541.036446
937.403890	2539.536703
937.706632	2542.586601
938.009336	2541.573329
938.312002	2541.054090
938.614628	2539.798843
938.917216	2542.049718
939.219765	2541.011240
939.522275	2541.994265
939.824747	2542.190870
940.127179	2540.444110
940.429573	2541.459903
940.731929	2542.387475
941.034246	2538.420087
941.336524	2540.219779
941.638763	2540.665921
941.940964	2539.352701
942.243126	2538.475540
942.545250	2540.839841
942.847335	2543.284801
943.149381	2540.870088
943.451389	2540.456713
943.753359	2541.916127
944.055290	2542.599204
944.357182	2539.808925
944.659036	2541.727084
944.960851	2540.665921
945.262628	2541.154913
945.564367	2540.628112
945.866067	2536.993441
946.167729	2542.962167
946.469352	2539.098122
946.770937	2540.123997
947.072484	2540.449152
947.373992	2542.878988
947.675462	2540.285314
947.976893	2539.420756
948.278286	2535.723070
948.579641	2539.128369
948.880958	2538.105015
949.182236	2539.337577
949.483476	2539.062834
949.784678	2538.669624
950.085841	2541.301107
950.386967	2543.178936
950.688054	2539.924872
950.989103	2541.706919
951.290114	2539.070396
951.591087	2542.841179
951.892021	2540.181970
952.192917	2540.660880
952.493776	2540.945705
952.794596	2539.342618
953.095378	2540.607948
953.396122	2542.637012
953.696828	2539.267001
953.997496	2540.882691
954.298126	2538.730118
954.598718	2540.126518
954.899272	2539.508976
955.199788	2540.355890
955.500266	2541.371683
955.800706	2541.159954
956.101108	2538.594007
956.401472	2540.887732
956.701798	2541.888401
957.002087	2540.739018
957.302337	2539.813966
957.602550	2539.982845
957.902724	2538.220962
958.202861	2540.728936
958.502960	2540.970911
958.803022	2540.441590
959.103045	2540.751621
959.403031	2540.860006
959.702979	2540.865047
960.002889	2543.279759
960.302762	2540.544933
960.602596	2539.508976
960.902393	2538.180632
961.202153	2538.717515
961.501875	2540.824717
961.801559	2540.164326
962.101205	2538.588966
962.400814	2542.821014
962.700385	2539.332536
962.999918	2537.827752
963.299414	2536.171733
963.598873	2540.814635
963.898293	2534.233409
964.197677	2539.808925
964.497022	2539.942516
964.796331	2539.917310
965.095601	2540.262629
965.394835	2541.953936
965.694030	2540.224820
965.993189	2540.413863
966.292309	2539.239275
966.591393	2540.033256
966.890439	2542.216076
967.189447	2540.781868
967.488419	2541.273380
967.787353	2539.236754
968.086249	2540.807073
968.385108	2541.323792
968.683930	2541.197763
968.982714	2540.928061
969.281462	2540.686086
969.580172	2538.402443
969.878844	2542.435366
970.177480	2542.289173
970.476078	2539.672814
970.774639	2538.929244
971.073162	2541.235572
971.371649	2538.500746
971.670098	2541.270860
971.968510	2539.440921
972.266885	2540.262629
972.565223	2540.983514
972.863524	2539.282124
973.161788	2539.330015
973.460014	2541.565767
973.758204	2540.711292
974.056356	2540.328164
974.354471	2541.170037
974.652550	2538.528472
974.950591	2538.462937
975.248595	2540.040818
975.546563	2539.672814
975.844493	2541.076775
976.142386	2538.314223
976.440243	2540.141641
976.738062	2539.052752
977.035845	2540.000489
977.333590	2539.947557
977.631299	2539.632485
977.928971	2537.986548
978.226606	2537.154757
978.524204	2536.552340
978.821765	2534.780374
979.119290	2538.220962
979.416777	2539.135931
979.714228	2538.241126
980.011642	2538.435211
980.309020	2541.162475
980.606360	2541.613658
980.903664	2537.855478
981.200931	2541.412012
981.498162	2539.027546
981.795356	2540.600386
982.092513	2537.797505
982.389633	2536.156609
982.686717	2540.592824
982.983764	2539.728267
983.280775	2539.619882
983.577749	2539.508976
983.874686	2538.904038
984.171587	2540.086188
984.468451	2538.394881
984.765279	2539.375386
985.062070	2543.347815
985.358824	2538.084850
985.655543	2539.040149
985.952224	2538.404964
986.248869	2539.640046
986.545478	2537.981507
986.842050	2539.037628
987.138586	2538.215920
987.435086	2539.929913
987.731549	2539.095602
988.027975	2542.097609
988.324366	2538.485622
988.620719	2538.412525
988.917037	2538.047042
989.213318	2537.699202
989.509563	2538.115097
989.805772	2539.929913
990.101944	2539.234233
990.398080	2541.081816
990.694180	2542.533669
990.990244	2539.677855
991.286271	2541.283462
991.582262	2540.232382
991.878217	2538.646939
992.174136	2541.863195
992.470019	2540.118956
992.765865	2535.763399
993.061676	2535.831455
993.357450	2536.237268
993.653188	2535.299613
993.948890	2539.398071
994.244556	2536.277597
994.540186	2538.140303
994.835780	2540.456713
995.131337	2539.685417
995.426859	2541.671631
995.722345	2540.313040
996.017795	2538.533513
996.313208	2538.273894
996.608586	2539.912269
996.903928	2541.480068
997.199234	2539.236754
997.494504	2539.309851
997.789738	2541.049049
998.084936	2538.626774
998.380099	2540.300438
998.675225	2539.324974
998.970316	2538.581404
999.265371	2535.670138
999.560390	2538.732639
999.855373	2540.524769
1000.150320	2538.689789
1000.445232	2539.398071
1000.740108	2538.276414
1001.034948	2537.346321
1001.329752	2533.870446
1001.624521	2541.548123
1001.919254	2537.341280
1002.213951	2538.737680
1002.508613	2537.835313
1002.803239	2540.076106
1003.097829	2541.505273
1003.392384	2539.629964
1003.686903	2539.324974
1003.981386	2539.972763
1004.275834	2540.930582
1004.570246	2536.632998
1004.864623	2539.367824
1005.158964	2540.827238
1005.453270	2540.948226
1005.747540	2541.112063
1006.041775	2538.142824
1006.335974	2536.242309
1006.630138	2537.726928
1006.924266	2536.622916
1007.218359	2538.442772
1007.512416	2537.411856
1007.806438	2533.762061
1008.100425	2536.224665
1008.394376	2535.690302
1008.688292	2537.648791
1008.982172	2540.602907
1009.276017	2538.445293
1009.569827	2539.244316
1009.863602	2538.967052
1010.157341	2539.037628
1010.451045	2539.047711
1010.744714	2541.028884
1011.038347	2539.188863
1011.331945	2539.516538
1011.625508	2538.767927
1011.919036	2537.923533
1012.212528	2541.472506
1012.505986	2539.846734
1012.799408	2536.338091
1013.092795	2539.821528
1013.386147	2539.508976
1013.679464	2540.441590
1013.972745	2538.218441
1014.265992	2538.772968
1014.559204	2537.101825
1014.852380	2541.832948
1015.145521	2536.038142
1015.438628	2538.208359
1015.731699	2539.292207
1016.024736	2537.623585
1016.317737	2536.322967
1016.610703	2536.489325
1016.903635	2541.699358
1017.196531	2538.069727
1017.489393	2535.922195
1017.782219	2537.888245
1018.075011	2539.256919
1018.367768	2537.777340
1018.660490	2539.082999
1018.953177	2539.082999
1019.245829	2539.082999
