Dividing Wavelength (nm)	Counts (n)	Blue Motor Position (mm): 34.900000	Red Motor Position (mm): 0.000000	
326.493990	2227.814434
326.888308	2227.814434
327.282561	2227.814434
327.676750	2190.245235
328.070874	2186.502178
328.464933	2185.688032
328.858929	2187.641479
329.252859	2193.368230
329.646726	2202.626309
330.040528	2215.508978
330.434265	2227.108673
330.827938	2246.630541
331.221547	2265.834816
331.615091	2280.181940
332.008571	2298.670372
332.401986	2318.398928
332.795338	2336.226968
333.188625	2355.968127
333.581847	2374.496888
333.975006	2393.277706
334.368100	2413.507857
334.761129	2429.390012
335.154095	2449.436160
335.546996	2475.932465
335.939833	2511.981756
336.332606	2528.433561
336.725315	2542.175747
337.117960	2554.168652
337.510540	2563.056206
337.903056	2576.513566
338.295508	2586.560586
338.687896	2592.494024
339.080220	2600.590117
339.472480	2610.369955
339.864676	2613.031685
340.256807	2618.213991
340.648875	2623.174486
341.040879	2624.762450
341.432818	2628.883593
341.824694	2631.527678
342.216506	2633.045065
342.608253	2632.172946
342.999937	2633.544140
343.391557	2634.431383
343.783113	2635.671507
344.174605	2632.183028
344.566033	2629.357461
344.957397	2630.960548
345.348697	2630.022894
345.739934	2627.628346
346.131106	2625.327059
346.522215	2623.665999
346.913260	2622.647686
347.304241	2619.189454
347.695159	2616.827673
348.086012	2618.642489
348.476802	2615.063270
348.867528	2610.022116
349.258191	2609.245778
349.648789	2606.180757
350.039324	2605.502721
350.429796	2608.061107
350.820203	2605.515324
351.210548	2604.751589
351.600828	2606.770572
351.991045	2604.194542
352.381198	2602.697319
352.771288	2599.702874
353.161314	2600.305292
353.551276	2600.396032
353.941175	2597.467122
354.331010	2599.949890
354.720782	2599.806217
355.110490	2600.665734
355.500135	2600.000302
355.889717	2600.829572
356.279235	2599.770929
356.668689	2599.307143
357.058080	2599.836464
357.447408	2598.659355
357.836672	2600.852257
358.225873	2599.808738
358.615010	2599.690271
359.004084	2600.610282
359.393095	2599.052565
359.782043	2602.173039
360.170927	2605.348966
360.559748	2603.110694
360.948505	2605.235540
361.337199	2606.770572
361.725830	2604.953236
362.114398	2605.285952
362.502903	2603.919799
362.891344	2605.023812
363.279722	2605.570777
363.668037	2606.838627
364.056289	2605.923658
364.444478	2607.481374
364.832603	2606.914244
365.220665	2608.608072
365.608665	2611.151334
365.996601	2610.780809
366.384474	2609.691920
366.772284	2610.034719
367.160031	2608.764348
367.547715	2614.639813
367.935336	2611.463886
368.322893	2609.686879
368.710388	2608.807198
369.097820	2607.491457
369.485189	2610.226282
369.872495	2616.278188
370.259738	2615.020420
370.646918	2615.083434
371.034035	2616.477313
371.421090	2617.281377
371.808081	2616.290791
372.195010	2617.553600
372.581875	2616.396655
372.968678	2617.634258
373.355418	2616.706686
373.742096	2617.561161
374.128710	2617.911522
374.515262	2617.412447
374.901751	2617.362036
375.288177	2618.196347
375.674540	2617.992180
376.060841	2619.164248
376.447079	2620.817747
376.833254	2620.457304
377.219367	2619.383538
377.605417	2621.561317
377.991404	2620.386728
378.377329	2622.912346
378.763191	2621.599126
379.148991	2622.783797
379.534727	2624.281019
379.920402	2622.783797
380.306013	2624.628859
380.691563	2624.623818
381.077049	2626.060547
381.462474	2623.832357
381.847835	2624.943931
382.233134	2625.836215
382.618371	2625.049795
383.003545	2627.020887
383.388657	2627.114148
383.773706	2628.893675
384.158693	2628.775208
384.543618	2630.895013
384.928480	2629.551546
385.313280	2628.815537
385.698017	2631.142030
386.082692	2629.407873
386.467305	2630.015332
386.851856	2631.089098
387.236344	2632.291413
387.620770	2630.683285
388.005133	2630.723614
388.389435	2633.559263
388.773674	2629.244035
389.157851	2635.888276
389.541965	2634.411218
389.926018	2637.778709
390.310008	2637.735859
390.693936	2637.680406
391.077802	2637.645118
391.461606	2639.911117
391.845348	2641.960346
392.229027	2642.121663
392.612645	2640.838689
392.996200	2642.330871
393.379694	2641.078144
393.763125	2643.066879
394.146494	2643.082003
394.529801	2643.699544
394.913047	2646.494864
395.296230	2648.675163
395.679351	2646.242806
396.062410	2647.949237
396.445408	2649.007879
396.828343	2650.641213
397.211217	2647.213228
397.594028	2651.130205
397.976778	2650.048877
398.359466	2650.588281
398.742092	2653.479382
399.124656	2650.051398
399.507158	2655.516009
399.889598	2655.536173
400.271977	2656.491472
400.654294	2656.057933
401.036549	2656.128509
401.418742	2658.888541
401.800874	2659.894251
402.182944	2660.610095
402.564952	2664.103614
402.946898	2668.958245
403.328783	2668.222237
403.710606	2670.457989
404.092367	2677.883608
404.474067	2683.822087
404.855705	2691.169569
405.237282	2700.311702
405.618797	2710.860316
406.000250	2726.941597
406.381642	2749.493199
406.762972	2764.878800
407.144240	2787.984929
407.525447	2813.183136
407.906593	2841.166581
408.287677	2890.179200
408.668700	2924.239756
409.049661	2979.722695
409.430560	3031.817979
409.811399	3067.973134
410.192176	3153.483706
410.572891	3218.464179
410.953545	3319.793892
411.334138	3341.664938
411.714669	3440.461471
412.095139	3472.308961
412.475547	3596.281016
412.855894	3690.817774
413.236180	3817.154131
413.616405	3817.247392
413.996568	3970.737924
414.376670	4060.790575
414.756711	4111.212196
415.136691	4226.021954
415.516609	4389.095720
415.896466	4484.181963
416.276262	4655.586235
416.655997	4738.114965
417.035670	4922.802677
417.415283	5182.472512
417.794834	5302.817457
418.174324	5344.364127
418.553753	5399.305142
418.933121	5682.829716
419.312428	5833.542572
419.691674	5806.854704
420.070859	6196.485485
420.449983	6108.492144
420.829045	6435.852072
421.208047	6390.849692
421.586988	6693.029056
421.965867	6795.568646
422.344686	6977.103117
422.723444	7089.674602
423.102141	6716.903961
423.480777	7360.296344
423.859352	7072.698517
424.237866	7656.010428
424.616319	7625.624874
424.994712	8030.915999
425.373044	7761.567149
425.751314	8215.074390
426.129524	8170.024119
426.507673	8356.382973
426.885762	8550.757263
427.263789	8524.268520
427.641756	8514.413064
428.019662	8668.397629
428.397508	8925.042771
428.775292	8697.038945
429.153016	9089.449922
429.530679	8979.356163
429.908282	9062.512516
430.285824	8827.388060
430.663305	9501.367644
431.040726	9011.745576
431.418086	9027.337865
431.795385	9363.746664
432.172624	9456.778638
432.549802	9404.615298
432.926920	9503.505093
433.303977	9401.025997
433.680974	9619.610428
434.057910	9714.290859
434.434786	9784.544379
434.811601	9653.794492
435.188355	10214.413649
435.565050	9945.362227
435.941683	9898.713910
436.318257	10395.509540
436.694770	10517.281131
437.071222	10594.483882
437.447614	10451.042890
437.823946	10343.373927
438.200218	10504.383339
438.576429	10309.182301
438.952580	10546.618126
439.328670	10614.051121
439.704700	10396.575744
440.080670	10390.092820
440.456580	10959.665067
440.832429	10707.317508
441.208218	10309.993926
441.583947	10648.804835
441.959616	10782.367686
442.335224	10590.093037
442.710773	10740.891593
443.086261	10936.566500
443.461689	10233.123892
443.837057	10867.321210
444.212365	11151.642287
444.587612	10800.735130
444.962800	11034.354802
445.337927	10819.647018
445.712995	10378.863650
446.088002	11470.563324
446.462949	11124.919131
446.837837	11098.349729
447.212664	11097.580953
447.587431	11609.437030
447.962139	12302.714151
448.336786	14548.515422
448.711374	15130.395646
449.085901	12991.784429
449.460369	12592.590579
449.834776	12042.603215
450.209124	12902.296386
450.583412	13312.011124
450.957640	14266.414973
451.331808	13434.911934
451.705917	12407.897826
452.079965	11728.499001
452.453954	12619.102007
452.827883	12251.891758
453.201752	12535.675952
453.575562	12051.573948
453.949311	12471.514667
454.323001	12427.112184
454.696632	12650.251297
455.070202	12938.310389
455.443713	13185.790714
455.817164	13640.926248
456.190556	13646.678204
456.563888	14004.322864
456.937160	14175.608669
457.310373	13507.257533
457.683526	13585.019852
458.056619	13145.075835
458.429653	13291.801138
458.802628	12737.168351
459.175542	13097.293258
459.548398	14039.822669
459.921194	14364.977092
460.293930	14436.642136
460.666607	15324.003680
461.039224	16348.701378
461.411782	17056.998617
461.784280	16938.095442
462.156719	16997.707086
462.529099	16680.177408
462.901419	15609.544716
463.273680	15389.664708
463.645882	15259.582775
464.018024	15001.629453
464.390106	15209.519076
464.762130	15942.270952
465.134094	16692.215683
465.505999	18675.551800
465.877845	21927.703490
466.249631	24762.177939
466.621358	24450.102790
466.993026	23005.038396
467.364634	22459.885498
467.736184	21008.791884
468.107674	20188.606236
468.479105	20327.933646
468.850477	19784.812333
469.221790	19368.849085
469.593043	18694.932516
469.964238	18134.547772
470.335373	17801.783727
470.706449	18235.708606
471.077467	17780.754554
471.448425	19610.895046
471.819324	23611.975675
472.190164	25655.291440
472.560945	22128.326289
472.931667	19749.042826
473.302330	19125.326067
473.672934	18627.343246
474.043479	18970.406368
474.413965	18784.954921
474.784393	18404.446108
475.154761	19102.353528
475.525070	19090.559749
475.895321	18750.095342
476.265513	19328.635801
476.635645	19911.108361
477.005719	19699.873932
477.375734	19881.327744
477.745691	20375.834690
478.115588	20885.190354
478.485427	21410.110580
478.855207	22460.109830
479.224928	24215.132088
479.594591	26434.588289
479.964194	26483.774828
480.333739	26682.880240
480.703226	26251.223880
481.072653	25916.266933
481.442022	26497.905182
481.811333	27407.052072
482.180584	27336.866608
482.549777	26383.476031
482.918912	26032.268924
483.287988	26148.333930
483.657005	25830.075805
484.025964	25562.025052
484.394864	25494.103066
484.763706	25173.783110
485.132489	24602.494350
485.501213	24787.035869
485.869879	24700.285173
486.238487	24506.591439
486.607036	24652.958821
486.975527	24361.617937
487.343959	24668.641850
487.712333	24627.483350
488.080648	24283.028869
488.448905	24765.563074
488.817104	24524.555591
489.185244	25191.815317
489.553326	25165.928992
489.921350	26153.170917
490.289315	28428.258771
490.657222	30205.777179
491.025070	30700.097602
491.392861	30498.627888
491.760593	29649.861418
492.128267	28748.435055
492.495883	27702.854377
492.863440	26832.453795
493.230939	25965.645035
493.598380	25798.361907
493.965763	25415.574492
494.333088	24954.316477
494.700354	24883.027000
495.067563	24759.004533
495.434713	24500.927703
495.801805	24666.963146
496.168839	24470.136335
496.535815	24305.126767
496.902733	24519.494273
497.269593	24195.257339
497.636395	24384.320773
498.003139	24349.957748
498.369825	24101.622948
498.736453	24300.095695
499.103023	24176.610111
499.469535	24185.154867
499.835989	24402.352981
500.202385	24425.050776
500.568723	23927.110805
500.935003	24178.061964
501.301226	23795.478716
501.667390	24634.404854
502.033497	24848.343861
502.399546	24592.273411
502.765537	24172.289842
503.131470	24543.512850
503.497345	24681.809344
503.863163	23898.058635
504.228923	24490.973945
504.594625	24691.760582
504.960269	24232.050201
505.325856	24733.524021
505.691385	24118.314208
506.056856	24732.392282
506.422270	24700.141500
506.787625	24272.170224
507.152924	24675.835577
507.518164	24715.632966
507.883347	24529.793350
508.248472	24206.967940
508.613540	24979.030734
508.978550	24780.830208
509.343503	24768.602890
509.708398	25026.233578
510.073236	25181.919532
510.438016	25394.086574
510.802738	25059.976541
511.167403	25322.277858
511.532010	25028.492015
511.896561	25786.099300
512.261053	25758.889672
512.625488	25601.182215
512.989866	25496.487532
513.354186	25333.270094
513.718449	25446.993483
514.082655	25822.526677
514.446803	25565.894138
514.810894	26023.247780
515.174927	25508.999676
515.538904	25543.002258
515.902822	26027.638625
516.266684	25789.827233
516.630488	25701.508738
516.994235	25664.063048
517.357925	25967.724511
517.721558	26145.936861
518.085133	26251.455773
518.448651	26160.137792
518.812112	25892.432358
519.175516	26104.589318
519.538863	26255.236638
519.902152	26035.402002
520.265385	26315.022202
520.628560	26107.787930
520.991678	26120.070701
521.354739	26191.587030
521.717743	26249.000731
522.080690	26053.164507
522.443580	26383.241617
522.806413	26369.166715
523.169189	26458.649717
523.531908	26510.339188
523.894569	26119.120443
524.257174	26204.683948
524.619722	26379.538889
524.982213	26066.261425
525.344647	26133.160057
525.707025	26274.151048
526.069345	26246.195329
526.431608	26214.612500
526.793815	26386.422585
527.155964	25849.179258
527.518057	26031.422011
527.880093	25950.798837
528.242072	26181.212335
528.603995	25883.627983
528.965860	25694.556987
529.327669	25732.668110
529.689421	25713.589863
530.051117	25548.572733
530.412755	25723.717542
530.774337	25534.507914
531.135862	25395.467850
531.497331	25609.636230
531.858743	25161.885987
532.220098	25637.929706
532.581396	25332.007285
532.942638	25257.791418
533.303824	25357.180287
533.664953	25356.754309
534.026025	25031.410843
534.387040	25277.109119
534.747999	25333.940567
535.108902	25480.219728
535.469748	24979.300435
535.830537	25170.559292
536.191270	25289.858198
536.551947	25141.986032
536.912567	24788.089470
537.273131	25160.749206
537.633638	24868.490833
537.994089	25082.722227
538.354483	24607.951399
538.714821	25104.951195
539.075103	25158.730224
539.435328	24934.867705
539.795497	24496.630119
540.155609	24886.021445
540.515665	25175.146742
540.875665	24411.512757
541.235609	24729.629729
541.595496	24682.658778
541.955328	25039.499374
542.315102	24957.691529
542.674821	24482.073788
543.034483	24369.532548
543.394090	24536.356932
543.753640	24336.424771
544.113134	24965.923734
544.472571	24563.170829
544.831953	24868.095102
545.191278	24477.599763
545.550548	24393.052052
545.909761	24606.237407
546.268918	24830.414998
546.628019	24805.662932
546.987064	24505.142107
547.346053	24250.336986
547.704986	24358.517627
548.063863	24520.547874
548.422684	24543.424630
548.781449	24062.690117
549.140158	24470.849658
549.498811	24048.993302
549.857408	23804.898112
550.215949	24212.656882
550.574434	23897.138624
550.932864	24114.150215
551.291237	24280.697335
551.649555	24138.269616
552.007817	24195.292628
552.366022	24054.036976
552.724173	24093.766310
553.082267	24038.129615
553.440305	24524.295972
553.798288	23775.044399
554.156215	24277.249186
554.514086	24392.063986
554.871902	23757.168467
555.229661	24046.815523
555.587365	23900.690117
555.945014	23761.876905
556.302606	24022.071020
556.660143	23979.395132
557.017625	24220.024528
557.375050	23744.923505
557.732421	24134.450942
558.089735	23949.095277
558.446994	24008.606098
558.804197	24044.405852
559.161345	23974.326252
559.518437	23741.361929
559.875474	23924.973355
560.232455	24107.256437
560.589381	23945.042189
560.946251	23919.518827
561.303065	24243.780966
561.659825	24321.349200
562.016528	23926.019395
562.373177	23672.701414
562.729770	24032.516290
563.086307	23884.772674
563.442789	24061.485281
563.799216	23882.940215
564.155587	23883.910637
564.511904	23877.392425
564.868164	23816.182735
565.224370	23786.427324
565.580520	23703.812895
565.936615	23843.687270
566.292654	23526.505432
566.648638	23815.091325
567.004567	23640.465756
567.360441	23585.560029
567.716260	23321.816942
568.072023	23633.599704
568.427732	23404.718717
568.783385	23177.476104
569.138982	23424.023815
569.494525	23466.818170
569.850013	23199.064846
570.205445	23311.008708
570.560823	23110.771557
570.916145	22867.137632
571.271412	23052.127814
571.626625	22806.936173
571.981782	22928.175923
572.336884	22723.565571
572.691931	22860.909287
573.046923	22591.091609
573.401860	22472.296819
573.756743	22485.229899
574.111570	22391.635837
574.466342	22324.502791
574.821059	22400.863669
575.175722	22113.442283
575.530330	22097.638265
575.884882	22123.159107
576.239380	22029.292822
576.593823	21916.902817
576.948211	21890.005741
577.302544	21757.390628
577.656823	21602.642328
578.011047	21709.766847
578.365216	21575.644428
578.719330	21464.650824
579.073389	21352.505315
579.427394	21505.184221
579.781344	21267.135895
580.135239	21157.924338
580.489080	21120.839090
580.842866	20882.785723
581.196597	21083.463976
581.550273	21063.536294
581.903895	20939.014753
582.257463	21259.919484
582.610975	20793.582506
582.964434	21111.351639
583.317837	20800.932508
583.671186	20893.825850
584.024481	20857.786641
584.377721	20635.136520
584.730906	20697.510717
585.084037	20718.499561
585.437113	20626.420365
585.790135	20831.451654
586.143103	20298.067330
586.496016	20309.316665
586.848874	20547.491019
587.201679	20486.180506
587.554428	20159.193624
587.907124	20490.246197
588.259765	20257.707852
588.612352	20329.080508
588.964884	19898.641587
589.317362	20067.205169
589.669786	20136.732763
590.022155	20162.795528
590.374470	20361.633759
590.726731	20150.641306
591.078937	19917.392159
591.431090	20018.815133
591.783188	19763.178222
592.135232	19737.985055
592.487222	19837.542802
592.839157	19852.290698
593.191038	19732.054138
593.542866	19625.461460
593.894639	19336.036215
594.246358	19554.141736
594.598022	19463.917685
594.949633	19216.704542
595.301190	19182.722124
595.652692	19350.239666
596.004141	19584.199616
596.355535	18901.730729
596.706876	18923.155633
597.058162	18817.903902
597.409395	19053.653462
597.760573	19106.348643
598.111698	18898.635460
598.462768	18836.639350
598.813785	18800.907652
599.164748	18609.217777
599.515657	18665.749276
599.866511	18448.599054
600.217312	18808.063570
600.568060	18328.924582
600.918753	18646.716400
601.269392	18551.728458
601.619978	18329.726125
601.970510	18528.549233
602.320988	18478.178024
602.671412	18687.958079
603.021783	18597.202187
603.372100	18319.099373
603.722363	18456.032235
604.072572	18405.401406
604.422728	18556.071413
604.772830	18301.178071
605.122878	18254.625536
605.472872	18245.390142
605.822813	18237.137773
606.172701	18199.238379
606.522534	18403.757990
606.872314	18416.060926
607.222041	18253.624867
607.571714	18469.953381
607.921333	18296.220096
608.270899	18379.512561
608.620411	18552.227533
608.969870	18319.767326
609.319276	18329.736208
609.668627	18362.410446
610.017926	18486.329570
610.367171	18606.498074
610.716362	18653.799221
611.065500	18463.498184
611.414585	18608.509495
611.763616	18584.516123
612.112594	18527.800622
612.461518	18500.369183
612.810389	18683.836936
613.159207	18544.726296
613.507971	18459.664386
613.856682	18722.794973
614.205340	18651.361823
614.553945	18805.411923
614.902496	18548.781904
615.250994	18785.028017
615.599439	18730.767558
615.947830	18703.079020
616.296169	18770.103681
616.644454	18736.849710
616.992686	18693.732721
617.340864	18910.721627
617.688990	18672.940482
618.037063	18846.462039
618.385082	18687.784160
618.733048	18968.500812
619.080961	18846.761987
619.428821	18890.793946
619.776628	18760.969111
620.124382	18695.958391
620.472083	18736.557323
620.819731	18748.890506
621.167326	18449.234239
621.514868	18485.961565
621.862357	18260.959746
622.209793	18264.095343
622.557176	18103.133822
622.904506	17924.316533
623.251783	17844.268051
623.599007	17597.793437
623.946179	17539.840332
624.293297	17483.833113
624.640363	17231.062097
624.987376	17258.617044
625.334336	17036.576903
625.681243	16880.361627
626.028097	16901.847025
626.374899	16830.434039
626.721647	16694.257351
627.068343	16530.762649
627.414987	16451.490505
627.761577	16421.097388
628.108115	16466.850901
628.454600	16202.470108
628.801032	16294.491330
629.147412	16229.213429
629.493739	16245.448465
629.840014	16052.866306
630.186236	16148.436500
630.532405	15909.664769
630.878521	16110.882425
631.224585	16006.742268
631.570597	15832.940928
631.916556	15867.351844
632.262462	15836.958728
632.608316	15749.751807
632.954117	15701.288675
633.299866	15687.060018
633.645562	15610.106804
633.991206	15372.670979
634.336797	15237.270628
634.682336	15213.945209
635.027823	15095.594040
635.373257	14962.593278
635.718639	14880.835845
636.063968	14824.427854
636.409245	14574.991562
636.754470	14601.971817
637.099642	14442.348722
637.444762	14217.745153
637.789829	14256.249486
638.134845	14099.454478
638.479808	14128.970434
638.824719	14068.935333
639.169577	13931.987347
639.514383	13971.893121
639.859137	13793.627839
640.203839	13880.045819
640.548489	13721.756109
640.893086	13703.146689
641.237632	13577.385024
641.582125	13728.029825
641.926566	13561.699474
642.270955	13567.723653
642.615292	13520.798072
642.959576	13540.176268
643.303809	13574.037698
643.647990	13501.235875
643.992118	13568.137028
644.336195	13330.885204
644.680219	13548.317731
645.024192	13461.297333
645.368112	13703.807080
645.711981	13758.634670
646.055797	13946.594091
646.399562	13918.131736
646.743274	14179.167723
647.086935	14459.990240
647.430544	14424.157718
647.774101	14463.188852
648.117606	14599.025263
648.461059	14574.386623
648.804460	14557.647472
649.147810	14289.742912
649.491108	14182.804916
649.834354	14201.860478
650.177548	13894.554260
650.520690	13700.966390
650.863781	13622.127785
651.206820	13669.141586
651.549807	13510.350281
651.892742	13301.515442
652.235626	13234.770565
652.578458	13238.551430
652.921238	12933.405347
653.263967	13138.335812
653.606644	12961.552629
653.949269	12935.731839
654.291843	12733.062331
654.634365	12901.371335
654.976836	12751.397008
655.319255	12750.613108
655.661622	12705.109133
656.003938	12626.409160
656.346203	12550.685988
656.688416	12632.650108
657.030577	12590.932040
657.372687	12505.466838
657.714746	12480.442550
658.056753	12675.971264
658.398708	12486.645690
658.740612	12489.788849
659.082465	12591.814242
659.424266	12560.014643
659.766016	12581.757140
660.107715	12489.665341
660.449362	12570.984194
660.790958	12522.919312
661.132503	12462.375055
661.473996	12535.799461
661.815438	12548.939228
662.156829	12572.042836
662.498168	12553.365361
662.839456	12540.679298
663.180693	12564.657546
663.521879	12655.572235
663.863013	12629.154068
664.204097	12604.525511
664.545129	12726.037483
664.886110	12704.010162
665.227040	12797.276549
665.567918	12803.940954
665.908746	12822.333604
666.249522	12807.873054
666.590248	12861.853730
666.930922	12975.531749
667.271545	12958.580869
667.612118	13036.791850
667.952639	12938.328033
668.293109	12964.675624
668.633528	12907.861820
668.973896	12886.865414
669.314213	12964.458854
669.654480	12698.033874
669.994695	12772.668156
670.334859	12807.552941
670.674973	12744.399886
671.015035	12788.169704
671.355047	12719.242008
671.695008	12687.286134
672.034918	12697.325592
672.374777	12738.436201
672.714585	12658.344869
673.054342	12691.621526
673.394049	12644.617808
673.733705	12738.718506
674.073310	12649.449753
674.412864	12667.086230
674.752368	12519.269517
675.091820	12550.643138
675.431223	12537.969677
675.770574	12401.440108
676.109875	12327.680465
676.449125	12277.263886
676.788324	12220.765154
677.127473	12064.575084
677.466571	12053.459340
677.805619	11946.607043
678.144616	11873.391845
678.483562	11838.917915
678.822458	11712.183307
679.161303	11687.206910
679.500098	11676.358347
679.838842	11631.497119
680.177535	11662.532983
680.516179	11713.365458
680.854771	11664.027685
681.193314	11872.887730
681.531805	12040.768235
681.870247	12467.912762
682.208638	12877.277140
682.546978	13179.335517
682.885268	13225.832599
683.223508	12922.284561
683.561697	12768.368052
683.899836	12665.210921
684.237925	12465.251033
684.575963	12385.865463
684.913951	12296.994962
685.251889	12254.167839
685.589776	12351.782222
685.927614	12275.980912
686.265401	12239.513205
686.603137	12293.564457
686.940824	12447.715379
687.278460	12571.425295
687.616046	12611.028599
687.953582	12776.728806
688.291068	12709.212632
688.628504	12945.645268
688.965889	12951.127523
689.303224	12923.812031
689.640510	12802.458855
689.977745	12488.901606
690.314930	12269.969336
690.652065	12176.473576
690.989150	11878.211188
691.326185	11662.376707
691.663170	11456.407764
692.000105	11213.275434
692.336990	11095.987949
692.673825	10843.103507
693.010610	10728.891126
693.347345	10520.467141
693.684030	10319.584722
694.020665	10261.266133
694.357251	10065.629035
694.693786	10002.357513
695.030272	9839.301392
695.366707	9722.986849
695.703093	9654.170058
696.039429	9647.624120
696.375716	9570.771729
696.711952	9442.058469
697.048139	9488.714348
697.384276	9438.892624
697.720363	9454.583215
698.056400	9397.663547
698.392388	9341.973921
698.728326	9302.247108
699.064214	9245.508921
699.400053	9284.305641
699.735842	9095.416127
700.071581	9055.759891
700.407270	8984.803130
700.742910	8902.453361
701.078501	8811.604207
701.414042	8689.479734
701.749533	8624.753840
702.084974	8478.487281
702.420366	8596.220909
702.755709	8488.355340
703.091002	8341.899738
703.426246	8375.183957
703.761440	8326.693098
704.096584	8281.335316
704.431679	8220.803661
704.766725	8199.167029
705.101721	8158.752099
705.436668	8203.547792
705.771565	8092.723066
706.106413	8178.241199
706.441212	8212.601704
706.775961	8175.781116
707.110661	8215.828043
707.445311	8349.153959
707.779913	8251.973116
708.114465	8382.937251
708.448967	8417.927900
708.783421	8568.602948
709.117825	8742.371521
709.452180	8779.645812
709.786485	8870.265594
710.120742	9152.471907
710.454949	9153.477617
710.789107	9253.393286
711.123216	9469.089136
711.457275	9640.995002
711.791286	9797.043920
712.125247	9791.513774
712.459159	9777.537175
712.793023	10029.052943
713.126837	9595.513712
713.460602	9748.149768
713.794318	9578.363707
714.127985	9609.109704
714.461602	9279.599724
714.795171	9229.311694
715.128691	8982.695927
715.462162	8734.434224
715.795584	8682.038991
716.128957	8528.714818
716.462281	8357.048406
716.795556	8411.034122
717.128782	8199.769447
717.461960	7941.377545
717.795088	8009.334819
718.128167	7920.645800
718.461198	7753.836539
718.794180	7691.774894
719.127113	7682.630241
719.459997	7525.709204
719.792833	7297.430635
720.125619	7362.070830
720.458357	7212.217491
720.791046	7206.125256
721.123686	7204.297838
721.456278	7042.073507
721.788821	7063.609317
722.121315	6961.730118
722.453761	7027.403750
722.786158	6971.598177
723.118506	6977.445915
723.450805	6947.778725
723.783056	7011.307345
724.115259	6926.452123
724.447412	6917.884682
724.779518	6966.428473
725.111574	6967.731612
725.443582	7050.487193
725.775542	7027.277721
726.107453	7224.686785
726.439315	7130.880994
726.771129	7196.307609
727.102895	7369.118363
727.434612	7479.864951
727.766281	7510.631113
728.097901	7588.816889
728.429473	7580.619973
728.760996	7565.587252
729.092471	7540.767131
729.423897	7484.028944
729.755276	7492.298957
730.086606	7416.238028
730.417887	7512.995414
730.749120	7719.982671
731.080305	7910.195488
731.411442	8029.713684
731.742530	8018.585337
732.073570	8132.316288
732.404562	8213.332671
732.735506	8070.428563
733.066401	8204.858492
733.397249	8136.107236
733.728048	7892.548929
734.058798	7557.758340
734.389501	7336.166861
734.720156	7155.731362
735.050762	6920.760661
735.381320	6835.764286
735.711831	6779.784793
736.042293	6669.680952
736.372707	6686.276431
736.703073	6547.685029
737.033391	6593.960301
737.363661	6603.122598
737.693883	6636.613503
738.024056	6719.999229
738.354182	6757.369303
738.684260	6793.453882
739.014290	6909.839001
739.344272	7014.475711
739.674207	7045.224228
740.004093	7117.302646
740.333931	7132.839482
740.663722	7144.413972
740.993464	7217.609005
741.323159	7203.181222
741.652806	6951.952800
741.982405	6978.320555
742.311956	7021.699684
742.641460	6857.922678
742.970915	6661.040414
743.300323	6657.408263
743.629683	6606.837928
743.958996	6470.729295
744.288260	6385.344752
744.617477	6332.455486
744.946647	6331.822821
745.275768	6167.413150
745.604842	6122.362879
745.933869	6108.310663
746.262847	6064.976904
746.591778	6056.137241
746.920662	6010.134192
747.249498	6001.463407
747.578286	6052.174894
747.907027	6124.911182
748.235720	6185.059709
748.564365	6159.667417
748.892963	6192.518097
749.221514	6339.543348
749.550017	6166.596483
749.878473	6048.041148
750.206881	6104.434015
750.535242	6043.423451
750.863555	5977.598585
751.191821	5995.623230
751.520039	5989.856150
751.848210	5897.184619
752.176334	5924.769813
752.504411	5973.583306
752.832440	5892.778651
753.160421	5830.101985
753.488356	5872.656885
753.816243	5903.549076
754.144082	5759.251088
754.471875	5730.632458
754.799620	5775.982678
755.127318	5785.001302
755.454969	5738.710907
755.782572	5704.504157
756.110129	5746.078553
756.437638	5731.381069
756.765100	5671.270351
757.092515	5676.815620
757.419882	5724.104163
757.747203	5705.666143
758.074477	5769.371204
758.401703	5752.558956
758.728882	5701.176996
759.056014	5764.824084
759.383099	5889.151540
759.710138	5896.194032
760.037129	5887.639194
760.364073	5893.910390
760.690970	5975.256969
761.017820	5958.308609
761.344623	5915.337814
761.671379	6017.070819
761.998088	6136.213449
762.324751	6383.839967
762.651366	6999.160685
762.977935	8335.134510
763.304456	9970.817534
763.630931	10848.946205
763.957359	10441.593248
764.283740	9494.960337
764.610074	8647.275194
764.936362	7645.897874
765.262602	7054.162194
765.588796	6514.332755
765.914943	6181.505696
766.241044	6017.917733
766.567097	5812.715045
766.893104	5553.642587
767.219064	5378.853181
767.544978	5316.552081
767.870845	5233.647785
768.196665	5126.719871
768.522438	5055.740425
768.848165	5020.371689
769.173846	4956.994303
769.499479	4911.533178
769.825066	4860.113409
770.150607	4799.173420
770.476101	4773.670223
770.801548	4769.095376
771.126949	4693.105023
771.452303	4638.438751
771.777611	4595.735136
772.102872	4617.855719
772.428087	4573.967434
772.753256	4537.673647
773.078378	4496.152183
773.403453	4422.846245
773.728482	4410.621447
774.053465	4364.215105
774.378401	4352.801933
774.703291	4349.041232
775.028135	4274.613636
775.352932	4229.916246
775.677683	4217.431828
776.002388	4235.693408
776.327046	4245.684975
776.651658	4167.572296
776.976224	4111.121455
777.300743	4115.388792
777.625216	4139.334273
777.949643	4128.861276
778.274024	4086.245882
778.598359	4042.745765
778.922647	4066.108993
779.246889	4060.019279
779.571086	4053.375038
779.895236	4036.414076
780.219339	4025.245400
780.543397	4016.067979
780.867409	4067.490269
781.191374	4082.190273
781.515294	4017.318185
781.839167	4011.420035
782.162995	4033.336452
782.486776	4021.179709
782.810511	4029.661450
783.134201	4026.291439
783.457844	3981.372238
783.781441	3925.014658
784.104993	3931.353909
784.428498	3950.391827
784.751958	3947.740180
785.075372	3927.210081
785.398739	3884.052763
785.722061	3901.767377
786.045337	3943.871094
786.368568	3973.450064
786.691752	3886.409502
787.014891	3941.075774
787.337983	4070.308274
787.661030	4230.453129
787.984031	4396.221391
788.306987	4564.613573
788.629897	4643.739524
788.952760	4596.113223
789.275579	4532.899674
789.598351	4465.328048
789.921078	4322.449145
790.243759	4124.488075
790.566395	4104.726752
790.888984	4099.110906
791.211529	3989.657374
791.534027	3932.036986
791.856480	3921.261519
792.178888	3860.606356
792.501249	3806.965959
792.823566	3822.724606
793.145836	3847.519521
793.468062	3797.397849
793.790241	3752.556785
794.112375	3785.268832
794.434464	3846.024819
794.756507	3868.551215
795.078505	3849.359542
795.400457	3886.381776
795.722364	4025.187426
796.044226	4132.616935
796.366042	4202.089077
796.687812	4184.122404
797.009538	4183.456972
797.331218	4146.704440
797.652852	4119.835090
797.974442	4100.071246
798.295986	4097.374229
798.617484	4015.515973
798.938938	3927.938527
799.260346	3972.018377
799.581709	3966.238694
799.903026	3888.536869
800.224299	3854.990511
800.545526	3848.739480
800.866708	3810.472081
801.187845	3751.856065
801.508936	3785.583905
801.829983	3776.764406
802.150984	3700.108621
802.471940	3696.761294
802.792851	3703.980227
803.113717	3704.577603
803.434538	3704.723797
803.755314	3648.598111
804.076045	3621.811940
804.396731	3642.321874
804.717372	3668.566121
805.037967	3656.464831
805.358518	3644.459323
805.679024	3668.102335
805.999485	3685.010365
806.319901	3690.737116
806.640272	3701.074002
806.960598	3715.466496
807.280879	3694.810368
807.601115	3702.203220
807.921306	3719.522104
808.241453	3758.540635
808.561554	3734.799321
808.881611	3669.639887
809.201623	3710.213613
809.521590	3716.588152
809.841513	3689.827187
810.161390	3718.302145
810.481223	3694.659133
810.801011	3641.568222
811.120755	3636.814413
811.440453	3676.400074
811.760107	3673.448478
812.079716	3630.134885
812.399281	3597.251438
812.718801	3624.211529
813.038276	3596.759926
813.357707	3594.312445
813.677093	3610.950774
813.996434	3557.338102
814.315731	3566.525605
814.634983	3571.440730
814.954191	3584.666197
815.273354	3615.293728
815.592473	3609.864405
815.911547	3612.642081
816.230577	3659.497085
816.549562	3711.637739
816.868502	3748.690220
817.187399	3778.473357
817.506250	3773.505300
817.825058	3743.686875
818.143821	3841.724714
818.462539	3943.825724
818.781213	3988.016478
819.099843	4046.836662
819.418429	4299.945434
819.736970	4541.706570
820.055466	4789.985917
820.373919	5160.452752
820.692327	5569.499537
821.010691	6026.986769
821.329011	7452.408307
821.647286	10254.349670
821.965517	14875.386358
822.283704	18900.747704
822.601847	21005.363900
822.919945	19154.380757
823.237999	16534.301539
823.556010	14029.725238
823.873976	11915.873649
824.191897	9815.207197
824.509775	8468.263821
824.827609	7338.969742
825.145398	6801.791950
825.463144	6683.027407
825.780845	6802.830428
826.098502	7000.627661
826.416116	7901.512100
826.733685	9236.260925
827.051210	10349.723260
827.368692	10359.709786
827.686129	9081.631092
828.003522	7558.602733
828.320872	6546.074380
828.638177	5835.110371
828.955439	5268.449391
829.272656	4767.867855
829.589830	4490.329651
829.906960	4314.595027
830.224046	4126.862458
830.541088	4003.172707
830.858086	3951.831076
831.175041	3877.779047
831.491952	3860.082076
831.808819	3874.898027
832.125642	3949.305458
832.442421	4099.146194
832.759157	4380.346797
833.075849	4944.996357
833.392497	5820.105377
833.709101	6601.718637
834.025662	6929.242402
834.342179	6542.348968
834.658653	5876.531012
834.975083	5220.654211
835.291469	4642.370851
835.607811	4236.648707
835.924110	4092.204526
836.240366	3893.767066
836.556578	3693.267775
836.872746	3579.836772
837.188871	3540.087274
837.504952	3472.089670
837.820990	3392.320973
838.136984	3345.914631
838.452935	3367.952035
838.768842	3365.549925
839.084706	3388.242679
839.400526	3551.061866
839.716303	3902.097573
840.032037	4436.631280
840.347727	4688.167213
840.663373	4397.360691
840.978977	4007.896269
841.294537	3700.910164
841.610054	3477.072851
841.925527	3368.680482
842.240957	3299.674647
842.556344	3247.551637
842.871687	3182.790454
843.186987	3136.966366
843.502244	3095.717124
843.817458	3061.039027
844.132629	3031.192876
844.447756	3040.236706
844.762840	3023.729447
845.077881	2992.829695
845.392879	2973.340594
845.707833	2973.703557
846.022745	2970.134420
846.337613	2974.280769
846.652438	2960.193265
846.967221	2958.209571
847.281960	2942.095523
847.596656	2939.572425
847.911309	2942.037549
848.225919	2932.340890
848.540485	2928.270158
848.855009	2928.761671
849.169490	2918.782707
849.483928	2911.042015
849.798323	2908.082858
850.112675	2902.908113
850.426984	2913.771800
850.741251	2913.834814
851.055474	2904.536406
851.369654	2896.498286
851.683792	2901.058010
851.997887	2910.767272
852.311938	2912.430853
852.625947	2899.976682
852.939914	2903.321488
853.253837	2908.546644
853.567718	2894.282699
853.881555	2893.725651
854.195350	2907.079668
854.509103	2903.233268
854.822812	2894.640621
855.136479	2891.444529
855.450103	2894.796897
855.763685	2889.511247
856.077224	2885.201060
856.390720	2895.817730
856.704173	2906.124369
857.017584	2899.717063
857.330953	2895.268244
857.644278	2907.495563
857.957561	2917.043508
858.270802	2918.331523
858.584000	2920.917635
858.897155	2905.504307
859.210268	2906.333577
859.523339	2903.122362
859.836367	2902.555232
860.149352	2894.713718
860.462295	2892.369581
860.775195	2900.193452
861.088054	2900.876528
861.400869	2883.108981
861.713642	2879.156717
862.026373	2892.949314
862.339062	2899.185221
862.651708	2903.671848
862.964312	2906.610841
863.276873	2901.272259
863.589392	2908.108063
863.901869	2918.830598
864.214303	2945.369752
864.526696	2959.500106
864.839045	2955.396607
865.151353	2953.339816
865.463619	2953.186061
865.775842	2954.524487
866.088023	2974.840337
866.400162	2979.694968
866.712258	2949.291770
867.024313	2942.249278
867.336325	2949.513580
867.648296	2974.016109
867.960224	2967.815489
868.272110	2952.316462
868.583954	2955.210084
868.895755	2970.230202
869.207515	2956.803089
869.519233	2963.321301
869.830909	2971.200624
870.142542	2978.434680
870.454134	2978.540544
870.765684	2980.577170
871.077191	2983.987511
871.388657	2990.667040
871.700081	3004.036180
872.011463	3015.774507
872.322803	3015.015813
872.634101	3014.322654
872.945357	3030.797145
873.256571	3057.159859
873.567744	3054.339333
873.878874	3044.191491
874.189963	3070.052610
874.501010	3067.685788
874.812015	3057.421999
875.122979	3059.309911
875.433900	3057.069118
875.744780	3063.564645
876.055618	3067.496745
876.366415	3066.417938
876.677169	3075.736511
876.987882	3073.006726
877.298554	3068.867939
877.609183	3090.832246
877.919771	3116.070783
878.230317	3144.291162
878.540822	3192.469469
878.851285	3232.198803
879.161707	3278.413581
879.472087	3383.362842
879.782425	3618.998976
880.092722	4062.161769
880.402977	4601.242597
880.713191	5239.180452
881.023363	6423.798673
881.333494	7711.667287
881.643583	8249.084534
881.953631	7932.679034
882.263637	7295.315871
882.573602	6705.211004
882.883526	6118.085460
883.193408	5541.818561
883.503248	5084.036421
883.813048	4776.019401
884.122806	4463.074652
884.432522	4141.073471
884.742197	3908.197369
885.051831	3707.549364
885.361424	3582.327102
885.670975	3506.863550
885.980485	3419.437339
886.289954	3340.107222
886.599382	3295.218267
886.908768	3256.635796
887.218113	3207.658466
887.527417	3155.192657
887.836680	3104.708022
888.145901	3098.663679
888.455082	3085.838983
888.764221	3038.003474
889.073319	3007.000378
889.382376	3004.300840
889.691392	3012.482633
890.000366	3008.956346
890.309300	2997.313801
890.618193	3007.980883
890.927044	3028.087525
891.235855	3023.638707
891.544625	3010.907273
891.853353	3021.307173
892.162041	3040.642518
892.470687	3083.005855
892.779293	3134.433186
893.087858	3181.242820
893.396381	3256.698811
893.704864	3384.285373
894.013306	3627.692446
894.321707	3932.924229
894.630068	4138.169766
894.938387	4131.573417
895.246665	4084.904935
895.554903	3961.923466
895.863100	3757.686159
896.171256	3587.388421
896.479371	3449.074283
896.787446	3321.898574
897.095480	3216.664487
897.403473	3153.544200
897.711425	3118.563633
898.019336	3107.442848
898.327207	3077.884043
898.635038	3042.059083
898.942827	3027.177597
899.250576	3016.278622
899.558284	2983.639671
899.865952	2963.550673
900.173579	2943.101233
900.481165	2935.204265
900.788711	2925.462235
901.096216	2900.241343
901.403681	2886.458828
901.711105	2894.174314
902.018489	2891.626011
902.325832	2893.201371
902.633135	2902.545150
902.940397	2934.944646
903.247619	3021.387831
903.554800	3221.776217
903.861941	3574.871236
904.169041	4008.813759
904.476101	4305.019356
904.783121	4252.636726
905.090100	4003.928881
905.397039	3722.967733
905.703938	3470.531954
906.010796	3287.545631
906.317614	3172.834175
906.624391	3078.811615
906.931129	3006.317302
907.237826	2943.600307
907.544483	2893.433264
907.851099	2868.219933
908.157675	2843.051973
908.464211	2825.392811
908.770707	2810.644915
909.077163	2797.106897
909.383578	2781.524690
909.689954	2770.154368
909.996289	2768.153030
910.302584	2771.273504
910.608839	2771.754934
910.915054	2763.585744
911.221229	2755.232552
911.527363	2762.327976
911.833458	2765.314860
912.139513	2773.355500
912.445527	2774.399019
912.751502	2783.715072
913.057436	2792.010290
913.363331	2806.831282
913.669186	2827.545384
913.975000	2865.258256
914.280775	2926.989705
914.586510	3000.162053
914.892205	3079.431677
915.197859	3210.967983
915.503475	3410.239754
915.809050	3623.001652
916.114585	3773.515382
916.420081	3789.707568
916.725536	3729.745564
917.030952	3606.948098
917.336328	3473.453303
917.641665	3343.978828
917.946961	3244.224475
918.252218	3173.855009
918.557435	3090.388625
918.862612	3032.894265
919.167750	2982.560864
919.472848	2942.672735
919.777906	2914.444794
920.082925	2886.995711
920.387904	2855.488499
920.692843	2838.537620
920.997743	2826.995898
921.302603	2816.999290
921.607423	2804.474543
921.912204	2790.208078
922.216946	2779.793054
922.521647	2771.820469
922.826310	2764.120107
923.130932	2754.683067
923.435516	2748.026223
923.740059	2740.721591
924.044564	2732.040724
924.349028	2723.536297
924.653454	2718.495144
924.957840	2711.669421
925.262186	2709.393340
925.566493	2706.242619
925.870761	2699.984027
926.174989	2697.002184
926.479178	2692.487831
926.783328	2686.103210
927.087438	2686.236800
927.391509	2683.539783
927.695541	2679.620286
927.999533	2679.035512
928.303486	2674.574091
928.607400	2676.114163
928.911275	2673.548216
929.215110	2672.328257
929.518906	2671.872032
929.822663	2672.250119
930.126381	2669.507731
930.430060	2672.418997
930.733699	2673.633916
931.037299	2673.243226
931.340861	2674.322033
931.644383	2674.861437
931.947866	2672.550067
932.251309	2672.812207
932.554714	2672.048473
932.858080	2670.505880
933.161407	2671.486384
933.464694	2667.524037
933.767943	2663.042451
934.071153	2666.402380
934.374323	2666.175528
934.677455	2665.497493
934.980548	2662.286278
935.283602	2664.237205
935.586617	2664.524551
935.889593	2663.939777
936.192530	2663.092863
936.495428	2666.238543
936.798287	2665.815086
937.101108	2669.197700
937.403890	2674.929492
937.706632	2677.195491
938.009336	2685.929290
938.312002	2694.645445
938.614628	2699.505117
938.917216	2708.735470
939.219765	2709.524410
939.522275	2710.278063
939.824747	2702.925540
940.127179	2702.020653
940.429573	2700.493183
940.731929	2697.765919
941.034246	2695.865404
941.336524	2691.643438
941.638763	2689.211081
941.940964	2687.340813
942.243126	2685.664629
942.545250	2682.927283
942.847335	2681.097344
943.149381	2676.313289
943.451389	2673.555778
943.753359	2671.458658
944.055290	2669.391785
944.357182	2669.994202
944.659036	2667.340035
944.960851	2663.387770
945.262628	2663.854077
945.564367	2663.145795
945.866067	2666.072185
946.167729	2668.015550
946.469352	2665.431958
946.770937	2667.745848
947.072484	2663.680157
947.373992	2663.208809
947.675462	2661.512461
947.976893	2660.380722
948.278286	2656.834270
948.579641	2656.390649
948.880958	2655.412665
949.182236	2659.569096
949.483476	2656.060453
949.784678	2656.229332
950.085841	2656.652789
950.386967	2656.128509
950.688054	2657.676143
950.989103	2658.606236
951.290114	2660.302584
951.591087	2661.169663
951.892021	2662.298881
952.192917	2666.488080
952.493776	2670.795746
952.794596	2668.955725
953.095378	2668.507062
953.396122	2667.340035
953.696828	2668.383554
953.997496	2662.702173
954.298126	2659.654796
954.598718	2662.341731
954.899272	2658.293684
955.199788	2653.849907
955.500266	2653.529794
955.800706	2651.392345
956.101108	2647.707261
956.401472	2646.615852
956.701798	2642.711478
957.002087	2641.204173
957.302337	2642.860192
957.602550	2642.645943
957.902724	2639.144862
958.202861	2636.856178
958.502960	2636.228554
958.803022	2637.950108
959.103045	2637.095632
959.403031	2633.375261
959.702979	2630.169087
960.002889	2635.679068
960.302762	2633.576907
960.602596	2633.934829
960.902393	2632.351907
961.202153	2632.004067
961.501875	2632.150261
961.801559	2631.273100
962.101205	2633.271917
962.400814	2631.436937
962.700385	2630.920219
962.999918	2627.527523
963.299414	2624.686832
963.598873	2627.277985
963.898293	2626.163890
964.197677	2632.122534
964.497022	2628.177831
964.796331	2629.859056
965.095601	2628.266052
965.394835	2629.359982
965.694030	2629.760754
965.993189	2630.101032
966.292309	2629.241515
966.591393	2627.580455
966.890439	2627.772018
967.189447	2629.722945
967.488419	2627.525002
967.787353	2629.233953
968.086249	2627.671195
968.385108	2627.585496
968.683930	2629.609519
968.982714	2627.956021
969.281462	2630.222019
969.580172	2628.445012
969.878844	2629.410393
970.177480	2628.218161
970.476078	2629.488531
970.774639	2628.205558
971.073162	2628.813017
971.371649	2629.203706
971.670098	2628.568521
971.968510	2627.078860
972.266885	2630.496762
972.565223	2631.073974
972.863524	2629.433079
973.161788	2628.112296
973.460014	2628.881072
973.758204	2628.102214
974.056356	2627.706483
974.354471	2628.286216
974.652550	2627.525002
974.950591	2630.897534
975.248595	2628.807976
975.546563	2630.073305
975.844493	2627.025928
976.142386	2627.721607
976.440243	2629.347379
976.738062	2628.268572
977.035845	2627.918212
977.333590	2627.812348
977.631299	2626.602471
977.928971	2624.039044
978.226606	2623.618108
978.524204	2623.088787
978.821765	2621.901595
979.119290	2627.827471
979.416777	2624.404528
979.714228	2625.432923
980.011642	2626.748664
980.309020	2624.424692
980.606360	2624.558283
980.903664	2627.832512
981.200931	2627.351082
981.498162	2626.173973
981.795356	2626.559621
982.092513	2628.187914
982.389633	2634.320477
982.686717	2634.867442
982.983764	2639.533030
983.280775	2643.790285
983.577749	2643.918834
983.874686	2644.329688
984.171587	2642.126704
984.468451	2637.927423
984.765279	2636.513379
985.062070	2632.011629
985.358824	2631.341155
985.655543	2630.322842
985.952224	2629.612040
986.248869	2627.023407
986.545478	2626.899899
986.842050	2624.974178
987.138586	2625.299332
987.435086	2625.821092
987.731549	2624.240690
988.027975	2621.679784
988.324366	2621.402521
988.620719	2624.248252
988.917037	2621.929321
989.213318	2620.432098
989.509563	2621.558796
989.805772	2621.911677
990.101944	2623.671040
990.398080	2622.829167
990.694180	2624.051647
990.990244	2622.128447
991.286271	2624.548201
991.582262	2622.995525
991.878217	2622.325052
992.174136	2622.100720
992.470019	2621.621811
992.765865	2621.170627
993.061676	2619.751543
993.357450	2618.319855
993.653188	2619.070987
993.948890	2622.206585
994.244556	2624.134826
994.540186	2621.657099
994.835780	2625.430402
995.131337	2625.616925
995.426859	2624.654065
995.722345	2624.845629
996.017795	2623.923097
996.313208	2631.071454
996.608586	2626.373098
996.903928	2628.160187
997.199234	2627.078860
997.494504	2628.951648
997.789738	2626.037862
998.084936	2625.430402
998.380099	2625.422841
998.675225	2624.684312
998.970316	2625.349744
999.265371	2625.690022
999.560390	2623.517285
999.855373	2622.826647
1000.150320	2625.778242
1000.445232	2623.658437
1000.740108	2622.471245
1001.034948	2622.282202
1001.329752	2622.385546
1001.624521	2621.117695
1001.919254	2619.970833
1002.213951	2621.203395
1002.508613	2620.795062
1002.803239	2622.065432
1003.097829	2619.872530
1003.392384	2619.844804
1003.686903	2620.578292
1003.981386	2620.938734
1004.275834	2620.134670
1004.570246	2622.781276
1004.864623	2619.615432
1005.158964	2619.053343
1005.453270	2622.403190
1005.747540	2620.976543
1006.041775	2621.347068
1006.335974	2620.429578
1006.630138	2621.074846
1006.924266	2617.694752
1007.218359	2620.293467
1007.512416	2618.418157
1007.806438	2615.847169
1008.100425	2618.685339
1008.394376	2615.040584
1008.688292	2620.111985
1008.982172	2619.222222
1009.276017	2619.900257
1009.569827	2617.881275
1009.863602	2621.342027
1010.157341	2619.459156
1010.451045	2619.386059
1010.744714	2620.888323
1011.038347	2620.180041
1011.331945	2620.353961
1011.625508	2621.946965
1011.919036	2620.689197
1012.212528	2617.180554
1012.505986	2621.405041
1012.799408	2617.823301
1013.092795	2620.706841
1013.386147	2621.336986
1013.679464	2619.484362
1013.972745	2621.873868
1014.265992	2619.174331
1014.559204	2618.405555
1014.852380	2619.489403
1015.145521	2618.395472
1015.438628	2619.239866
1015.731699	2619.539814
1016.024736	2620.772376
1016.317737	2619.224742
1016.610703	2620.530401
1016.903635	2621.125257
1017.196531	2619.060905
1017.489393	2619.948148
1017.782219	2620.038888
1018.075011	2618.476131
1018.367768	2619.131481
1018.660490	2619.562499
1018.953177	2619.562499
1019.245829	2619.562499
