Dividing Wavelength (nm)	Counts (n)	Blue Motor Position (mm): 13.800000	Red Motor Position (mm): 0.000000	
326.493990	2168.946360
326.888308	2168.946360
327.282561	2168.946360
327.676750	2128.380195
328.070874	2127.447582
328.464933	2127.170318
328.858929	2130.520165
329.252859	2136.466206
329.646726	2143.065076
330.040528	2155.889772
330.434265	2168.739673
330.827938	2188.143074
331.221547	2204.736032
331.615091	2221.117261
332.008571	2240.994531
332.401986	2258.300812
332.795338	2278.251178
333.188625	2296.260700
333.581847	2313.327527
333.975006	2331.843685
334.368100	2352.545183
334.761129	2368.651670
335.154095	2385.617673
335.546996	2407.183729
335.939833	2433.400250
336.332606	2448.221242
336.725315	2458.888323
337.117960	2475.665283
337.510540	2485.982005
337.903056	2495.235043
338.295508	2506.370952
338.687896	2513.642816
339.080220	2521.771677
339.472480	2529.898017
339.864676	2533.822555
340.256807	2539.047711
340.648875	2540.313040
341.040879	2545.523073
341.432818	2547.020296
341.824694	2551.615307
342.216506	2552.253013
342.608253	2551.862324
342.999937	2553.893909
343.391557	2551.285112
343.783113	2555.113868
344.174605	2553.523384
344.566033	2551.595143
344.957397	2548.683876
345.348697	2549.379556
345.739934	2546.397713
346.131106	2545.124822
346.522215	2546.271684
346.913260	2541.895963
347.304241	2539.093081
347.695159	2538.891435
348.086012	2534.989582
348.476802	2535.665097
348.867528	2530.770136
349.258191	2525.295443
349.648789	2525.658406
350.039324	2524.859383
350.429796	2527.004394
350.820203	2524.998015
351.210548	2524.541791
351.600828	2520.834022
351.991045	2522.038858
352.381198	2518.888137
352.771288	2518.038702
353.161314	2519.394773
353.551276	2521.552386
353.941175	2517.506860
354.331010	2518.303363
354.720782	2519.533404
355.110490	2516.919566
355.500135	2520.329907
355.889717	2517.121212
356.279235	2518.908301
356.668689	2517.511902
357.058080	2520.788652
357.447408	2518.928466
357.836672	2516.629700
358.225873	2519.180523
358.615010	2519.263703
359.004084	2520.193795
359.393095	2519.472910
359.782043	2521.721265
360.170927	2519.442663
360.559748	2524.216636
360.948505	2520.801254
361.337199	2524.047758
361.725830	2523.755371
362.114398	2524.582120
362.502903	2522.777387
362.891344	2523.820906
363.279722	2523.957017
363.668037	2523.715041
364.056289	2528.143695
364.444478	2527.102697
364.832603	2526.104548
365.220665	2529.575383
365.608665	2526.492717
365.996601	2529.363654
366.384474	2530.160157
366.772284	2528.204189
367.160031	2527.818541
367.547715	2531.390198
367.935336	2531.259128
368.322893	2530.218130
368.710388	2528.047913
369.097820	2530.472708
369.485189	2525.323169
369.872495	2532.416073
370.259738	2530.812986
370.646918	2530.628984
371.034035	2531.657379
371.421090	2533.502442
371.808081	2532.353058
372.195010	2533.084026
372.581875	2533.872966
372.968678	2535.584438
373.355418	2532.499252
373.742096	2533.694005
374.128710	2533.482277
374.515262	2535.677699
374.901751	2534.762730
375.288177	2536.252391
375.674540	2534.377082
376.060841	2538.064686
376.447079	2536.658204
376.833254	2533.699047
377.219367	2537.157278
377.605417	2534.989582
377.991404	2536.073430
378.377329	2537.154757
378.763191	2536.922864
379.148991	2538.092412
379.534727	2538.102494
379.920402	2537.406815
380.306013	2537.056455
380.691563	2535.145858
381.077049	2536.111239
381.462474	2539.113246
381.847835	2538.110056
382.233134	2542.367311
382.618371	2537.636188
383.003545	2540.406302
383.388657	2540.650798
383.773706	2539.629964
384.158693	2539.965201
384.543618	2539.138452
384.928480	2539.887063
385.313280	2543.294883
385.698017	2542.359749
386.082692	2542.647095
386.467305	2540.307999
386.851856	2543.869574
387.236344	2541.797660
387.620770	2540.174409
388.005133	2540.383617
388.389435	2536.572504
388.773674	2537.709284
389.157851	2540.118956
389.541965	2545.424770
389.926018	2543.972918
390.310008	2542.460572
390.693936	2544.819832
391.077802	2543.977959
391.461606	2544.237579
391.845348	2545.951571
392.229027	2548.724206
392.612645	2544.711447
392.996200	2546.322096
393.379694	2542.747918
393.763125	2545.694472
394.146494	2544.567774
394.529801	2546.203629
394.913047	2548.290666
395.296230	2546.743032
395.679351	2542.962167
396.062410	2546.556509
396.445408	2546.117929
396.828343	2546.990049
397.211217	2546.836293
397.594028	2547.519370
397.976778	2547.789072
398.359466	2546.133052
398.742092	2547.796633
399.124656	2548.283105
399.507158	2548.877961
399.889598	2547.428629
400.271977	2548.441901
400.654294	2549.455173
401.036549	2548.590615
401.418742	2550.312169
401.800874	2550.468445
402.182944	2550.102961
402.564952	2547.723537
402.946898	2551.678322
403.328783	2548.751932
403.710606	2547.902498
404.092367	2550.990204
404.474067	2551.353167
404.855705	2549.392158
405.237282	2549.729916
405.618797	2550.140770
406.000250	2553.430123
406.381642	2553.079762
406.762972	2547.620193
407.144240	2548.701520
407.525447	2550.768393
407.906593	2549.369473
408.287677	2549.896274
408.668700	2553.362067
409.049661	2553.367108
409.430560	2553.372149
409.811399	2551.222097
410.192176	2554.080432
410.572891	2553.868703
410.953545	2552.293342
411.334138	2553.435164
411.714669	2552.875596
412.095139	2555.675957
412.475547	2553.392314
412.855894	2553.183106
413.236180	2555.242417
413.616405	2554.004814
413.996568	2553.392314
414.376670	2553.636810
414.756711	2553.306614
415.136691	2552.285781
415.516609	2554.912222
415.896466	2554.032541
416.276262	2557.180741
416.655997	2557.473128
417.035670	2556.527912
417.415283	2556.449774
417.794834	2554.924825
418.174324	2555.121430
418.553753	2554.440874
418.933121	2557.021945
419.312428	2556.250648
419.691674	2555.950700
420.070859	2556.701832
420.449983	2554.403065
420.829045	2555.378529
421.208047	2557.331976
421.586988	2556.001111
421.965867	2558.867007
422.344686	2556.417006
422.723444	2556.658982
423.102141	2557.067315
423.480777	2555.922973
423.859352	2559.358520
424.237866	2560.180228
424.616319	2559.832388
424.994712	2556.611091
425.373044	2558.758622
425.751314	2557.936914
426.129524	2554.012376
426.507673	2553.505740
426.885762	2553.967006
427.263789	2561.425393
427.641756	2555.597819
428.019662	2560.449929
428.397508	2558.856925
428.775292	2562.310115
429.153016	2559.275341
429.530679	2561.914385
429.908282	2557.936914
430.285824	2560.714590
430.663305	2561.125444
431.040726	2558.045299
431.418086	2560.608726
431.795385	2560.749878
432.172624	2563.025959
432.549802	2560.379353
432.926920	2561.856411
433.303977	2563.703994
433.680974	2560.331462
434.057910	2561.425393
434.434786	2563.797256
434.811601	2560.165104
435.188355	2562.627708
435.565050	2561.206102
435.941683	2561.949673
436.318257	2561.813562
436.694770	2558.443550
437.071222	2559.184600
437.447614	2564.480332
437.823946	2560.641493
438.200218	2562.476473
438.576429	2561.347255
438.952580	2561.881617
439.328670	2561.690053
439.704700	2563.487225
440.080670	2561.231308
440.456580	2563.900599
440.832429	2560.691905
441.208218	2564.775239
441.583947	2565.360013
441.959616	2563.928326
442.335224	2561.574107
442.710773	2563.444375
443.086261	2562.736093
443.461689	2562.320197
443.837057	2564.621484
444.212365	2563.477142
444.587612	2562.128634
444.962800	2561.037224
445.337927	2560.792728
445.712995	2560.487738
446.088002	2561.793397
446.462949	2564.107287
446.837837	2566.317832
447.212664	2566.436300
447.587431	2565.428069
447.962139	2566.312791
448.336786	2566.653069
448.711374	2566.141392
449.085901	2565.027297
449.460369	2564.697102
449.834776	2565.571742
450.209124	2565.493604
450.583412	2564.560990
450.957640	2566.244736
451.331808	2566.917730
451.705917	2564.883624
452.079965	2568.087277
452.453954	2565.927143
452.827883	2563.744323
453.201752	2567.867987
453.575562	2564.603840
453.949311	2564.891186
454.323001	2569.289593
454.696632	2568.011660
455.070202	2567.401681
455.443713	2565.901937
455.817164	2568.523337
456.190556	2565.750703
456.563888	2568.271280
456.937160	2569.589541
457.310373	2566.658110
457.683526	2568.931671
458.056619	2565.730538
458.429653	2567.028635
458.802628	2566.622822
459.175542	2564.059396
459.548398	2567.663821
459.921194	2569.163564
460.293930	2569.720611
460.666607	2571.974007
461.039224	2568.543502
461.411782	2569.448389
461.784280	2569.680282
462.156719	2569.554253
462.529099	2568.488049
462.901419	2569.491239
463.273680	2567.278172
463.645882	2565.755744
464.018024	2568.041907
464.390106	2567.215158
464.762130	2570.428893
465.134094	2569.967628
465.505999	2570.645663
465.877845	2571.643812
466.249631	2576.153124
466.621358	2576.178329
466.993026	2574.275294
467.364634	2577.045408
467.736184	2575.525500
468.107674	2573.423339
468.479105	2573.539285
468.850477	2576.221179
469.221790	2573.322516
469.593043	2573.524162
469.964238	2575.676735
470.335373	2570.381002
470.706449	2573.440983
471.077467	2572.841086
471.448425	2576.148082
471.819324	2577.567167
472.190164	2577.438618
472.560945	2576.097671
472.931667	2575.565829
473.302330	2574.834862
473.672934	2575.911148
474.043479	2575.747311
474.413965	2574.113977
474.784393	2573.622464
475.154761	2576.548854
475.525070	2574.643298
475.895321	2574.318144
476.265513	2575.918710
476.635645	2577.247054
477.005719	2577.320151
477.375734	2577.491550
477.745691	2576.256467
478.115588	2577.678073
478.485427	2577.428536
478.855207	2576.954667
479.224928	2578.230079
479.594591	2581.549679
479.964194	2582.383990
480.333739	2582.648650
480.703226	2578.272929
481.072653	2582.915832
481.442022	2581.799216
481.811333	2581.816860
482.180584	2578.923238
482.549777	2579.427353
482.918912	2575.772517
483.287988	2584.155955
483.657005	2580.551530
484.025964	2582.830132
484.394864	2581.287539
484.763706	2584.808785
485.132489	2585.161666
485.501213	2581.095975
485.869879	2582.525142
486.238487	2583.883733
486.607036	2581.910121
486.975527	2582.257961
487.343959	2581.476582
487.712333	2584.108064
488.080648	2581.579926
488.448905	2580.937179
488.817104	2581.277457
489.185244	2584.400451
489.553326	2584.980184
489.921350	2584.186202
490.289315	2585.365832
490.657222	2586.714341
491.025070	2586.232911
491.392861	2588.244331
491.760593	2588.183837
492.128267	2587.906574
492.495883	2586.500092
492.863440	2586.336254
493.230939	2585.222159
493.598380	2586.913467
493.965763	2587.664598
494.333088	2584.723085
494.700354	2586.114444
495.067563	2581.771490
495.434713	2584.032447
495.801805	2588.204002
496.168839	2581.335430
496.535815	2587.810792
496.902733	2583.432550
497.269593	2585.227201
497.636395	2583.586305
498.003139	2585.849783
498.369825	2584.334916
498.736453	2586.056470
499.103023	2586.434557
499.469535	2588.546800
499.835989	2586.709300
500.202385	2584.685277
500.568723	2580.612024
500.935003	2585.595205
501.301226	2580.811150
501.667390	2586.187540
502.033497	2587.389856
502.399546	2589.630648
502.765537	2588.851790
503.131470	2589.323138
503.497345	2589.378591
503.863163	2585.832139
504.228923	2587.591502
504.594625	2590.671647
504.960269	2588.161152
505.325856	2592.030238
505.691385	2587.735175
506.056856	2591.745413
506.422270	2591.132912
506.787625	2593.376226
507.152924	2592.080649
507.518164	2591.639548
507.883347	2592.541915
508.248472	2592.060485
508.613540	2592.186513
508.978550	2595.261617
509.343503	2592.521750
509.708398	2596.511823
510.073236	2594.510485
510.438016	2597.497369
510.802738	2597.300764
511.167403	2596.811772
511.532010	2599.622215
511.896561	2600.580035
512.261053	2600.093563
512.625488	2602.301589
512.989866	2598.387133
513.354186	2603.939964
513.718449	2602.523399
514.082655	2603.685385
514.446803	2605.480036
514.810894	2606.110180
515.174927	2604.993565
515.538904	2606.515993
515.902822	2607.257043
516.266684	2608.071189
516.630488	2608.693772
516.994235	2610.553957
517.357925	2612.948506
517.721558	2612.240223
518.085133	2611.206787
518.448651	2608.847527
518.812112	2609.389451
519.175516	2609.681838
519.538863	2607.151179
519.902152	2616.184926
520.265385	2616.212653
520.628560	2619.940586
520.991678	2617.382200
521.354739	2621.596605
521.717743	2619.111316
522.080690	2620.911008
522.443580	2622.118364
522.806413	2623.444188
523.169189	2625.863942
523.531908	2625.803448
523.894569	2622.163735
524.257174	2626.594909
524.619722	2627.449385
524.982213	2627.444343
525.344647	2628.843264
525.707025	2631.116824
526.069345	2631.968779
526.431608	2630.743779
526.793815	2632.971969
527.155964	2632.498100
527.518057	2632.699746
527.880093	2636.195787
528.242072	2637.589666
528.603995	2637.733338
528.965860	2639.409522
529.327669	2636.291568
529.689421	2639.263329
530.051117	2637.572022
530.412755	2642.358597
530.774337	2643.225676
531.135862	2642.101498
531.497331	2646.731798
531.858743	2646.262971
532.220098	2650.316058
532.581396	2647.288846
532.942638	2650.933600
533.303824	2652.140956
533.664953	2651.629279
534.026025	2651.644402
534.387040	2653.723878
534.747999	2653.804537
535.108902	2657.983653
535.469748	2656.844353
535.830537	2658.414672
536.191270	2660.816782
536.551947	2658.994405
536.912567	2660.305105
537.273131	2665.825168
537.633638	2661.767039
537.994089	2667.549243
538.354483	2665.285765
538.714821	2673.102074
539.075103	2672.524862
539.435328	2673.891014
539.795497	2673.659121
540.155609	2675.388237
540.515665	2675.171467
540.875665	2678.246571
541.235609	2681.399813
541.595496	2680.346212
541.955328	2683.900225
542.315102	2689.964733
542.674821	2687.633200
543.034483	2688.117151
543.394090	2690.075639
543.753640	2694.463963
544.113134	2700.646938
544.472571	2700.790611
544.831953	2706.257743
545.191278	2700.170549
545.550548	2704.599203
545.909761	2710.426777
546.268918	2713.910214
546.628019	2716.488764
546.987064	2718.558158
547.346053	2717.922973
547.704986	2722.402038
548.063863	2723.569065
548.422684	2725.797255
548.781449	2728.211968
549.140158	2734.994840
549.498811	2738.543813
549.857408	2735.977865
550.215949	2743.128742
550.574434	2745.737539
550.932864	2750.234248
551.291237	2753.029568
551.649555	2758.821854
552.007817	2761.239087
552.366022	2763.663882
552.724173	2768.846188
553.082267	2774.104112
553.440305	2783.667181
553.798288	2782.051491
554.156215	2794.167904
554.514086	2796.774181
554.871902	2793.126906
555.229661	2800.275262
555.587365	2807.242137
555.945014	2815.131542
556.302606	2823.948520
556.660143	2829.178717
557.017625	2844.282014
557.375050	2844.957529
557.732421	2854.878520
558.089735	2861.673995
558.446994	2864.741537
558.804197	2878.377858
559.161345	2886.549569
559.518437	2885.634599
559.875474	2899.817886
560.232455	2906.520100
560.589381	2917.499733
560.946251	2923.299580
561.303065	2938.710388
561.659825	2957.284519
562.016528	2958.975826
562.373177	2965.609985
562.729770	2974.941160
563.086307	2994.957062
563.442789	3007.605317
563.799216	3018.637882
564.155587	3027.424613
564.511904	3049.890515
564.868164	3052.033006
565.224370	3071.885069
565.580520	3075.224834
565.936615	3101.832044
566.292654	3101.612754
566.648638	3131.844553
567.004567	3138.014926
567.360441	3157.327586
567.716260	3162.310767
568.072023	3198.967517
568.427732	3212.747511
568.783385	3220.551217
569.138982	3240.844382
569.494525	3270.579628
569.850013	3291.404634
570.205445	3303.332004
570.560823	3314.188129
570.916145	3340.513034
571.271412	3360.113041
571.626625	3386.919376
571.981782	3410.534661
572.336884	3421.289963
572.691931	3453.717185
573.046923	3452.391362
573.401860	3486.434274
573.756743	3526.869369
574.111570	3541.536606
574.466342	3562.832960
574.821059	3595.650872
575.175722	3607.026235
575.530330	3640.875063
575.884882	3663.386335
576.239380	3700.315308
576.593823	3717.755180
576.948211	3740.687388
577.302544	3761.270420
577.656823	3780.210035
578.011047	3824.594874
578.365216	3849.417515
578.719330	3881.065879
579.073389	3904.537491
579.427394	3965.595947
579.781344	3959.856593
580.135239	4006.212523
580.489080	4032.371071
580.842866	4044.371537
581.196597	4124.840956
581.550273	4131.326400
581.903895	4190.128939
582.257463	4242.080550
582.610975	4255.560595
582.964434	4314.900017
583.317837	4338.028831
583.671186	4390.766862
584.024481	4441.869039
584.377721	4441.163277
584.730906	4491.920135
585.084037	4545.575656
585.437113	4578.814503
585.790135	4631.522287
586.143103	4629.566320
586.496016	4659.596473
586.848874	4755.421246
587.201679	4779.119710
587.554428	4790.273263
587.907124	4873.318711
588.259765	4898.060694
588.612352	4975.235718
588.964884	4965.496209
589.317362	5028.760169
589.669786	5088.870888
590.022155	5135.990553
590.374470	5223.784768
590.726731	5247.147995
591.078937	5258.896404
591.431090	5321.671372
591.783188	5329.676725
592.135232	5358.456672
592.487222	5455.382937
592.839157	5493.718392
593.191038	5543.325866
593.542866	5549.707967
593.894639	5574.951545
594.246358	5665.619217
594.598022	5691.868505
594.949633	5705.242686
595.301190	5739.676288
595.652692	5825.658208
596.004141	5918.954842
596.355535	5851.340366
596.706876	5909.109468
597.058162	5947.192865
597.409395	6022.749679
597.760573	6107.985508
598.111698	6123.164422
598.462768	6164.816956
598.813785	6205.783893
599.164748	6217.776798
599.515657	6283.652076
599.866511	6296.872502
600.217312	6419.884217
600.568060	6366.102667
600.918753	6504.626013
601.269392	6559.060393
601.619978	6544.698145
601.970510	6673.892836
602.320988	6699.617844
602.671412	6812.622869
603.021783	6842.335430
603.372100	6837.258988
603.722363	6941.429391
604.072572	6986.209961
604.422728	7058.043883
604.772830	7090.123265
605.122878	7094.733400
605.472872	7178.308169
605.822813	7242.787048
606.172701	7290.509131
606.522534	7402.939464
606.872314	7470.420350
607.222041	7462.001623
607.571714	7595.940039
607.921333	7622.161601
608.270899	7709.176957
608.620411	7847.859100
608.969870	7792.272817
609.319276	7879.280612
609.668627	7973.739232
610.017926	8071.068789
610.367171	8163.132861
610.716362	8267.721680
611.065500	8245.535562
611.414585	8355.349537
611.763616	8420.309845
612.112594	8474.625758
612.461518	8499.834047
612.810389	8641.553485
613.159207	8634.329511
613.507971	8671.109770
613.856682	8875.871357
614.205340	8906.743383
614.553945	9051.457266
614.902496	8970.634967
615.250994	9176.240947
615.599439	9202.538126
615.947830	9251.891022
616.296169	9312.606679
616.644454	9394.197754
616.992686	9417.934027
617.340864	9590.006252
617.688990	9569.879445
618.037063	9716.682886
618.385082	9708.604437
618.733048	9882.927537
619.080961	9885.170851
619.428821	9979.077464
619.776628	10012.185242
620.124382	10017.574236
620.472083	10117.426891
620.819731	10200.679026
621.167326	10103.150343
621.514868	10170.422020
621.862357	10137.528492
622.209793	10199.572492
622.557176	10191.599908
622.904506	10143.787084
623.251783	10160.221246
623.599007	10143.280448
623.946179	10168.287092
624.293297	10205.120282
624.640363	10133.886258
624.987376	10185.616058
625.334336	10133.145208
625.681243	10116.693403
626.028097	10151.094237
626.374899	10226.734229
626.721647	10161.718468
627.068343	10130.763263
627.414987	10151.787395
627.761577	10219.913548
628.108115	10300.821547
628.454600	10166.772225
628.801032	10256.366132
629.147412	10276.485377
629.493739	10344.921561
629.840014	10305.620725
630.186236	10390.831349
630.532405	10316.602879
630.878521	10473.365120
631.224585	10455.519435
631.570597	10428.277040
631.916556	10453.490371
632.262462	10489.549744
632.608316	10519.529486
632.954117	10510.924236
633.299866	10569.366333
633.645562	10574.248690
633.991206	10456.739394
634.336797	10399.973481
634.682336	10456.603283
635.027823	10421.042984
635.373257	10421.658005
635.718639	10369.905519
636.063968	10377.192507
636.409245	10288.742942
636.754470	10343.512558
637.099642	10283.984093
637.444762	10164.465897
637.789829	10252.807077
638.134845	10189.096975
638.479808	10241.587989
638.824719	10252.305482
639.169577	10184.368372
639.514383	10257.278581
639.859137	10166.563017
640.203839	10260.404096
640.548489	10181.623464
640.893086	10224.614424
641.237632	10143.313216
641.582125	10309.106683
641.926566	10228.390248
642.270955	10261.883675
642.615292	10270.584706
642.959576	10312.529627
643.303809	10389.268591
643.647990	10362.381597
643.992118	10451.299989
644.336195	10292.254106
644.680219	10468.492844
645.024192	10473.796138
645.368112	10656.858078
645.711981	10743.492828
646.055797	10890.805426
646.399562	10897.565613
646.743274	11103.000194
647.086935	11355.801456
647.430544	11352.252484
647.774101	11389.650284
648.117606	11556.600696
648.461059	11539.017152
648.804460	11603.697676
649.147810	11430.707961
649.491108	11364.147087
649.834354	11436.056626
650.177548	11244.810372
650.520690	11133.128650
650.863781	11095.967784
651.206820	11161.192753
651.549807	11059.179964
651.892742	10954.389499
652.235626	10928.374625
652.578458	10957.666249
652.921238	10740.039638
653.263967	10907.781511
653.606644	10804.347117
653.949269	10798.965685
654.291843	10699.987670
654.634365	10825.792185
654.976836	10740.838660
655.319255	10778.395257
655.661622	10764.511919
656.003938	10729.566640
656.346203	10687.593993
656.688416	10763.720458
657.030577	10755.057235
657.372687	10728.228214
657.714746	10724.011289
658.056753	10893.416743
658.398708	10787.507142
658.740612	10803.011211
659.082465	10907.463918
659.424266	10878.232788
659.766016	10929.042578
660.107715	10878.154650
660.449362	10944.939856
660.790958	10942.041193
661.132503	10916.994220
661.473996	10979.386060
661.815438	11024.758966
662.156829	11045.263859
662.498168	11061.952599
662.839456	11063.409492
663.180693	11106.523960
663.521879	11205.617922
663.863013	11211.178314
664.204097	11213.582945
664.545129	11328.942189
664.886110	11303.756584
665.227040	11397.741336
665.567918	11424.348546
665.908746	11478.782925
666.249522	11465.126439
666.590248	11519.044100
666.930922	11634.045422
667.271545	11636.432409
667.612118	11721.917775
667.952639	11663.866368
668.293109	11683.093329
668.633528	11669.825012
668.973896	11659.331850
669.314213	11771.237904
669.654480	11548.892772
669.994695	11610.112544
670.334859	11658.222796
670.674973	11629.815894
671.015035	11679.665344
671.355047	11640.213274
671.695008	11625.278856
672.034918	11644.825930
672.374777	11701.226359
672.714585	11629.810853
673.054342	11666.341574
673.394049	11637.712862
673.733705	11727.170657
674.073310	11680.234994
674.412864	11711.109541
674.752368	11607.924684
675.091820	11607.597009
675.431223	11633.453087
675.770574	11539.322142
676.109875	11473.174641
676.449125	11450.963318
676.788324	11400.503888
677.127473	11273.391194
677.466571	11268.453384
677.805619	11199.233300
678.144616	11124.215890
678.483562	11106.967582
678.822458	10989.722946
679.161303	10979.895217
679.500098	10993.637402
679.838842	10958.056938
680.177535	10978.040072
680.516179	11038.982581
680.854771	11008.413024
681.193314	11214.752492
681.531805	11348.005312
681.870247	11733.399003
682.208638	12097.864344
682.546978	12401.470355
682.885268	12492.485867
683.223508	12214.269627
683.561697	12071.698235
683.899836	11985.907878
684.237925	11816.792290
684.575963	11738.409910
684.913951	11676.960765
685.251889	11623.355656
685.589776	11728.987993
685.927614	11667.173365
686.265401	11629.422684
686.603137	11679.483862
686.940824	11828.245792
687.278460	11934.359560
687.616046	11994.477840
687.953582	12155.114207
688.291068	12079.108731
688.628504	12277.034513
688.965889	12296.120322
689.303224	12288.208231
689.640510	12203.002648
689.977745	11929.547778
690.314930	11721.837117
690.652065	11650.771971
690.989150	11387.124666
691.326185	11175.207161
691.663170	10984.666669
692.000105	10755.843655
692.336990	10664.535756
692.673825	10431.294170
693.010610	10313.318567
693.347345	10126.127922
693.684030	9926.377242
694.020665	9881.851251
694.357251	9695.648672
694.693786	9669.086832
695.030272	9494.103341
695.366707	9381.884736
695.703093	9317.093306
696.039429	9310.139034
696.375716	9254.827494
696.711952	9131.266293
697.048139	9163.050768
697.384276	9117.143500
697.720363	9131.387281
698.056400	9075.828724
698.392388	9029.457670
698.728326	8995.276127
699.064214	8936.445861
699.400053	8987.593408
699.735842	8809.711254
700.071581	8769.374461
700.407270	8707.910193
700.742910	8632.555025
701.078501	8544.750728
701.414042	8428.320239
701.749533	8365.023511
702.084974	8229.517296
702.420366	8332.752565
702.755709	8229.610557
703.091002	8099.339580
703.426246	8130.405691
703.761440	8078.252433
704.096584	8033.723922
704.431679	7972.703275
704.766725	7964.070299
705.101721	7912.045591
705.436668	7955.333979
705.771565	7854.707507
706.106413	7930.672655
706.441212	7986.851273
706.775961	7935.630629
707.110661	7959.704660
707.445311	8119.088300
707.779913	8014.098710
708.114465	8147.296077
708.448967	8189.309053
708.783421	8315.663053
709.117825	8496.267431
709.452180	8533.579531
709.786485	8617.900391
710.120742	8892.900374
710.454949	8895.599912
710.789107	8992.052309
711.123216	9188.574130
711.457275	9349.787709
711.791286	9521.706179
712.125247	9506.209672
712.459159	9497.090225
712.793023	9760.568651
713.126837	9343.844189
713.460602	9481.457607
713.794318	9307.381523
714.127985	9344.809570
714.461602	9054.179489
714.795171	8997.620263
715.128691	8764.890355
715.462162	8504.295468
715.795584	8453.508364
716.128957	8324.389291
716.462281	8151.296232
716.795556	8196.417080
717.128782	8003.245105
717.461960	7733.442552
717.795088	7798.659959
718.128167	7707.306689
718.461198	7546.602267
718.794180	7489.768298
719.127113	7485.034655
719.459997	7351.088676
719.792833	7111.893488
720.125619	7168.336767
720.458357	7033.095212
720.791046	7017.679364
721.123686	7026.932402
721.456278	6868.771241
721.788821	6888.242698
722.121315	6778.479134
722.453761	6835.466858
722.786158	6791.210568
723.118506	6806.823022
723.450805	6774.514267
723.783056	6844.215781
724.115259	6741.381283
724.447412	6736.047743
724.779518	6786.807121
725.111574	6790.978675
725.443582	6867.732763
725.775542	6841.808630
726.107453	7024.661362
726.439315	6947.841739
726.771129	6995.833524
727.102895	7157.717577
727.434612	7273.021368
727.766281	7301.277035
728.097901	7387.332052
728.429473	7371.240689
728.760996	7343.108530
729.092471	7330.387178
729.423897	7281.800537
729.755276	7293.962321
730.086606	7232.729946
730.417887	7330.319122
730.749120	7495.671489
731.080305	7690.212137
731.411442	7828.037283
731.742530	7832.518869
732.073570	7923.378105
732.404562	8007.961105
732.735506	7858.982406
733.066401	8000.686720
733.397249	7935.779343
733.728048	7706.749642
734.058798	7375.623972
734.389501	7163.993813
734.720156	6982.729044
735.050762	6748.007880
735.381320	6643.454349
735.711831	6604.826508
736.042293	6492.315516
736.372707	6517.612026
736.703073	6386.184104
737.033391	6420.458909
737.363661	6427.738335
737.693883	6446.640141
738.024056	6527.041504
738.354182	6586.965700
738.684260	6618.535926
739.014290	6724.624488
739.344272	6830.261867
739.674207	6859.729932
740.004093	6921.078253
740.333931	6936.882271
740.663722	6953.291226
740.993464	7026.435848
741.323159	7024.308481
741.652806	6779.444515
741.982405	6768.404388
742.311956	6836.265881
742.641460	6690.896648
742.970915	6496.381206
743.300323	6489.195042
743.629683	6431.675476
743.958996	6305.976826
744.288260	6214.860490
744.617477	6158.026522
744.946647	6172.456825
745.275768	6009.531774
745.604842	5961.434125
745.933869	5942.030724
746.262847	5899.309465
746.591778	5887.256067
746.920662	5848.797104
747.249498	5836.940310
747.578286	5883.676847
747.907027	5960.899763
748.235720	6016.176014
748.564365	5988.338763
748.892963	6001.682697
749.221514	6167.972718
749.550017	6022.048959
749.878473	5879.417072
750.206881	5933.264157
750.535242	5877.120827
750.863555	5809.208923
751.191821	5833.250185
751.520039	5835.775803
751.848210	5743.689046
752.176334	5758.515080
752.504411	5815.175128
752.832440	5739.658644
753.160421	5662.501263
753.488356	5709.885589
753.816243	5747.573255
754.144082	5603.698724
754.471875	5568.125822
754.799620	5613.294561
755.127318	5625.708402
755.454969	5577.363737
755.782572	5543.235125
756.110129	5584.232309
756.437638	5581.986475
756.765100	5519.972721
757.092515	5511.117934
757.419882	5552.057144
757.747203	5544.134971
758.074477	5606.458756
758.401703	5603.663436
758.728882	5545.417945
759.056014	5586.828503
759.383099	5729.780503
759.710138	5733.795782
760.037129	5716.751641
760.364073	5723.272373
760.690970	5808.679602
761.017820	5794.282066
761.344623	5739.245269
761.671379	5836.156411
761.998088	5949.380726
762.324751	6172.585374
762.651366	6728.586835
762.977935	7988.759350
763.304456	9584.849151
763.630931	10515.115956
763.957359	10178.535758
764.283740	9261.585161
764.610074	8464.898851
764.936362	7488.371898
765.262602	6891.290075
765.588796	6348.879565
765.914943	6007.222925
766.241044	5848.706363
766.567097	5666.214073
766.893104	5404.999125
767.219064	5223.142021
767.544978	5164.702445
767.870845	5094.138894
768.196665	4978.288137
768.522438	4911.719701
768.848165	4882.672572
769.173846	4822.445907
769.499479	4779.036531
769.825066	4722.729363
770.150607	4662.336340
770.476101	4636.296260
770.801548	4633.689984
771.126949	4570.632711
771.452303	4514.484339
771.777611	4465.474242
772.102872	4484.829752
772.428087	4446.872384
772.753256	4409.461981
773.078378	4369.110065
773.403453	4300.908295
773.728482	4287.544196
774.053465	4239.875045
774.378401	4226.964650
774.703291	4229.742326
775.028135	4164.419054
775.352932	4112.230509
775.677683	4099.488993
776.002388	4120.639154
776.327046	4133.378150
776.651658	4056.888722
776.976224	3991.744412
777.300743	3996.422602
777.625216	4017.129142
777.949643	4021.189791
778.274024	3973.563490
778.598359	3924.540790
778.922647	3945.829582
779.246889	3941.474026
779.571086	3940.276752
779.895236	3926.443825
780.219339	3909.742483
780.543397	3897.525246
780.867409	3948.390489
781.191374	3965.008652
781.515294	3907.332811
781.839167	3898.904002
782.162995	3918.009975
782.486776	3906.145619
782.810511	3912.056372
783.134201	3916.706837
783.457844	3875.760065
783.781441	3816.317299
784.104993	3820.672856
784.428498	3837.989219
784.751958	3837.946370
785.075372	3815.730005
785.398739	3777.888583
785.722061	3788.963998
786.045337	3827.501099
786.368568	3865.705483
786.691752	3779.204324
787.014891	3825.300635
787.337983	3940.289354
787.661030	4095.526646
787.984031	4254.489350
788.306987	4433.790590
788.629897	4510.337990
788.952760	4467.498265
789.275579	4394.046133
789.598351	4341.051003
789.921078	4211.848750
790.243759	4013.078575
790.566395	3981.924244
790.888984	3982.524141
791.211529	3877.312740
791.534027	3818.429542
791.856480	3815.737566
792.178888	3750.873040
792.501249	3697.030996
792.823566	3703.975186
793.145836	3738.479363
793.468062	3691.974719
793.790241	3645.066782
794.112375	3672.210875
794.434464	3731.225143
794.756507	3756.325048
795.078505	3743.127307
795.400457	3769.863066
795.722364	3895.702869
796.044226	4004.243953
796.366042	4073.469077
796.687812	4064.011873
797.009538	4074.278182
797.331218	4025.187426
797.652852	3996.213395
797.974442	3976.147082
798.295986	3981.556240
798.617484	3904.595465
798.938938	3817.585149
799.260346	3856.676777
799.581709	3854.972867
799.903026	3781.460241
800.224299	3744.445569
800.545526	3738.242429
800.866708	3703.607181
801.187845	3636.307777
801.508936	3671.179959
801.829983	3678.343439
802.150984	3597.813527
802.471940	3586.102926
802.792851	3598.395780
803.113717	3595.487034
803.434538	3598.897375
803.755314	3548.654715
804.076045	3517.054242
804.396731	3534.698281
804.717372	3560.793813
805.037967	3550.625806
805.358518	3542.701112
805.679024	3566.127354
805.999485	3577.865681
806.319901	3579.375507
806.640272	3592.212805
806.960598	3612.939509
807.280879	3583.408430
807.601115	3589.818257
807.921306	3608.767954
808.241453	3651.126249
808.561554	3632.731079
808.881611	3564.657858
809.201623	3596.066767
809.521590	3610.698716
809.841513	3583.216866
810.161390	3609.730814
810.481223	3593.011828
810.801011	3539.510062
811.120755	3525.931714
811.440453	3562.724575
811.760107	3570.165318
812.079716	3528.351468
812.399281	3495.770491
812.718801	3514.596680
813.038276	3489.060715
813.357707	3485.201712
813.677093	3506.785412
813.996434	3457.578709
814.315731	3462.914770
814.634983	3461.417548
814.954191	3476.462871
815.273354	3506.213241
815.592473	3506.346831
815.911547	3509.046369
816.230577	3543.250598
816.549562	3593.906632
816.868502	3637.522696
817.187399	3661.659740
817.506250	3658.095644
817.825058	3629.988691
818.143821	3711.927606
818.462539	3818.633709
818.781213	3863.116851
819.099843	3916.295983
819.418429	4138.527688
819.736970	4375.489645
820.055466	4606.808031
820.373919	4964.813133
820.692327	5367.555955
821.010691	5766.762407
821.329011	7027.857453
821.647286	9598.636707
821.965517	13952.809833
822.283704	17943.724975
822.601847	20234.906713
822.919945	18530.517804
823.237999	16061.403500
823.556010	13639.381134
823.873976	11624.711726
824.191897	9570.890196
824.509775	8224.133343
824.827609	7111.704445
825.145398	6555.922274
825.463144	6435.973060
825.780845	6559.423356
826.098502	6718.648200
826.416116	7511.231011
826.733685	8787.542780
827.051210	9906.658769
827.368692	10035.157780
827.686129	8846.879681
828.003522	7357.397680
828.320872	6354.835689
828.638177	5669.453015
828.955439	5132.146673
829.272656	4641.828927
829.589830	4352.023074
829.906960	4182.118546
830.224046	4003.719673
830.541088	3878.000858
830.858086	3833.253055
831.175041	3762.508023
831.491952	3739.094384
831.808819	3748.233996
832.125642	3814.373934
832.442421	3953.643371
832.759157	4203.034293
833.075849	4719.702151
833.392497	5549.216454
833.709101	6312.769780
834.025662	6670.772362
834.342179	6361.026226
834.658653	5710.183017
834.975083	5082.395526
835.291469	4525.557234
835.607811	4109.258749
835.924110	3975.736228
836.240366	3783.106177
836.556578	3580.434149
836.872746	3467.857622
837.188871	3433.237498
837.504952	3374.480329
837.820990	3289.980508
838.136984	3240.541912
838.452935	3267.970831
838.768842	3262.685181
839.084706	3283.769807
839.400526	3432.403187
839.716303	3738.673448
840.032037	4238.660127
840.347727	4522.754352
840.663373	4278.777629
840.978977	3909.422369
841.294537	3610.451699
841.610054	3380.524673
841.925527	3269.999895
842.240957	3207.600493
842.556344	3155.772390
842.871687	3095.253338
843.186987	3048.184085
843.502244	3013.014475
843.817458	2978.598518
844.132629	2945.609207
844.447756	2951.819908
844.762840	2943.675924
845.077881	2913.381110
845.392879	2892.800600
845.707833	2890.287584
846.022745	2888.792882
846.337613	2890.153994
846.652438	2877.079761
846.967221	2875.065820
847.281960	2864.867566
847.596656	2859.080322
847.911309	2856.141329
848.225919	2850.969105
848.540485	2844.773527
848.855009	2847.387365
849.169490	2837.920078
849.483928	2828.790549
849.798323	2828.258707
850.112675	2824.306442
850.426984	2835.137361
850.741251	2833.025118
851.055474	2825.927173
851.369654	2816.926193
851.683792	2820.674291
851.997887	2828.435147
852.311938	2833.861949
852.625947	2822.196719
852.939914	2822.025320
853.253837	2829.670230
853.567718	2813.377221
853.881555	2812.363949
854.195350	2826.176710
854.509103	2824.485403
854.822812	2818.231852
855.136479	2814.314875
855.450103	2814.703044
855.763685	2808.883032
856.077224	2802.183339
856.390720	2816.293528
856.704173	2827.000939
857.017584	2819.751760
857.330953	2816.981646
857.644278	2826.380877
857.957561	2836.589214
858.270802	2836.115345
858.584000	2837.292455
858.897155	2823.835094
859.210268	2821.727892
859.523339	2819.799651
859.836367	2822.121102
860.149352	2816.434681
860.462295	2809.563588
860.775195	2821.551452
861.088054	2819.845021
861.400869	2804.532516
861.713642	2798.425158
862.026373	2813.891418
862.339062	2817.866368
862.651708	2820.936431
862.964312	2830.433965
863.276873	2817.624393
863.589392	2827.865497
863.901869	2837.821776
864.214303	2858.301463
864.526696	2876.573125
864.839045	2872.227651
865.151353	2871.685727
865.463619	2868.434182
865.775842	2869.545757
866.088023	2886.478993
866.400162	2894.267575
866.712258	2868.103987
867.024313	2856.106041
867.336325	2863.307329
867.648296	2885.228787
867.960224	2878.082951
868.272110	2865.931250
868.583954	2872.305789
868.895755	2883.630741
869.207515	2869.989378
869.519233	2873.566077
869.830909	2883.260216
870.142542	2893.587020
870.454134	2891.562996
870.765684	2899.825448
871.077191	2895.033831
871.388657	2899.459964
871.700081	2919.569127
872.011463	2924.262441
872.322803	2927.914757
872.634101	2927.786207
872.945357	2944.046449
873.256571	2968.450675
873.567744	2961.793831
873.878874	2953.919549
874.189963	2975.301603
874.501010	2978.701861
874.812015	2966.867753
875.122979	2970.043679
875.433900	2965.914974
875.744780	2970.134420
876.055618	2977.224803
876.366415	2971.724904
876.677169	2984.799137
876.987882	2985.194867
877.298554	2975.929227
877.609183	2993.180055
877.919771	3014.438601
878.230317	3041.249977
878.540822	3089.201433
878.851285	3125.727113
879.161707	3164.213802
879.472087	3256.061105
879.782425	3460.215233
880.092722	3866.696070
880.402977	4371.461763
880.713191	4965.181137
881.023363	6044.746754
881.333494	7290.874614
881.643583	7861.802931
881.953631	7587.223884
882.263637	7009.419433
882.573602	6460.248736
882.883526	5894.255709
883.193408	5336.966233
883.503248	4874.820975
883.813048	4584.813477
884.122806	4305.861228
884.432522	4002.103983
884.742197	3776.837503
885.051831	3586.551589
885.361424	3450.238789
885.670975	3383.753532
885.980485	3303.463074
886.289954	3228.609501
886.599382	3189.434695
886.908768	3151.696617
887.218113	3109.615585
887.527417	3055.997873
887.836680	3005.465347
888.145901	3002.279338
888.455082	2991.188799
888.764221	2942.798763
889.073319	2915.140473
889.382376	2916.652819
889.691392	2914.409506
890.000366	2915.269022
890.309300	2902.827455
890.618193	2917.156934
890.927044	2930.188317
891.235855	2936.136879
891.544625	2917.981163
891.853353	2927.758481
892.162041	2944.174998
892.470687	2982.528097
892.779293	3028.420241
893.087858	3076.817838
893.396381	3139.975934
893.704864	3251.072883
894.013306	3476.972028
894.321707	3764.111110
894.630068	3969.850681
894.938387	3974.652380
895.246665	3926.267385
895.554903	3815.881239
895.863100	3625.504585
896.171256	3464.691777
896.479371	3330.405521
896.787446	3218.199519
897.095480	3118.687142
897.403473	3051.995197
897.711425	3015.514887
898.019336	3007.136489
898.327207	2982.928869
898.635038	2950.148766
898.942827	2934.932043
899.250576	2924.333017
899.558284	2893.027452
899.865952	2874.183618
900.173579	2855.165866
900.481165	2849.043384
900.788711	2838.162054
901.096216	2813.553661
901.403681	2801.222999
901.711105	2807.138793
902.018489	2803.826755
902.325832	2805.641570
902.633135	2815.108857
902.940397	2843.873681
903.247619	2916.748601
903.554800	3091.200250
903.861941	3406.156419
904.169041	3814.361331
904.476101	4114.196559
904.783121	4096.592850
905.090100	3864.903940
905.397039	3602.900051
905.703938	3359.873586
906.010796	3184.912780
906.317614	3074.216603
906.624391	2984.869713
906.931129	2914.717016
907.237826	2857.174765
907.544483	2812.699186
907.851099	2783.450411
908.157675	2764.039448
908.464211	2743.123701
908.770707	2730.387226
909.077163	2722.054198
909.383578	2706.519883
909.689954	2696.140147
909.996289	2694.305167
910.302584	2694.040506
910.608839	2694.877338
910.915054	2690.539425
911.221229	2681.576253
911.527363	2683.890143
911.833458	2690.680577
912.139513	2696.485466
912.445527	2699.437062
912.751502	2704.160623
913.057436	2713.474154
913.363331	2727.417986
913.669186	2745.437590
913.975000	2777.111160
914.280775	2830.623008
914.586510	2898.270252
914.892205	2970.580562
915.197859	3088.530959
915.503475	3268.411932
915.809050	3465.997436
916.114585	3609.602265
916.420081	3638.576297
916.725536	3587.630396
917.030952	3473.503714
917.336328	3351.507791
917.641665	3226.283009
917.946961	3131.874800
918.252218	3069.591344
918.557435	2992.388594
918.862612	2940.653753
919.167750	2889.695249
919.472848	2855.425485
919.777906	2827.815085
920.082925	2802.752989
920.387904	2771.354162
920.692843	2756.651637
920.997743	2746.811305
921.302603	2736.928123
921.607423	2726.548387
921.912204	2714.845348
922.216946	2703.086857
922.521647	2695.890610
922.826310	2686.509022
923.130932	2681.286387
923.435516	2674.266580
923.740059	2668.502021
924.044564	2658.054230
924.349028	2654.417037
924.653454	2648.012251
924.957840	2640.173257
925.262186	2637.990437
925.566493	2633.947432
925.870761	2631.016001
926.174989	2625.069960
926.479178	2620.943776
926.783328	2616.300873
927.087438	2616.016048
927.391509	2612.056221
927.695541	2613.228290
927.999533	2610.077568
928.303486	2605.840479
928.607400	2606.200921
928.911275	2603.932402
929.215110	2603.718153
929.518906	2602.455344
929.822663	2602.664552
930.126381	2603.153544
930.430060	2604.088678
930.733699	2602.760334
931.037299	2606.001796
931.340861	2604.902824
931.644383	2605.570777
931.947866	2604.499532
932.251309	2605.248143
932.554714	2603.481219
932.858080	2599.622215
933.161407	2600.365786
933.464694	2597.928388
933.767943	2591.737851
934.071153	2596.950404
934.374323	2596.887389
934.677455	2597.565425
934.980548	2595.271700
935.283602	2594.444950
935.586617	2593.073757
935.889593	2593.285485
936.192530	2592.897316
936.495428	2596.741196
936.798287	2598.069540
937.101108	2600.615323
937.403890	2605.011209
937.706632	2607.909872
938.009336	2610.755604
938.312002	2621.936883
938.614628	2629.924591
938.917216	2637.877011
939.219765	2636.410036
939.522275	2637.307361
939.824747	2633.062709
940.127179	2631.938532
940.429573	2628.770167
940.731929	2627.341000
941.034246	2624.487707
941.336524	2619.267592
941.638763	2617.896398
941.940964	2617.052005
942.243126	2613.379524
942.545250	2613.117384
942.847335	2612.144442
943.149381	2607.972887
943.451389	2604.466764
943.753359	2600.242277
944.055290	2599.362596
944.357182	2602.490632
944.659036	2596.932760
944.960851	2597.552822
945.262628	2597.046186
945.564367	2595.932091
945.866067	2598.150198
946.167729	2599.075250
946.469352	2600.428800
946.770937	2597.978799
947.072484	2597.174735
947.373992	2595.054930
947.675462	2597.414190
947.976893	2589.565113
948.278286	2588.685432
948.579641	2588.521595
948.880958	2585.406162
949.182236	2588.435895
949.483476	2588.166193
949.784678	2589.265165
950.085841	2588.758529
950.386967	2587.160483
950.688054	2589.610484
950.989103	2589.827253
951.290114	2588.514033
951.591087	2592.352872
951.892021	2596.254725
952.192917	2598.389653
952.493776	2599.191197
952.794596	2598.676999
953.095378	2600.408635
953.396122	2598.145157
953.696828	2597.378902
953.997496	2596.597523
954.298126	2595.352358
954.598718	2593.656010
954.899272	2588.211564
955.199788	2587.709969
955.500266	2586.777355
955.800706	2583.709813
956.101108	2579.268557
956.401472	2580.049936
956.701798	2577.657908
957.002087	2576.198494
957.302337	2573.163719
957.602550	2573.277145
957.902724	2572.866291
958.202861	2572.964594
958.502960	2568.603996
958.803022	2570.408729
959.103045	2566.489232
959.403031	2567.820096
959.702979	2567.714232
960.002889	2569.806311
960.302762	2566.443861
960.602596	2565.836402
960.902393	2566.577452
961.202153	2566.302709
961.501875	2566.927812
961.801559	2565.231464
962.101205	2566.751372
962.400814	2565.770867
962.700385	2563.726679
962.999918	2562.174004
963.299414	2562.471432
963.598873	2562.574776
963.898293	2560.875907
964.197677	2563.850188
964.497022	2564.813048
964.796331	2561.800959
965.095601	2564.470250
965.394835	2560.888510
965.694030	2565.017215
965.993189	2559.870197
966.292309	2560.147460
966.591393	2563.517472
966.890439	2562.141237
967.189447	2564.810528
967.488419	2562.174004
967.787353	2561.969837
968.086249	2563.318346
968.385108	2561.536298
968.683930	2560.341545
968.982714	2561.251473
969.281462	2561.982440
969.580172	2560.830537
969.878844	2562.864642
970.177480	2562.002605
970.476078	2562.254662
970.774639	2564.422359
971.073162	2562.731052
971.371649	2560.399518
971.670098	2564.293809
971.968510	2560.263407
972.266885	2564.263562
972.565223	2564.402194
972.863524	2563.703994
973.161788	2564.487894
973.460014	2562.310115
973.758204	2562.015208
974.056356	2562.244580
974.354471	2563.295661
974.652550	2561.435475
974.950591	2565.632236
975.248595	2560.820454
975.546563	2561.042265
975.844493	2563.646021
976.142386	2564.465208
976.440243	2564.152657
976.738062	2561.571586
977.035845	2561.649724
977.333590	2563.436813
977.631299	2562.889848
977.928971	2558.879610
978.226606	2556.643858
978.524204	2558.660320
978.821765	2557.788200
979.119290	2560.490259
979.416777	2561.952193
979.714228	2560.490259
980.011642	2559.096380
980.309020	2561.153170
980.606360	2562.408418
980.903664	2562.254662
981.200931	2561.914385
981.498162	2561.914385
981.795356	2563.411607
982.092513	2563.673747
982.389633	2568.684654
982.686717	2571.517783
982.983764	2574.688668
983.280775	2577.181519
983.577749	2579.520614
983.874686	2578.862744
984.171587	2573.728329
984.468451	2571.832855
984.765279	2571.207752
985.062070	2568.039387
985.358824	2567.477298
985.655543	2565.201217
985.952224	2563.335990
986.248869	2564.112328
986.545478	2560.822975
986.842050	2561.412790
987.138586	2559.169476
987.435086	2559.976061
987.731549	2560.674261
988.027975	2559.015721
988.324366	2560.207954
988.620719	2557.044630
988.917037	2561.127965
989.213318	2560.528067
989.509563	2556.742161
989.805772	2559.270299
990.101944	2557.889023
990.398080	2559.398849
990.694180	2556.641338
990.990244	2557.125288
991.286271	2557.647048
991.582262	2557.047151
991.878217	2558.955227
992.174136	2555.353323
992.470019	2558.022614
992.765865	2556.921122
993.061676	2553.170503
993.357450	2558.110834
993.653188	2553.795606
993.948890	2558.078067
994.244556	2557.873900
994.540186	2559.522357
994.835780	2559.413972
995.131337	2558.093190
995.426859	2560.961607
995.722345	2559.703839
996.017795	2560.981771
996.313208	2561.478325
996.608586	2565.107956
996.903928	2563.598130
997.199234	2561.458160
997.494504	2564.008984
997.789738	2564.064437
998.084936	2560.893551
998.380099	2560.240722
998.675225	2563.739282
998.970316	2561.342214
999.265371	2561.019580
999.560390	2558.985474
999.855373	2558.897254
1000.150320	2559.398849
1000.445232	2557.989846
1000.740108	2558.471277
1001.034948	2556.485062
1001.329752	2557.074877
1001.624521	2557.510937
1001.919254	2558.796431
1002.213951	2557.667213
1002.508613	2558.637635
1002.803239	2558.110834
1003.097829	2554.710576
1003.392384	2557.054712
1003.686903	2560.190310
1003.981386	2557.347099
1004.275834	2556.190154
1004.570246	2555.360885
1004.864623	2556.785011
1005.158964	2559.734086
1005.453270	2556.570762
1005.747540	2555.418858
1006.041775	2554.897098
1006.335974	2557.548745
1006.630138	2558.438509
1006.924266	2556.608570
1007.218359	2556.492624
1007.512416	2552.714279
1007.806438	2552.817622
1008.100425	2553.372149
1008.394376	2551.033054
1008.688292	2555.539846
1008.982172	2558.776266
1009.276017	2555.446584
1009.569827	2557.863818
1009.863602	2559.071174
1010.157341	2559.618139
1010.451045	2555.764177
1010.744714	2558.720814
1011.038347	2559.590413
1011.331945	2554.385421
1011.625508	2558.360371
1011.919036	2551.706048
1012.212528	2555.592778
1012.505986	2553.029351
1012.799408	2553.818292
1013.092795	2555.668395
1013.386147	2556.422047
1013.679464	2555.292829
1013.972745	2555.847356
1014.265992	2555.537325
1014.559204	2555.905329
1014.852380	2555.479352
1015.145521	2555.991029
1015.438628	2553.228477
1015.731699	2555.237376
1016.024736	2556.671585
1016.317737	2556.341389
1016.610703	2556.507747
1016.903635	2557.213509
1017.196531	2556.900957
1017.489393	2553.750236
1017.782219	2555.212171
1018.075011	2555.630586
1018.367768	2555.431461
1018.660490	2557.510937
1018.953177	2557.510937
1019.245829	2557.510937
