Dividing Wavelength (nm)	Counts (n)	Blue Motor Position (mm): 16.700000	Red Motor Position (mm): 0.000000	
326.493990	2176.034222
326.888308	2176.034222
327.282561	2176.034222
327.676750	2136.826648
328.070874	2133.191976
328.464933	2134.016205
328.858929	2137.557616
329.252859	2142.868471
329.646726	2151.067908
330.040528	2162.914619
330.434265	2177.357525
330.827938	2192.496110
331.221547	2210.608976
331.615091	2229.745196
332.008571	2246.416292
332.401986	2264.047727
332.795338	2282.755449
333.188625	2304.013995
333.581847	2319.732313
333.975006	2337.996413
334.368100	2357.661954
334.761129	2374.806918
335.154095	2392.080432
335.546996	2418.024730
335.939833	2444.982301
336.332606	2457.680967
336.725315	2470.432566
337.117960	2483.456387
337.510540	2494.735968
337.903056	2506.126456
338.295508	2515.487878
338.687896	2524.917357
339.080220	2533.414221
339.472480	2538.568801
339.864676	2545.460058
340.256807	2547.995759
340.648875	2552.386604
341.040879	2553.271326
341.432818	2558.872048
341.824694	2563.610733
342.216506	2562.579817
342.608253	2563.220043
342.999937	2562.927657
343.391557	2567.242884
343.783113	2564.286247
344.174605	2563.724159
344.566033	2563.136864
344.957397	2559.247614
345.348697	2559.192162
345.739934	2554.413148
346.131106	2557.294167
346.522215	2553.936759
346.913260	2551.877447
347.304241	2551.085986
347.695159	2545.334030
348.086012	2547.877292
348.476802	2543.988042
348.867528	2537.633667
349.258191	2536.764068
349.648789	2534.881197
350.039324	2534.104859
350.429796	2537.537885
350.820203	2535.395395
351.210548	2534.729962
351.600828	2530.278624
351.991045	2530.240815
352.381198	2531.745599
352.771288	2531.581762
353.161314	2529.083870
353.551276	2530.056813
353.941175	2527.831143
354.331010	2528.685619
354.720782	2529.593027
355.110490	2526.850639
355.500135	2526.893489
355.889717	2528.554549
356.279235	2528.403314
356.668689	2526.553211
357.058080	2527.740403
357.447408	2528.332738
357.836672	2529.396422
358.225873	2528.610002
358.615010	2531.410363
359.004084	2531.357431
359.393095	2530.795342
359.782043	2529.323325
360.170927	2530.936494
360.559748	2530.409694
360.948505	2534.394726
361.337199	2535.773481
361.725830	2534.397246
362.114398	2536.431352
362.502903	2536.244829
362.891344	2534.616537
363.279722	2536.043183
363.668037	2534.382123
364.056289	2537.033770
364.444478	2537.212731
364.832603	2537.333718
365.220665	2536.459078
365.608665	2538.793132
365.996601	2538.518390
366.384474	2539.355221
366.772284	2539.947557
367.160031	2539.982845
367.547715	2538.049562
367.935336	2541.369162
368.322893	2538.099974
368.710388	2537.250539
369.097820	2536.988399
369.485189	2536.854809
369.872495	2545.210521
370.259738	2539.879501
370.646918	2545.006355
371.034035	2544.091385
371.421090	2544.267826
371.808081	2541.265818
372.195010	2542.871426
372.581875	2541.520397
372.968678	2544.038453
373.355418	2543.748587
373.742096	2544.325799
374.128710	2545.785213
374.515262	2543.257074
374.901751	2542.044677
375.288177	2546.448125
375.674540	2544.051056
376.060841	2545.137425
376.447079	2545.273536
376.833254	2546.133052
377.219367	2546.979966
377.605417	2547.844524
377.991404	2548.141952
378.377329	2545.374359
378.763191	2547.005172
379.148991	2546.513660
379.534727	2542.657177
379.920402	2547.721016
380.306013	2547.673125
380.691563	2549.135060
381.077049	2546.024668
381.462474	2550.712941
381.847835	2549.548434
382.233134	2549.868547
382.618371	2545.639019
383.003545	2551.708569
383.388657	2549.072045
383.773706	2549.187992
384.158693	2549.974412
384.543618	2549.964329
384.928480	2552.240410
385.313280	2553.087324
385.698017	2552.247972
386.082692	2552.830225
386.467305	2552.429454
386.851856	2552.928528
387.236344	2551.471634
387.620770	2552.321069
388.005133	2546.584236
388.389435	2549.729916
388.773674	2545.717157
389.157851	2554.786193
389.541965	2553.296532
389.926018	2553.278888
390.310008	2555.058415
390.693936	2555.081101
391.077802	2555.771739
391.461606	2554.944989
391.845348	2552.507592
392.229027	2554.095555
392.612645	2554.967675
392.996200	2555.305432
393.379694	2555.696121
393.763125	2557.571431
394.146494	2555.360885
394.529801	2555.063457
394.913047	2556.739640
395.296230	2558.441030
395.679351	2557.833571
396.062410	2557.712583
396.445408	2557.405072
396.828343	2558.705690
397.211217	2558.108313
397.594028	2559.282902
397.976778	2557.536142
398.359466	2558.930022
398.742092	2556.878272
399.124656	2557.503375
399.507158	2560.127296
399.889598	2561.105279
400.271977	2560.026473
400.654294	2559.819785
401.036549	2558.710731
401.418742	2561.682492
401.800874	2558.977912
402.182944	2562.617626
402.564952	2559.474466
402.946898	2562.370609
403.328783	2561.309446
403.710606	2563.809858
404.092367	2562.083263
404.474067	2560.059240
404.855705	2565.112997
405.237282	2560.835578
405.618797	2563.777091
406.000250	2561.543860
406.381642	2562.428582
406.762972	2562.776422
407.144240	2556.117058
407.525447	2561.075033
407.906593	2557.742830
408.287677	2562.078222
408.668700	2564.321536
409.049661	2563.693912
409.430560	2564.465208
409.811399	2563.333469
410.192176	2563.996381
410.572891	2560.815413
410.953545	2563.673747
411.334138	2563.593089
411.714669	2562.965465
412.095139	2565.428069
412.475547	2563.658624
412.855894	2565.518810
413.236180	2565.833882
413.616405	2566.322874
413.996568	2563.827502
414.376670	2564.767678
414.756711	2566.602658
415.136691	2566.489232
415.516609	2567.794891
415.896466	2566.383368
416.276262	2564.916392
416.655997	2567.719273
417.035670	2565.624674
417.415283	2568.908986
417.794834	2569.861764
418.174324	2566.658110
418.553753	2564.077040
418.933121	2570.817062
419.312428	2568.818245
419.691674	2567.469736
420.070859	2569.085426
420.449983	2570.015519
420.829045	2570.817062
421.208047	2570.668348
421.586988	2568.803121
421.965867	2566.337997
422.344686	2570.688513
422.723444	2569.055179
423.102141	2570.819583
423.480777	2567.499983
423.859352	2566.307750
424.237866	2568.561146
424.616319	2570.660787
424.994712	2569.617268
425.373044	2568.848492
425.751314	2568.881259
426.129524	2562.967986
426.507673	2569.143399
426.885762	2564.079560
427.263789	2570.481826
427.641756	2569.171126
428.019662	2571.573235
428.397508	2570.622978
428.775292	2571.641291
429.153016	2570.721280
429.530679	2573.120870
429.908282	2570.910324
430.285824	2571.303534
430.663305	2569.975190
431.040726	2570.554922
431.418086	2572.278997
431.795385	2572.437793
432.172624	2568.941753
432.549802	2572.929306
432.926920	2571.008626
433.303977	2573.682958
433.680974	2572.954512
434.057910	2575.187743
434.434786	2571.941240
434.811601	2573.325036
435.188355	2574.141703
435.565050	2572.573904
435.941683	2573.506518
436.318257	2574.963411
436.694770	2573.695561
437.071222	2573.725808
437.447614	2573.327557
437.823946	2575.926272
438.200218	2572.586507
438.576429	2575.028946
438.952580	2572.379820
439.328670	2573.904769
439.704700	2573.188925
440.080670	2573.395613
440.456580	2573.751014
440.832429	2574.875191
441.208218	2575.649008
441.583947	2575.245716
441.959616	2577.592373
442.335224	2573.942578
442.710773	2576.440469
443.086261	2575.568350
443.461689	2576.183371
443.837057	2577.020202
444.212365	2578.494740
444.587612	2570.998544
444.962800	2573.572053
445.337927	2574.247568
445.712995	2568.611557
446.088002	2575.437280
446.462949	2576.276632
446.837837	2579.903742
447.212664	2576.682445
447.587431	2577.221848
447.962139	2576.866447
448.336786	2580.110429
448.711374	2582.021027
449.085901	2576.193453
449.460369	2580.712847
449.834776	2577.846951
450.209124	2577.874678
450.583412	2580.639751
450.957640	2576.881570
451.331808	2578.794688
451.705917	2580.871644
452.079965	2579.306365
452.453954	2580.428022
452.827883	2582.767118
453.201752	2580.894329
453.575562	2582.565471
453.949311	2576.208576
454.323001	2579.906263
454.696632	2581.748804
455.070202	2581.348033
455.443713	2582.184864
455.817164	2581.829463
456.190556	2579.586149
456.563888	2583.984556
456.937160	2579.865933
457.310373	2581.053125
457.683526	2581.501788
458.056619	2582.724268
458.429653	2583.155286
458.802628	2581.310224
459.175542	2583.598908
459.548398	2584.208888
459.921194	2584.518918
460.293930	2583.278795
460.666607	2584.408013
461.039224	2587.745257
461.411782	2586.540421
461.784280	2585.365832
462.156719	2586.535380
462.529099	2589.318097
462.901419	2589.408838
463.273680	2583.271233
463.645882	2580.727971
464.018024	2583.349371
464.390106	2577.554564
464.762130	2587.291553
465.134094	2589.618046
465.505999	2589.797007
465.877845	2589.895309
466.249631	2591.400093
466.621358	2590.875813
466.993026	2590.699373
467.364634	2596.988212
467.736184	2592.806575
468.107674	2589.618046
468.479105	2593.146853
468.850477	2590.470001
469.221790	2589.615525
469.593043	2591.137953
469.964238	2589.277768
470.335373	2589.096286
470.706449	2590.875813
471.077467	2590.054105
471.448425	2590.938828
471.819324	2595.216247
472.190164	2594.243304
472.560945	2597.267997
472.931667	2591.536205
473.302330	2590.787593
473.672934	2589.683581
474.043479	2592.783890
474.413965	2592.572162
474.784393	2595.085177
475.154761	2593.797162
475.525070	2596.418562
475.895321	2590.719538
476.265513	2592.289857
476.635645	2595.851432
477.005719	2594.200454
477.375734	2593.988726
477.745691	2596.136257
478.115588	2595.727924
478.485427	2598.649273
478.855207	2597.313367
479.224928	2600.035590
479.594591	2601.510127
479.964194	2600.055755
480.333739	2600.665734
480.703226	2601.132041
481.072653	2601.915940
481.442022	2601.404263
481.811333	2600.340580
482.180584	2600.854777
482.549777	2600.116248
482.918912	2599.624736
483.287988	2603.619850
483.657005	2604.013060
484.025964	2604.123966
484.394864	2603.211517
484.763706	2604.262597
485.132489	2601.978955
485.501213	2602.596496
485.869879	2603.234202
486.238487	2603.997937
486.607036	2604.202104
486.975527	2606.213524
487.343959	2603.566918
487.712333	2603.924840
488.080648	2604.834768
488.448905	2606.513473
488.817104	2604.708740
489.185244	2604.744028
489.553326	2607.554471
489.921350	2608.086313
490.289315	2608.018257
490.657222	2611.481530
491.025070	2613.984463
491.392861	2614.314658
491.760593	2613.445059
492.128267	2614.274329
492.495883	2612.880450
492.863440	2608.799636
493.230939	2608.996241
493.598380	2611.937754
493.965763	2609.397013
494.333088	2608.108998
494.700354	2607.221755
495.067563	2609.845675
495.434713	2609.031529
495.801805	2611.645367
496.168839	2610.614451
496.535815	2612.802312
496.902733	2611.315172
497.269593	2610.652260
497.636395	2612.126798
498.003139	2611.836931
498.369825	2611.718464
498.736453	2612.598145
499.103023	2614.972529
499.469535	2614.155862
499.835989	2615.297683
500.202385	2613.986983
500.568723	2613.129987
500.935003	2614.808691
501.301226	2611.685697
501.667390	2618.823970
502.033497	2620.853035
502.399546	2618.506378
502.765537	2620.454784
503.131470	2621.520988
503.497345	2623.154322
503.863163	2623.766822
504.228923	2623.766822
504.594625	2626.163890
504.960269	2624.230608
505.325856	2625.450567
505.691385	2627.298150
506.056856	2628.999539
506.422270	2630.874849
506.787625	2631.414252
507.152924	2633.554222
507.518164	2636.450365
507.883347	2636.057155
508.248472	2638.628143
508.613540	2638.401291
508.978550	2643.389513
509.343503	2643.013947
509.708398	2643.613844
510.073236	2646.746922
510.438016	2647.997128
510.802738	2649.118784
511.167403	2654.164979
511.532010	2653.355874
511.896561	2663.468429
512.261053	2662.397184
512.625488	2665.484890
512.989866	2665.656290
513.354186	2669.941270
513.718449	2671.322547
514.082655	2677.250943
514.446803	2680.018537
514.810894	2684.361491
515.174927	2685.979701
515.538904	2694.037986
515.902822	2698.610312
516.266684	2702.262628
516.630488	2702.940663
516.994235	2709.284956
517.357925	2718.744681
517.721558	2723.987481
518.085133	2726.245918
518.448651	2732.711197
518.812112	2734.730180
519.175516	2746.065214
519.538863	2748.820205
519.902152	2761.763367
520.265385	2770.451796
520.628560	2774.903135
520.991678	2785.192130
521.354739	2796.436423
521.717743	2805.316416
522.080690	2813.679690
522.443580	2826.358192
522.806413	2837.436127
523.169189	2847.296624
523.531908	2860.693491
523.894569	2865.621219
524.257174	2885.596791
524.619722	2899.061713
524.982213	2911.828435
525.344647	2923.891916
525.707025	2944.437138
526.069345	2958.988429
526.431608	2978.396871
526.793815	2997.369254
527.155964	3007.655728
527.518057	3024.679705
527.880093	3045.177036
528.242072	3067.917681
528.603995	3080.926379
528.965860	3101.804318
529.327669	3128.537556
529.689421	3147.288128
530.051117	3171.147909
530.412755	3200.000953
530.774337	3221.183882
531.135862	3245.315885
531.497331	3277.768313
531.858743	3292.508647
532.220098	3345.851616
532.581396	3356.788400
532.942638	3400.832961
533.303824	3428.627363
533.664953	3469.463229
534.026025	3499.316942
534.387040	3537.337325
534.747999	3589.236003
535.108902	3626.238073
535.469748	3649.876043
535.830537	3701.676419
536.191270	3746.328440
536.551947	3795.673774
536.912567	3803.031338
537.273131	3872.175804
537.633638	3898.208323
537.994089	3972.199858
538.354483	3989.604442
538.714821	4074.752051
539.075103	4143.341990
539.435328	4179.451775
539.795497	4200.448181
540.155609	4285.928506
540.515665	4365.367008
540.875665	4366.435733
541.235609	4440.409625
541.595496	4513.909648
541.955328	4601.504737
542.315102	4658.189991
542.674821	4687.360628
543.034483	4736.960541
543.394090	4803.942352
543.753640	4852.420608
544.113134	4970.960820
544.472571	5026.577350
544.831953	5142.675123
545.191278	5159.515097
545.550548	5239.863528
545.909761	5293.844203
546.268918	5414.456330
546.628019	5483.704139
546.987064	5567.752777
547.346053	5609.465804
547.704986	5691.840779
548.063863	5803.459487
548.422684	5852.051169
548.781449	5895.052211
549.140158	6032.995824
549.498811	6090.016315
549.857408	6102.770435
550.215949	6263.535351
550.574434	6291.728004
550.932864	6423.730618
551.291237	6519.036152
551.649555	6611.919411
552.007817	6716.540998
552.366022	6787.553211
552.724173	6864.045159
553.082267	6963.204655
553.440305	7147.852038
553.798288	7107.522808
554.156215	7306.769372
554.514086	7421.889162
554.871902	7387.889099
555.229661	7543.096144
555.587365	7641.106257
555.945014	7688.699791
556.302606	7879.570478
556.660143	7932.242974
557.017625	8123.332952
557.375050	8136.238306
557.732421	8306.795664
558.089735	8390.735916
558.446994	8484.992890
558.804197	8623.881720
559.161345	8733.093277
559.518437	8717.629537
559.875474	8932.002084
560.232455	9044.359321
560.589381	9152.877719
560.946251	9219.751146
561.303065	9448.853944
561.659825	9582.815046
562.016528	9577.758768
562.373177	9619.252506
562.729770	9800.136667
563.086307	9933.253376
563.442789	10081.730480
563.799216	10148.876129
564.155587	10235.233615
564.511904	10376.786694
564.868164	10430.853069
565.224370	10584.131873
565.580520	10622.764755
565.936615	10821.764303
566.292654	10782.521441
566.648638	11065.047867
567.004567	11077.701163
567.360441	11178.650269
567.716260	11182.796618
568.072023	11458.088988
568.427732	11464.103085
568.783385	11482.236115
569.138982	11678.082422
569.494525	11830.375679
569.850013	11860.186543
570.205445	11987.866367
570.560823	11990.215544
570.916145	12033.398068
571.271412	12182.908609
571.626625	12228.909138
571.981782	12355.091739
572.336884	12349.322139
572.691931	12547.951162
573.046923	12490.255156
573.401860	12595.358173
573.756743	12719.768808
574.111570	12768.254626
574.466342	12836.630316
574.821059	13011.240762
575.175722	12942.058487
575.530330	13090.835540
575.884882	13179.000280
576.239380	13260.576231
576.593823	13292.358186
576.948211	13359.680275
577.302544	13373.931617
577.656823	13417.237649
578.011047	13590.875152
578.365216	13604.597173
578.719330	13642.705775
579.073389	13660.775791
579.427394	13885.147467
579.781344	13811.634841
580.135239	13881.124626
580.489080	13929.048355
580.842866	13860.108055
581.196597	14120.723106
581.550273	14140.118946
581.903895	14227.819899
582.257463	14484.951513
582.610975	14300.430159
582.964434	14563.510334
583.317837	14484.651564
583.671186	14615.434218
584.024481	14688.014231
584.377721	14606.377786
584.730906	14743.479526
585.084037	14862.148288
585.437113	14868.404360
585.790135	15069.367437
586.143103	14815.888139
586.496016	14871.396284
586.848874	15171.977603
587.201679	15201.332242
587.554428	15031.062230
587.907124	15340.200907
588.259765	15266.143836
588.612352	15408.465692
588.964884	15179.355332
589.317362	15374.357245
589.669786	15479.346835
590.022155	15584.666622
590.374470	15795.041533
590.726731	15733.834364
591.078937	15605.514313
591.431090	15749.358597
591.783188	15618.091992
592.135232	15669.668037
592.487222	15845.813514
592.839157	15919.205153
593.191038	15919.694144
593.542866	15873.476846
593.894639	15745.229892
594.246358	15971.739017
594.598022	15951.019874
594.949633	15840.411918
595.301190	15848.190418
595.652692	16045.503700
596.004141	16300.623894
596.355535	15822.848538
596.706876	15886.815739
597.058162	15863.301277
597.409395	16083.778661
597.760573	16237.024697
598.111698	16110.973165
598.462768	16113.019874
598.813785	16109.397805
599.164748	16028.661205
599.515657	16096.613439
599.866511	15975.461909
600.217312	16313.287272
600.568060	15979.106663
600.918753	16292.656350
601.269392	16271.596930
601.619978	16099.514623
601.970510	16361.296701
602.320988	16329.068604
602.671412	16561.359932
603.021783	16516.468457
603.372100	16337.711663
603.722363	16489.120198
604.072572	16484.991493
604.422728	16621.679859
604.772830	16481.676934
605.122878	16447.288703
605.472872	16496.208060
605.822813	16522.966505
606.172701	16527.284253
606.522534	16742.992705
606.872314	16797.638813
607.222041	16664.837177
607.571714	16891.956281
607.921333	16783.223634
608.270899	16880.744755
608.620411	17098.878002
608.969870	16892.135242
609.319276	16930.760563
609.668627	16998.327148
610.017926	17157.720871
610.367171	17292.140717
610.716362	17362.379114
611.065500	17208.283644
611.414585	17351.943925
611.763616	17359.051952
612.112594	17353.153802
612.461518	17341.894385
612.810389	17555.384730
613.159207	17420.022187
613.507971	17360.284514
613.856682	17683.795521
614.205340	17623.052138
614.553945	17790.746121
614.902496	17556.518990
615.250994	17838.175817
615.599439	17779.753885
615.947830	17781.107435
616.296169	17828.743818
616.644454	17823.843816
616.992686	17788.878373
617.340864	18025.623561
617.688990	17815.994740
618.037063	17997.055342
618.385082	17869.504067
618.733048	18149.953538
619.080961	18025.764713
619.428821	18088.370803
619.776628	18003.581116
620.124382	17931.522863
620.472083	17980.031365
620.819731	18029.482564
621.167326	17739.896002
621.514868	17798.698541
621.862357	17565.837563
622.209793	17608.621835
622.557176	17474.315414
622.904506	17307.216288
623.251783	17232.975215
623.599007	17046.147533
623.946179	16998.695152
624.293297	16959.364070
624.640363	16736.603043
624.987376	16756.182884
625.334336	16560.437401
625.681243	16414.130514
626.028097	16421.266267
626.374899	16383.611368
626.721647	16257.000269
627.068343	16095.133860
627.414987	16038.120931
627.761577	16022.105185
628.108115	16093.001452
628.454600	15803.412369
628.801032	15890.299176
629.147412	15836.691546
629.493739	15859.283477
629.840014	15677.910324
630.186236	15790.209587
630.532405	15562.248610
630.878521	15748.584780
631.224585	15648.112063
631.570597	15473.839375
631.916556	15509.077040
632.262462	15487.057280
632.608316	15415.941723
632.954117	15362.659247
633.299866	15373.825403
633.645562	15298.029134
633.991206	15051.244489
634.336797	14915.692903
634.682336	14896.357558
635.027823	14797.742506
635.373257	14696.921950
635.718639	14573.527107
636.063968	14538.589390
636.409245	14290.627635
636.754470	14333.172453
637.099642	14181.370708
637.444762	13956.303353
637.789829	14005.683976
638.134845	13859.069578
638.479808	13878.984656
638.824719	13836.785157
639.169577	13683.876879
639.514383	13740.287390
639.859137	13550.036765
640.203839	13630.735555
640.548489	13472.546668
640.893086	13468.453251
641.237632	13332.717663
641.582125	13482.906239
641.926566	13327.164833
642.270955	13328.349504
642.615292	13302.377479
642.959576	13311.559941
643.303809	13347.200898
643.647990	13280.302266
643.992118	13335.548271
644.336195	13117.417544
644.680219	13303.748673
645.024192	13241.109816
645.368112	13472.196308
645.711981	13535.220813
646.055797	13712.283781
646.399562	13675.843800
646.743274	13943.914718
647.086935	14223.025762
647.430544	14186.137119
647.774101	14209.981776
648.117606	14372.753072
648.461059	14330.329242
648.804460	14340.545140
649.147810	14068.564808
649.491108	13957.422489
649.834354	13989.532119
650.177548	13694.828785
650.520690	13495.796470
650.863781	13419.564141
651.206820	13463.132313
651.549807	13295.687868
651.892742	13112.512502
652.235626	13041.656564
652.578458	13047.804251
652.921238	12720.240156
653.263967	12918.846494
653.606644	12752.962286
653.949269	12715.383005
654.291843	12535.678473
654.634365	12682.648272
654.976836	12540.442363
655.319255	12559.071947
655.661622	12501.174295
656.003938	12432.670056
656.346203	12358.507121
656.688416	12429.801639
657.030577	12380.143753
657.372687	12307.097434
657.714746	12289.067747
658.056753	12464.552833
658.398708	12290.378447
658.740612	12296.720219
659.082465	12389.537943
659.424266	12356.538550
659.766016	12371.697300
660.107715	12280.442333
660.449362	12358.570135
660.790958	12320.607726
661.132503	12268.575457
661.473996	12320.093529
661.815438	12347.550173
662.156829	12356.215917
662.498168	12342.209071
662.839456	12335.292608
663.180693	12360.488294
663.521879	12435.989656
663.863013	12425.952718
664.204097	12407.308011
664.545129	12517.404290
664.886110	12487.981596
665.227040	12571.326992
665.567918	12579.009711
665.908746	12613.186213
666.249522	12591.778953
666.590248	12636.667908
666.930922	12749.829209
667.271545	12741.430647
667.612118	12827.442813
667.952639	12725.873646
668.293109	12731.562588
668.633528	12694.048842
668.973896	12664.605983
669.314213	12752.201072
669.654480	12499.036846
669.994695	12550.426368
670.334859	12580.237232
670.674973	12519.254394
671.015035	12570.414543
671.355047	12496.218841
671.695008	12475.834936
672.034918	12477.954741
672.374777	12525.323943
672.714585	12442.878392
673.054342	12468.958802
673.394049	12425.292327
673.733705	12510.873475
674.073310	12424.198397
674.412864	12445.472066
674.752368	12331.010147
675.091820	12326.793222
675.431223	12320.801811
675.770574	12195.894621
676.109875	12122.714712
676.449125	12078.581930
676.788324	12012.212619
677.127473	11851.803104
677.466571	11847.813031
677.805619	11757.467992
678.144616	11662.570791
678.483562	11635.204888
678.822458	11501.072387
679.161303	11480.617905
679.500098	11474.412245
679.838842	11423.292424
680.177535	11447.837802
680.516179	11503.966009
680.854771	11455.205448
681.193314	11668.209322
681.531805	11807.950107
681.870247	12208.101775
682.208638	12613.793672
682.546978	12933.937188
682.885268	13000.175429
683.223508	12691.671937
683.561697	12524.154395
683.899836	12428.730394
684.237925	12236.793502
684.575963	12157.060093
684.913951	12086.902355
685.251889	12025.455730
685.589776	12122.571039
685.927614	12053.093856
686.265401	12019.600430
686.603137	12061.941081
686.940824	12214.478835
687.278460	12320.237202
687.616046	12377.209802
687.953582	12554.008108
688.291068	12482.181748
688.628504	12702.162579
688.965889	12705.197353
689.303224	12685.690608
689.640510	12585.381729
689.977745	12287.394084
690.314930	12057.267932
690.652065	11969.995476
690.989150	11681.918740
691.326185	11457.060593
691.663170	11250.766495
692.000105	11006.963692
692.336990	10900.207178
692.673825	10651.809363
693.010610	10539.532784
693.347345	10331.408748
693.684030	10132.192430
694.020665	10072.573224
694.357251	9878.753462
694.693786	9835.838119
695.030272	9666.533488
695.366707	9543.995641
695.703093	9472.688519
696.039429	9467.846491
696.375716	9403.975072
696.711952	9275.453375
697.048139	9311.260691
697.384276	9261.176828
697.720363	9275.821379
698.056400	9210.850989
698.392388	9170.693157
698.728326	9133.398701
699.064214	9057.912463
699.400053	9111.769630
699.735842	8925.647710
700.071581	8893.585971
700.407270	8814.800298
700.742910	8734.328360
701.078501	8644.948702
701.414042	8523.625773
701.749533	8454.730844
702.084974	8318.407962
702.420366	8431.712935
702.755709	8306.838513
703.091002	8188.063888
703.426246	8208.651960
703.761440	8158.898292
704.096584	8117.830532
704.431679	8054.127992
704.766725	8032.813993
705.101721	7986.770615
705.436668	8025.496758
705.771565	7925.873476
706.106413	8002.262080
706.441212	8053.823002
706.775961	8002.879622
707.110661	8029.862398
707.445311	8186.566665
707.779913	8079.487516
708.114465	8204.803039
708.448967	8253.263651
708.783421	8379.912559
709.117825	8570.974810
709.452180	8602.572763
709.786485	8688.627779
710.120742	8957.928738
710.454949	8964.094070
710.789107	9061.670643
711.123216	9269.958517
711.457275	9428.127240
711.791286	9603.940001
712.125247	9589.711344
712.459159	9580.284387
712.793023	9840.833902
713.126837	9411.357842
713.460602	9553.173061
713.794318	9378.295434
714.127985	9411.594776
714.461602	9112.067058
714.795171	9056.508502
715.128691	8821.578130
715.462162	8559.029796
715.795584	8504.514759
716.128957	8376.600521
716.462281	8199.842544
716.795556	8244.441632
717.128782	8047.138432
717.461960	7769.043180
717.795088	7846.500509
718.128167	7749.909481
718.461198	7584.393276
718.794180	7525.126951
719.127113	7522.311467
719.459997	7380.584468
719.792833	7143.234342
720.125619	7204.902777
720.458357	7071.450831
720.791046	7054.832668
721.123686	7056.448357
721.456278	6904.560913
721.788821	6919.684374
722.121315	6811.733106
722.453761	6868.032712
722.786158	6820.587893
723.118506	6835.721436
723.450805	6803.571478
723.783056	6865.507094
724.115259	6771.771879
724.447412	6767.433966
724.779518	6815.778632
725.111574	6821.913716
725.443582	6897.057155
725.775542	6874.689556
726.107453	7058.805097
726.439315	6977.289639
726.771129	7032.258381
727.102895	7188.105652
727.434612	7308.869013
727.766281	7333.835327
728.097901	7423.971158
728.429473	7411.027996
728.760996	7380.745784
729.092471	7356.858277
729.423897	7314.671381
729.755276	7325.613205
730.086606	7259.934532
730.417887	7356.306271
730.749120	7527.536623
731.080305	7721.552990
731.411442	7858.420317
731.742530	7857.084411
732.073570	7958.230122
732.404562	8039.548975
732.735506	7891.780153
733.066401	8028.002212
733.397249	7970.787636
733.728048	7736.852892
734.058798	7400.340749
734.389501	7184.344951
734.720156	7004.650502
735.050762	6769.699965
735.381320	6666.583163
735.711831	6628.436752
736.042293	6522.499424
736.372707	6541.960799
736.703073	6401.388224
737.033391	6440.515139
737.363661	6450.340348
737.693883	6474.832794
738.024056	6554.493107
738.354182	6608.957733
738.684260	6645.843856
739.014290	6749.220278
739.344272	6857.189190
739.674207	6885.444857
740.004093	6945.537932
740.333931	6967.945861
740.663722	6974.527087
740.993464	7052.445681
741.323159	7053.786628
741.652806	6800.952598
741.982405	6794.154602
742.311956	6861.975766
742.641460	6716.586368
742.970915	6518.179156
743.300323	6508.283371
743.629683	6450.756243
743.958996	6320.386964
744.288260	6236.855045
744.617477	6180.663823
744.946647	6195.094126
745.275768	6029.439290
745.604842	5981.361806
745.933869	5961.723991
746.262847	5919.774029
746.591778	5911.740951
746.920662	5871.401638
747.249498	5852.078895
747.578286	5904.166617
747.907027	5977.709490
748.235720	6038.228542
748.564365	6011.097052
748.892963	6027.926944
749.221514	6190.831831
749.550017	6037.245517
749.878473	5905.492441
750.206881	5953.035563
750.535242	5893.628085
750.863555	5826.585780
751.191821	5850.135530
751.520039	5852.414132
751.848210	5760.760914
752.176334	5774.440085
752.504411	5836.388304
752.832440	5757.930306
753.160421	5683.487587
753.488356	5737.473303
753.816243	5772.411020
754.144082	5619.742197
754.471875	5589.538123
754.799620	5635.689887
755.127318	5643.990147
755.454969	5597.142704
755.782572	5561.700872
756.110129	5604.011276
756.437638	5599.459114
756.765100	5541.725300
757.092515	5527.388258
757.419882	5578.722328
757.747203	5561.431170
758.074477	5624.332167
758.401703	5617.730776
758.728882	5566.414351
759.056014	5607.792141
759.383099	5750.451754
759.710138	5755.596252
760.037129	5734.763683
760.364073	5744.969499
760.690970	5825.272559
761.017820	5813.783770
761.344623	5763.057159
761.671379	5860.348908
761.998088	5968.262368
762.324751	6194.746287
762.651366	6766.148472
762.977935	8027.740072
763.304456	9632.089804
763.630931	10553.164064
763.957359	10209.851405
764.283740	9290.334861
764.610074	8481.627920
764.936362	7503.777665
765.262602	6913.188847
765.588796	6370.541403
765.914943	6025.683631
766.241044	5872.077152
766.567097	5684.684861
766.893104	5424.001754
767.219064	5241.897633
767.544978	5183.064848
767.870845	5111.006594
768.196665	5002.437785
768.522438	4927.808543
768.848165	4895.968615
769.173846	4833.491075
769.499479	4798.119819
769.825066	4736.995829
770.150607	4674.067105
770.476101	4651.414681
770.801548	4650.388806
771.126949	4583.006223
771.452303	4529.955640
771.777611	4484.776820
772.102872	4497.019262
772.428087	4464.949962
772.753256	4421.795164
773.078378	4384.667066
773.403453	4317.660049
773.728482	4302.546670
774.053465	4253.332405
774.378401	4239.353286
774.703291	4246.385695
775.028135	4176.863143
775.352932	4127.807675
775.677683	4113.800829
776.002388	4133.834374
776.327046	4146.679234
776.651658	4069.617636
776.976224	4009.849716
777.300743	4011.490611
777.625216	4035.794014
777.949643	4033.820402
778.274024	3992.591326
778.598359	3938.338428
778.922647	3959.589412
779.246889	3953.696303
779.571086	3956.116057
779.895236	3941.070733
780.219339	3922.320162
780.543397	3912.386568
780.867409	3966.243735
781.191374	3982.216631
781.515294	3920.896036
781.839167	3913.006630
782.162995	3930.512037
782.486776	3917.591559
782.810511	3924.712189
783.134201	3928.311573
783.457844	3888.541910
783.781441	3829.086542
784.104993	3832.423786
784.428498	3849.263760
784.751958	3853.505891
785.075372	3829.331038
785.398739	3792.933907
785.722061	3798.937921
786.045337	3839.922502
786.368568	3877.083367
786.691752	3792.724699
787.014891	3835.075433
787.337983	3956.751242
787.661030	4108.633646
787.984031	4272.148512
788.306987	4444.434986
788.629897	4523.966750
788.952760	4486.145493
789.275579	4410.830654
789.598351	4353.215307
789.921078	4219.869226
790.243759	4027.012324
790.566395	3997.153570
790.888984	3992.402282
791.211529	3890.974267
791.534027	3829.646110
791.856480	3827.233918
792.178888	3765.825102
792.501249	3712.431721
792.823566	3718.685273
793.145836	3756.899739
793.468062	3704.600289
793.790241	3655.943072
794.112375	3683.331661
794.434464	3745.841968
794.756507	3773.197790
795.078505	3759.495933
795.400457	3783.176754
795.722364	3913.253646
796.044226	4019.105274
796.366042	4089.671346
796.687812	4078.154830
797.009538	4086.402157
797.331218	4042.960014
797.652852	4012.365252
797.974442	3995.184999
798.295986	3997.340092
798.617484	3920.480140
798.938938	3829.290708
799.260346	3865.201368
799.581709	3868.150443
799.903026	3797.896923
800.224299	3758.525511
800.545526	3750.585694
800.866708	3716.494891
801.187845	3651.895025
801.508936	3690.396838
801.829983	3693.565203
802.150984	3613.496556
802.471940	3601.410390
802.792851	3611.510342
803.113717	3609.612347
803.434538	3615.190384
803.755314	3562.679205
804.076045	3531.552601
804.396731	3548.160682
804.717372	3575.985331
805.037967	3562.737178
805.358518	3552.785941
805.679024	3579.299889
805.999485	3589.694748
806.319901	3594.483845
806.640272	3606.983386
806.960598	3622.792444
807.280879	3598.244545
807.601115	3607.500104
807.921306	3624.269502
808.241453	3662.741068
808.561554	3642.089981
808.881611	3578.722677
809.201623	3610.292903
809.521590	3628.899802
809.841513	3594.246910
810.161390	3625.691107
810.481223	3607.059003
810.801011	3549.761248
811.120755	3542.653221
811.440453	3577.553129
811.760107	3581.989345
812.079716	3544.339487
812.399281	3507.128210
812.718801	3529.576468
813.038276	3502.339114
813.357707	3499.511027
813.677093	3520.411651
813.996434	3468.714618
814.315731	3477.806339
814.634983	3477.677789
814.954191	3491.745129
815.273354	3520.343595
815.592473	3517.538193
815.911547	3521.931558
816.230577	3560.244328
816.549562	3608.747789
816.868502	3652.893174
817.187399	3677.912420
817.506250	3672.846061
817.825058	3642.578973
818.143821	3731.613312
818.462539	3831.211388
818.781213	3879.414901
819.099843	3931.648817
819.418429	4157.293383
819.736970	4397.317842
820.055466	4633.634531
820.373919	4986.346422
820.692327	5390.379779
821.010691	5793.389782
821.329011	7077.051553
821.647286	9682.191312
821.965517	14076.118977
822.283704	18087.226461
822.601847	20357.227791
822.919945	18634.640316
823.237999	16136.632638
823.556010	13700.575701
823.873976	11668.141266
824.191897	9601.726934
824.509775	8255.489320
824.827609	7138.646892
825.145398	6585.927222
825.463144	6472.203832
825.780845	6582.942859
826.098502	6747.420586
826.416116	7561.367806
826.733685	8846.236934
827.051210	9958.970822
827.368692	10081.768289
827.686129	8883.475937
828.003522	7377.529528
828.320872	6378.468618
828.638177	5691.371952
828.955439	5149.410104
829.272656	4658.547913
829.589830	4368.674005
829.906960	4197.428530
830.224046	4017.885315
830.541088	3894.301428
830.858086	3850.113194
831.175041	3775.473871
831.491952	3754.893360
831.808819	3763.087756
832.125642	3830.107375
832.442421	3968.686174
832.759157	4227.297366
833.075849	4747.945215
833.392497	5588.413946
833.709101	6340.982598
834.025662	6701.707403
834.342179	6382.141098
834.658653	5734.322582
834.975083	5102.149287
835.291469	4534.459911
835.607811	4124.606542
835.924110	3988.923886
836.240366	3798.968168
836.556578	3595.996191
836.872746	3482.222390
837.188871	3451.564613
837.504952	3388.577916
837.820990	3307.526244
838.136984	3257.712083
838.452935	3278.111112
838.768842	3278.151441
839.084706	3298.585758
839.400526	3445.999179
839.716303	3762.833177
840.032037	4260.863889
840.347727	4548.421387
840.663373	4292.497130
840.978977	3926.133794
841.294537	3623.301601
841.610054	3391.388359
841.925527	3285.335085
842.240957	3220.226062
842.556344	3165.032990
842.871687	3111.805967
843.186987	3061.616239
843.502244	3026.507123
843.817458	2990.956906
844.132629	2959.371557
844.447756	2966.003195
844.762840	2954.433747
845.077881	2926.470466
845.392879	2905.751324
845.707833	2901.345355
846.022745	2900.342166
846.337613	2901.302506
846.652438	2888.671895
846.967221	2888.624004
847.281960	2878.476161
847.596656	2869.893597
847.911309	2869.029039
848.225919	2858.840867
848.540485	2858.084694
848.855009	2857.202492
849.169490	2850.515401
849.483928	2839.044256
849.798323	2837.370592
850.112675	2832.019408
850.426984	2845.232272
850.741251	2842.946109
851.055474	2836.385047
851.369654	2827.099242
851.683792	2831.908502
851.997887	2839.492918
852.311938	2842.832683
852.625947	2834.534943
852.939914	2834.913030
853.253837	2841.983248
853.567718	2830.491938
853.881555	2821.717810
854.195350	2839.394616
854.509103	2838.134327
854.822812	2827.583192
855.136479	2827.300888
855.450103	2827.409272
855.763685	2819.598005
856.077224	2818.698159
856.390720	2832.110148
856.704173	2840.206242
857.017584	2834.257680
857.330953	2827.752071
857.644278	2840.085254
857.957561	2848.211594
858.270802	2848.292252
858.584000	2849.232427
858.897155	2838.051148
859.210268	2832.639470
859.523339	2833.990499
859.836367	2835.172649
860.149352	2826.864828
860.462295	2819.482058
860.775195	2830.494459
861.088054	2831.507731
861.400869	2814.340081
861.713642	2811.146510
862.026373	2824.225784
862.339062	2828.523367
862.651708	2834.847495
862.964312	2837.254646
863.276873	2831.951352
863.589392	2839.737414
863.901869	2849.595391
864.214303	2871.025336
864.526696	2887.008314
864.839045	2885.884137
865.151353	2883.814743
865.463619	2879.539844
865.775842	2881.435318
866.088023	2899.601116
866.400162	2906.051272
866.712258	2880.505225
867.024313	2868.761858
867.336325	2877.656973
867.648296	2897.347720
867.960224	2889.322203
868.272110	2877.379710
868.583954	2881.412633
868.895755	2897.970303
869.207515	2882.690566
869.519233	2887.323386
869.830909	2894.587689
870.142542	2908.665111
870.454134	2905.348032
870.765684	2907.283835
871.077191	2908.907086
871.388657	2915.097623
871.700081	2928.252514
872.011463	2938.549071
872.322803	2938.773402
872.634101	2940.789864
872.945357	2958.328038
873.256571	2981.267808
873.567744	2975.225986
873.878874	2964.004377
874.189963	2991.534118
874.501010	2990.709890
874.812015	2984.113540
875.122979	2981.666060
875.433900	2973.842189
875.744780	2982.828046
876.055618	2989.840291
876.366415	2987.279384
876.677169	3000.358658
876.987882	2998.425376
877.298554	2986.190495
877.609183	3003.511900
877.919771	3031.533153
878.230317	3055.957544
878.540822	3104.138372
878.851285	3142.841830
879.161707	3179.796009
879.472087	3271.774381
879.782425	3480.818428
880.092722	3891.082652
880.402977	4401.396135
880.713191	5000.018031
881.023363	6101.986535
881.333494	7354.037751
881.643583	7920.373577
881.953631	7645.436608
882.263637	7044.972171
882.573602	6495.430949
882.883526	5925.667138
883.193408	5362.529924
883.503248	4904.495727
883.813048	4607.105459
884.122806	4326.585412
884.432522	4020.378166
884.742197	3793.385090
885.051831	3605.148406
885.361424	3467.048517
885.670975	3399.986047
885.980485	3319.380518
886.289954	3247.614651
886.599382	3205.087477
886.908768	3167.261180
887.218113	3123.473717
887.527417	3069.450192
887.836680	3018.829446
888.145901	3015.459434
888.455082	3008.222858
888.764221	2957.226546
889.073319	2929.270827
889.382376	2927.327462
889.691392	2931.108328
890.000366	2929.936259
890.309300	2917.913108
890.618193	2929.976589
890.927044	2947.822273
891.235855	2948.338992
891.544625	2930.455498
891.853353	2941.389761
892.162041	2961.246866
892.470687	2998.853874
892.779293	3046.999413
893.087858	3091.550611
893.396381	3155.169972
893.704864	3269.468053
894.013306	3493.622959
894.321707	3786.133390
894.630068	3992.987056
894.938387	3993.559227
895.246665	3946.096764
895.554903	3834.664578
895.863100	3641.628715
896.171256	3478.996051
896.479371	3347.784899
896.787446	3230.557907
897.095480	3131.340438
897.403473	3067.433731
897.711425	3031.906199
898.019336	3024.634334
898.327207	2999.451250
898.635038	2962.918008
898.942827	2945.876388
899.250576	2938.932198
899.558284	2908.143351
899.865952	2885.677449
900.173579	2868.396374
900.481165	2862.798172
900.788711	2852.340299
901.096216	2826.209478
901.403681	2813.571305
901.711105	2820.858293
902.018489	2820.180258
902.325832	2815.872592
902.633135	2827.580672
902.940397	2856.864734
903.247619	2934.173349
903.554800	3112.887294
903.861941	3429.590223
904.169041	3837.757326
904.476101	4142.966424
904.783121	4116.782671
905.090100	3888.320099
905.397039	3620.450828
905.703938	3376.645505
906.010796	3195.511806
906.317614	3088.651947
906.624391	3000.920747
906.931129	2931.199068
907.237826	2870.881663
907.544483	2824.775270
907.851099	2795.110600
908.157675	2775.321550
908.464211	2756.412182
908.770707	2743.365676
909.077163	2731.632391
909.383578	2716.624876
909.689954	2707.200438
909.996289	2702.703729
910.302584	2705.625078
910.608839	2706.091385
910.915054	2700.619212
911.221229	2692.560928
911.527363	2695.744416
911.833458	2701.463605
912.139513	2707.170192
912.445527	2710.094061
912.751502	2716.831563
913.057436	2727.564179
913.363331	2740.403998
913.669186	2759.109200
913.975000	2791.244035
914.280775	2843.591376
914.586510	2913.476892
914.892205	2985.220073
915.197859	3108.032663
915.503475	3287.404479
915.809050	3488.959892
916.114585	3630.938949
916.420081	3659.615552
916.725536	3605.798714
917.030952	3496.282168
917.336328	3372.849516
917.641665	3245.149527
917.946961	3149.302069
918.252218	3080.535689
918.557435	3009.596573
918.862612	2951.242696
919.167750	2901.967938
919.472848	2865.328832
919.777906	2841.141376
920.082925	2814.594659
920.387904	2785.063580
920.692843	2769.846857
920.997743	2760.808068
921.302603	2746.907087
921.607423	2739.264697
921.912204	2724.746174
922.216946	2714.525235
922.521647	2705.494008
922.826310	2700.205837
923.130932	2694.650486
923.435516	2684.757222
923.740059	2677.898732
924.044564	2670.294151
924.349028	2664.310302
924.653454	2659.967347
924.957840	2652.395534
925.262186	2650.865544
925.566493	2645.141314
925.870761	2639.628812
926.174989	2636.447844
926.479178	2633.481125
926.783328	2630.302678
927.087438	2624.732203
927.391509	2626.242028
927.695541	2623.928139
927.999533	2621.752881
928.303486	2616.905811
928.607400	2612.792230
928.911275	2616.971346
929.215110	2615.038064
929.518906	2612.956067
929.822663	2614.445728
930.126381	2610.584204
930.430060	2614.034874
930.733699	2612.756942
931.037299	2616.278188
931.340861	2617.649382
931.644383	2618.453446
931.947866	2611.720985
932.251309	2613.707199
932.554714	2610.508587
932.858080	2611.635285
933.161407	2607.446086
933.464694	2607.950202
933.767943	2602.954418
934.071153	2607.582197
934.374323	2605.805191
934.677455	2607.572115
934.980548	2604.769233
935.283602	2604.164295
935.586617	2603.193873
935.889593	2606.218565
936.192530	2605.205293
936.495428	2604.854933
936.798287	2607.811570
937.101108	2609.149996
937.403890	2612.552775
937.706632	2618.967643
938.009336	2622.156173
938.312002	2632.389715
938.614628	2643.303813
938.917216	2647.820687
939.219765	2648.506284
939.522275	2648.012251
939.824747	2641.216776
940.127179	2642.086375
940.429573	2641.448669
940.731929	2642.204842
941.034246	2635.366517
941.336524	2632.863584
941.638763	2630.675723
941.940964	2626.892337
942.243126	2624.729682
942.545250	2624.134826
942.847335	2622.869496
943.149381	2617.520832
943.451389	2616.016048
943.753359	2610.372476
944.055290	2611.690738
944.357182	2610.143103
944.659036	2607.708226
944.960851	2607.113370
945.262628	2604.116404
945.564367	2608.958432
945.866067	2610.339708
946.167729	2609.442383
946.469352	2609.966663
946.770937	2606.969697
947.072484	2604.809563
947.373992	2606.316868
947.675462	2607.829214
947.976893	2599.425610
948.278286	2598.896289
948.579641	2597.615836
948.880958	2596.121134
949.182236	2599.034921
949.483476	2598.104828
949.784678	2598.926536
950.085841	2599.176073
950.386967	2597.106680
950.688054	2598.868563
950.989103	2600.408635
951.290114	2600.310333
951.591087	2601.971393
951.892021	2607.977928
952.192917	2609.563371
952.493776	2608.061107
952.794596	2608.592949
953.095378	2610.395161
953.396122	2610.342229
953.696828	2609.381889
953.997496	2607.612444
954.298126	2606.324429
954.598718	2599.949890
954.899272	2598.528285
955.199788	2597.817482
955.500266	2594.800352
955.800706	2591.982347
956.101108	2591.364805
956.401472	2590.228025
956.701798	2589.106368
957.002087	2586.600915
957.302337	2584.314752
957.602550	2584.092941
957.902724	2580.841397
958.202861	2582.424319
958.502960	2579.656726
958.803022	2580.201170
959.103045	2580.022209
959.403031	2577.673032
959.702979	2576.276632
960.002889	2576.158165
960.302762	2575.361662
960.602596	2580.692683
960.902393	2576.437949
961.202153	2576.352249
961.501875	2574.103895
961.801559	2576.011971
962.101205	2574.570201
962.400814	2574.771847
962.700385	2572.747824
962.999918	2569.355128
963.299414	2569.397977
963.598873	2571.875705
963.898293	2568.649366
964.197677	2571.394274
964.497022	2574.575242
964.796331	2573.781261
965.095601	2573.720767
965.394835	2572.450396
965.694030	2573.309913
965.993189	2571.001064
966.292309	2573.723287
966.591393	2572.997361
966.890439	2570.935529
967.189447	2572.021898
967.488419	2569.644994
967.787353	2572.210941
968.086249	2570.867474
968.385108	2568.787998
968.683930	2573.219172
968.982714	2573.415777
969.281462	2571.550550
969.580172	2572.236147
969.878844	2571.477453
970.177480	2573.070458
970.476078	2572.934347
970.774639	2572.757907
971.073162	2573.763617
971.371649	2572.556260
971.670098	2573.047773
971.968510	2572.946950
972.266885	2573.975345
972.565223	2573.375448
972.863524	2571.928637
973.161788	2573.745973
973.460014	2572.122721
973.758204	2569.463513
974.056356	2571.326219
974.354471	2573.519121
974.652550	2572.304203
974.950591	2574.431570
975.248595	2570.902762
975.546563	2572.841086
975.844493	2572.727660
976.142386	2571.583318
976.440243	2573.400654
976.738062	2569.816393
977.035845	2573.057855
977.333590	2571.961404
977.631299	2571.384192
977.928971	2568.493090
978.226606	2568.520817
978.524204	2566.824468
978.821765	2564.427400
979.119290	2569.329922
979.416777	2570.020560
979.714228	2569.342525
980.011642	2568.525858
980.309020	2571.038873
980.606360	2572.087433
980.903664	2570.222206
981.200931	2570.799418
981.498162	2574.703792
981.795356	2571.537947
982.092513	2574.973494
982.389633	2573.670355
982.686717	2579.603793
982.983764	2583.238465
983.280775	2588.675350
983.577749	2587.042016
983.874686	2587.611666
984.171587	2583.586305
984.468451	2581.466500
984.765279	2581.174113
985.062070	2578.456931
985.358824	2575.437280
985.655543	2574.625654
985.952224	2573.075499
986.248869	2575.439800
986.545478	2570.522155
986.842050	2571.245560
987.138586	2570.456620
987.435086	2568.440158
987.731549	2567.885631
988.027975	2568.351938
988.324366	2567.852864
988.620719	2571.507700
988.917037	2569.587021
989.213318	2570.025601
989.509563	2567.653738
989.805772	2565.198696
990.101944	2564.356824
990.398080	2567.290775
990.694180	2566.353121
990.990244	2566.219530
991.286271	2568.291444
991.582262	2566.060734
991.878217	2567.378995
992.174136	2570.297823
992.470019	2568.546023
992.765865	2565.092832
993.061676	2561.944632
993.357450	2562.746175
993.653188	2562.355486
993.948890	2566.990827
994.244556	2567.875549
994.540186	2567.643656
994.835780	2566.469067
995.131337	2566.741289
995.426859	2571.038873
995.722345	2569.874367
996.017795	2569.937381
996.313208	2572.831003
996.608586	2570.330591
996.903928	2572.667166
997.199234	2574.320664
997.494504	2573.047773
997.789738	2574.333267
998.084936	2570.025601
998.380099	2569.304716
998.675225	2569.213975
998.970316	2568.901424
999.265371	2570.179356
999.560390	2565.801114
999.855373	2567.845302
1000.150320	2567.071485
1000.445232	2568.150292
1000.740108	2564.664334
1001.034948	2563.008315
1001.329752	2563.923284
1001.624521	2565.720456
1001.919254	2567.573080
1002.213951	2566.534602
1002.508613	2564.525702
1002.803239	2563.373799
1003.097829	2566.741289
1003.392384	2567.053841
1003.686903	2565.985116
1003.981386	2562.998233
1004.275834	2565.914540
1004.570246	2563.008315
1004.864623	2565.919581
1005.158964	2563.676268
1005.453270	2565.417987
1005.747540	2566.106104
1006.041775	2562.191648
1006.335974	2564.321536
1006.630138	2566.453944
1006.924266	2564.944118
1007.218359	2564.293809
1007.512416	2562.811710
1007.806438	2560.696946
1008.100425	2561.982440
1008.394376	2560.394477
1008.688292	2565.876732
1008.982172	2564.883624
1009.276017	2565.594427
1009.569827	2565.629715
1009.863602	2564.145095
1010.157341	2567.570559
1010.451045	2563.247770
1010.744714	2564.641649
1011.038347	2563.847667
1011.331945	2563.101576
1011.625508	2564.419838
1011.919036	2565.276834
1012.212528	2560.255845
1012.505986	2565.677606
1012.799408	2565.163408
1013.092795	2564.208110
1013.386147	2563.633418
1013.679464	2563.686350
1013.972745	2563.787173
1014.265992	2564.261042
1014.559204	2562.340362
1014.852380	2565.657441
1015.145521	2562.557132
1015.438628	2564.487894
1015.731699	2566.655590
1016.024736	2563.199879
1016.317737	2563.716597
1016.610703	2564.308933
1016.903635	2562.219374
1017.196531	2565.874211
1017.489393	2564.583676
1017.782219	2561.430434
1018.075011	2564.031669
1018.367768	2562.657955
1018.660490	2564.382029
1018.953177	2564.382029
1019.245829	2564.382029
