Dividing Wavelength (nm)	Counts (n)	Blue Motor Position (mm): 18.900000	Red Motor Position (mm): 0.000000	
326.493990	2180.394820
326.888308	2180.394820
327.282561	2180.394820
327.676750	2143.846455
328.070874	2138.767493
328.464933	2139.027112
328.858929	2142.354273
329.252859	2148.101189
329.646726	2155.451191
330.040528	2169.687410
330.434265	2180.914059
330.827938	2201.328212
331.221547	2216.779348
331.615091	2235.688716
332.008571	2253.065574
332.401986	2269.451844
332.795338	2290.274330
333.188625	2309.155972
333.581847	2327.929229
333.975006	2345.842969
334.368100	2365.979858
334.761129	2381.607435
335.154095	2400.196690
335.546996	2422.564289
335.939833	2452.344906
336.332606	2466.167750
336.725315	2478.455562
337.117960	2493.551297
337.510540	2504.213338
337.903056	2514.414112
338.295508	2522.149763
338.687896	2533.174767
339.080220	2539.824048
339.472480	2548.744370
339.864676	2554.103117
340.256807	2557.924311
340.648875	2562.675599
341.040879	2563.439334
341.432818	2570.615416
341.824694	2566.731207
342.216506	2571.734552
342.608253	2572.127762
342.999937	2571.971487
343.391557	2572.399985
343.783113	2572.808318
344.174605	2568.157854
344.566033	2570.862433
344.957397	2570.648184
345.348697	2570.076013
345.739934	2566.093501
346.131106	2564.883624
346.522215	2562.635270
346.913260	2557.039589
347.304241	2559.015721
347.695159	2557.112686
348.086012	2556.144784
348.476802	2554.163611
348.867528	2546.566592
349.258191	2546.526262
349.648789	2546.942158
350.039324	2540.214738
350.429796	2545.966694
350.820203	2544.802188
351.210548	2544.361087
351.600828	2540.466796
351.991045	2542.415202
352.381198	2539.309851
352.771288	2538.369676
353.161314	2538.054603
353.551276	2537.860519
353.941175	2536.796836
354.331010	2536.829603
354.720782	2534.956814
355.110490	2537.913451
355.500135	2537.575694
355.889717	2537.268183
356.279235	2537.946219
356.668689	2537.477391
357.058080	2537.164840
357.447408	2536.774150
357.836672	2537.343801
358.225873	2535.773481
358.615010	2540.434028
359.004084	2542.621889
359.393095	2538.208359
359.782043	2538.606610
360.170927	2538.195756
360.559748	2540.547454
360.948505	2542.601724
361.337199	2543.327650
361.725830	2542.314378
362.114398	2543.436035
362.502903	2542.959646
362.891344	2544.582898
363.279722	2544.280428
363.668037	2545.260933
364.056289	2540.529810
364.444478	2544.943340
364.832603	2546.692621
365.220665	2546.687579
365.608665	2548.018444
365.996601	2547.574823
366.384474	2547.035419
366.772284	2547.194215
367.160031	2550.279402
367.547715	2549.119936
367.935336	2547.809236
368.322893	2547.468958
368.710388	2545.142466
369.097820	2547.158927
369.485189	2543.582229
369.872495	2549.881150
370.259738	2553.835936
370.646918	2550.428116
371.034035	2549.946685
371.421090	2552.497509
371.808081	2552.610935
372.195010	2553.452808
372.581875	2550.637323
372.968678	2554.506409
373.355418	2551.514484
373.742096	2551.476676
374.128710	2553.208312
374.515262	2553.667057
374.901751	2554.105637
375.288177	2554.874413
375.674540	2554.632438
376.060841	2559.068653
376.447079	2551.816953
376.833254	2555.292829
377.219367	2555.930535
377.605417	2557.599157
377.991404	2556.333827
378.377329	2557.231153
378.763191	2555.675957
379.148991	2558.183931
379.534727	2556.540515
379.920402	2555.151677
380.306013	2556.727037
380.691563	2556.911039
381.077049	2555.865000
381.462474	2558.017573
381.847835	2558.589744
382.233134	2560.470094
382.618371	2557.768036
383.003545	2560.210475
383.388657	2559.739127
383.773706	2560.016390
384.158693	2560.540670
384.543618	2560.480176
384.928480	2558.690567
385.313280	2558.259548
385.698017	2559.204764
386.082692	2561.092677
386.467305	2559.935732
386.851856	2562.121072
387.236344	2559.240052
387.620770	2559.419013
388.005133	2558.935063
388.389435	2562.347924
388.773674	2557.705021
389.157851	2562.965465
389.541965	2561.332131
389.926018	2564.041752
390.310008	2564.737431
390.693936	2564.266083
391.077802	2562.678119
391.461606	2564.351783
391.845348	2562.116031
392.229027	2566.466547
392.612645	2564.205589
392.996200	2562.947821
393.379694	2566.290106
393.763125	2565.874211
394.146494	2563.824982
394.529801	2564.291289
394.913047	2566.751372
395.296230	2566.579972
395.679351	2566.665672
396.062410	2568.818245
396.445408	2566.012843
396.828343	2567.714232
397.211217	2566.935374
397.594028	2567.008471
397.976778	2567.184911
398.359466	2569.667679
398.742092	2569.987792
399.124656	2566.905127
399.507158	2566.237174
399.889598	2570.381002
400.271977	2570.431414
400.654294	2569.387895
401.036549	2569.334963
401.418742	2568.382185
401.800874	2569.264387
402.182944	2571.537947
402.564952	2568.911506
402.946898	2569.014850
403.328783	2569.108111
403.710606	2571.394274
404.092367	2571.648853
404.474067	2570.418811
404.855705	2570.628019
405.237282	2569.546692
405.618797	2574.212279
406.000250	2573.909810
406.381642	2571.936198
406.762972	2570.035683
407.144240	2569.289593
407.525447	2570.159192
407.906593	2565.990158
408.287677	2574.330747
408.668700	2571.600962
409.049661	2576.599266
409.430560	2573.133472
409.811399	2573.486353
410.192176	2573.567012
410.572891	2574.960891
410.953545	2573.166240
411.334138	2574.030798
411.714669	2574.890315
412.095139	2570.658266
412.475547	2575.825449
412.855894	2575.772517
413.236180	2572.712536
413.616405	2572.788153
413.996568	2576.571539
414.376670	2575.182702
414.756711	2577.521797
415.136691	2575.628844
415.516609	2578.063721
415.896466	2576.964749
416.276262	2575.210428
416.655997	2577.103381
417.035670	2576.952147
417.415283	2578.935841
417.794834	2579.399627
418.174324	2576.231262
418.553753	2576.158165
418.933121	2579.460121
419.312428	2577.458782
419.691674	2578.247723
420.070859	2576.926941
420.449983	2577.443659
420.829045	2577.552044
421.208047	2580.586818
421.586988	2577.675552
421.965867	2579.470203
422.344686	2578.275449
422.723444	2577.647826
423.102141	2578.645974
423.480777	2580.475913
423.859352	2578.865264
424.237866	2581.617734
424.616319	2578.756880
424.994712	2583.367015
425.373044	2580.090265
425.751314	2578.051118
426.129524	2576.067424
426.507673	2578.212435
426.885762	2574.875191
427.263789	2580.632189
427.641756	2580.090265
428.019662	2580.654874
428.397508	2582.404154
428.775292	2580.531366
429.153016	2582.341140
429.530679	2584.095462
429.908282	2582.739391
430.285824	2581.400965
430.663305	2582.313414
431.040726	2583.785431
431.418086	2581.572364
431.795385	2584.284505
432.172624	2578.759400
432.549802	2582.903229
432.926920	2580.022209
433.303977	2583.162848
433.680974	2581.509350
434.057910	2583.848445
434.434786	2582.331058
434.811601	2585.010431
435.188355	2584.191243
435.565050	2584.939855
435.941683	2582.550348
436.318257	2584.521439
436.694770	2583.689649
437.071222	2585.237283
437.447614	2586.860534
437.823946	2585.091089
438.200218	2584.740729
438.576429	2585.454053
438.952580	2584.546645
439.328670	2587.465473
439.704700	2586.212746
440.080670	2586.908425
440.456580	2585.864907
440.832429	2588.193920
441.208218	2589.154259
441.583947	2587.147880
441.959616	2586.794999
442.335224	2586.530339
442.710773	2587.790627
443.086261	2589.154259
443.461689	2587.704928
443.837057	2588.418251
444.212365	2586.817685
444.587612	2586.512695
444.962800	2585.733837
445.337927	2587.296594
445.712995	2579.800398
446.088002	2586.268199
446.462949	2589.068560
446.837837	2590.311204
447.212664	2588.526636
447.587431	2591.568972
447.962139	2590.898499
448.336786	2590.863211
448.711374	2591.377408
449.085901	2588.738364
449.460369	2591.321956
449.834776	2591.180803
450.209124	2591.352202
450.583412	2592.002511
450.957640	2591.342120
451.331808	2593.910588
451.705917	2594.031576
452.079965	2589.764239
452.453954	2592.562079
452.827883	2591.972264
453.201752	2593.262800
453.575562	2595.095259
453.949311	2592.471339
454.323001	2593.199785
454.696632	2595.022162
455.070202	2594.021493
455.443713	2595.654827
455.817164	2595.372523
456.190556	2595.490990
456.563888	2595.707759
456.937160	2596.451330
457.310373	2596.998295
457.683526	2594.742378
458.056619	2595.916967
458.429653	2593.968561
458.802628	2596.471494
459.175542	2594.026535
459.548398	2598.097266
459.921194	2597.991402
460.293930	2597.560383
460.666607	2599.564242
461.039224	2600.456526
461.411782	2599.385281
461.784280	2601.747062
462.156719	2598.613985
462.529099	2599.372678
462.901419	2601.852926
463.273680	2598.258583
463.645882	2596.814293
464.018024	2597.315887
464.390106	2596.116093
464.762130	2602.099942
465.134094	2603.589603
465.505999	2603.730756
465.877845	2607.947681
466.249631	2609.402054
466.621358	2609.064297
466.993026	2609.573453
467.364634	2612.789709
467.736184	2606.528596
468.107674	2605.285952
468.479105	2605.979110
468.850477	2607.284769
469.221790	2606.402567
469.593043	2602.082298
469.964238	2609.906169
470.335373	2606.621857
470.706449	2607.146137
471.077467	2605.348966
471.448425	2608.960953
471.819324	2612.736777
472.190164	2617.740122
472.560945	2614.186109
472.931667	2610.674945
473.302330	2609.737291
473.672934	2611.058073
474.043479	2610.047322
474.413965	2607.793926
474.784393	2610.294338
475.154761	2611.355501
475.525070	2612.094030
475.895321	2611.267281
476.265513	2607.927516
476.635645	2614.120574
477.005719	2612.275512
477.375734	2614.123094
477.745691	2615.239710
478.115588	2615.915225
478.485427	2617.021758
478.855207	2617.934207
479.224928	2622.882099
479.594591	2625.175824
479.964194	2624.913684
480.333739	2625.977368
480.703226	2627.925774
481.072653	2625.765639
481.442022	2627.240177
481.811333	2630.557256
482.180584	2627.971144
482.549777	2628.182872
482.918912	2626.715897
483.287988	2631.318470
483.657005	2632.183028
484.025964	2632.062040
484.394864	2631.174797
484.763706	2632.288892
485.132489	2631.467184
485.501213	2633.690333
485.869879	2635.444655
486.238487	2637.647639
486.607036	2636.765437
486.975527	2639.953967
487.343959	2637.955149
487.712333	2641.753659
488.080648	2640.997486
488.448905	2643.777682
488.817104	2643.674338
489.185244	2646.807415
489.553326	2648.523928
489.921350	2653.265133
490.289315	2660.355516
490.657222	2666.130158
491.025070	2671.383040
491.392861	2673.646518
491.760593	2674.107784
492.128267	2672.993689
492.495883	2674.052331
492.863440	2671.675427
493.230939	2674.286745
493.598380	2680.441994
493.965763	2680.295800
494.333088	2681.238496
494.700354	2687.494568
495.067563	2691.424147
495.434713	2693.155784
495.801805	2702.565097
496.168839	2704.236240
496.535815	2705.471323
496.902733	2712.821325
497.269593	2720.143601
497.636395	2728.895044
498.003139	2736.038359
498.369825	2736.547516
498.736453	2748.484968
499.103023	2761.080291
499.469535	2769.441044
499.835989	2781.292797
500.202385	2787.387552
500.568723	2792.272430
500.935003	2813.127684
501.301226	2821.465752
501.667390	2848.556913
502.033497	2867.599872
502.399546	2883.439177
502.765537	2887.255330
503.131470	2913.305493
503.497345	2930.926846
503.863163	2943.774227
504.228923	2973.083495
504.594625	3001.402177
504.960269	3013.069928
505.325856	3044.698127
505.691385	3062.775704
506.056856	3100.483535
506.422270	3131.857156
506.787625	3152.767862
507.152924	3198.957434
507.518164	3228.370047
507.883347	3256.197216
508.248472	3280.800567
508.613540	3346.272553
508.978550	3391.320303
509.343503	3434.729679
509.708398	3486.346053
510.073236	3535.474618
510.438016	3592.419492
510.802738	3633.827530
511.167403	3696.887323
511.532010	3733.760843
511.896561	3830.734999
512.261053	3899.907192
512.625488	3945.096095
512.989866	3992.704752
513.354186	4043.927916
513.718449	4130.204743
514.082655	4211.178277
514.446803	4273.171866
514.810894	4375.547619
515.174927	4413.999020
515.538904	4490.937110
515.902822	4607.080253
516.266684	4681.457437
516.630488	4737.187393
516.994235	4821.228468
517.357925	4932.378349
517.721558	5047.914033
518.085133	5143.708559
518.448651	5226.494388
518.812112	5295.144821
519.175516	5392.698710
519.538863	5519.955077
519.902152	5592.726653
520.265385	5734.612449
520.628560	5809.188758
520.991678	5917.601292
521.354739	6037.421957
521.717743	6163.468448
522.080690	6229.928499
522.443580	6412.234266
522.806413	6498.929510
523.169189	6659.858264
523.531908	6757.709581
523.894569	6835.272774
524.257174	6960.890766
524.619722	7121.658203
524.982213	7173.924886
525.344647	7335.168713
525.707025	7471.962943
526.069345	7617.115406
526.431608	7754.212105
526.793815	7933.604086
527.155964	7910.737412
527.518057	8101.194725
527.880093	8226.590906
528.242072	8366.059468
528.603995	8440.164430
528.965860	8528.384622
529.327669	8723.986432
529.689421	8822.667019
530.051117	8920.757791
530.412755	9142.361873
530.774337	9195.067136
531.135862	9303.676275
531.497331	9500.165328
531.858743	9506.071040
532.220098	9821.135594
532.581396	9811.469181
532.942638	10004.328604
533.303824	10136.890786
533.664953	10300.161156
534.026025	10365.935611
534.387040	10549.539475
534.747999	10763.586867
535.108902	10934.197157
535.469748	10919.361042
535.830537	11139.558642
536.191270	11313.307050
536.551947	11473.441823
536.912567	11443.857811
537.273131	11721.585059
537.633638	11740.307904
537.994089	12021.442972
538.354483	11957.657252
538.714821	12318.346769
539.075103	12536.984132
539.435328	12585.540526
539.795497	12526.294365
540.155609	12894.243143
540.515665	13169.427129
540.875665	12965.126807
541.235609	13235.128487
541.595496	13412.395621
541.955328	13713.183627
542.315102	13830.491277
542.674821	13793.234629
543.034483	13864.692985
543.394090	14056.816399
543.753640	14111.195326
544.113134	14567.281117
544.472571	14541.140214
544.831953	14873.269073
545.191278	14769.864925
545.550548	14915.939920
545.909761	15113.459889
546.268918	15420.491364
546.628019	15526.975657
546.987064	15555.238886
547.346053	15564.398663
547.704986	15734.046092
548.063863	15985.592108
548.422684	16055.218004
548.781449	15991.190309
549.140158	16355.511977
549.498811	16275.702950
549.857408	16194.948706
550.215949	16613.195597
550.574434	16528.446239
550.932864	16813.369734
551.291237	17010.972882
551.649555	17090.681086
552.007817	17258.780882
552.366022	17313.883214
552.724173	17433.184640
553.082267	17536.631638
553.440305	18000.563985
553.798288	17604.112523
554.156215	18112.603629
554.514086	18291.521741
554.871902	17947.694884
555.229661	18273.746633
555.587365	18311.628383
555.945014	18279.213764
556.302606	18615.632645
556.660143	18653.463984
557.017625	18980.024889
557.375050	18753.490559
557.732421	19124.363206
558.089735	19110.958778
558.446994	19246.293594
558.804197	19374.240599
559.161345	19467.146544
559.518437	19317.938473
559.875474	19634.875815
560.232455	19846.475727
560.589381	19838.959367
560.946251	19872.215859
561.303065	20253.959754
561.659825	20411.805843
562.016528	20194.761485
562.373177	20097.051320
562.729770	20433.518092
563.086307	20462.787032
563.442789	20686.367246
563.799216	20614.308993
564.155587	20696.230263
564.511904	20772.346645
564.868164	20769.311871
565.224370	20869.184690
565.580520	20825.470325
565.936615	21033.327180
566.292654	20809.590690
566.648638	21188.254441
567.004567	21070.868653
567.360441	21100.848395
567.716260	20914.081206
568.072023	21295.666306
568.427732	21128.688167
568.783385	21001.918271
569.138982	21254.641396
569.494525	21357.498578
569.850013	21197.338600
570.205445	21331.009835
570.560823	21193.101510
570.916145	21058.429606
571.271412	21225.556458
571.626625	21088.966395
571.981782	21225.064946
572.336884	21081.200497
572.691931	21268.217223
573.046923	21038.688447
573.401860	21000.443733
573.756743	21025.891478
574.111570	20997.446768
574.466342	20970.879887
574.821059	21108.334508
575.175722	20845.453458
575.530330	20887.763863
575.884882	20948.119077
576.239380	20884.504757
576.593823	20825.530818
576.948211	20826.191210
577.302544	20702.206551
577.656823	20627.615118
578.011047	20738.596120
578.365216	20643.484671
578.719330	20557.245652
579.073389	20481.575412
579.427394	20653.526649
579.781344	20453.155907
580.135239	20383.035978
580.489080	20366.168277
580.842866	20159.639766
581.196597	20348.398210
581.550273	20344.269505
581.903895	20271.462640
582.257463	20594.507341
582.610975	20144.354987
582.964434	20451.227666
583.317837	20191.245280
583.671186	20297.164963
584.024481	20274.147055
584.377721	20068.818338
584.730906	20132.561208
585.084037	20181.790596
585.437113	20094.129972
585.790135	20299.088163
586.143103	19804.981990
586.496016	19817.915070
586.848874	20073.292362
587.201679	20029.189828
587.554428	19700.884683
587.907124	20031.629746
588.259765	19826.028807
588.612352	19906.513349
588.964884	19502.313633
589.317362	19670.042904
589.669786	19730.935002
590.022155	19796.933788
590.374470	19953.817016
590.726731	19796.401946
591.078937	19529.525782
591.431090	19652.229987
591.783188	19394.392612
592.135232	19384.282578
592.487222	19483.338730
592.839157	19527.214413
593.191038	19417.929759
593.542866	19299.994486
593.894639	19030.000368
594.246358	19251.198637
594.598022	19177.701134
594.949633	18924.685623
595.301190	18880.300784
595.652692	19057.948525
596.004141	19302.726791
596.355535	18644.334455
596.706876	18645.851842
597.058162	18533.613072
597.409395	18761.863915
597.760573	18858.593575
598.111698	18644.795720
598.462768	18572.571109
598.813785	18537.159524
599.164748	18360.371300
599.515657	18394.275580
599.866511	18187.517696
600.217312	18550.465649
600.568060	18093.732070
600.918753	18390.913130
601.269392	18313.062591
601.619978	18070.540242
601.970510	18295.174057
602.320988	18238.435870
602.671412	18451.399415
603.021783	18348.126337
603.372100	18096.451772
603.722363	18223.085557
604.072572	18159.682965
604.422728	18304.754770
604.772830	18059.333757
605.122878	18004.969953
605.472872	18010.248042
605.822813	17992.437645
606.172701	17954.450030
606.522534	18159.395619
606.872314	18188.283951
607.222041	18006.618411
607.571714	18226.435404
607.921333	18055.676399
608.270899	18129.587277
608.620411	18328.959870
608.969870	18074.129543
609.319276	18091.150999
609.668627	18122.315412
610.017926	18254.242408
610.367171	18378.695894
610.716362	18411.135719
611.065500	18225.681751
611.414585	18362.281897
611.763616	18342.818002
612.112594	18307.219894
612.461518	18261.443697
612.810389	18465.761662
613.159207	18311.898085
613.507971	18215.181028
613.856682	18506.068208
614.205340	18434.874512
614.553945	18581.181400
614.902496	18320.604157
615.250994	18566.970387
615.599439	18509.574330
615.947830	18493.598913
616.296169	18517.824178
616.644454	18503.562754
616.992686	18479.148446
617.340864	18682.251493
617.688990	18445.569320
618.037063	18620.608264
618.385082	18467.246282
618.733048	18759.350900
619.080961	18604.403475
619.428821	18661.282814
619.776628	18546.594043
620.124382	18474.896233
620.472083	18501.896653
620.819731	18533.156848
621.167326	18218.951811
621.514868	18268.261857
621.862357	18022.797994
622.209793	18038.828863
622.557176	17877.317856
622.904506	17708.396352
623.251783	17605.743336
623.599007	17378.523409
623.946179	17324.993917
624.293297	17275.199920
624.640363	17025.859409
624.987376	17040.642593
625.334336	16840.539032
625.681243	16687.146803
626.028097	16694.370777
626.374899	16629.717978
626.721647	16502.572517
627.068343	16326.101885
627.414987	16262.863131
627.761577	16237.606950
628.108115	16280.330729
628.454600	16008.932650
628.801032	16101.243738
629.147412	16027.529466
629.493739	16049.549226
629.840014	15861.136101
630.186236	15963.158973
630.532405	15723.111830
630.878521	15919.263126
631.224585	15821.951213
631.570597	15634.143026
631.916556	15671.460167
632.262462	15655.116747
632.608316	15567.698098
632.954117	15509.868501
633.299866	15514.385375
633.645562	15438.377378
633.991206	15187.111147
634.336797	15046.616710
634.682336	15019.802813
635.027823	14915.886988
635.373257	14806.849351
635.718639	14686.128839
636.063968	14644.715761
636.409245	14397.268203
636.754470	14429.690384
637.099642	14279.078352
637.444762	14047.707034
637.789829	14088.552983
638.134845	13934.240743
638.479808	13952.741778
638.824719	13915.797682
639.169577	13754.987395
639.514383	13807.246516
639.859137	13620.983443
640.203839	13707.741701
640.548489	13540.743398
640.893086	13526.981048
641.237632	13401.882294
641.582125	13546.979305
641.926566	13390.050706
642.270955	13408.801278
642.615292	13371.983211
642.959576	13377.568809
643.303809	13411.369746
643.647990	13346.527904
643.992118	13410.863110
644.336195	13176.189837
644.680219	13364.716388
645.024192	13303.925113
645.368112	13534.769630
645.711981	13590.938166
646.055797	13778.592598
646.399562	13726.966141
646.743274	14006.815715
647.086935	14274.160706
647.430544	14249.590122
647.774101	14276.179688
648.117606	14440.997692
648.461059	14398.604109
648.804460	14394.467842
649.147810	14121.179331
649.491108	14019.869782
649.834354	14047.102096
650.177548	13741.729160
650.520690	13555.713104
650.863781	13468.639774
651.206820	13514.872196
651.549807	13341.138911
651.892742	13154.517916
652.235626	13090.167587
652.578458	13091.841250
652.921238	12780.466821
653.263967	12981.918891
653.606644	12801.301910
653.949269	12769.925769
654.291843	12577.913260
654.634365	12738.131211
654.976836	12586.694950
655.319255	12602.506529
655.661622	12556.561453
656.003938	12481.818785
656.346203	12405.929255
656.688416	12475.512302
657.030577	12439.205912
657.372687	12366.202442
657.714746	12331.728512
658.056753	12514.747602
658.398708	12337.059532
658.740612	12336.489882
659.082465	12440.309924
659.424266	12395.378120
659.766016	12422.534816
660.107715	12336.179851
660.449362	12401.583781
660.790958	12369.085982
661.132503	12311.357209
661.473996	12365.355528
661.815438	12389.641287
662.156829	12398.032288
662.498168	12384.532078
662.839456	12384.877397
663.180693	12397.112277
663.521879	12491.177687
663.863013	12469.478041
664.204097	12442.921242
664.545129	12558.351062
664.886110	12536.737115
665.227040	12622.600568
665.567918	12626.315898
665.908746	12663.922906
666.249522	12644.285091
666.590248	12690.817462
666.930922	12801.165799
667.271545	12791.406125
667.612118	12866.259698
667.952639	12775.660081
668.293109	12779.927418
668.633528	12742.080955
668.973896	12711.619783
669.314213	12799.749235
669.654480	12546.466542
669.994695	12599.491919
670.334859	12627.888738
670.674973	12572.519225
671.015035	12610.471552
671.355047	12544.876058
671.695008	12518.404959
672.034918	12528.517514
672.374777	12570.696848
672.714585	12482.368271
673.054342	12529.873584
673.394049	12467.900159
673.733705	12564.362638
674.073310	12470.720685
674.412864	12498.434428
674.752368	12366.600693
675.091820	12374.217877
675.431223	12366.441897
675.770574	12240.894481
676.109875	12160.155361
676.449125	12124.244702
676.788324	12063.869323
677.127473	11899.106771
677.466571	11885.147816
677.805619	11791.110132
678.144616	11706.295239
678.483562	11677.359016
678.822458	11547.387988
679.161303	11525.990810
679.500098	11524.717919
679.838842	11474.805455
680.177535	11496.394196
680.516179	11538.772656
680.854771	11492.300779
681.193314	11711.406969
681.531805	11855.352076
681.870247	12256.401070
682.208638	12662.236640
682.546978	12990.009943
682.885268	13052.842884
683.223508	12748.266451
683.561697	12581.873086
683.899836	12478.267292
684.237925	12287.641101
684.575963	12201.455014
684.913951	12134.359777
685.251889	12078.617218
685.589776	12173.824450
685.927614	12098.318047
686.265401	12064.128942
686.603137	12100.934406
686.940824	12258.891400
687.278460	12375.528577
687.616046	12424.992378
687.953582	12599.622989
688.291068	12514.177952
688.628504	12746.423909
688.965889	12757.824479
689.303224	12728.497566
689.640510	12623.137451
689.977745	12326.503356
690.314930	12101.365425
690.652065	12014.014832
690.989150	11728.062942
691.326185	11500.711944
691.663170	11300.583178
692.000105	11052.208048
692.336990	10940.967427
692.673825	10693.676146
693.010610	10576.537374
693.347345	10375.125634
693.684030	10165.895064
694.020665	10111.924471
694.357251	9916.370552
694.693786	9866.049754
695.030272	9696.117499
695.366707	9579.805477
695.703093	9513.168985
696.039429	9510.003140
696.375716	9441.788767
696.711952	9302.874732
697.048139	9342.019291
697.384276	9296.139750
697.720363	9313.105753
698.056400	9249.473789
698.392388	9202.903610
698.728326	9166.350203
699.064214	9099.869987
699.400053	9148.456628
699.735842	8965.102300
700.071581	8922.698635
700.407270	8845.357252
700.742910	8769.734904
701.078501	8678.510184
701.414042	8555.760608
701.749533	8488.718303
702.084974	8353.506995
702.420366	8458.907440
702.755709	8345.673042
703.091002	8221.174186
703.426246	8245.522959
703.761440	8191.784259
704.096584	8146.481930
704.431679	8084.934483
704.766725	8072.606341
705.101721	8021.083228
705.436668	8055.400883
705.771565	7960.370092
706.106413	8037.426649
706.441212	8084.238804
706.775961	8035.435393
707.110661	8064.510248
707.445311	8218.436840
707.779913	8110.183102
708.114465	8242.037001
708.448967	8284.823795
708.783421	8409.000017
709.117825	8595.996577
709.452180	8633.263307
709.786485	8723.754539
710.120742	8999.404832
710.454949	9004.319957
710.789107	9102.219164
711.123216	9309.017378
711.457275	9471.907141
711.791286	9633.340010
712.125247	9626.587385
712.459159	9621.808371
712.793023	9876.207679
713.126837	9456.503895
713.460602	9597.908260
713.794318	9426.264534
714.127985	9455.508267
714.461602	9145.305906
714.795171	9093.170293
715.128691	8844.117129
715.462162	8589.064991
715.795584	8536.755458
716.128957	8401.705467
716.462281	8228.987975
716.795556	8269.367617
717.128782	8076.382165
717.461960	7807.325702
717.795088	7878.065694
718.128167	7785.210160
718.461198	7624.220912
718.794180	7560.102477
719.127113	7551.799696
719.459997	7409.283756
719.792833	7179.976791
720.125619	7237.327478
720.458357	7093.271466
720.791046	7080.900474
721.123686	7084.187307
721.456278	6929.895231
721.788821	6945.553055
722.121315	6840.991963
722.453761	6899.862557
722.786158	6846.169228
723.118506	6863.775457
723.450805	6829.916548
723.783056	6896.038842
724.115259	6799.704913
724.447412	6800.544265
724.779518	6842.927766
725.111574	6846.116296
725.443582	6928.022443
725.775542	6905.634678
726.107453	7098.002589
726.439315	7007.496233
726.771129	7063.173257
727.102895	7221.949438
727.434612	7341.336564
727.766281	7374.328396
728.097901	7462.498176
728.429473	7445.753984
728.760996	7420.596106
729.092471	7398.697333
729.423897	7345.112388
729.755276	7359.043617
730.086606	7288.976620
730.417887	7388.912454
730.749120	7564.105153
731.080305	7757.173783
731.411442	7886.650779
731.742530	7878.277422
732.073570	7985.800192
732.404562	8077.967608
732.735506	7917.139677
733.066401	8059.847181
733.397249	7995.612798
733.728048	7761.592355
734.058798	7430.990965
734.389501	7214.995167
734.720156	7038.030502
735.050762	6801.161806
735.381320	6699.431322
735.711831	6652.059599
736.042293	6542.868207
736.372707	6561.676752
736.703073	6431.115908
737.033391	6469.070755
737.363661	6481.250183
737.693883	6497.782647
738.024056	6589.531647
738.354182	6634.728112
738.684260	6671.780593
739.014290	6778.267406
739.344272	6887.778912
739.674207	6915.444764
740.004093	6980.858776
740.333931	7000.355439
740.663722	7005.028588
740.993464	7086.181083
741.323159	7082.339724
741.652806	6835.411405
741.982405	6832.905952
742.311956	6891.688326
742.641460	6743.874134
742.970915	6546.729730
743.300323	6536.244130
743.629683	6479.369833
743.958996	6347.311767
744.288260	6261.007213
744.617477	6208.034768
744.946647	6218.225461
745.275768	6051.897631
745.604842	6007.175034
745.933869	5986.372713
746.262847	5943.918636
746.591778	5935.530156
746.920662	5890.497528
747.249498	5879.001177
747.578286	5930.244506
747.907027	6002.171689
748.235720	6065.362553
748.564365	6035.017327
748.892963	6058.456172
749.221514	6216.309822
749.550017	6063.782151
749.878473	5934.632830
750.206881	5982.175952
750.535242	5926.776192
750.863555	5856.540316
751.191821	5877.536722
751.520039	5883.500407
751.848210	5786.306961
752.176334	5802.073169
752.504411	5854.304564
752.832440	5784.109018
753.160421	5709.242842
753.488356	5755.634060
753.816243	5795.834742
754.144082	5646.956866
754.471875	5610.539570
754.799620	5657.785264
755.127318	5668.946379
755.454969	5622.469461
755.782572	5584.386064
756.110129	5630.086644
756.437638	5624.364935
756.765100	5561.829421
757.092515	5556.221138
757.419882	5604.580926
757.747203	5585.968986
758.074477	5650.992309
758.401703	5638.792717
758.728882	5592.461992
759.056014	5632.324917
759.383099	5772.728613
759.710138	5774.135095
760.037129	5760.486171
760.364073	5769.900526
760.690970	5850.647207
761.017820	5835.155742
761.344623	5787.655469
761.671379	5882.083843
761.998088	5999.126832
762.324751	6234.173151
762.651366	6804.340254
762.977935	8071.830003
763.304456	9692.341675
763.630931	10613.126069
763.957359	10262.339899
764.283740	9330.104524
764.610074	8520.248200
764.936362	7531.304885
765.262602	6937.608197
765.588796	6399.379324
765.914943	6053.261263
766.241044	5899.707717
766.567097	5705.766966
766.893104	5449.114262
767.219064	5265.076859
767.544978	5201.739802
767.870845	5129.936127
768.196665	5019.728942
768.522438	4952.394250
768.848165	4918.956277
769.173846	4855.536041
769.499479	4814.899300
769.825066	4761.412657
770.150607	4695.348336
770.476101	4672.093494
770.801548	4672.653062
771.126949	4598.941310
771.452303	4546.404925
771.777611	4501.153008
772.102872	4519.480123
772.428087	4481.968897
772.753256	4444.714770
773.078378	4401.590219
773.403453	4334.961289
773.728482	4318.948064
774.053465	4269.232205
774.378401	4254.189402
774.703291	4261.209208
775.028135	4191.142211
775.352932	4141.741424
775.677683	4129.224239
776.002388	4147.072444
776.327046	4159.060308
776.651658	4086.381993
776.976224	4022.681973
777.300743	4030.296636
777.625216	4050.289852
777.949643	4046.382958
778.274024	4007.172863
778.598359	3953.350984
778.922647	3976.880570
779.246889	3971.650372
779.571086	3967.836740
779.895236	3952.841827
780.219339	3937.234415
780.543397	3931.285854
780.867409	3981.341991
781.191374	3997.597191
781.515294	3939.744910
781.839167	3928.871141
782.162995	3947.422587
782.486776	3930.290226
782.810511	3941.403449
783.134201	3941.844550
783.457844	3904.673602
783.781441	3843.529447
784.104993	3846.990200
784.428498	3866.012994
784.751958	3865.569372
785.075372	3844.220086
785.398739	3804.911688
785.722061	3818.369049
786.045337	3857.853886
786.368568	3892.867220
786.691752	3805.302378
787.014891	3849.578832
787.337983	3972.540136
787.661030	4126.610401
787.984031	4290.306748
788.306987	4463.034323
788.629897	4542.548443
788.952760	4499.000435
789.275579	4429.314045
789.598351	4371.131568
789.921078	4240.129623
790.243759	4036.645969
790.566395	4013.426414
790.888984	4015.011857
791.211529	3907.937750
791.534027	3846.113039
791.856480	3840.724045
792.178888	3779.194242
792.501249	3726.615008
792.823566	3732.520719
793.145836	3769.374074
793.468062	3716.648646
793.790241	3668.608971
794.112375	3698.238353
794.434464	3762.089607
794.756507	3785.841003
795.078505	3769.784928
795.400457	3798.317859
795.722364	3932.485648
796.044226	4038.851474
796.366042	4110.682875
796.687812	4093.535390
797.009538	4099.257100
797.331218	4056.195564
797.652852	4028.562479
797.974442	4009.174201
798.295986	4010.714274
798.617484	3935.414559
798.938938	3846.370138
799.260346	3885.073596
799.581709	3883.006723
799.903026	3812.065086
800.224299	3771.841719
800.545526	3769.341307
800.866708	3729.692632
801.187845	3665.967406
801.508936	3700.640462
801.829983	3706.699929
802.150984	3625.575161
802.471940	3612.453037
802.792851	3625.186992
803.113717	3625.436529
803.434538	3628.592292
803.755314	3574.152871
804.076045	3543.938716
804.396731	3564.758681
804.717372	3590.065273
805.037967	3581.470106
805.358518	3563.833629
805.679024	3590.952516
805.999485	3603.295782
806.319901	3606.320474
806.640272	3620.032412
806.960598	3636.693426
807.280879	3611.540589
807.601115	3623.059625
807.921306	3637.943632
808.241453	3679.961649
808.561554	3659.363495
808.881611	3592.618618
809.201623	3622.127012
809.521590	3634.583703
809.841513	3613.385651
810.161390	3639.624857
810.481223	3621.562402
810.801011	3563.513516
811.120755	3553.274932
811.440453	3593.054677
811.760107	3595.676077
812.079716	3552.612021
812.399281	3518.939634
812.718801	3541.108108
813.038276	3518.813605
813.357707	3518.715302
813.677093	3532.575955
813.996434	3480.846155
814.315731	3488.632217
814.634983	3492.695387
814.954191	3506.046883
815.273354	3536.366903
815.592473	3531.688712
815.911547	3534.514278
816.230577	3571.438210
816.549562	3622.938637
816.868502	3663.076304
817.187399	3694.328938
817.506250	3686.792413
817.825058	3656.999193
818.143821	3743.863315
818.462539	3848.885673
818.781213	3892.965523
819.099843	3950.830407
819.418429	4180.407074
819.736970	4420.358435
820.055466	4657.736287
820.373919	5012.220144
820.692327	5417.135703
821.010691	5831.841183
821.329011	7137.550441
821.647286	9759.915822
821.965517	14194.689436
822.283704	18211.067446
822.601847	20462.482042
822.919945	18725.537361
823.237999	16208.418669
823.556010	13758.584258
823.873976	11707.185003
824.191897	9643.381989
824.509775	8288.385370
824.827609	7171.820204
825.145398	6617.905782
825.463144	6502.417988
825.780845	6618.868642
826.098502	6788.344673
826.416116	7607.756504
826.733685	8900.532681
827.051210	10022.202015
827.368692	10125.260844
827.686129	8918.133870
828.003522	7416.878255
828.320872	6404.417957
828.638177	5715.017484
828.955439	5171.641593
829.272656	4675.012322
829.589830	4389.589753
829.906960	4216.864698
830.224046	4037.051782
830.541088	3908.976227
830.858086	3862.786655
831.175041	3789.957106
831.491952	3766.369547
831.808819	3781.470323
832.125642	3849.089840
832.442421	3984.913648
832.759157	4249.130604
833.075849	4777.856901
833.392497	5619.878308
833.709101	6383.529936
834.025662	6737.489513
834.342179	6413.398773
834.658653	5754.222537
834.975083	5122.220641
835.291469	4554.160741
835.607811	4143.311743
835.924110	4002.845032
836.240366	3812.198676
836.556578	3611.228037
836.872746	3498.648989
837.188871	3463.602888
837.504952	3396.618556
837.820990	3317.454797
838.136984	3270.602313
838.452935	3294.517547
838.768842	3288.175775
839.084706	3311.629743
839.400526	3462.133392
839.716303	3781.961836
840.032037	4287.027478
840.347727	4565.745312
840.663373	4311.920695
840.978977	3933.506482
841.294537	3631.422899
841.610054	3403.545102
841.925527	3295.823206
842.240957	3227.291240
842.556344	3178.860875
842.871687	3122.256279
843.186987	3068.232753
843.502244	3033.342928
843.817458	3000.091477
844.132629	2966.955973
844.447756	2976.037611
844.762840	2963.386836
845.077881	2932.419028
845.392879	2913.199629
845.707833	2910.731984
846.022745	2912.453538
846.337613	2911.899011
846.652438	2896.647000
846.967221	2898.673544
847.281960	2881.813405
847.596656	2879.670914
847.911309	2878.342570
848.225919	2871.511807
848.540485	2868.240098
848.855009	2867.935108
849.169490	2857.802389
849.483928	2851.508508
849.798323	2845.766634
850.112675	2845.186902
850.426984	2854.240814
850.741251	2855.049919
851.055474	2846.663960
851.369654	2838.056189
851.683792	2840.942250
851.997887	2851.271574
852.311938	2854.155114
852.625947	2842.091633
852.939914	2842.971314
853.253837	2851.851307
853.567718	2836.934533
853.881555	2829.743327
854.195350	2848.075483
854.509103	2844.322344
854.822812	2839.107270
855.136479	2833.705674
855.450103	2835.964111
855.763685	2827.600836
856.077224	2825.216371
856.390720	2838.547702
856.704173	2848.975329
857.017584	2842.230265
857.330953	2838.028463
857.644278	2846.979032
857.957561	2856.751308
858.270802	2858.629138
858.584000	2860.625435
858.897155	2844.899556
859.210268	2845.012982
859.523339	2845.111284
859.836367	2841.973166
860.149352	2835.759944
860.462295	2832.306753
860.775195	2841.048114
861.088054	2841.688341
861.400869	2824.203099
861.713642	2820.553303
862.026373	2835.187773
862.339062	2839.097188
862.651708	2844.065245
862.964312	2847.505832
863.276873	2839.629029
863.589392	2847.737725
863.901869	2859.060157
864.214303	2879.229813
864.526696	2896.117679
864.839045	2892.238511
865.151353	2893.619787
865.463619	2887.502347
865.775842	2889.029817
866.088023	2909.391037
866.400162	2917.857655
866.712258	2891.023593
867.024313	2877.462889
867.336325	2884.437325
867.648296	2906.832651
867.960224	2901.536919
868.272110	2885.861451
868.583954	2892.752709
868.895755	2906.081519
869.207515	2892.762791
869.519233	2895.023748
869.830909	2904.972466
870.142542	2916.229362
870.454134	2915.211049
870.765684	2920.683222
871.077191	2919.254054
871.388657	2923.874272
871.700081	2939.423711
872.011463	2949.556430
872.322803	2952.654219
872.634101	2949.450566
872.945357	2966.953452
873.256571	2991.014879
873.567744	2986.124960
873.878874	2972.418063
874.189963	3000.945953
874.501010	3001.291272
874.812015	2993.041423
875.122979	2994.659634
875.433900	2989.434478
875.744780	2995.219202
876.055618	3000.973679
876.366415	2994.276506
876.677169	3010.385513
876.987882	3007.759072
877.298554	2997.180211
877.609183	3018.973119
877.919771	3041.444062
878.230317	3064.197310
878.540822	3116.902573
878.851285	3153.655105
879.161707	3190.531146
879.472087	3286.933131
879.782425	3498.525481
880.092722	3919.802105
880.402977	4434.541722
880.713191	5034.373494
881.023363	6143.840715
881.333494	7405.356697
881.643583	7984.426478
881.953631	7692.069802
882.263637	7093.382371
882.573602	6526.030753
882.883526	5959.644515
883.193408	5390.886415
883.503248	4932.615283
883.813048	4634.151249
884.122806	4347.632229
884.432522	4041.263666
884.742197	3811.213131
885.051831	3618.338585
885.361424	3483.155003
885.670975	3416.904159
885.980485	3332.598423
886.289954	3260.998915
886.599382	3217.576936
886.908768	3179.039836
887.218113	3137.664565
887.527417	3080.810432
887.836680	3031.853267
888.145901	3029.443595
888.455082	3016.450021
888.764221	2965.872125
889.073319	2940.764658
889.382376	2935.695778
889.691392	2941.132662
890.000366	2941.188115
890.309300	2925.444591
890.618193	2938.657456
890.927044	2958.796865
891.235855	2955.331072
891.544625	2941.684668
891.853353	2951.283025
892.162041	2970.749441
892.470687	3010.592200
892.779293	3060.078687
893.087858	3100.599482
893.396381	3169.176818
893.704864	3285.158645
894.013306	3514.871422
894.321707	3808.097698
894.630068	4012.466075
894.938387	4013.945653
895.246665	3964.701142
895.554903	3856.369266
895.863100	3658.340140
896.171256	3497.557580
896.479371	3364.519009
896.787446	3243.634660
897.095480	3143.383754
897.403473	3081.213725
897.711425	3042.376675
898.019336	3032.483411
898.327207	3008.149761
898.635038	2974.500059
898.942827	2956.488017
899.250576	2949.145576
899.558284	2918.684404
899.865952	2894.554921
900.173579	2879.562530
900.481165	2872.083978
900.788711	2859.448326
901.096216	2836.269100
901.403681	2823.328458
901.711105	2830.905313
902.018489	2828.808193
902.325832	2827.368943
902.633135	2838.172136
902.940397	2865.033924
903.247619	2945.989814
903.554800	3124.728965
903.861941	3446.473047
904.169041	3867.016183
904.476101	4166.231349
904.783121	4133.967965
905.090100	3901.926174
905.397039	3634.412304
905.703938	3390.049933
906.010796	3207.290462
906.317614	3100.385233
906.624391	3011.945750
906.931129	2939.945470
907.237826	2880.701830
907.544483	2833.441013
907.851099	2802.367341
908.157675	2785.754218
908.464211	2766.197062
908.770707	2752.601070
909.077163	2741.220665
909.383578	2725.386401
909.689954	2714.661346
909.996289	2714.351315
910.302584	2713.978270
910.608839	2716.403065
910.915054	2707.989379
911.221229	2700.838502
911.527363	2702.504604
911.833458	2712.201263
912.139513	2715.450287
912.445527	2716.919783
912.751502	2726.941597
913.057436	2737.243195
913.363331	2747.466655
913.669186	2769.123452
913.975000	2797.245528
914.280775	2856.058150
914.586510	2924.479210
914.892205	2997.195334
915.197859	3121.185033
915.503475	3302.722025
915.809050	3505.235257
916.114585	3652.111795
916.420081	3679.417205
916.725536	3626.369143
917.030952	3512.252543
917.336328	3387.516753
917.641665	3261.147629
917.946961	3159.344047
918.252218	3095.515478
918.557435	3020.868593
918.862612	2962.854994
919.167750	2914.283477
919.472848	2876.295862
919.777906	2850.006245
920.082925	2828.412462
920.387904	2796.219654
920.692843	2780.264402
920.997743	2768.642022
921.302603	2756.278592
921.607423	2747.265009
921.912204	2735.624984
922.216946	2726.069477
922.521647	2714.668908
922.826310	2706.794626
923.130932	2701.418235
923.435516	2692.112265
923.740059	2685.188240
924.044564	2677.006447
924.349028	2673.323885
924.653454	2665.749551
924.957840	2660.179076
925.262186	2655.636996
925.566493	2652.534166
925.870761	2649.043167
926.174989	2644.743063
926.479178	2637.912299
926.783328	2635.903400
927.087438	2636.314254
927.391509	2631.293264
927.695541	2631.746968
927.999533	2627.797224
928.303486	2624.470063
928.607400	2623.378653
928.911275	2622.335134
929.215110	2620.764815
929.518906	2619.857407
929.822663	2621.233642
930.126381	2619.179372
930.430060	2621.974692
930.733699	2622.067953
931.037299	2621.576440
931.340861	2624.626338
931.644383	2622.685494
931.947866	2622.703138
932.251309	2623.146760
932.554714	2621.142901
932.858080	2616.515122
933.161407	2618.423199
933.464694	2615.438836
933.767943	2612.860285
934.071153	2615.758949
934.374323	2617.001593
934.677455	2614.460852
934.980548	2611.688217
935.283602	2613.676952
935.586617	2612.923300
935.889593	2611.841972
936.192530	2613.049329
936.495428	2614.566716
936.798287	2616.008486
937.101108	2619.630555
937.403890	2622.713221
937.706632	2627.305712
938.009336	2631.023563
938.312002	2640.316930
938.614628	2649.577529
938.917216	2656.685556
939.219765	2655.185813
939.522275	2655.894095
939.824747	2653.416368
940.127179	2650.056439
940.429573	2649.196922
940.731929	2644.546458
941.034246	2641.635192
941.336524	2639.747279
941.638763	2635.134624
941.940964	2634.449027
942.243126	2631.099180
942.545250	2634.010446
942.847335	2630.733696
943.149381	2627.434261
943.451389	2621.417644
943.753359	2620.409413
944.055290	2618.743312
944.357182	2620.527880
944.659036	2616.585698
944.960851	2616.812550
945.262628	2615.900101
945.564367	2613.150152
945.866067	2617.157869
946.167729	2616.121912
946.469352	2617.304062
946.770937	2615.963116
947.072484	2612.535131
947.373992	2612.973711
947.675462	2612.731736
947.976893	2605.301075
948.278286	2608.040942
948.579641	2605.976590
948.880958	2600.527102
949.182236	2606.422732
949.483476	2602.304109
949.784678	2605.626230
950.085841	2608.086313
950.386967	2607.239399
950.688054	2606.402567
950.989103	2605.613627
951.290114	2606.581528
951.591087	2611.887343
951.892021	2612.164606
952.192917	2614.975049
952.493776	2615.968157
952.794596	2619.106275
953.095378	2618.188785
953.396122	2619.549897
953.696828	2615.595111
953.997496	2614.221397
954.298126	2612.114195
954.598718	2611.373145
954.899272	2607.746035
955.199788	2605.202773
955.500266	2604.612958
955.800706	2600.292689
956.101108	2597.285641
956.401472	2596.559714
956.701798	2596.037955
957.002087	2591.848756
957.302337	2589.610484
957.602550	2592.420927
957.902724	2588.655185
958.202861	2586.273240
958.502960	2586.789958
958.803022	2586.716862
959.103045	2585.857345
959.403031	2586.227870
959.702979	2583.649319
960.002889	2584.803744
960.302762	2585.433888
960.602596	2584.024885
960.902393	2583.374577
961.202153	2584.092941
961.501875	2579.833166
961.801559	2579.891139
962.101205	2581.937848
962.400814	2583.477920
962.700385	2580.962384
962.999918	2576.944585
963.299414	2578.923238
963.598873	2577.947774
963.898293	2573.415777
964.197677	2578.749318
964.497022	2578.159503
964.796331	2580.959864
965.095601	2578.429205
965.394835	2579.893660
965.694030	2577.695717
965.993189	2577.967939
966.292309	2578.023392
966.591393	2577.370562
966.890439	2577.902404
967.189447	2579.026581
967.488419	2577.867116
967.787353	2579.074472
968.086249	2577.196642
968.385108	2578.615727
968.683930	2577.660429
968.982714	2580.128073
969.281462	2578.290573
969.580172	2578.335943
969.878844	2581.526994
970.177480	2579.689493
970.476078	2579.079513
970.774639	2580.428022
971.073162	2578.792168
971.371649	2580.443146
971.670098	2579.384503
971.968510	2580.707806
972.266885	2581.738722
972.565223	2578.214956
972.863524	2580.506160
973.161788	2578.300655
973.460014	2581.252251
973.758204	2580.032292
974.056356	2580.060018
974.354471	2580.044894
974.652550	2581.600090
974.950591	2579.243351
975.248595	2579.142528
975.546563	2581.002714
975.844493	2579.298804
976.142386	2577.234451
976.440243	2576.969791
976.738062	2577.907445
977.035845	2578.824935
977.333590	2578.721592
977.631299	2576.841241
977.928971	2574.242526
978.226606	2574.234965
978.524204	2575.878381
978.821765	2574.935685
979.119290	2578.696386
979.416777	2576.488360
979.714228	2576.669842
980.011642	2575.739749
980.309020	2577.431056
980.606360	2578.288052
980.903664	2576.097671
981.200931	2578.035995
981.498162	2578.928279
981.795356	2574.154306
982.092513	2581.889957
982.389633	2580.027250
982.686717	2586.321131
982.983764	2586.797520
983.280775	2593.784559
983.577749	2591.226174
983.874686	2594.381936
984.171587	2592.012594
984.468451	2588.637541
984.765279	2588.919846
985.062070	2583.893815
985.358824	2582.232755
985.655543	2580.213773
985.952224	2581.479103
986.248869	2579.417271
986.545478	2576.959708
986.842050	2577.204204
987.138586	2576.347208
987.435086	2576.140521
987.731549	2572.238668
988.027975	2577.022723
988.324366	2573.083061
988.620719	2575.412074
988.917037	2573.156158
989.213318	2575.492732
989.509563	2575.366704
989.805772	2573.584656
990.101944	2574.824780
990.398080	2576.455593
990.694180	2574.242526
990.990244	2574.550037
991.286271	2575.124728
991.582262	2572.044583
991.878217	2574.035839
992.174136	2576.286714
992.470019	2571.694223
992.765865	2570.799418
993.061676	2569.685323
993.357450	2572.067268
993.653188	2566.153995
993.948890	2575.896025
994.244556	2572.031980
994.540186	2572.440314
994.835780	2576.667321
995.131337	2576.269070
995.426859	2575.424677
995.722345	2575.192784
996.017795	2573.836713
996.313208	2578.192270
996.608586	2579.611355
996.903928	2578.656057
997.199234	2580.130594
997.494504	2578.638413
997.789738	2575.863257
998.084936	2577.345357
998.380099	2575.812846
998.675225	2577.352918
998.970316	2574.645819
999.265371	2575.913669
999.560390	2575.139852
999.855373	2574.522310
1000.150320	2573.874522
1000.445232	2571.532906
1000.740108	2576.150603
1001.034948	2575.011302
1001.329752	2573.680438
1001.624521	2571.414439
1001.919254	2569.924778
1002.213951	2573.289748
1002.508613	2572.820921
1002.803239	2571.280848
1003.097829	2573.446024
1003.392384	2571.850499
1003.686903	2573.577094
1003.981386	2573.176322
1004.275834	2572.591548
1004.570246	2570.234809
1004.864623	2571.611044
1005.158964	2571.288410
1005.453270	2574.408884
1005.747540	2571.275807
1006.041775	2571.185067
1006.335974	2570.975859
1006.630138	2573.259501
1006.924266	2570.058369
1007.218359	2571.553071
1007.512416	2571.676579
1007.806438	2569.355128
1008.100425	2569.226578
1008.394376	2566.511917
1008.688292	2572.452917
1008.982172	2572.596590
1009.276017	2571.850499
1009.569827	2569.466033
1009.863602	2570.602813
1010.157341	2571.051476
1010.451045	2572.452917
1010.744714	2572.011816
1011.038347	2572.016857
1011.331945	2568.677092
1011.625508	2571.525344
1011.919036	2568.563667
1012.212528	2572.462999
1012.505986	2570.128945
1012.799408	2568.946794
1013.092795	2573.138514
1013.386147	2570.018039
1013.679464	2572.800756
1013.972745	2571.573235
1014.265992	2572.790674
1014.559204	2572.316806
1014.852380	2569.377813
1015.145521	2570.980900
1015.438628	2568.525858
1015.731699	2569.571897
1016.024736	2569.080385
1016.317737	2569.161043
1016.610703	2568.677093
1016.903635	2568.908986
1017.196531	2572.992320
1017.489393	2569.700447
1017.782219	2571.648853
1018.075011	2570.859912
1018.367768	2569.975190
1018.660490	2569.763461
1018.953177	2569.763461
1019.245829	2569.763461
