Dividing Wavelength (nm)	Counts (n)	Blue Motor Position (mm): 38.300000	Red Motor Position (mm): 0.000000	
326.493990	2241.077710
326.888308	2241.077710
327.282561	2241.077710
327.676750	2203.385003
328.070874	2199.677234
328.464933	2198.379137
328.858929	2202.956504
329.252859	2207.473378
329.646726	2214.341950
330.040528	2230.337532
330.434265	2241.959912
330.827938	2260.115627
331.221547	2277.152207
331.615091	2292.331121
332.008571	2313.902218
332.401986	2330.845536
332.795338	2351.123578
333.188625	2369.722915
333.581847	2390.847870
333.975006	2407.874367
334.368100	2426.700556
334.761129	2445.196550
335.154095	2462.550722
335.546996	2491.857470
335.939833	2526.754857
336.332606	2544.436704
336.725315	2556.159908
337.117960	2566.353121
337.510540	2581.988259
337.903056	2590.585947
338.295508	2600.552308
338.687896	2610.271653
339.080220	2617.987139
339.472480	2623.461832
339.864676	2626.610032
340.256807	2633.443317
340.648875	2640.972280
341.040879	2640.016981
341.432818	2643.986890
341.824694	2647.200625
342.216506	2647.737508
342.608253	2646.930924
342.999937	2645.796664
343.391557	2648.455873
343.783113	2649.131387
344.174605	2645.829432
344.566033	2647.525780
344.957397	2647.661891
345.348697	2643.981849
345.739934	2642.905562
346.131106	2641.544451
346.522215	2640.148051
346.913260	2636.200828
347.304241	2637.433390
347.695159	2632.578759
348.086012	2631.631022
348.476802	2629.465846
348.867528	2626.068108
349.258191	2621.589043
349.648789	2621.004269
350.039324	2621.241204
350.429796	2621.135339
350.820203	2619.013014
351.210548	2620.774897
351.600828	2617.263733
351.991045	2620.323714
352.381198	2615.247272
352.771288	2619.441512
353.161314	2617.430091
353.551276	2612.857765
353.941175	2615.685852
354.331010	2617.737602
354.720782	2616.426902
355.110490	2615.005296
355.500135	2614.034874
355.889717	2614.541510
356.279235	2612.020933
356.668689	2615.983280
357.058080	2614.874226
357.447408	2615.877416
357.836672	2617.155348
358.225873	2614.899432
358.615010	2615.746346
359.004084	2614.695265
359.393095	2614.775924
359.782043	2616.689042
360.170927	2618.864300
360.559748	2617.871192
360.948505	2622.451081
361.337199	2620.099382
361.725830	2623.154322
362.114398	2617.563682
362.502903	2622.231790
362.891344	2621.712552
363.279722	2620.840432
363.668037	2622.191461
364.056289	2623.277830
364.444478	2623.713890
364.832603	2625.347223
365.220665	2625.858901
365.608665	2627.146915
365.996601	2625.735392
366.384474	2627.966103
366.772284	2627.121710
367.160031	2626.829323
367.547715	2630.751340
367.935336	2630.955507
368.322893	2626.567183
368.710388	2625.574075
369.097820	2628.210599
369.485189	2622.887140
369.872495	2631.053810
370.259738	2632.183028
370.646918	2632.351907
371.034035	2631.930970
371.421090	2631.033645
371.808081	2630.816875
372.195010	2632.591362
372.581875	2637.347690
372.968678	2633.544140
373.355418	2635.863070
373.742096	2634.678399
374.128710	2636.296610
374.515262	2635.454737
374.901751	2636.437762
375.288177	2637.506487
375.674540	2638.560088
376.060841	2638.124028
376.447079	2639.994296
376.833254	2640.042187
377.219367	2640.011940
377.605417	2642.141827
377.991404	2643.535707
378.377329	2640.642084
378.763191	2641.368010
379.148991	2643.593680
379.534727	2642.199801
379.920402	2644.881695
380.306013	2644.385141
380.691563	2647.074597
381.077049	2646.134421
381.462474	2647.568630
381.847835	2648.012251
382.233134	2647.858496
382.618371	2649.227169
383.003545	2648.223980
383.388657	2651.102478
383.773706	2650.850421
384.158693	2650.684063
384.543618	2650.076604
384.928480	2650.585760
385.313280	2654.953920
385.698017	2650.353867
386.082692	2651.969557
386.467305	2651.495688
386.851856	2653.849907
387.236344	2654.245638
387.620770	2653.091214
388.005133	2653.149187
388.389435	2655.337048
388.773674	2648.612148
389.157851	2655.947027
389.541965	2658.495331
389.926018	2659.674961
390.310008	2658.301246
390.693936	2662.455157
391.077802	2661.235198
391.461606	2664.280055
391.845348	2667.972700
392.229027	2668.867505
392.612645	2672.991168
392.996200	2679.849658
393.379694	2684.931141
393.763125	2694.889941
394.146494	2703.268338
394.529801	2714.815101
394.913047	2731.201372
395.296230	2744.734349
395.679351	2770.938267
396.062410	2796.007925
396.445408	2825.697801
396.828343	2859.960003
397.211217	2902.774523
397.594028	2936.623350
397.976778	2993.303563
398.359466	3049.850186
398.742092	3107.372272
399.124656	3145.959784
399.507158	3229.622773
399.889598	3309.144455
400.271977	3406.738673
400.654294	3464.074236
401.036549	3545.347718
401.418742	3591.388576
401.800874	3732.709762
402.182944	3821.653360
402.564952	3946.822690
402.946898	4050.799008
403.328783	4055.603228
403.710606	4139.193121
404.092367	4375.671127
404.474067	4467.427689
404.855705	4495.401051
405.237282	4533.428995
405.618797	4755.532152
406.000250	4822.881967
406.381642	5023.051063
406.762972	5109.627839
407.144240	5225.987752
407.525447	5281.919354
407.906593	5379.138006
408.287677	5565.443928
408.668700	5564.965019
409.049661	5724.877981
409.430560	5804.308921
409.811399	5739.557821
410.192176	6026.298651
410.572891	6079.737403
410.953545	6315.691129
411.334138	6129.405371
411.714669	6328.941802
412.095139	6185.934350
412.475547	6444.243073
412.855894	6545.456839
413.236180	6740.098310
413.616405	6489.265618
413.996568	6712.399690
414.376670	6765.210818
414.756711	6697.868564
415.136691	6806.586088
415.516609	7022.715477
415.896466	7037.470934
416.276262	7233.576860
416.655997	7230.602579
417.035670	7444.377749
417.415283	7781.663709
417.794834	7831.104825
418.174324	7708.410702
418.553753	7637.035525
418.933121	7963.097356
419.312428	8068.875887
419.691674	7860.565328
420.070859	8330.370620
420.449983	8022.187241
420.829045	8379.181592
421.208047	8166.540681
421.586988	8459.681257
421.965867	8482.512643
422.344686	8603.933874
422.723444	8628.401114
423.102141	8006.824325
423.480777	8755.544056
423.859352	8277.194008
424.237866	8894.505982
424.616319	8766.551415
424.994712	9170.746089
425.373044	8746.517870
425.751314	9203.122900
426.129524	9063.132578
426.507673	9193.010345
426.885762	9350.546403
427.263789	9268.836861
427.641756	9184.188326
428.019662	9283.209190
428.397508	9530.119865
428.775292	9216.073624
429.153016	9595.349875
429.530679	9424.187578
429.908282	9472.955701
430.285824	9187.802833
430.663305	9866.579075
431.040726	9315.586001
431.418086	9306.040576
431.795385	9630.642993
432.172624	9714.928565
432.549802	9636.437799
432.926920	9715.374707
433.303977	9592.219318
433.680974	9791.407910
434.057910	9877.346980
434.434786	9950.995717
434.811601	9793.915884
435.188355	10363.624242
435.565050	10087.923538
435.941683	10011.635757
436.318257	10505.242856
436.694770	10631.979984
437.071222	10698.371980
437.447614	10549.967973
437.823946	10441.189955
438.200218	10580.257746
438.576429	10400.243183
438.952580	10641.351489
439.328670	10691.833604
439.704700	10474.638011
440.080670	10461.478079
440.456580	11018.341577
440.832429	10777.976841
441.208218	10377.260563
441.583947	10700.869872
441.959616	10850.347645
442.335224	10660.502833
442.710773	10796.722371
443.086261	11000.778197
443.461689	10282.736407
443.837057	10937.776377
444.212365	11216.806762
444.587612	10851.227327
444.962800	11081.660990
445.337927	10853.553819
445.712995	10440.027969
446.088002	11526.212621
446.462949	11183.673779
446.837837	11159.004893
447.212664	11141.547377
447.587431	11671.475990
447.962139	12385.885628
448.336786	14649.638447
448.711374	15198.602457
449.085901	13053.248697
449.460369	12664.306034
449.834776	12103.190323
450.209124	12986.077843
450.583412	13396.831058
450.957640	14347.017982
451.331808	13478.051608
451.705917	12471.998618
452.079965	11773.571958
452.453954	12682.882686
452.827883	12311.052219
453.201752	12599.381013
453.575562	12121.935853
453.949311	12545.412941
454.323001	12508.310049
454.696632	12741.531470
455.070202	13021.524716
455.443713	13253.511054
455.817164	13720.377353
456.190556	13707.421588
456.563888	14066.303851
456.937160	14234.849788
457.310373	13573.442842
457.683526	13661.925174
458.056619	13206.308210
458.429653	13367.730998
458.802628	12791.685909
459.175542	13168.073579
459.548398	14111.770017
459.921194	14454.281133
460.293930	14526.379715
460.666607	15403.842954
461.039224	16446.393898
461.411782	17144.538253
461.784280	17002.992736
462.156719	17067.065801
462.529099	16752.719612
462.901419	15688.849627
463.273680	15470.519775
463.645882	15344.276680
464.018024	15070.544547
464.390106	15297.081397
464.762130	16017.936151
465.134094	16786.918799
465.505999	18787.528430
465.877845	22051.340308
466.249631	24879.420054
466.621358	24548.727924
466.993026	23113.917237
467.364634	22554.981824
467.736184	21083.048080
468.107674	20285.227511
468.479105	20415.032181
468.850477	19884.448218
469.221790	19469.440269
469.593043	18780.808572
469.964238	18220.902737
470.335373	17874.827526
470.706449	18330.820056
471.077467	17897.331237
471.448425	19732.999354
471.819324	23784.839361
472.190164	25760.903613
472.560945	22188.585722
472.931667	19828.516617
473.302330	19194.518424
473.672934	18750.034848
474.043479	19054.639007
474.413965	18869.999186
474.784393	18483.932501
475.154761	19192.728814
475.525070	19165.199073
475.895321	18849.930352
476.265513	19428.755637
476.635645	20021.537356
477.005719	19804.369490
477.375734	19988.490072
477.745691	20467.182918
478.115588	20993.925522
478.485427	21542.508924
478.855207	22597.400613
479.224928	24365.262691
479.594591	26590.077639
479.964194	26594.057630
480.333739	26824.324934
480.703226	26382.767748
481.072653	26080.036378
481.442022	26664.008680
481.811333	27575.908041
482.180584	27487.960071
482.549777	26540.228189
482.918912	26182.800299
483.287988	26308.851830
483.657005	25966.176877
484.025964	25727.150567
484.394864	25629.624405
484.763706	25316.601519
485.132489	24755.269038
485.501213	24923.877990
485.869879	24837.394475
486.238487	24668.689741
486.607036	24800.901562
486.975527	24525.089953
487.343959	24837.281049
487.712333	24763.954946
488.080648	24430.510345
488.448905	24927.575676
488.817104	24680.236504
489.185244	25367.887697
489.553326	25327.313971
489.921350	26333.203124
490.289315	28627.986766
490.657222	30408.502140
491.025070	30893.471222
491.392861	30669.273467
491.760593	29802.293308
492.128267	28911.965045
492.495883	27863.271454
492.863440	26981.119943
493.230939	26112.372859
493.598380	25958.761340
493.965763	25567.194756
494.333088	25104.510094
494.700354	25056.044441
495.067563	24911.688480
495.434713	24662.116077
495.801805	24828.373330
496.168839	24624.057886
496.535815	24478.328210
496.902733	24688.627505
497.269593	24371.876685
497.636395	24540.306676
498.003139	24495.553833
498.369825	24231.747732
498.736453	24439.193733
499.103023	24323.431197
499.469535	24331.842362
499.835989	24553.857298
500.202385	24570.427570
500.568723	24079.020935
500.935003	24312.822088
501.301226	23941.354585
501.667390	24792.321519
502.033497	25016.980540
502.399546	24740.531225
502.765537	24299.442866
503.131470	24694.828124
503.497345	24823.753113
503.863163	24054.341966
504.228923	24629.220027
504.594625	24852.522978
504.960269	24384.867738
505.325856	24869.662901
505.691385	24274.685759
506.056856	24888.113524
506.422270	24850.428378
506.787625	24426.192597
507.152924	24836.824825
507.518164	24857.806107
507.883347	24673.728374
508.248472	24354.948490
508.613540	25135.235927
508.978550	24937.436173
509.343503	24937.219404
509.708398	25169.384703
510.073236	25339.405178
510.438016	25551.811675
510.802738	25207.024478
511.167403	25464.524096
511.532010	25179.099006
511.896561	25946.143332
512.261053	25910.620841
512.625488	25743.746046
512.989866	25630.655321
513.354186	25478.046991
513.718449	25600.451248
514.082655	25976.528886
514.446803	25704.563677
514.810894	26174.799988
515.174927	25659.226060
515.538904	25698.206783
515.902822	26178.001120
516.266684	25935.917351
516.630488	25857.393818
516.994235	25807.562012
517.357925	26125.066484
517.721558	26301.711036
518.085133	26412.664311
518.448651	26308.869474
518.812112	26046.409361
519.175516	26265.845747
519.538863	26409.909321
519.902152	26202.576745
520.265385	26472.273435
520.628560	26270.665090
520.991678	26268.426818
521.354739	26326.248852
521.717743	26415.182368
522.080690	26179.780648
522.443580	26514.646854
522.806413	26499.964493
523.169189	26607.721677
523.531908	26660.686560
523.894569	26260.176969
524.257174	26355.790014
524.619722	26516.814550
524.982213	26217.135598
525.344647	26258.397442
525.707025	26413.644816
526.069345	26381.293211
526.431608	26349.120567
526.793815	26533.404987
527.155964	25996.847257
527.518057	26174.905852
527.880093	26081.405051
528.242072	26316.736195
528.603995	26034.678596
528.965860	25835.658883
529.327669	25873.981735
529.689421	25871.325047
530.051117	25694.924991
530.412755	25876.464503
530.774337	25668.975652
531.135862	25546.271447
531.497331	25745.880974
531.858743	25313.791075
532.220098	25781.443794
532.581396	25463.228519
532.942638	25389.655400
533.303824	25500.588511
533.664953	25502.398285
534.026025	25170.216493
534.387040	25403.989921
534.747999	25462.910927
535.108902	25620.053774
535.469748	25118.640448
535.830537	25289.916171
536.191270	25418.200933
536.551947	25267.772903
536.912567	24902.972325
537.273131	25296.867922
537.633638	25002.267932
537.994089	25195.853281
538.354483	24715.867379
538.714821	25234.324847
539.075103	25262.290648
539.435328	25042.367791
539.795497	24617.764005
540.155609	25008.213973
540.515665	25313.967516
540.875665	24523.736403
541.235609	24849.911660
541.595496	24793.549040
541.955328	25149.023483
542.315102	25073.474230
542.674821	24604.858651
543.034483	24482.923222
543.394090	24652.205168
543.753640	24450.793428
544.113134	25078.192750
544.472571	24687.946949
544.831953	24968.719053
545.191278	24611.223108
545.550548	24514.674929
545.909761	24709.760022
546.268918	24948.551917
546.628019	24917.069912
546.987064	24621.111331
547.346053	24354.918243
547.704986	24473.397962
548.063863	24631.675069
548.422684	24638.793178
548.781449	24153.897193
549.140158	24579.970475
549.498811	24144.369412
549.857408	23899.628954
550.215949	24304.156345
550.574434	23996.925744
550.932864	24200.207753
551.291237	24380.224836
551.649555	24224.566608
552.007817	24281.564414
552.366022	24145.412931
552.724173	24174.225646
553.082267	24139.073680
553.440305	24620.413131
553.798288	23859.382903
554.156215	24350.981102
554.514086	24479.021369
554.871902	23865.921279
555.229661	24142.768846
555.587365	23997.339119
555.945014	23876.076684
556.302606	24107.909267
556.660143	24076.603701
557.017625	24318.831144
557.375050	23839.997146
557.732421	24234.941303
558.089735	24050.959352
558.446994	24104.423309
558.804197	24142.620132
559.161345	24056.459251
559.518437	23830.781916
559.875474	24013.397714
560.232455	24192.552760
560.589381	24010.481407
560.946251	24006.491334
561.303065	24307.629700
561.659825	24408.871192
562.016528	24003.643082
562.373177	23742.128185
562.729770	24101.857362
563.086307	23957.793788
563.442789	24129.946671
563.799216	23968.627227
564.155587	23965.962977
564.511904	23952.268683
564.868164	23901.506784
565.224370	23865.003789
565.580520	23788.085864
565.936615	23920.511934
566.292654	23607.761270
566.648638	23869.528225
567.004567	23707.492937
567.360441	23645.484224
567.716260	23379.346589
568.072023	23694.242264
568.427732	23486.017405
568.783385	23243.832812
569.138982	23492.076872
569.494525	23526.114743
569.850013	23270.797944
570.205445	23384.057548
570.560823	23193.786757
570.916145	22950.104942
571.271412	23136.287357
571.626625	22883.286969
571.981782	22981.534016
572.336884	22800.501140
572.691931	22938.366616
573.046923	22667.230677
573.401860	22562.261251
573.756743	22575.446388
574.111570	22469.922436
574.466342	22392.041650
574.821059	22478.505000
575.175722	22185.492974
575.530330	22157.670846
575.884882	22173.457219
576.239380	22095.815888
576.593823	21989.893684
576.948211	21954.290535
577.302544	21811.081437
577.656823	21675.373575
578.011047	21782.293927
578.365216	21643.316878
578.719330	21527.859331
579.073389	21418.161303
579.427394	21570.033624
579.781344	21321.698824
580.135239	21217.898946
580.489080	21174.847492
580.842866	20939.574321
581.196597	21159.517343
581.550273	21118.384048
581.903895	21003.823827
582.257463	21306.270373
582.610975	20842.222079
582.964434	21169.128303
583.317837	20845.924806
583.671186	20943.072882
584.024481	20922.855335
584.377721	20686.100065
584.730906	20764.076632
585.084037	20756.209912
585.437113	20676.194197
585.790135	20887.993235
586.143103	20342.910914
586.496016	20365.036538
586.848874	20604.879515
587.201679	20522.552431
587.554428	20212.377797
587.907124	20549.555372
588.259765	20305.828186
588.612352	20383.507326
588.964884	19955.841039
589.317362	20122.554517
589.669786	20185.188333
590.022155	20193.541525
590.374470	20427.756054
590.726731	20207.681962
591.078937	19977.041612
591.431090	20069.214069
591.783188	19818.023455
592.135232	19788.842736
592.487222	19892.095649
592.839157	19901.562936
593.191038	19779.637589
593.542866	19677.861734
593.894639	19389.089318
594.246358	19601.052193
594.598022	19494.467077
594.949633	19257.137116
595.301190	19223.278206
595.652692	19392.529906
596.004141	19626.008425
596.355535	18951.711249
596.706876	18977.658068
597.058162	18865.568012
597.409395	19109.098592
597.760573	19158.728752
598.111698	18934.099978
598.462768	18873.268374
598.813785	18847.571092
599.164748	18652.168408
599.515657	18709.695535
599.866511	18504.308845
600.217312	18855.147947
600.568060	18360.656125
600.918753	18676.376028
601.269392	18571.933403
601.619978	18373.226242
601.970510	18570.685718
602.320988	18508.855966
602.671412	18715.565958
603.021783	18635.840110
603.372100	18354.594137
603.722363	18503.666098
604.072572	18448.651986
604.422728	18589.612730
604.772830	18339.029575
605.122878	18312.200554
605.472872	18285.285834
605.822813	18277.194782
606.172701	18258.832379
606.522534	18433.581456
606.872314	18455.452502
607.222041	18296.598183
607.571714	18509.770935
607.921333	18336.292228
608.270899	18413.071522
608.620411	18583.001256
608.969870	18367.628041
609.319276	18362.692751
609.668627	18391.507986
610.017926	18530.154841
610.367171	18635.749370
610.716362	18697.480819
611.065500	18507.444443
611.414585	18637.060070
611.763616	18634.962950
612.112594	18565.631961
612.461518	18539.571716
612.810389	18730.349142
613.159207	18596.577084
613.507971	18500.222990
613.856682	18758.125900
614.205340	18684.235187
614.553945	18839.258230
614.902496	18584.770701
615.250994	18813.099682
615.599439	18755.282689
615.947830	18741.807685
616.296169	18810.044743
616.644454	18776.911760
616.992686	18732.360563
617.340864	18950.392987
617.688990	18705.322334
618.037063	18870.962046
618.385082	18735.891891
618.733048	19010.297018
619.080961	18887.307988
619.428821	18912.531401
619.776628	18794.003792
620.124382	18722.111897
620.472083	18776.228683
620.819731	18792.239388
621.167326	18484.890320
621.514868	18525.882463
621.862357	18304.447259
622.209793	18304.991704
622.557176	18135.666908
622.904506	17968.782031
623.251783	17888.136172
623.599007	17633.825084
623.946179	17580.877845
624.293297	17512.729007
624.640363	17254.705109
624.987376	17282.862474
625.334336	17086.728822
625.681243	16931.587312
626.028097	16941.231039
626.374899	16867.408382
626.721647	16728.491826
627.068343	16564.835808
627.414987	16497.606980
627.761577	16461.552648
628.108115	16497.680077
628.454600	16229.077318
628.801032	16331.594222
629.147412	16259.472955
629.493739	16280.688651
629.840014	16095.027996
630.186236	16187.407140
630.532405	15950.311592
630.878521	16143.430634
631.224585	16050.318002
631.570597	15868.092894
631.916556	15897.956689
632.262462	15880.254677
632.608316	15787.943589
632.954117	15737.471556
633.299866	15739.409880
633.645562	15638.942204
633.991206	15408.931998
634.336797	15283.137566
634.682336	15245.878398
635.027823	15117.389469
635.373257	14996.610984
635.718639	14911.009671
636.063968	14855.330127
636.409245	14610.380462
636.754470	14632.511127
637.099642	14483.280370
637.444762	14255.687398
637.789829	14298.096104
638.134845	14126.084373
638.479808	14157.800793
638.824719	14087.655658
639.169577	13952.020893
639.514383	13994.258200
639.859137	13819.173886
640.203839	13910.212083
640.548489	13743.828801
640.893086	13743.833842
641.237632	13609.048512
641.582125	13763.244805
641.926566	13585.211416
642.270955	13602.696658
642.615292	13554.712435
642.959576	13565.354311
643.303809	13600.181122
643.647990	13531.823076
643.992118	13593.907406
644.336195	13360.252446
644.680219	13581.964912
645.024192	13493.154905
645.368112	13741.267895
645.711981	13787.913691
646.055797	13976.188184
646.399562	13944.348257
646.743274	14209.134863
647.086935	14484.291122
647.430544	14450.129743
647.774101	14481.820956
648.117606	14624.951917
648.461059	14602.337301
648.804460	14587.717955
649.147810	14313.910204
649.491108	14225.004415
649.834354	14232.291403
650.177548	13922.446964
650.520690	13731.442686
650.863781	13652.241118
651.206820	13701.798181
651.549807	13534.318447
651.892742	13322.050582
652.235626	13258.958021
652.578458	13265.720729
652.921238	12961.446765
653.263967	13164.063341
653.606644	12990.922392
653.949269	12972.136532
654.291843	12759.803132
654.634365	12935.005913
654.976836	12781.787604
655.319255	12779.062860
655.661622	12729.107546
656.003938	12657.606340
656.346203	12581.527767
656.688416	12666.783761
657.030577	12612.339299
657.372687	12524.464426
657.714746	12510.775173
658.056753	12708.232128
658.398708	12512.617715
658.740612	12518.271369
659.082465	12615.618570
659.424266	12591.673089
659.766016	12618.118982
660.107715	12522.140454
660.449362	12604.966612
660.790958	12555.497769
661.132503	12496.521310
661.473996	12562.744428
661.815438	12572.345305
662.156829	12606.640275
662.498168	12582.130185
662.839456	12583.897109
663.180693	12599.968308
663.521879	12689.211854
663.863013	12663.895180
664.204097	12636.428453
664.545129	12759.863626
664.886110	12738.312693
665.227040	12830.739728
665.567918	12834.571005
665.908746	12860.790046
666.249522	12844.764218
666.590248	12906.062128
666.930922	13016.874252
667.271545	12985.162873
667.612118	13068.772930
667.952639	12977.265906
668.293109	12994.239471
668.633528	12942.310545
668.973896	12917.681988
669.314213	12992.762413
669.654480	12736.137435
669.994695	12819.671875
670.334859	12835.203670
670.674973	12780.739044
671.015035	12811.056543
671.355047	12757.945467
671.695008	12729.914131
672.034918	12745.740833
672.374777	12776.189402
672.714585	12696.231661
673.054342	12730.836662
673.394049	12689.085826
673.733705	12777.172427
674.073310	12681.312366
674.412864	12696.892052
674.752368	12558.222513
675.091820	12588.570259
675.431223	12564.566805
675.770574	12433.963112
676.109875	12358.081143
676.449125	12317.744351
676.788324	12265.404571
677.127473	12098.794437
677.466571	12087.966038
677.805619	11971.911115
678.144616	11904.788151
678.483562	11879.594985
678.822458	11744.867628
679.161303	11720.264277
679.500098	11707.558048
679.838842	11669.157059
680.177535	11691.355780
680.516179	11755.161664
680.854771	11702.587471
681.193314	11918.658886
681.531805	12076.991446
681.870247	12512.978157
682.208638	12924.986620
682.546978	13220.768760
682.885268	13261.985234
683.223508	12960.877115
683.561697	12804.739977
683.899836	12709.200029
684.237925	12512.363136
684.575963	12427.754931
684.913951	12341.830984
685.251889	12290.300309
685.589776	12395.307544
685.927614	12317.751913
686.265401	12283.678754
686.603137	12336.411744
686.940824	12485.544198
687.278460	12618.050927
687.616046	12657.422338
687.953582	12816.115341
688.291068	12749.740989
688.628504	12983.524498
688.965889	12986.559273
689.303224	12951.298922
689.640510	12843.602232
689.977745	12525.749920
690.314930	12304.728092
690.652065	12210.987836
690.989150	11920.098136
691.326185	11688.290758
691.663170	11488.202321
692.000105	11247.804818
692.336990	11131.946499
692.673825	10872.296829
693.010610	10760.935220
693.347345	10546.368589
693.684030	10356.246513
694.020665	10294.525146
694.357251	10100.528943
694.693786	10031.076966
695.030272	9870.856494
695.366707	9756.994473
695.703093	9695.757057
696.039429	9689.264050
696.375716	9598.798024
696.711952	9474.452923
697.048139	9518.691569
697.384276	9475.390578
697.720363	9490.347681
698.056400	9424.154811
698.392388	9373.539106
698.728326	9338.389660
699.064214	9273.121842
699.400053	9317.504160
699.735842	9132.088001
700.071581	9093.447557
700.407270	9019.259416
700.742910	8945.812325
701.078501	8848.366821
701.414042	8719.409065
701.749533	8658.746340
702.084974	8520.044033
702.420366	8641.878639
702.755709	8514.352570
703.091002	8377.144966
703.426246	8411.981859
703.761440	8360.531843
704.096584	8317.064494
704.431679	8256.905885
704.766725	8237.492401
705.101721	8189.878703
705.436668	8238.067093
705.771565	8126.430741
706.106413	8210.565078
706.441212	8248.225018
706.775961	8202.005199
707.110661	8257.231039
707.445311	8390.347748
707.779913	8287.601470
708.114465	8415.924042
708.448967	8448.459648
708.783421	8603.250798
709.117825	8781.939537
709.452180	8814.515473
709.786485	8901.722394
710.120742	9188.788379
710.454949	9190.061270
710.789107	9297.223598
711.123216	9511.815435
711.457275	9680.699130
711.791286	9837.166463
712.125247	9839.177883
712.459159	9826.295215
712.793023	10053.099247
713.126837	9633.876893
713.460602	9793.784814
713.794318	9623.799627
714.127985	9643.820569
714.461602	9306.625350
714.795171	9263.233618
715.128691	9019.776134
715.462162	8772.084081
715.795584	8716.732212
716.128957	8552.108292
716.462281	8385.992191
716.795556	8438.823483
717.128782	8227.747851
717.461960	7971.664797
717.795088	8040.731125
718.128167	7947.381559
718.461198	7785.578165
718.794180	7727.451140
719.127113	7718.268678
719.459997	7554.269862
719.792833	7327.324677
720.125619	7395.690285
720.458357	7252.264417
720.791046	7245.297542
721.123686	7234.398568
721.456278	7067.952271
721.788821	7091.509582
722.121315	6994.603482
722.453761	7060.125879
722.786158	6995.868812
723.118506	7006.760225
723.450805	6976.614125
723.783056	7032.636467
724.115259	6952.981195
724.447412	6952.988757
724.779518	6998.492732
725.111574	6999.836200
725.443582	7077.626245
725.775542	7055.682102
726.107453	7255.684840
726.439315	7163.214955
726.771129	7229.730459
727.102895	7406.034733
727.434612	7512.554313
727.766281	7547.539921
728.097901	7623.154708
728.429473	7619.638503
728.760996	7611.383614
729.092471	7581.071156
729.423897	7524.267434
729.755276	7526.858588
730.086606	7449.413862
730.417887	7552.160139
730.749120	7757.947600
731.080305	7946.398534
731.411442	8065.442862
731.742530	8046.228504
732.073570	8158.598343
732.404562	8241.729491
732.735506	8096.571987
733.066401	8237.373934
733.397249	8156.057602
733.728048	7918.649503
734.058798	7584.433606
734.389501	7356.860797
734.720156	7182.935949
735.050762	6953.989426
735.381320	6868.569595
735.711831	6803.505943
736.042293	6699.625406
736.372707	6717.619805
736.703073	6582.106028
737.033391	6620.703622
737.363661	6632.073944
737.693883	6664.228944
738.024056	6751.720690
738.354182	6786.665968
738.684260	6823.446227
739.014290	6942.583816
739.344272	7049.748664
739.674207	7079.844353
740.004093	7157.316805
740.333931	7174.497057
740.663722	7172.702406
740.993464	7251.316680
741.323159	7235.573157
741.652806	6984.521174
741.982405	7012.187027
742.311956	7060.093112
742.641460	6883.166256
742.970915	6694.584252
743.300323	6681.895668
743.629683	6640.381766
743.958996	6499.884808
744.288260	6415.238794
744.617477	6362.558736
744.946647	6352.657910
745.275768	6194.305186
745.604842	6154.512838
745.933869	6134.839735
746.262847	6096.247182
746.591778	6082.988947
746.920662	6039.362802
747.249498	6034.992121
747.578286	6084.944915
747.907027	6155.682385
748.235720	6216.642538
748.564365	6185.296644
748.892963	6228.955557
749.221514	6374.566765
749.550017	6188.734711
749.878473	6073.806485
750.206881	6131.600793
750.535242	6077.867135
750.863555	6012.541342
751.191821	6021.154154
751.520039	6017.257342
751.848210	5927.262663
752.176334	5952.675120
752.504411	5999.825032
752.832440	5924.517755
753.160421	5854.019739
753.488356	5908.481845
753.816243	5934.345485
754.144082	5786.440551
754.471875	5754.063741
754.799620	5800.291122
755.127318	5812.752854
755.454969	5768.020175
755.782572	5736.336523
756.110129	5777.111896
756.437638	5754.754379
756.765100	5699.392427
757.092515	5704.279826
757.419882	5760.362662
757.747203	5737.521194
758.074477	5796.137211
758.401703	5774.278768
758.728882	5733.339557
759.056014	5797.521008
759.383099	5917.739924
759.710138	5929.465648
760.037129	5914.379995
760.364073	5918.259163
760.690970	6001.763356
761.017820	5982.390201
761.344623	5941.995436
761.671379	6043.549480
761.998088	6170.342061
762.324751	6422.573673
762.651366	7046.527367
762.977935	8395.681288
763.304456	10042.916116
763.630931	10912.563046
763.957359	10485.083282
764.283740	9526.613742
764.610074	8673.161519
764.936362	7675.123963
765.262602	7085.732420
765.588796	6541.534821
765.914943	6209.731116
766.241044	6049.472836
766.567097	5837.152038
766.893104	5576.978088
767.219064	5403.753960
767.544978	5337.558569
767.870845	5256.842134
768.196665	5153.581659
768.522438	5086.183953
768.848165	5053.797060
769.173846	4978.056244
769.499479	4931.922125
769.825066	4880.104104
770.150607	4822.340043
770.476101	4798.359274
770.801548	4790.492553
771.126949	4713.887180
771.452303	4662.570754
771.777611	4619.516780
772.102872	4639.671313
772.428087	4603.405252
772.753256	4561.911515
773.078378	4513.435779
773.403453	4441.725366
773.728482	4428.439405
774.053465	4385.151017
774.378401	4374.589799
774.703291	4369.727607
775.028135	4293.351605
775.352932	4245.150613
775.677683	4238.115683
776.002388	4254.680914
776.327046	4265.282461
776.651658	4188.828321
776.976224	4127.984115
777.300743	4137.103562
777.625216	4153.338598
777.949643	4150.099657
778.274024	4106.481073
778.598359	4067.601174
778.922647	4094.853652
779.246889	4078.530396
779.571086	4072.055034
779.895236	4053.289338
780.219339	4041.896331
780.543397	4040.479767
780.867409	4092.164196
781.191374	4106.415538
781.515294	4037.588665
781.839167	4035.788973
782.162995	4056.878640
782.486776	4043.481774
782.810511	4052.691962
783.134201	4047.250036
783.457844	3998.328159
783.781441	3944.884366
784.104993	3952.927527
784.428498	3969.477635
784.751958	3966.717603
785.075372	3942.888069
785.398739	3904.986154
785.722061	3920.744801
786.045337	3962.916573
786.368568	3992.636696
786.691752	3905.989344
787.014891	3963.138384
787.337983	4091.697890
787.661030	4249.992641
787.984031	4416.890121
788.306987	4582.703754
788.629897	4667.450591
788.952760	4620.207418
789.275579	4550.042118
789.598351	4484.529803
789.921078	4338.744675
790.243759	4137.768995
790.566395	4127.011172
790.888984	4119.209987
791.211529	4011.450282
791.534027	3951.831076
791.856480	3934.867593
792.178888	3878.167216
792.501249	3831.665092
792.823566	3842.243953
793.145836	3868.354610
793.468062	3811.152637
793.790241	3769.406842
794.112375	3799.068991
794.434464	3866.038199
794.756507	3888.010068
795.078505	3867.303529
795.400457	3906.952204
795.722364	4046.231723
796.044226	4152.602590
796.366042	4226.120257
796.687812	4200.634704
797.009538	4200.359961
797.331218	4162.609280
797.652852	4139.624139
797.974442	4120.369452
798.295986	4114.219244
798.617484	4036.230074
798.938938	3949.066003
799.260346	3994.010410
799.581709	3986.176457
799.903026	3911.428749
800.224299	3873.206720
800.545526	3866.554918
800.866708	3828.335410
801.187845	3771.801390
801.508936	3804.062254
801.829983	3798.217036
802.150984	3722.506467
802.471940	3714.911969
802.792851	3720.860530
803.113717	3721.848597
803.434538	3721.624265
803.755314	3662.975481
804.076045	3641.409425
804.396731	3666.206861
804.717372	3687.425078
805.037967	3671.888241
805.358518	3661.758043
805.679024	3688.077907
805.999485	3701.678940
806.319901	3708.537430
806.640272	3720.421950
806.960598	3734.829568
807.280879	3706.863767
807.601115	3721.470510
807.921306	3737.355186
808.241453	3781.109881
808.561554	3749.602669
808.881611	3685.166641
809.201623	3725.576530
809.521590	3736.581369
809.841513	3708.781926
810.161390	3737.992892
810.481223	3713.366855
810.801011	3660.026406
811.120755	3656.492557
811.440453	3689.282743
811.760107	3691.631920
812.079716	3648.580467
812.399281	3616.122998
812.718801	3643.002430
813.038276	3612.286679
813.357707	3608.571349
813.677093	3629.207312
813.996434	3572.640525
814.315731	3586.967484
814.634983	3590.254317
814.954191	3609.254425
815.273354	3632.695791
815.592473	3622.414357
815.911547	3639.261894
816.230577	3680.067513
816.549562	3729.652303
816.868502	3770.195783
817.187399	3792.878454
817.506250	3788.759832
817.825058	3769.575721
818.143821	3862.073332
818.462539	3962.838436
818.781213	4003.737317
819.099843	4067.613777
819.418429	4325.524249
819.736970	4569.813523
820.055466	4819.854754
820.373919	5188.577349
820.692327	5603.093786
821.010691	6074.038378
821.329011	7508.987697
821.647286	10340.404687
821.965517	15007.031049
822.283704	19021.957207
822.601847	21081.326526
822.919945	19183.437968
823.237999	16566.270016
823.556010	14073.074120
823.873976	11940.754263
824.191897	9833.632614
824.509775	8489.570258
824.827609	7362.852209
825.145398	6825.878583
825.463144	6716.654424
825.780845	6826.770868
826.098502	7036.777775
826.416116	7952.984802
826.733685	9307.310947
827.051210	10406.721066
827.368692	10393.672039
827.686129	9091.181558
828.003522	7578.064108
828.320872	6565.949129
828.638177	5853.553433
828.955439	5288.939161
829.272656	4785.408550
829.589830	4513.670193
829.906960	4330.338551
830.224046	4141.585148
830.541088	4017.108977
830.858086	3973.329077
831.175041	3893.530132
831.491952	3881.433883
831.808819	3891.080131
832.125642	3965.905978
832.442421	4121.256695
832.759157	4408.398298
833.075849	4977.768898
833.392497	5862.748497
833.709101	6643.499720
834.025662	6961.563760
834.342179	6567.048101
834.658653	5889.585080
834.975083	5235.510492
835.291469	4654.946009
835.607811	4255.815174
835.924110	4109.999799
836.240366	3913.029315
836.556578	3706.780588
836.872746	3597.458125
837.188871	3555.276271
837.504952	3487.583657
837.820990	3406.927716
838.136984	3362.656303
838.452935	3388.046074
838.768842	3381.638768
839.084706	3409.942326
839.400526	3573.507603
839.716303	3925.612035
840.032037	4462.668839
840.347727	4711.023804
840.663373	4417.321140
840.978977	4023.032333
841.294537	3715.950447
841.610054	3489.204388
841.925527	3382.344529
842.240957	3313.603355
842.556344	3260.449429
842.871687	3198.831406
843.186987	3149.228972
843.502244	3115.551544
843.817458	3076.774989
844.132629	3047.445556
844.447756	3056.645661
844.762840	3043.132848
845.077881	3010.040194
845.392879	2988.869868
845.707833	2988.973212
846.022745	2986.495485
846.337613	2986.845845
846.652438	2973.678351
846.967221	2973.809421
847.281960	2957.362657
847.596656	2953.818726
847.911309	2957.213943
848.225919	2949.523663
848.540485	2942.098043
848.855009	2942.372786
849.169490	2932.406425
849.483928	2922.167841
849.798323	2924.479210
850.112675	2920.206833
850.426984	2933.875921
850.741251	2926.924170
851.055474	2916.380597
851.369654	2912.425812
851.683792	2918.896133
851.997887	2928.819644
852.311938	2932.502207
852.625947	2915.432860
852.939914	2920.252203
853.253837	2922.853438
853.567718	2908.347518
853.881555	2907.326684
854.195350	2924.945517
854.509103	2919.657347
854.822812	2912.859351
855.136479	2909.053280
855.450103	2911.820873
855.763685	2904.022208
856.077224	2900.616909
856.390720	2915.770617
856.704173	2922.727409
857.017584	2914.593508
857.330953	2913.255081
857.644278	2926.808223
857.957561	2931.153698
858.270802	2935.574790
858.584000	2934.246446
858.897155	2921.638520
859.210268	2918.734816
859.523339	2919.115423
859.836367	2917.444280
860.149352	2911.321799
860.462295	2905.234606
860.775195	2915.677356
861.088054	2913.590318
861.400869	2894.809499
861.713642	2894.547359
862.026373	2909.927920
862.339062	2914.132242
862.651708	2919.977460
862.964312	2920.453849
863.276873	2913.880184
863.589392	2927.340065
863.901869	2939.504369
864.214303	2960.720065
864.526696	2975.190698
864.839045	2972.652477
865.151353	2970.623412
865.463619	2968.143164
865.775842	2972.075264
866.088023	2990.097389
866.400162	2995.234325
866.712258	2967.056796
867.024313	2955.313428
867.336325	2964.029583
867.648296	2986.392141
867.960224	2978.348980
868.272110	2965.166363
868.583954	2967.749954
868.895755	2980.504074
869.207515	2971.306488
869.519233	2975.664566
869.830909	2988.547235
870.142542	2995.065447
870.454134	2995.778770
870.765684	2998.478308
871.077191	2995.718276
871.388657	3007.915348
871.700081	3021.624766
872.011463	3032.765716
872.322803	3031.623894
872.634101	3031.409645
872.945357	3048.330278
873.256571	3076.873291
873.567744	3068.033628
873.878874	3062.531208
874.189963	3084.429981
874.501010	3085.586926
874.812015	3074.516552
875.122979	3073.528486
875.433900	3071.091088
875.744780	3077.218610
876.055618	3085.216401
876.366415	3081.501070
876.677169	3093.199068
876.987882	3088.588933
877.298554	3085.246648
877.609183	3107.478136
877.919771	3130.871611
878.230317	3159.923780
878.540822	3210.219372
878.851285	3250.082296
879.161707	3293.128709
879.472087	3404.180287
879.782425	3642.397491
880.092722	4091.864248
880.402977	4626.191267
880.713191	5279.348365
881.023363	6471.016641
881.333494	7771.387317
881.643583	8302.152761
881.953631	7984.867579
882.263637	7328.590007
882.573602	6717.483693
882.883526	6128.981914
883.193408	5559.187857
883.503248	5110.106748
883.813048	4801.149553
884.122806	4479.050069
884.432522	4159.882016
884.742197	3921.546344
885.051831	3732.286306
885.361424	3597.591716
885.670975	3524.111857
885.980485	3433.078701
886.289954	3356.140611
886.599382	3311.188643
886.908768	3276.477778
887.218113	3226.686301
887.527417	3169.325532
887.836680	3123.151083
888.145901	3113.961060
888.455082	3103.422528
888.764221	3049.562840
889.073319	3023.923532
889.382376	3021.760877
889.691392	3025.372863
890.000366	3021.483613
890.309300	3010.914834
890.618193	3024.533511
890.927044	3040.133362
891.235855	3038.472302
891.544625	3026.005528
891.853353	3037.433824
892.162041	3058.125240
892.470687	3098.404059
892.779293	3149.596977
893.087858	3198.919626
893.396381	3270.791356
893.704864	3398.708114
894.013306	3645.275990
894.321707	3953.635809
894.630068	4155.327333
894.938387	4146.071775
895.246665	4103.766412
895.554903	3974.604489
895.863100	3770.352058
896.171256	3602.902572
896.479371	3460.810089
896.787446	3336.855677
897.095480	3233.922877
897.403473	3169.360820
897.711425	3129.581075
898.019336	3121.847945
898.327207	3094.134202
898.635038	3057.134653
898.942827	3042.454813
899.250576	3029.957793
899.558284	3000.567866
899.865952	2977.844865
900.173579	2959.363995
900.481165	2951.789661
900.788711	2939.625357
901.096216	2912.209042
901.403681	2901.136147
901.711105	2908.677714
902.018489	2905.534554
902.325832	2907.699730
902.633135	2919.470824
902.940397	2950.788992
903.247619	3040.471119
903.554800	3241.792119
903.861941	3599.295626
904.169041	4039.249725
904.476101	4331.891226
904.783121	4272.161115
905.090100	4014.575797
905.397039	3737.208992
905.703938	3486.169613
906.010796	3301.706232
906.317614	3187.395548
906.624391	3090.239911
906.931129	3019.497399
907.237826	2956.304015
907.544483	2911.793147
907.851099	2880.253168
908.157675	2860.093593
908.464211	2838.467043
908.770707	2823.777121
909.077163	2811.421253
909.383578	2797.779891
909.689954	2785.071142
909.996289	2783.319341
910.302584	2784.511574
910.608839	2785.340844
910.915054	2780.841614
911.221229	2768.919285
911.527363	2774.719132
911.833458	2782.174999
912.139513	2786.485186
912.445527	2790.601288
912.751502	2797.245528
913.057436	2808.820018
913.363331	2818.904846
913.669186	2844.072807
913.975000	2880.651419
914.280775	2942.128290
914.586510	3011.542458
914.892205	3095.943976
915.197859	3227.933987
915.503475	3433.716407
915.809050	3650.042401
916.114585	3797.733085
916.420081	3809.912513
916.725536	3751.462855
917.030952	3625.391159
917.336328	3495.377281
917.641665	3360.944831
917.946961	3260.275509
918.252218	3184.138963
918.557435	3105.620471
918.862612	3046.391954
919.167750	2994.311794
919.472848	2957.909622
919.777906	2928.938111
920.082925	2900.541291
920.387904	2869.666745
920.692843	2855.470855
920.997743	2842.789833
921.302603	2827.474807
921.607423	2818.443580
921.912204	2805.470171
922.216946	2797.616053
922.521647	2786.568365
922.826310	2775.878598
923.130932	2770.265273
923.435516	2763.311001
923.740059	2752.772469
924.044564	2745.803074
924.349028	2738.828638
924.653454	2734.105077
924.957840	2727.614591
925.262186	2720.841801
925.566493	2722.734754
925.870761	2711.709751
926.174989	2712.634802
926.479178	2705.733463
926.783328	2700.848585
927.087438	2699.691640
927.391509	2698.335569
927.695541	2697.067719
927.999533	2688.868282
928.303486	2687.111440
928.607400	2689.505988
928.911275	2687.570185
929.215110	2684.500123
929.518906	2686.889630
929.822663	2687.113961
930.126381	2684.462314
930.430060	2685.939372
930.733699	2685.203364
931.037299	2688.540607
931.340861	2689.057326
931.644383	2688.921215
931.947866	2686.198992
932.251309	2687.068591
932.554714	2685.578930
932.858080	2683.996007
933.161407	2681.034329
933.464694	2678.664987
933.767943	2674.813546
934.071153	2682.803774
934.374323	2678.889318
934.677455	2678.072652
934.980548	2679.012827
935.283602	2676.681293
935.586617	2676.164575
935.889593	2678.309586
936.192530	2677.709688
936.495428	2677.192970
936.798287	2680.686490
937.101108	2682.430729
937.403890	2687.701255
937.706632	2690.630166
938.009336	2696.253573
938.312002	2706.935778
938.614628	2715.510781
938.917216	2721.681153
939.219765	2721.844990
939.522275	2719.495813
939.824747	2717.030688
940.127179	2717.582695
940.429573	2714.366439
940.731929	2711.061962
941.034246	2706.925696
941.336524	2704.914275
941.638763	2699.084181
941.940964	2702.058462
942.243126	2700.392360
942.545250	2697.569314
942.847335	2693.317101
943.149381	2689.480783
943.451389	2686.942562
943.753359	2685.157993
944.055290	2684.053981
944.357182	2681.881243
944.659036	2679.887467
944.960851	2681.629186
945.262628	2678.811181
945.564367	2682.710513
945.866067	2678.710357
946.167729	2680.333609
946.469352	2681.901408
946.770937	2680.605831
947.072484	2677.626509
947.373992	2676.061231
947.675462	2675.763803
947.976893	2673.722136
948.278286	2668.650735
948.579641	2671.647701
948.880958	2667.007319
949.182236	2669.167453
949.483476	2671.448575
949.784678	2669.021260
950.085841	2671.811538
950.386967	2670.594100
950.688054	2671.506549
950.989103	2670.006805
951.290114	2672.877742
951.591087	2674.846313
951.892021	2678.586849
952.192917	2680.658763
952.493776	2681.233455
952.794596	2685.150432
953.095378	2682.929803
953.396122	2679.383352
953.696828	2680.769669
953.997496	2677.984431
954.298126	2676.532579
954.598718	2675.877229
954.899272	2671.872032
955.199788	2667.277021
955.500266	2667.375323
955.800706	2663.854077
956.101108	2664.181752
956.401472	2661.056237
956.701798	2661.761998
957.002087	2656.322593
957.302337	2655.674805
957.602550	2654.737150
957.902724	2654.606080
958.202861	2652.264464
958.502960	2652.261944
958.803022	2652.834115
959.103045	2651.011738
959.403031	2649.943013
959.702979	2647.056952
960.002889	2649.428815
960.302762	2646.389000
960.602596	2646.399082
960.902393	2643.563433
961.202153	2646.008392
961.501875	2646.799854
961.801559	2647.155255
962.101205	2644.717857
962.400814	2644.425470
962.700385	2645.012765
962.999918	2640.619399
963.299414	2640.395068
963.598873	2641.499080
963.898293	2638.613020
964.197677	2644.349853
964.497022	2641.904893
964.796331	2642.293062
965.095601	2644.680048
965.394835	2644.591828
965.694030	2641.390696
965.993189	2643.107208
966.292309	2638.882722
966.591393	2643.873464
966.890439	2643.576036
967.189447	2640.906745
967.488419	2643.326499
967.787353	2643.765079
968.086249	2640.468164
968.385108	2642.877836
968.683930	2642.461941
968.982714	2641.872126
969.281462	2642.371200
969.580172	2642.713998
969.878844	2640.715181
970.177480	2643.384472
970.476078	2642.824904
970.774639	2640.175777
971.073162	2641.985552
971.371649	2641.383134
971.670098	2642.086375
971.968510	2642.487147
972.266885	2641.428504
972.565223	2644.286838
972.863524	2643.467651
973.161788	2643.210552
973.460014	2642.633340
973.758204	2642.872795
974.056356	2641.859523
974.354471	2640.800881
974.652550	2641.635192
974.950591	2643.374390
975.248595	2641.985552
975.546563	2640.770634
975.844493	2642.928247
976.142386	2645.068217
976.440243	2642.398926
976.738062	2643.041673
977.035845	2641.695685
977.333590	2642.734163
977.631299	2641.022691
977.928971	2638.474388
978.226606	2637.456075
978.524204	2637.498925
978.821765	2637.536733
979.119290	2639.878349
979.416777	2640.049749
979.714228	2641.925058
980.011642	2639.850623
980.309020	2641.499080
980.606360	2640.929430
980.903664	2641.713329
981.200931	2641.874646
981.498162	2641.567136
981.795356	2641.040335
982.092513	2641.925058
982.389633	2646.109216
982.686717	2650.197591
982.983764	2652.907212
983.280775	2654.427119
983.577749	2656.980464
983.874686	2659.206133
984.171587	2655.546256
984.468451	2653.169352
984.765279	2650.482417
985.062070	2646.192395
985.358824	2645.970584
985.655543	2646.406644
985.952224	2643.782723
986.248869	2642.933289
986.545478	2640.473206
986.842050	2641.128556
987.138586	2639.500263
987.435086	2638.713843
987.731549	2638.421456
988.027975	2638.416415
988.324366	2638.421456
988.620719	2640.047228
988.917037	2637.919861
989.213318	2636.384830
989.509563	2637.922382
989.805772	2639.038997
990.101944	2638.633184
990.398080	2636.223513
990.694180	2637.718215
990.990244	2637.148565
991.286271	2634.242339
991.582262	2635.653862
991.878217	2637.214100
992.174136	2637.322484
992.470019	2636.336939
992.765865	2635.517751
993.061676	2633.523975
993.357450	2634.660755
993.653188	2633.922226
993.948890	2635.313585
994.244556	2637.834162
994.540186	2636.352062
994.835780	2637.042700
995.131337	2638.300468
995.426859	2639.495222
995.722345	2642.618217
996.017795	2643.689462
996.313208	2641.035294
996.608586	2639.820376
996.903928	2641.741056
997.199234	2642.587970
997.494504	2644.148207
997.789738	2642.991262
998.084936	2643.467651
998.380099	2640.067393
998.675225	2639.880870
998.970316	2639.510345
999.265371	2637.887094
999.560390	2637.327526
999.855373	2636.047072
1000.150320	2635.134624
1000.445232	2633.624798
1000.740108	2637.025056
1001.034948	2636.190745
1001.329752	2635.409367
1001.624521	2634.297792
1001.919254	2637.302320
1002.213951	2636.992289
1002.508613	2633.453399
1002.803239	2636.319295
1003.097829	2634.557412
1003.392384	2635.633698
1003.686903	2634.653193
1003.981386	2634.968266
1004.275834	2634.330560
1004.570246	2638.315592
1004.864623	2635.855509
1005.158964	2635.132103
1005.453270	2636.079840
1005.747540	2635.764768
1006.041775	2634.932977
1006.335974	2632.853502
1006.630138	2633.912144
1006.924266	2634.776702
1007.218359	2633.282000
1007.512416	2632.432565
1007.806438	2630.317801
1008.100425	2632.682102
1008.394376	2630.365692
1008.688292	2633.176135
1008.982172	2635.104377
1009.276017	2637.163688
1009.569827	2634.582617
1009.863602	2634.514562
1010.157341	2631.142030
1010.451045	2635.976496
1010.744714	2631.968779
1011.038347	2632.598923
1011.331945	2633.619757
1011.625508	2633.029942
1011.919036	2634.191928
1012.212528	2630.867287
1012.505986	2635.185035
1012.799408	2633.246712
1013.092795	2633.148409
1013.386147	2633.468522
1013.679464	2633.710498
1013.972745	2635.537916
1014.265992	2631.908285
1014.559204	2632.702267
1014.852380	2632.566156
1015.145521	2634.396095
1015.438628	2632.246042
1015.731699	2633.309726
1016.024736	2633.337452
1016.317737	2634.295272
1016.610703	2632.649335
1016.903635	2636.611682
1017.196531	2635.303502
1017.489393	2631.482308
1017.782219	2633.561784
1018.075011	2635.059006
1018.367768	2635.469860
1018.660490	2635.288379
1018.953177	2635.288379
1019.245829	2635.288379
