Dividing Wavelength (nm)	Counts (n)	Blue Motor Position (mm): 21.700000	Red Motor Position (mm): 0.000000	
326.493990	2192.304546
326.888308	2192.304546
327.282561	2192.304546
327.676750	2148.149080
328.070874	2146.087248
328.464933	2145.404172
328.858929	2149.548000
329.252859	2152.285347
329.646726	2164.172387
330.040528	2173.347287
330.434265	2189.083249
330.827938	2206.800384
331.221547	2224.648589
331.615091	2240.903790
332.008571	2260.281985
332.401986	2278.956940
332.795338	2294.453447
333.188625	2314.136632
333.581847	2331.619353
333.975006	2351.809175
334.368100	2369.964890
334.761129	2391.213354
335.154095	2406.447721
335.546996	2430.509148
335.939833	2463.213633
336.332606	2475.448514
336.725315	2490.705566
337.117960	2502.453975
337.510540	2515.513084
337.903056	2523.619259
338.295508	2534.218285
338.687896	2543.020140
339.080220	2551.214536
339.472480	2558.062943
339.864676	2562.894889
340.256807	2569.554253
340.648875	2572.657083
341.040879	2573.630026
341.432818	2576.178329
341.824694	2578.146900
342.216506	2581.557241
342.608253	2581.839545
342.999937	2583.351891
343.391557	2583.437591
343.783113	2583.472879
344.174605	2579.941551
344.566033	2580.070100
344.957397	2578.663618
345.348697	2578.519945
345.739934	2576.629513
346.131106	2573.385530
346.522215	2572.278997
346.913260	2572.677248
347.304241	2568.480487
347.695159	2568.972000
348.086012	2563.653583
348.476802	2563.681309
348.867528	2562.282389
349.258191	2554.750905
349.648789	2555.746533
350.039324	2552.794937
350.429796	2556.419527
350.820203	2554.576985
351.210548	2554.423230
351.600828	2551.552293
351.991045	2549.084648
352.381198	2548.091541
352.771288	2549.041798
353.161314	2549.694628
353.551276	2548.338557
353.941175	2550.052550
354.331010	2545.901159
354.720782	2544.482075
355.110490	2546.342260
355.500135	2544.915614
355.889717	2544.164482
356.279235	2546.770758
356.668689	2545.530635
357.058080	2544.557692
357.447408	2548.530121
357.836672	2547.511808
358.225873	2550.531459
358.615010	2547.335368
359.004084	2550.223949
359.393095	2549.150183
359.782043	2550.334854
360.170927	2551.764021
360.559748	2548.673794
360.948505	2550.647406
361.337199	2553.893909
361.725830	2549.966850
362.114398	2552.830225
362.502903	2552.923487
362.891344	2556.290977
363.279722	2555.275185
363.668037	2554.095555
364.056289	2556.149825
364.444478	2558.486400
364.832603	2556.182593
365.220665	2561.097718
365.608665	2557.710062
365.996601	2555.184444
366.384474	2558.506565
366.772284	2557.866338
367.160031	2556.969013
367.547715	2560.729713
367.935336	2560.870866
368.322893	2557.533622
368.710388	2556.205278
369.097820	2558.987995
369.485189	2555.824671
369.872495	2560.303736
370.259738	2564.024107
370.646918	2562.544529
371.034035	2561.765671
371.421090	2562.476473
371.808081	2560.412121
372.195010	2565.097873
372.581875	2563.482183
372.968678	2564.888665
373.355418	2564.218192
373.742096	2563.121741
374.128710	2563.315825
374.515262	2566.950497
374.901751	2562.922615
375.288177	2565.176011
375.674540	2564.994530
376.060841	2567.973852
376.447079	2564.964283
376.833254	2566.083419
377.219367	2565.032338
377.605417	2568.238512
377.991404	2564.606361
378.377329	2568.503173
378.763191	2565.513768
379.148991	2566.441341
379.534727	2565.614592
379.920402	2565.402863
380.306013	2568.926630
380.691563	2570.741445
381.077049	2566.857236
381.462474	2568.372103
381.847835	2568.167936
382.233134	2568.803121
382.618371	2572.087433
383.003545	2569.536609
383.388657	2570.507031
383.773706	2568.583831
384.158693	2569.889490
384.543618	2570.489387
384.928480	2570.519634
385.313280	2571.139696
385.698017	2570.305385
386.082692	2571.303534
386.467305	2569.254305
386.851856	2574.025757
387.236344	2570.612896
387.620770	2569.410580
388.005133	2570.096177
388.389435	2571.981569
388.773674	2566.597617
389.157851	2574.149265
389.541965	2572.528534
389.926018	2572.112639
390.310008	2572.115159
390.693936	2576.810994
391.077802	2574.542475
391.461606	2575.780078
391.845348	2576.332085
392.229027	2575.439800
392.612645	2576.221179
392.996200	2576.253947
393.379694	2578.046077
393.763125	2575.656570
394.146494	2577.554564
394.529801	2576.410222
394.913047	2577.335274
395.296230	2575.419636
395.679351	2577.037846
396.062410	2579.760069
396.445408	2578.406519
396.828343	2578.850141
397.211217	2579.109760
397.594028	2577.748649
397.976778	2580.226376
398.359466	2578.575398
398.742092	2581.526994
399.124656	2581.123701
399.507158	2579.145048
399.889598	2580.909452
400.271977	2580.632189
400.654294	2579.946592
401.036549	2580.140676
401.418742	2579.162692
401.800874	2578.066242
402.182944	2581.544638
402.564952	2582.487333
402.946898	2581.179154
403.328783	2581.469020
403.710606	2583.810636
404.092367	2581.980698
404.474067	2582.618403
404.855705	2581.607652
405.237282	2584.143352
405.618797	2582.411716
406.000250	2583.039340
406.381642	2586.757191
406.762972	2583.631675
407.144240	2581.310224
407.525447	2581.227045
407.906593	2579.145048
408.287677	2583.750143
408.668700	2586.331213
409.049661	2587.412541
409.430560	2583.699731
409.811399	2586.487489
410.192176	2585.154104
410.572891	2588.030082
410.953545	2586.679053
411.334138	2584.511357
411.714669	2584.927252
412.095139	2587.435226
412.475547	2586.737026
412.855894	2590.573344
413.236180	2589.489496
413.616405	2590.351533
413.996568	2588.486307
414.376670	2588.309866
414.756711	2588.443457
415.136691	2588.198961
415.516609	2590.195258
415.896466	2589.847418
416.276262	2588.849270
416.655997	2588.249372
417.035670	2587.026892
417.415283	2590.033941
417.794834	2591.279106
418.174324	2589.484455
418.553753	2589.524784
418.933121	2591.954620
419.312428	2590.769949
419.691674	2589.945721
420.070859	2590.711976
420.449983	2591.359764
420.829045	2591.044692
421.208047	2593.875300
421.586988	2593.182141
421.965867	2592.801534
422.344686	2590.109558
422.723444	2590.951431
423.102141	2595.344796
423.480777	2592.453695
423.859352	2594.550815
424.237866	2591.871441
424.616319	2595.175918
424.994712	2598.135075
425.373044	2594.442430
425.751314	2590.003694
426.129524	2593.194744
426.507673	2594.422265
426.885762	2588.612335
427.263789	2594.102152
427.641756	2594.858325
428.019662	2595.077615
428.397508	2595.959817
428.775292	2597.741865
429.153016	2594.419745
429.530679	2599.191197
429.908282	2597.981320
430.285824	2598.001484
430.663305	2596.214395
431.040726	2596.358068
431.418086	2594.538212
431.795385	2597.948552
432.172624	2597.328490
432.549802	2597.918305
432.926920	2600.000302
433.303977	2600.000302
433.680974	2598.724890
434.057910	2597.217585
434.434786	2596.209354
434.811601	2599.042483
435.188355	2599.854108
435.565050	2595.755650
435.941683	2600.239757
436.318257	2601.207658
436.694770	2599.024839
437.071222	2599.753285
437.447614	2600.814448
437.823946	2601.799994
438.200218	2600.844695
438.576429	2601.797473
438.952580	2602.800663
439.328670	2603.826538
439.704700	2600.479212
440.080670	2602.909048
440.456580	2602.972062
440.832429	2604.610437
441.208218	2602.193204
441.583947	2602.883842
441.959616	2603.105653
442.335224	2602.868718
442.710773	2603.277052
443.086261	2602.697319
443.461689	2605.696806
443.837057	2605.984152
444.212365	2602.725046
444.587612	2601.182452
444.962800	2602.664552
445.337927	2603.546754
445.712995	2602.072216
446.088002	2606.702516
446.462949	2606.006837
446.837837	2606.432814
447.212664	2604.686054
447.587431	2608.870212
447.962139	2608.446755
448.336786	2611.466406
448.711374	2609.298710
449.085901	2610.685028
449.460369	2609.402054
449.834776	2609.429780
450.209124	2611.244596
450.583412	2611.479009
450.957640	2609.966663
451.331808	2610.828700
451.705917	2609.896087
452.079965	2608.333329
452.453954	2610.690069
452.827883	2613.649226
453.201752	2613.190481
453.575562	2611.181581
453.949311	2612.404061
454.323001	2614.644854
454.696632	2613.651747
455.070202	2612.255347
455.443713	2611.847013
455.817164	2615.058228
456.190556	2615.877416
456.563888	2616.323558
456.937160	2618.405555
457.310373	2616.636110
457.683526	2618.292129
458.056619	2616.026130
458.429653	2616.948661
458.802628	2615.693414
459.175542	2616.018568
459.548398	2620.893364
459.921194	2621.873868
460.293930	2620.608539
460.666607	2621.140381
461.039224	2625.324538
461.411782	2628.480301
461.784280	2625.581637
462.156719	2626.935187
462.529099	2629.443161
462.901419	2625.221195
463.273680	2626.398304
463.645882	2624.802779
464.018024	2627.242697
464.390106	2623.761781
464.762130	2627.887965
465.134094	2632.475415
465.505999	2638.260139
465.877845	2644.269194
466.249631	2650.734474
466.621358	2654.782521
466.993026	2650.933600
467.364634	2654.003662
467.736184	2652.662716
468.107674	2650.850421
468.479105	2652.753456
468.850477	2654.414517
469.221790	2654.759836
469.593043	2659.720331
469.964238	2655.412665
470.335373	2659.594302
470.706449	2664.214520
471.077467	2665.542864
471.448425	2677.324040
471.819324	2698.224664
472.190164	2711.823177
472.560945	2700.455375
472.931667	2699.875642
473.302330	2699.139633
473.672934	2702.244984
474.043479	2712.123125
474.413965	2721.688715
474.784393	2726.258521
475.154761	2738.410222
475.525070	2747.411202
475.895321	2757.861514
476.265513	2771.659152
476.635645	2793.061371
477.005719	2805.228196
477.375734	2819.051039
477.745691	2845.842252
478.115588	2872.338556
478.485427	2903.770150
478.855207	2942.216510
479.224928	3007.660769
479.594591	3092.339551
479.964194	3124.575209
480.333739	3148.833242
480.703226	3169.451561
481.072653	3206.977910
481.442022	3274.511728
481.811333	3357.605067
482.180584	3402.609968
482.549777	3420.629572
482.918912	3463.401242
483.287988	3538.292623
483.657005	3588.568051
484.025964	3636.300216
484.394864	3694.175183
484.763706	3745.675610
485.132489	3800.147798
485.501213	3869.962738
485.869879	3953.691262
486.238487	4004.851412
486.607036	4117.798464
486.975527	4170.574303
487.343959	4289.409423
487.712333	4382.849730
488.080648	4439.144295
488.448905	4584.984876
488.817104	4662.248120
489.185244	4830.272298
489.553326	4950.289569
489.921350	5153.357328
490.289315	5562.046191
490.657222	5944.508451
491.025070	6130.373273
491.392861	6250.617395
491.760593	6274.585561
492.128267	6307.922711
492.495883	6271.034068
492.863440	6297.580784
493.230939	6287.125431
493.598380	6414.558238
493.965763	6481.056099
494.333088	6548.582354
494.700354	6674.898546
495.067563	6812.239742
495.434713	6917.783859
495.801805	7047.076853
496.168839	7208.494599
496.535815	7324.693195
496.902733	7525.315994
497.269593	7566.353507
497.636395	7803.774209
498.003139	7950.166797
498.369825	8083.061694
498.736453	8260.159949
499.103023	8380.696458
499.469535	8568.252587
499.835989	8790.222153
500.202385	8992.874017
500.568723	9022.102627
500.935003	9216.728974
501.301226	9304.384557
501.667390	9691.504843
502.033497	10002.755764
502.399546	10048.564729
502.765537	10152.813270
503.131470	10417.751110
503.497345	10657.072327
503.863163	10549.179032
504.228923	10965.900974
504.594625	11239.023127
504.960269	11203.616583
505.325856	11601.330854
505.691385	11575.124416
506.056856	11966.199487
506.422270	12194.253726
506.787625	12165.614931
507.152924	12605.188423
507.518164	12752.717790
507.883347	12867.832538
508.248472	12896.834296
508.613540	13465.950318
508.978550	13598.895628
509.343503	13767.449127
509.708398	14102.196866
510.073236	14349.140308
510.438016	14641.617972
510.802738	14696.014542
511.167403	15009.876781
511.532010	15022.456980
511.896561	15658.307797
512.261053	15870.293357
512.625488	15943.677434
512.989866	16072.488997
513.354186	16143.964997
513.718449	16433.155828
514.082655	16823.084037
514.446803	16894.749080
514.810894	17339.124271
515.174927	17194.556582
515.538904	17410.179335
515.902822	17900.492040
516.266684	17965.422102
516.630488	18052.689516
516.994235	18246.577334
517.357925	18608.212067
517.721558	18933.195091
518.085133	19173.459003
518.448651	19292.231109
518.812112	19284.379512
519.175516	19535.658346
519.538863	19869.410457
519.902152	19860.187666
520.265385	20258.292626
520.628560	20251.161914
520.991678	20426.195817
521.354739	20641.576594
521.717743	20843.318530
522.080690	20820.371198
522.443580	21254.578381
522.806413	21379.662011
523.169189	21623.464814
523.531908	21778.971807
523.894569	21621.045060
524.257174	21805.836116
524.619722	22104.728648
524.982213	21962.305970
525.344647	22175.856808
525.707025	22389.470661
526.069345	22509.916430
526.431608	22599.679215
526.793815	22894.095202
527.155964	22483.236123
527.518057	22768.363784
527.880093	22817.877998
528.242072	23103.386266
528.603995	22938.933745
528.965860	22862.351057
529.327669	23046.859808
529.689421	23089.041663
530.051117	23033.578888
530.412755	23308.765394
530.774337	23203.664898
531.135862	23154.707733
531.497331	23425.079937
531.858743	23071.735382
532.220098	23613.351910
532.581396	23357.357076
532.942638	23409.802720
533.303824	23539.683008
533.664953	23634.403768
534.026025	23385.353124
534.387040	23655.264063
534.747999	23796.988542
535.108902	23983.352437
535.469748	23562.910124
535.830537	23806.773421
536.191270	23958.650784
536.551947	23922.263735
536.912567	23631.139621
537.273131	23962.948367
537.633638	23742.420572
537.994089	23984.469053
538.354483	23591.906841
538.714821	24109.608136
539.075103	24192.114180
539.435328	24009.205995
539.795497	23596.973201
540.155609	24036.413102
540.515665	24334.763710
540.875665	23631.777327
541.235609	23927.340177
541.595496	23952.760195
541.955328	24304.168948
542.315102	24239.906839
542.674821	23850.185318
543.034483	23753.158229
543.394090	23928.350928
543.753640	23722.918868
544.113134	24375.944896
544.472571	23995.342822
544.831953	24298.679131
545.191278	23936.303349
545.550548	23874.637434
545.909761	24109.035965
546.268918	24341.813764
546.628019	24318.758047
546.987064	24040.163721
547.346053	23821.410411
547.704986	23956.919147
548.063863	24120.358396
548.422684	24119.234219
548.781449	23700.339540
549.140158	24093.148768
549.498811	23675.920191
549.857408	23420.079113
550.215949	23872.111816
550.574434	23542.407752
550.932864	23777.748978
551.291237	23927.592235
551.649555	23791.970073
552.007817	23856.557336
552.366022	23741.671960
552.724173	23793.550475
553.082267	23720.032807
553.440305	24200.588360
553.798288	23479.436178
554.156215	24015.290668
554.514086	24083.981430
554.871902	23460.320123
555.229661	23762.522173
555.587365	23614.957517
555.945014	23451.351910
556.302606	23741.619028
556.660143	23664.113808
557.017625	23935.340488
557.375050	23477.943997
557.732421	23856.542213
558.089735	23679.925387
558.446994	23740.479727
558.804197	23754.209310
559.161345	23720.063054
559.518437	23453.877528
559.875474	23673.485313
560.232455	23840.067722
560.589381	23667.574561
560.946251	23628.482933
561.303065	23970.691580
561.659825	24048.844588
562.016528	23659.977542
562.373177	23408.431527
562.729770	23762.370938
563.086307	23621.374906
563.442789	23803.421054
563.799216	23623.310709
564.155587	23649.693588
564.511904	23622.297437
564.868164	23558.413415
565.224370	23562.940371
565.580520	23441.877062
565.936615	23590.800308
566.292654	23252.541406
566.648638	23597.684004
567.004567	23400.627820
567.360441	23344.401311
567.716260	23077.661258
568.072023	23396.357963
568.427732	23158.836438
568.783385	22944.952883
569.138982	23190.136962
569.494525	23219.592424
569.850013	22967.504485
570.205445	23069.691194
570.560823	22858.340819
570.916145	22645.243684
571.271412	22818.182987
571.626625	22571.126120
571.981782	22680.793901
572.336884	22483.057162
572.691931	22624.675776
573.046923	22349.990865
573.401860	22238.326787
573.756743	22234.843349
574.111570	22144.039566
574.466342	22084.836255
574.821059	22173.086694
575.175722	21881.410574
575.530330	21873.720294
575.884882	21899.084859
576.239380	21810.184111
576.593823	21693.415865
576.948211	21668.933501
577.302544	21513.930623
577.656823	21390.515615
578.011047	21489.312148
578.365216	21361.307170
578.719330	21242.766958
579.073389	21140.945732
579.427394	21283.030653
579.781344	21068.126265
580.135239	20951.655447
580.489080	20931.019483
580.842866	20699.973320
581.196597	20868.660410
581.550273	20862.507682
581.903895	20760.751992
582.257463	21065.391439
582.610975	20594.401476
582.964434	20894.105634
583.317837	20608.652818
583.671186	20705.470698
584.024481	20665.136427
584.377721	20457.881989
584.730906	20495.625108
585.084037	20538.905934
585.437113	20420.103582
585.790135	20642.799074
586.143103	20107.965418
586.496016	20111.393403
586.848874	20359.695436
587.201679	20305.079575
587.554428	19954.973961
587.907124	20298.689912
588.259765	20073.867054
588.612352	20152.050309
588.964884	19718.294308
589.317362	19895.309384
589.669786	19950.530184
590.022155	20004.125211
590.374470	20171.443627
590.726731	19982.065122
591.078937	19725.757737
591.431090	19836.262349
591.783188	19575.470858
592.135232	19549.201405
592.487222	19650.823505
592.839157	19684.884061
593.191038	19565.091122
593.542866	19452.030644
593.894639	19174.636113
594.246358	19383.468432
594.598022	19307.465476
594.949633	19058.571107
595.301190	19014.937400
595.652692	19179.384880
596.004141	19423.515358
596.355535	18749.530732
596.706876	18757.420138
597.058162	18658.989089
597.409395	18862.807980
597.760573	18960.240881
598.111698	18746.024610
598.462768	18680.038427
598.813785	18625.107494
599.164748	18469.108988
599.515657	18489.364344
599.866511	18293.812945
600.217312	18643.870668
600.568060	18179.913115
600.918753	18485.971648
601.269392	18386.292913
601.619978	18160.960897
601.970510	18382.774187
602.320988	18317.869332
602.671412	18542.046923
603.021783	18431.867464
603.372100	18174.236776
603.722363	18297.165313
604.072572	18235.925376
604.422728	18377.324700
604.772830	18141.786869
605.122878	18087.239064
605.472872	18084.317715
605.822813	18072.808761
606.172701	18029.104477
606.522534	18236.260612
606.872314	18253.569414
607.222041	18088.791739
607.571714	18310.534453
607.921333	18133.806722
608.270899	18212.136171
608.620411	18400.085510
608.969870	18156.436462
609.319276	18160.386206
609.668627	18192.324436
610.017926	18330.230241
610.367171	18443.691490
610.716362	18483.771184
611.065500	18293.223130
611.414585	18436.217980
611.763616	18409.504906
612.112594	18365.785499
612.461518	18339.934462
612.810389	18523.475312
613.159207	18379.774701
613.507971	18292.386299
613.856682	18567.935768
614.205340	18499.812136
614.553945	18650.625815
614.902496	18387.679230
615.250994	18626.829048
615.599439	18564.689265
615.947830	18553.787770
616.296169	18592.556763
616.644454	18570.022806
616.992686	18541.845276
617.340864	18748.540146
617.688990	18511.530298
618.037063	18681.278551
618.385082	18531.374800
618.733048	18817.664447
619.080961	18679.423406
619.428821	18715.712152
619.776628	18608.310369
620.124382	18533.930665
620.472083	18563.161795
620.819731	18588.392770
621.167326	18286.346997
621.514868	18326.456937
621.862357	18085.484742
622.209793	18098.972349
622.557176	17934.121577
622.904506	17765.484899
623.251783	17659.741656
623.599007	17437.131864
623.946179	17374.813120
624.293297	17322.644739
624.640363	17073.878920
624.987376	17094.794668
625.334336	16885.249026
625.681243	16739.927684
626.028097	16744.406749
626.374899	16677.669434
626.721647	16549.800567
627.068343	16381.105915
627.414987	16301.846373
627.761577	16279.251922
628.108115	16331.337123
628.454600	16039.998760
628.801032	16152.051007
629.147412	16072.083184
629.493739	16093.689569
629.840014	15896.013324
630.186236	16003.079870
630.532405	15765.530619
630.878521	15971.817155
631.224585	15856.382293
631.570597	15683.722774
631.916556	15712.626230
632.262462	15698.589137
632.608316	15612.582011
632.954117	15557.348609
633.299866	15556.259720
633.645562	15470.295444
633.991206	15220.675149
634.336797	15097.197127
634.682336	15058.637341
635.027823	14963.414986
635.373257	14842.018960
635.718639	14735.643053
636.063968	14680.278580
636.409245	14441.562302
636.754470	14464.529799
637.099642	14311.828207
637.444762	14089.538529
637.789829	14128.378098
638.134845	13961.994816
638.479808	13987.709742
638.824719	13940.428760
639.169577	13791.795380
639.514383	13842.832021
639.859137	13657.877128
640.203839	13750.256272
640.548489	13582.229573
640.893086	13575.713882
641.237632	13441.515846
641.582125	13591.510337
641.926566	13422.576231
642.270955	13438.377728
642.615292	13402.668714
642.959576	13409.590218
643.303809	13449.296867
643.647990	13387.283113
643.992118	13437.994600
644.336195	13202.509701
644.680219	13406.416812
645.024192	13328.407477
645.368112	13574.655239
645.711981	13626.372437
646.055797	13802.807780
646.399562	13774.811732
646.743274	14037.087843
647.086935	14313.645543
647.430544	14281.679587
647.774101	14302.247495
648.117606	14470.743021
648.461059	14426.721145
648.804460	14436.911837
649.147810	14154.057736
649.491108	14055.152818
649.834354	14073.119491
650.177548	13768.525413
650.520690	13584.815685
650.863781	13509.828522
651.206820	13543.049725
651.549807	13372.484806
651.892742	13182.095548
652.235626	13126.960449
652.578458	13132.127631
652.921238	12814.812202
653.263967	13000.107374
653.606644	12839.781038
653.949269	12804.185450
654.291843	12618.166873
654.634365	12766.714554
654.976836	12615.976492
655.319255	12633.101292
655.661622	12585.875762
656.003938	12505.587826
656.346203	12433.829521
656.688416	12504.743432
657.030577	12460.870270
657.372687	12389.318653
657.714746	12356.588962
658.056753	12547.081563
658.398708	12370.429450
658.740612	12365.753780
659.082465	12464.245323
659.424266	12427.732246
659.766016	12451.002212
660.107715	12357.748427
660.449362	12434.666353
660.790958	12397.409705
661.132503	12344.253258
661.473996	12400.361301
661.815438	12421.214034
662.156829	12432.377669
662.498168	12410.189030
662.839456	12412.729772
663.180693	12426.083788
663.521879	12516.789269
663.863013	12495.286228
664.204097	12471.688587
664.545129	12592.179725
664.886110	12563.989593
665.227040	12645.351295
665.567918	12655.547029
665.908746	12687.268490
666.249522	12671.519925
666.590248	12718.538767
666.930922	12832.690655
667.271545	12811.863128
667.612118	12900.355542
667.952639	12804.044298
668.293109	12809.702993
668.633528	12767.558947
668.973896	12741.092889
669.314213	12823.803100
669.654480	12569.159296
669.994695	12627.976959
670.334859	12648.935556
670.674973	12600.351436
671.015035	12643.067653
671.355047	12580.055750
671.695008	12548.649362
672.034918	12553.037686
672.374777	12596.918410
672.714585	12509.880368
673.054342	12541.755584
673.394049	12497.814366
673.733705	12588.673603
674.073310	12505.562620
674.412864	12517.870597
674.752368	12393.114642
675.091820	12393.931309
675.431223	12393.502811
675.770574	12264.943306
676.109875	12192.073427
676.449125	12150.146150
676.788324	12084.114597
677.127473	11922.636357
677.466571	11906.502144
677.805619	11812.945890
678.144616	11730.580998
678.483562	11700.792820
678.822458	11572.213150
679.161303	11555.287476
679.500098	11544.106197
679.838842	11486.934471
680.177535	11521.191632
680.516179	11579.974006
680.854771	11517.504028
681.193314	11736.476627
681.531805	11884.159750
681.870247	12290.254939
682.208638	12694.036239
682.546978	13015.220753
682.885268	13074.159403
683.223508	12771.818722
683.561697	12608.838218
683.899836	12509.658557
684.237925	12308.750933
684.575963	12227.900907
684.913951	12156.707212
685.251889	12101.375507
685.589776	12198.379910
685.927614	12128.582615
686.265401	12087.040986
686.603137	12132.582770
686.940824	12276.865634
687.278460	12398.740570
687.616046	12444.756222
687.953582	12622.605609
688.291068	12542.289946
688.628504	12778.536059
688.965889	12788.331021
689.303224	12758.527720
689.640510	12652.860094
689.977745	12347.643434
690.314930	12116.231788
690.652065	12034.078624
690.989150	11743.730848
691.326185	11520.062413
691.663170	11315.683954
692.000105	11073.249824
692.336990	10965.855603
692.673825	10713.855884
693.010610	10594.468758
693.347345	10394.682790
693.684030	10194.400269
694.020665	10132.235280
694.357251	9939.504407
694.693786	9890.239731
695.030272	9719.662208
695.366707	9599.150905
695.703093	9531.538949
696.039429	9528.032827
696.375716	9460.619997
696.711952	9324.483638
697.048139	9356.053863
697.384276	9312.064755
697.720363	9329.156787
698.056400	9268.766285
698.392388	9220.343481
698.728326	9185.887195
699.064214	9120.153069
699.400053	9167.003032
699.735842	8979.809867
700.071581	8940.511552
700.407270	8864.438020
700.742910	8788.934138
701.078501	8697.089356
701.414042	8580.205163
701.749533	8510.221345
702.084974	8375.430973
702.420366	8485.900298
702.755709	8362.492852
703.091002	8230.039055
703.426246	8261.876462
703.761440	8215.875933
704.096584	8172.496805
704.431679	8105.157072
704.766725	8090.409176
705.101721	8035.523613
705.436668	8073.997700
705.771565	7977.527659
706.106413	8056.298208
706.441212	8104.118594
706.775961	8052.356026
707.110661	8078.897701
707.445311	8238.994665
707.779913	8124.414279
708.114465	8259.822192
708.448967	8301.232750
708.783421	8430.823172
709.117825	8614.507694
709.452180	8650.773755
709.786485	8741.718691
710.120742	9020.023151
710.454949	9015.690279
710.789107	9118.676011
711.123216	9328.841715
711.457275	9492.853135
711.791286	9658.255913
712.125247	9646.068924
712.459159	9634.814548
712.793023	9898.053519
713.126837	9466.560997
713.460602	9615.925344
713.794318	9445.851937
714.127985	9473.157347
714.461602	9162.292074
714.795171	9103.371068
715.128691	8865.756282
715.462162	8613.983414
715.795584	8560.514416
716.128957	8414.273064
716.462281	8242.755366
716.795556	8291.394939
717.128782	8088.271727
717.461960	7818.537228
717.795088	7894.328456
718.128167	7797.989485
718.461198	7638.096688
718.794180	7575.793068
719.127113	7569.146307
719.459997	7427.220182
719.792833	7190.013729
720.125619	7247.777790
720.458357	7114.179651
720.791046	7096.911179
721.123686	7103.545337
721.456278	6948.487007
721.788821	6961.984696
722.121315	6849.471183
722.453761	6916.289157
722.786158	6866.472475
723.118506	6878.588888
723.450805	6840.535738
723.783056	6910.703559
724.115259	6816.761657
724.447412	6817.026317
724.779518	6857.274890
725.111574	6859.533327
725.443582	6939.932169
725.775542	6917.367964
726.107453	7112.518591
726.439315	7023.562390
726.771129	7078.521050
727.102895	7244.687563
727.434612	7361.803649
727.766281	7390.230715
728.097901	7472.887994
728.429473	7465.737118
728.760996	7441.448838
729.092471	7412.260558
729.423897	7366.527210
729.755276	7377.098510
730.086606	7298.338042
730.417887	7399.788743
730.749120	7584.884789
731.080305	7773.423943
731.411442	7902.187615
731.742530	7893.249649
732.073570	7999.386102
732.404562	8086.466994
732.735506	7932.681554
733.066401	8077.216476
733.397249	8009.884305
733.728048	7780.877289
734.058798	7447.636855
734.389501	7229.296920
734.720156	7048.218674
735.050762	6814.979609
735.381320	6720.052161
735.711831	6670.797568
736.042293	6566.097843
736.372707	6585.796152
736.703073	6450.030317
737.033391	6484.683209
737.363661	6493.820300
737.693883	6522.748962
738.024056	6603.402382
738.354182	6652.621688
738.684260	6687.501431
739.014290	6795.014119
739.344272	6903.499750
739.674207	6930.376662
740.004093	6999.077506
740.333931	7015.446133
740.663722	7029.110180
740.993464	7100.419822
741.323159	7096.417146
741.652806	6842.600091
741.982405	6850.754157
742.311956	6912.160452
742.641460	6759.872236
742.970915	6559.302368
743.300323	6551.725514
743.629683	6494.261401
743.958996	6367.899839
744.288260	6273.736126
744.617477	6222.689402
744.946647	6233.492595
745.275768	6065.203756
745.604842	6021.023084
745.933869	6005.347616
746.262847	5960.713240
746.591778	5949.514317
746.920662	5909.510240
747.249498	5899.306945
747.578286	5941.798831
747.907027	6019.190624
748.235720	6075.366722
748.564365	6054.304782
748.892963	6072.843625
749.221514	6229.068982
749.550017	6070.933027
749.878473	5945.186486
750.206881	5998.375700
750.535242	5941.612308
750.863555	5872.825764
751.191821	5890.104318
751.520039	5895.387448
751.848210	5800.492768
752.176334	5813.816537
752.504411	5869.657398
752.832440	5800.477644
753.160421	5725.220779
753.488356	5768.942706
753.816243	5806.416123
754.144082	5661.477909
754.471875	5626.078927
754.799620	5676.694632
755.127318	5686.114028
755.454969	5637.746677
755.782572	5600.512715
756.110129	5644.882431
756.437638	5640.131143
756.765100	5576.794086
757.092515	5570.333848
757.419882	5618.098780
757.747203	5598.387869
758.074477	5665.591491
758.401703	5657.114791
758.728882	5604.959013
759.056014	5650.999871
759.383099	5786.584224
759.710138	5797.004289
760.037129	5779.778667
760.364073	5786.168329
760.690970	5868.535742
761.017820	5854.412949
761.344623	5803.494775
761.671379	5902.271143
761.998088	6016.942270
762.324751	6251.544967
762.651366	6833.483164
762.977935	8110.546065
763.304456	9726.568589
763.630931	10640.519699
763.957359	10276.291292
764.283740	9347.141103
764.610074	8536.702526
764.936362	7551.096455
765.262602	6948.277799
765.588796	6406.951137
765.914943	6075.268420
766.241044	5912.050982
766.567097	5720.855140
766.893104	5466.418023
767.219064	5280.152429
767.544978	5217.253953
767.870845	5143.123786
768.196665	5036.818454
768.522438	4965.339933
768.848165	4933.802475
769.173846	4868.985839
769.499479	4827.436649
769.825066	4771.406745
770.150607	4713.405749
770.476101	4686.937171
770.801548	4685.190411
771.126949	4613.225420
771.452303	4558.150814
771.777611	4515.288403
772.102872	4530.956309
772.428087	4496.845342
772.753256	4460.090289
773.078378	4416.615378
773.403453	4344.569728
773.728482	4332.176052
774.053465	4283.912045
774.378401	4268.082822
774.703291	4273.154222
775.028135	4204.644942
775.352932	4151.044873
775.677683	4139.712359
776.002388	4162.422758
776.327046	4173.069674
776.651658	4097.381791
776.976224	4033.528015
777.300743	4041.543450
777.625216	4064.634455
777.949643	4058.756470
778.274024	4015.442876
778.598359	3968.124085
778.922647	3992.175430
779.246889	3986.289883
779.571086	3982.808967
779.895236	3966.145432
780.219339	3952.670428
780.543397	3947.513328
780.867409	3993.995287
781.191374	4010.847864
781.515294	3953.497177
781.839167	3939.797842
782.162995	3961.757108
782.486776	3947.780509
782.810511	3953.794606
783.134201	3955.317034
783.457844	3914.733225
783.781441	3853.639482
784.104993	3861.823795
784.428498	3879.951784
784.751958	3876.501114
785.075372	3858.743650
785.398739	3814.976352
785.722061	3828.169052
786.045337	3870.287892
786.368568	3904.424065
786.691752	3817.978359
787.014891	3864.530894
787.337983	3988.001355
787.661030	4145.378616
787.984031	4306.302329
788.306987	4475.609481
788.629897	4555.237027
788.952760	4514.882590
789.275579	4444.931540
789.598351	4384.084813
789.921078	4248.802929
790.243759	4049.697516
790.566395	4027.909649
790.888984	4025.177344
791.211529	3918.821601
791.534027	3857.705172
791.856480	3851.280222
792.178888	3788.170017
792.501249	3737.244280
792.823566	3747.808018
793.145836	3781.934109
793.468062	3727.698856
793.790241	3681.819314
794.112375	3710.959704
794.434464	3774.039662
794.756507	3798.673261
795.078505	3778.667442
795.400457	3812.017195
795.722364	3945.315385
796.044226	4048.240623
796.366042	4124.961943
796.687812	4107.900158
797.009538	4115.716467
797.331218	4070.230136
797.652852	4041.354407
797.974442	4025.250441
798.295986	4022.878578
798.617484	3945.232206
798.938938	3857.034699
799.260346	3895.082807
799.581709	3895.569279
799.903026	3823.183351
800.224299	3785.886374
800.545526	3779.663069
800.866708	3741.065475
801.187845	3683.893749
801.508936	3718.206363
801.829983	3716.343657
802.150984	3634.228302
802.471940	3623.588946
802.792851	3635.886841
803.113717	3637.336173
803.434538	3640.978407
803.755314	3584.545210
804.076045	3555.843400
804.396731	3577.197728
804.717372	3604.311574
805.037967	3587.438832
805.358518	3579.436000
805.679024	3602.768981
805.999485	3616.909418
806.319901	3620.841517
806.640272	3636.756440
806.960598	3650.939727
807.280879	3626.313690
807.601115	3633.840133
807.921306	3649.434942
808.241453	3692.781303
808.561554	3671.164836
808.881611	3605.902058
809.201623	3635.160915
809.521590	3651.267402
809.841513	3623.606590
810.161390	3651.597597
810.481223	3632.007673
810.801011	3574.805701
811.120755	3568.600040
811.440453	3601.738065
811.760107	3604.505658
812.079716	3567.339752
812.399281	3531.726520
812.718801	3554.905746
813.038276	3530.168804
813.357707	3524.550438
813.677093	3543.790002
813.996434	3493.653206
814.315731	3499.989936
814.634983	3505.227695
814.954191	3517.124818
815.273354	3547.344015
815.592473	3545.075496
815.911547	3547.659087
816.230577	3582.813573
816.549562	3632.262252
816.868502	3678.600538
817.187399	3707.125907
817.506250	3701.147098
817.825058	3666.917664
818.143821	3759.737909
818.462539	3865.524002
818.781213	3908.716608
819.099843	3962.205771
819.418429	4197.940207
819.736970	4440.318884
820.055466	4679.861912
820.373919	5035.364081
820.692327	5438.003559
821.010691	5863.489547
821.329011	7183.266144
821.647286	9853.083906
821.965517	14309.340398
822.283704	18338.308690
822.601847	20565.011549
822.919945	18794.465057
823.237999	16266.094510
823.556010	13805.461948
823.873976	11741.273285
824.191897	9663.012242
824.509775	8315.985687
824.827609	7198.089657
825.145398	6651.573128
825.463144	6531.071907
825.780845	6647.018445
826.098502	6822.143088
826.416116	7667.158940
826.733685	8961.142474
827.051210	10075.161857
827.368692	10169.870014
827.686129	8949.999003
828.003522	7438.288035
828.320872	6428.058448
828.638177	5732.495164
828.955439	5185.242626
829.272656	4691.859858
829.589830	4404.325045
829.906960	4229.931369
830.224046	4051.466961
830.541088	3924.097168
830.858086	3876.790981
831.175041	3802.514620
831.491952	3784.684059
831.808819	3796.079587
832.125642	3863.862942
832.442421	4004.004498
832.759157	4278.470119
833.075849	4803.924708
833.392497	5654.362321
833.709101	6416.090749
834.025662	6771.597959
834.342179	6436.751918
834.658653	5777.552997
834.975083	5140.522550
835.291469	4570.229418
835.607811	4156.731295
835.924110	4019.541334
836.240366	3826.059329
836.556578	3619.213225
836.872746	3514.634488
837.188871	3476.183087
837.504952	3410.620361
837.820990	3328.147084
838.136984	3283.217800
838.452935	3305.000626
838.768842	3299.851088
839.084706	3322.904284
839.400526	3472.528251
839.716303	3799.752068
840.032037	4310.945232
840.347727	4584.959670
840.663373	4325.204136
840.978977	3946.411836
841.294537	3645.195332
841.610054	3415.900970
841.925527	3310.641677
842.240957	3241.078795
842.556344	3186.654498
842.871687	3130.818678
843.186987	3085.055084
843.502244	3043.894063
843.817458	3011.918024
844.132629	2977.164309
844.447756	2987.120588
844.762840	2972.924699
845.077881	2940.736932
845.392879	2923.533994
845.707833	2923.198757
846.022745	2918.296235
846.337613	2917.784558
846.652438	2907.999678
846.967221	2906.376427
847.281960	2893.642472
847.596656	2889.002090
847.911309	2888.845814
848.225919	2880.704351
848.540485	2875.983310
848.855009	2876.426932
849.169490	2867.617516
849.483928	2857.073942
849.798323	2857.043695
850.112675	2854.402131
850.426984	2864.953266
850.741251	2863.788759
851.055474	2851.584126
851.369654	2847.969618
851.683792	2852.320134
851.997887	2860.839684
852.311938	2862.717514
852.625947	2851.659743
852.939914	2857.726772
853.253837	2857.993953
853.567718	2843.392251
853.881555	2839.785305
854.195350	2857.089066
854.509103	2853.804754
854.822812	2846.807632
855.136479	2843.883763
855.450103	2844.282014
855.763685	2841.393433
856.077224	2836.208607
856.390720	2848.609845
856.704173	2859.171062
857.017584	2849.449197
857.330953	2847.515915
857.644278	2859.276927
857.957561	2862.145343
858.270802	2871.138762
858.584000	2870.826210
858.897155	2855.768283
859.210268	2853.976153
859.523339	2851.856348
859.836367	2852.302490
860.149352	2847.289063
860.462295	2842.187415
860.775195	2850.036492
861.088054	2851.611852
861.400869	2834.018225
861.713642	2830.864983
862.026373	2845.386027
862.339062	2849.159331
862.651708	2851.695031
862.964312	2857.182327
863.276873	2850.069259
863.589392	2859.854139
863.901869	2870.248998
864.214303	2891.454612
864.526696	2907.576222
864.839045	2903.893659
865.151353	2902.792167
865.463619	2902.066240
865.775842	2899.706980
866.088023	2919.727923
866.400162	2928.582710
866.712258	2900.626991
867.024313	2888.276164
867.336325	2899.021383
867.648296	2917.650968
867.960224	2911.974628
868.272110	2896.740261
868.583954	2899.953997
868.895755	2918.883530
869.207515	2902.673699
869.519233	2905.398443
869.830909	2916.957809
870.142542	2926.755291
870.454134	2928.877617
870.765684	2929.928698
871.077191	2928.721341
871.388657	2937.755089
871.700081	2949.891667
872.011463	2959.731999
872.322803	2962.187041
872.634101	2960.026907
872.945357	2976.516521
873.256571	3005.142713
873.567744	2995.022597
873.878874	2984.761328
874.189963	3012.008765
874.501010	3012.785102
874.812015	3003.574914
875.122979	3004.348731
875.433900	3000.487207
875.744780	3006.995337
876.055618	3012.578415
876.366415	3010.526665
876.677169	3021.425640
876.987882	3018.113602
877.298554	3011.406347
877.609183	3027.580889
877.919771	3054.082235
878.230317	3076.621233
878.540822	3131.418576
878.851285	3169.708660
879.161707	3209.377499
879.472087	3303.636994
879.782425	3523.920294
880.092722	3948.216569
880.402977	4466.043892
880.713191	5076.252880
881.023363	6198.219642
881.333494	7468.345915
881.643583	8034.777523
881.953631	7747.439315
882.263637	7138.205791
882.573602	6567.572381
882.883526	5993.158106
883.193408	5423.427063
883.503248	4961.208708
883.813048	4659.019261
884.122806	4375.456878
884.432522	4063.563210
884.742197	3833.414372
885.051831	3638.752737
885.361424	3505.633508
885.670975	3430.679112
885.980485	3349.672811
886.289954	3275.104063
886.599382	3232.322311
886.908768	3192.540046
887.218113	3151.651247
887.527417	3095.575972
887.836680	3044.292314
888.145901	3043.851213
888.455082	3032.649769
888.764221	2981.214876
889.073319	2948.666667
889.382376	2950.282356
889.691392	2953.642285
890.000366	2951.207408
890.309300	2938.700305
890.618193	2949.228755
890.927044	2969.148875
891.235855	2971.016622
891.544625	2954.796710
891.853353	2964.541260
892.162041	2983.017089
892.470687	3022.118799
892.779293	3068.263000
893.087858	3119.413068
893.396381	3185.633665
893.704864	3301.668423
894.013306	3531.872714
894.321707	3829.462108
894.630068	4034.145557
894.938387	4035.196637
895.246665	3989.531345
895.554903	3875.107235
895.863100	3679.318902
896.171256	3514.793285
896.479371	3379.193808
896.787446	3262.710387
897.095480	3158.819767
897.403473	3091.893409
897.711425	3059.264541
898.019336	3044.506563
898.327207	3021.120650
898.635038	2986.530773
898.942827	2972.639874
899.250576	2960.349541
899.558284	2928.542380
899.865952	2910.129566
900.173579	2887.976215
900.481165	2884.124774
900.788711	2870.773278
901.096216	2848.007427
901.403681	2834.189624
901.711105	2841.264884
902.018489	2840.612054
902.325832	2837.201714
902.633135	2846.580781
902.940397	2880.028836
903.247619	2958.265023
903.554800	3141.886532
903.861941	3472.349290
904.169041	3894.140112
904.476101	4193.609856
904.783121	4160.313035
905.090100	3919.769338
905.397039	3649.306393
905.703938	3403.519896
906.010796	3221.841752
906.317614	3112.786471
906.624391	3024.934283
906.931129	2952.041719
907.237826	2893.657596
907.544483	2844.879391
907.851099	2814.297231
908.157675	2796.007925
908.464211	2770.207300
908.770707	2762.718666
909.077163	2749.911614
909.383578	2733.356465
909.689954	2724.174003
909.996289	2721.910525
910.302584	2724.617625
910.608839	2723.886658
910.915054	2718.064125
911.221229	2710.530121
911.527363	2713.549772
911.833458	2719.092520
912.139513	2723.957234
912.445527	2724.219374
912.751502	2736.963411
913.057436	2747.403640
913.363331	2759.043665
913.669186	2776.357507
913.975000	2811.547282
914.280775	2869.414687
914.586510	2937.162753
914.892205	3015.378776
915.197859	3136.346304
915.503475	3327.884944
915.809050	3532.644010
916.114585	3673.841688
916.420081	3698.503013
916.725536	3646.697596
917.030952	3530.070501
917.336328	3406.100967
917.641665	3276.765123
917.946961	3177.668642
918.252218	3110.333950
918.557435	3033.836961
918.862612	2974.076603
919.167750	2924.587595
919.472848	2889.024775
919.777906	2859.130733
920.082925	2835.986796
920.387904	2806.382620
920.692843	2789.335958
920.997743	2780.095523
921.302603	2765.287134
921.607423	2756.303797
921.912204	2741.679410
922.216946	2733.890827
922.521647	2726.092162
922.826310	2715.798126
923.130932	2711.210676
923.435516	2700.578883
923.740059	2695.189889
924.044564	2684.454752
924.349028	2681.266222
924.653454	2675.728515
924.957840	2670.160561
925.262186	2665.777277
925.566493	2662.364416
925.870761	2655.770587
926.174989	2653.713796
926.479178	2648.579381
926.783328	2643.145017
927.087438	2640.594193
927.391509	2642.794657
927.695541	2637.990437
927.999533	2635.600930
928.303486	2631.207565
928.607400	2632.790487
928.911275	2631.063892
929.215110	2629.919550
929.518906	2629.864097
929.822663	2628.629015
930.126381	2626.824282
930.430060	2626.894858
930.733699	2626.554580
931.037299	2631.431896
931.340861	2630.098511
931.644383	2632.099849
931.947866	2631.636063
932.251309	2631.285703
932.554714	2629.034827
932.858080	2626.264713
933.161407	2625.727831
933.464694	2624.659106
933.767943	2619.754063
934.071153	2624.432254
934.374323	2622.078035
934.677455	2623.590381
934.980548	2620.530401
935.283602	2621.977212
935.586617	2617.941768
935.889593	2620.772376
936.192530	2620.086779
936.495428	2620.275823
936.798287	2624.722120
937.101108	2625.876545
937.403890	2628.959210
937.706632	2635.807618
938.009336	2641.224337
938.312002	2649.706079
938.614628	2659.700166
938.917216	2665.220230
939.219765	2666.573780
939.522275	2663.395332
939.824747	2663.491114
940.127179	2661.421720
940.429573	2657.633293
940.731929	2654.772438
941.034246	2651.898981
941.336524	2646.046201
941.638763	2647.755152
941.940964	2641.352887
942.243126	2641.552012
942.545250	2640.107722
942.847335	2637.229223
943.149381	2632.707308
943.451389	2630.199334
943.753359	2628.495424
944.055290	2626.221864
944.357182	2624.283540
944.659036	2624.522995
944.960851	2622.511574
945.262628	2624.170114
945.564367	2622.680453
945.866067	2623.829836
946.167729	2625.155660
946.469352	2626.168932
946.770937	2624.288581
947.072484	2623.577778
947.373992	2622.834208
947.675462	2618.798765
947.976893	2617.440174
948.278286	2614.866665
948.579641	2614.639813
948.880958	2612.272991
949.182236	2615.839607
949.483476	2614.130656
949.784678	2615.388424
950.085841	2612.530090
950.386967	2610.790892
950.688054	2615.307766
950.989103	2617.026799
951.290114	2616.061418
951.591087	2620.301028
951.892021	2620.187602
952.192917	2624.497789
952.493776	2626.332769
952.794596	2628.329066
953.095378	2625.866462
953.396122	2625.543828
953.696828	2623.567696
953.997496	2622.582151
954.298126	2622.609877
954.598718	2619.310442
954.899272	2614.813732
955.199788	2613.233331
955.500266	2612.734257
955.800706	2607.768720
956.101108	2607.788885
956.401472	2604.991044
956.701798	2602.800663
957.002087	2602.346959
957.302337	2601.225302
957.602550	2598.820672
957.902724	2593.756833
958.202861	2594.558376
958.502960	2594.192893
958.803022	2598.102307
959.103045	2595.097780
959.403031	2594.500403
959.702979	2593.686257
960.002889	2593.489652
960.302762	2589.834815
960.602596	2589.920515
960.902393	2588.723241
961.202153	2591.947059
961.501875	2586.530339
961.801559	2589.429002
962.101205	2590.016297
962.400814	2588.408169
962.700385	2586.641244
962.999918	2584.513877
963.299414	2584.697879
963.598873	2584.405492
963.898293	2585.375915
964.197677	2585.736357
964.497022	2587.301635
964.796331	2588.181317
965.095601	2584.181161
965.394835	2586.923549
965.694030	2588.461101
965.993189	2587.064701
966.292309	2587.835998
966.591393	2588.904722
966.890439	2585.645616
967.189447	2585.723754
967.488419	2586.306008
967.787353	2583.979515
968.086249	2585.711151
968.385108	2586.666450
968.683930	2588.773652
968.982714	2586.426995
969.281462	2583.006572
969.580172	2585.892633
969.878844	2588.007397
970.177480	2586.986563
970.476078	2587.412541
970.774639	2586.898343
971.073162	2587.969588
971.371649	2586.240473
971.670098	2587.132757
971.968510	2585.663260
972.266885	2586.805082
972.565223	2587.659557
972.863524	2583.883733
973.161788	2588.370360
973.460014	2587.868765
973.758204	2589.555031
974.056356	2585.887592
974.354471	2587.742736
974.652550	2585.817016
974.950591	2587.344485
975.248595	2586.928590
975.546563	2586.863055
975.844493	2584.171079
976.142386	2586.069073
976.440243	2583.316603
976.738062	2586.870617
977.035845	2585.741398
977.333590	2585.512026
977.631299	2584.720565
977.928971	2582.323496
978.226606	2580.493557
978.524204	2583.427509
978.821765	2578.398958
979.119290	2582.429360
979.416777	2584.826429
979.714228	2584.138311
980.011642	2583.099834
980.309020	2582.119329
980.606360	2582.046232
980.903664	2585.990935
981.200931	2585.953127
981.498162	2585.002869
981.795356	2586.401789
982.092513	2589.643251
982.389633	2588.781214
982.686717	2593.570310
982.983764	2598.167843
983.280775	2603.405601
983.577749	2604.038266
983.874686	2602.478029
984.171587	2598.429982
984.468451	2596.390836
984.765279	2593.136771
985.062070	2592.748602
985.358824	2590.384301
985.655543	2589.287850
985.952224	2586.457242
986.248869	2583.795513
986.545478	2585.824577
986.842050	2583.435070
987.138586	2583.581264
987.435086	2582.918352
987.731549	2582.620924
988.027975	2584.566809
988.324366	2580.372569
988.620719	2579.865933
988.917037	2581.431212
989.213318	2583.803075
989.509563	2581.524473
989.805772	2579.886098
990.101944	2578.668659
990.398080	2579.961715
990.694180	2579.266036
990.990244	2582.779720
991.286271	2581.216963
991.582262	2579.860892
991.878217	2578.159503
992.174136	2580.765779
992.470019	2580.097827
992.765865	2576.453072
993.061676	2576.069945
993.357450	2578.033474
993.653188	2578.139338
993.948890	2579.071952
994.244556	2578.109091
994.540186	2582.116809
994.835780	2581.020358
995.131337	2583.140163
995.426859	2584.014803
995.722345	2584.113106
996.017795	2583.525811
996.313208	2587.707448
996.608586	2585.585122
996.903928	2583.828280
997.199234	2585.703590
997.494504	2587.294074
997.789738	2586.227870
998.084936	2584.992787
998.380099	2582.661253
998.675225	2581.547158
998.970316	2581.549679
999.265371	2581.703434
999.560390	2580.206211
999.855373	2578.966087
1000.150320	2581.879874
1000.445232	2582.394072
1000.740108	2578.978690
1001.034948	2578.918197
1001.329752	2579.293763
1001.624521	2577.274780
1001.919254	2580.105388
1002.213951	2580.100347
1002.508613	2579.545820
1002.803239	2580.659915
1003.097829	2577.809143
1003.392384	2583.349371
1003.686903	2577.423494
1003.981386	2578.484657
1004.275834	2579.155131
1004.570246	2580.561613
1004.864623	2577.405850
1005.158964	2578.653536
1005.453270	2577.849472
1005.747540	2578.015830
1006.041775	2576.891653
1006.335974	2579.192939
1006.630138	2578.817373
1006.924266	2580.843917
1007.218359	2579.082034
1007.512416	2575.185222
1007.806438	2578.393917
1008.100425	2577.819225
1008.394376	2574.792012
1008.688292	2576.387537
1008.982172	2578.149421
1009.276017	2579.991962
1009.569827	2577.816704
1009.863602	2577.897363
1010.157341	2578.182188
1010.451045	2580.238979
1010.744714	2579.104719
1011.038347	2578.255285
1011.331945	2579.291242
1011.625508	2580.367528
1011.919036	2575.777558
1012.212528	2577.007599
1012.505986	2577.786457
1012.799408	2579.404668
1013.092795	2577.945254
1013.386147	2578.590522
1013.679464	2577.058011
1013.972745	2579.954154
1014.265992	2575.948957
1014.559204	2579.031622
1014.852380	2576.977352
1015.145521	2579.301324
1015.438628	2578.088927
1015.731699	2576.319482
1016.024736	2578.714030
1016.317737	2576.674883
1016.610703	2578.973649
1016.903635	2579.339133
1017.196531	2577.146231
1017.489393	2578.411561
1017.782219	2576.407702
1018.075011	2578.925758
1018.367768	2579.036664
1018.660490	2578.177147
1018.953177	2578.177147
1019.245829	2578.177147
