Dividing Wavelength (nm)	Counts (n)	Blue Motor Position (mm): 22.100000	Red Motor Position (mm): 0.000000	
326.493990	2191.931501
326.888308	2191.931501
327.282561	2191.931501
327.676750	2152.305511
328.070874	2144.927783
328.464933	2146.180509
328.858929	2147.786117
329.252859	2156.507313
329.646726	2159.930256
330.040528	2174.408450
330.434265	2187.452436
330.827938	2207.770806
331.221547	2222.707745
331.615091	2240.092164
332.008571	2259.722417
332.401986	2278.621703
332.795338	2296.238015
333.188625	2316.193423
333.581847	2334.898624
333.975006	2352.474607
334.368100	2369.869108
334.761129	2387.684546
335.154095	2405.278173
335.546996	2431.053592
335.939833	2462.207923
336.332606	2478.198463
336.725315	2491.915443
337.117960	2505.723163
337.510540	2514.726664
337.903056	2526.354085
338.295508	2535.022349
338.687896	2545.490305
339.080220	2554.203940
339.472480	2558.990515
339.864676	2565.352452
340.256807	2569.612227
340.648875	2572.589028
341.040879	2576.173288
341.432818	2578.809812
341.824694	2581.781572
342.216506	2582.086562
342.608253	2583.356933
342.999937	2584.657550
343.391557	2582.104206
343.783113	2583.679566
344.174605	2580.284349
344.566033	2580.904411
344.957397	2579.523135
345.348697	2578.968608
345.739934	2577.410892
346.131106	2576.569019
346.522215	2575.452403
346.913260	2572.732701
347.304241	2571.071641
347.695159	2569.070302
348.086012	2568.919068
348.476802	2561.974878
348.867528	2560.666699
349.258191	2555.101265
349.648789	2555.917932
350.039324	2554.087993
350.429796	2556.467418
350.820203	2554.367777
351.210548	2554.473642
351.600828	2551.244782
351.991045	2553.654454
352.381198	2551.196892
352.771288	2551.733774
353.161314	2548.207487
353.551276	2550.418033
353.941175	2549.261088
354.331010	2550.546583
354.720782	2548.394010
355.110490	2549.087169
355.500135	2548.943496
355.889717	2550.115564
356.279235	2547.577343
356.668689	2548.325954
357.058080	2549.994576
357.447408	2550.849052
357.836672	2550.763352
358.225873	2550.412992
358.615010	2550.057591
359.004084	2551.358208
359.393095	2553.840977
359.782043	2552.338713
360.170927	2550.153373
360.559748	2552.374001
360.948505	2552.961295
361.337199	2554.700493
361.725830	2556.729558
362.114398	2555.791903
362.502903	2554.420709
362.891344	2553.435164
363.279722	2555.746533
363.668037	2556.709393
364.056289	2556.762325
364.444478	2557.344579
364.832603	2559.245094
365.220665	2560.424724
365.608665	2558.350289
365.996601	2557.130330
366.384474	2563.197358
366.772284	2560.669220
367.160031	2557.039589
367.547715	2562.957903
367.935336	2562.010167
368.322893	2560.177707
368.710388	2557.074877
369.097820	2559.328273
369.485189	2557.732748
369.872495	2564.248439
370.259738	2562.655434
370.646918	2560.954045
371.034035	2564.724828
371.421090	2561.826164
371.808081	2563.971175
372.195010	2565.085270
372.581875	2568.266238
372.968678	2565.055023
373.355418	2565.407904
373.742096	2563.983778
374.128710	2565.319684
374.515262	2564.331618
374.901751	2563.865311
375.288177	2564.974365
375.674540	2567.182390
376.060841	2566.247256
376.447079	2566.829510
376.833254	2567.719273
377.219367	2566.174160
377.605417	2568.200703
377.991404	2569.345045
378.377329	2567.399160
378.763191	2565.927143
379.148991	2568.780436
379.534727	2571.293451
379.920402	2569.403019
380.306013	2569.670200
380.691563	2570.265056
381.077049	2571.162381
381.462474	2568.362020
381.847835	2570.933009
382.233134	2571.842937
382.618371	2569.453430
383.003545	2572.412587
383.388657	2569.992834
383.773706	2570.592731
384.158693	2573.350242
384.543618	2572.488205
384.928480	2571.351425
385.313280	2570.718760
385.698017	2574.116498
386.082692	2571.311095
386.467305	2573.980386
386.851856	2576.069945
387.236344	2574.436611
387.620770	2571.946281
388.005133	2569.362689
388.389435	2572.745304
388.773674	2569.977710
389.157851	2574.335788
389.541965	2577.945254
389.926018	2575.467527
390.310008	2577.851993
390.693936	2577.315110
391.077802	2575.442321
391.461606	2576.899214
391.845348	2576.352249
392.229027	2578.293093
392.612645	2576.674883
392.996200	2580.818712
393.379694	2573.768658
393.763125	2577.143710
394.146494	2577.360480
394.529801	2578.630851
394.913047	2578.923238
395.296230	2581.920204
395.679351	2575.132290
396.062410	2579.792837
396.445408	2580.070100
396.828343	2579.545820
397.211217	2581.123701
397.594028	2580.347364
397.976778	2581.532035
398.359466	2584.614700
398.742092	2580.554051
399.124656	2581.554720
399.507158	2582.618403
399.889598	2582.517580
400.271977	2582.310893
400.654294	2582.484813
401.036549	2581.103537
401.418742	2583.848445
401.800874	2583.064546
402.182944	2583.364494
402.564952	2584.453383
402.946898	2583.477920
403.328783	2582.865420
403.710606	2584.496233
404.092367	2585.078487
404.474067	2583.321644
404.855705	2586.968919
405.237282	2584.592015
405.618797	2586.132088
406.000250	2585.254927
406.381642	2585.970771
406.762972	2583.684607
407.144240	2579.664287
407.525447	2583.926583
407.906593	2581.872313
408.287677	2585.842221
408.668700	2586.671491
409.049661	2586.588312
409.430560	2588.181317
409.811399	2588.461101
410.192176	2586.918508
410.572891	2586.658888
410.953545	2588.375401
411.334138	2588.123343
411.714669	2589.348344
412.095139	2590.671647
412.475547	2586.210226
412.855894	2591.447984
413.236180	2588.256934
413.616405	2589.209712
413.996568	2592.582244
414.376670	2589.202150
414.756711	2590.147367
415.136691	2590.031420
415.516609	2587.402458
415.896466	2590.061667
416.276262	2590.202819
416.655997	2590.404466
417.035670	2590.661564
417.415283	2590.359095
417.794834	2590.230546
418.174324	2592.438571
418.553753	2590.268354
418.933121	2594.702049
419.312428	2592.746082
419.691674	2595.609457
420.070859	2594.835640
420.449983	2592.642738
420.829045	2594.916298
421.208047	2593.968561
421.586988	2593.824888
421.965867	2593.955958
422.344686	2592.816658
422.723444	2596.030393
423.102141	2594.449992
423.480777	2595.826227
423.859352	2595.977461
424.237866	2595.589292
424.616319	2596.950404
424.994712	2596.660537
425.373044	2596.587441
425.751314	2593.199785
426.129524	2590.585947
426.507673	2594.276072
426.885762	2592.796493
427.263789	2596.960486
427.641756	2597.580548
428.019662	2596.811772
428.397508	2596.544591
428.775292	2599.428131
429.153016	2596.776484
429.530679	2598.442585
429.908282	2598.550970
430.285824	2598.556011
430.663305	2598.772781
431.040726	2603.128338
431.418086	2596.305136
431.795385	2599.657503
432.172624	2597.517534
432.549802	2599.526433
432.926920	2599.546598
433.303977	2599.619695
433.680974	2602.500714
434.057910	2600.640528
434.434786	2598.745055
434.811601	2601.903337
435.188355	2602.294027
435.565050	2601.187494
435.941683	2600.446444
436.318257	2604.691096
436.694770	2602.997268
437.071222	2601.888214
437.447614	2603.856785
437.823946	2604.721342
438.200218	2603.085488
438.576429	2605.550612
438.952580	2602.946856
439.328670	2603.977772
439.704700	2602.402412
440.080670	2602.740169
440.456580	2604.865015
440.832429	2606.100098
441.208218	2604.950715
441.583947	2605.338884
441.959616	2604.249995
442.335224	2606.508432
442.710773	2606.263936
443.086261	2605.613627
443.461689	2604.703698
443.837057	2605.054059
444.212365	2605.822835
444.587612	2605.280911
444.962800	2604.562546
445.337927	2603.191352
445.712995	2602.190683
446.088002	2607.849378
446.462949	2607.378031
446.837837	2609.497836
447.212664	2609.951540
447.587431	2612.043618
447.962139	2611.647888
448.336786	2611.912548
448.711374	2613.853393
449.085901	2613.467744
449.460369	2611.975563
449.834776	2612.104112
450.209124	2612.885491
450.583412	2612.245265
450.957640	2615.902622
451.331808	2616.472272
451.705917	2614.992693
452.079965	2613.631582
452.453954	2615.438836
452.827883	2615.559823
453.201752	2613.941613
453.575562	2616.802468
453.949311	2618.380349
454.323001	2614.861623
454.696632	2615.206942
455.070202	2616.391614
455.443713	2620.013683
455.817164	2619.859927
456.190556	2618.781121
456.563888	2623.890330
456.937160	2620.568210
457.310373	2620.265740
457.683526	2621.402521
458.056619	2623.078704
458.429653	2623.091307
458.802628	2622.672891
459.175542	2620.948817
459.548398	2624.714559
459.921194	2627.615743
460.293930	2625.742954
460.666607	2628.381998
461.039224	2631.026083
461.411782	2633.158491
461.784280	2634.983389
462.156719	2634.202010
462.529099	2638.008081
462.901419	2634.847278
463.273680	2631.973820
463.645882	2631.336114
464.018024	2634.980868
464.390106	2634.804428
464.762130	2642.814822
465.134094	2641.047897
465.505999	2652.178765
465.877845	2666.606547
466.249631	2672.134172
466.621358	2672.272804
466.993026	2672.900428
467.364634	2676.966118
467.736184	2672.890345
468.107674	2673.558298
468.479105	2682.922242
468.850477	2682.445852
469.221790	2687.819723
469.593043	2687.297963
469.964238	2692.402131
470.335373	2692.162677
470.706449	2703.601055
471.077467	2709.544575
471.448425	2727.430589
471.819324	2767.545571
472.190164	2795.080353
472.560945	2778.636109
472.931667	2772.175870
473.302330	2777.280039
473.672934	2786.500309
474.043479	2808.353711
474.413965	2819.131698
474.784393	2832.064778
475.154761	2860.887575
475.525070	2883.350957
475.895321	2898.313101
476.265513	2933.429779
476.635645	2973.108701
477.005719	2996.620643
477.375734	3033.287475
477.745691	3076.979155
478.115588	3128.630818
478.485427	3181.278108
478.855207	3259.065632
479.224928	3380.600290
479.594591	3538.728683
479.964194	3591.693566
480.333739	3649.555930
480.703226	3680.906866
481.072653	3746.366248
481.442022	3865.975185
481.811333	4005.146319
482.180584	4091.009772
482.549777	4100.338427
482.918912	4180.727187
483.287988	4286.629227
483.657005	4366.556721
484.025964	4433.561217
484.394864	4520.034650
484.763706	4593.948047
485.132489	4666.187782
485.501213	4766.685704
485.869879	4880.872880
486.238487	4945.364361
486.607036	5105.637766
486.975527	5177.713663
487.343959	5325.583308
487.712333	5463.559689
488.080648	5517.439541
488.448905	5728.938630
488.817104	5814.035828
489.185244	6043.521753
489.553326	6205.108378
489.921350	6485.325956
490.289315	7053.153963
490.657222	7578.921104
491.025070	7842.828028
491.392861	7978.702248
491.760593	7988.146850
492.128267	8013.307248
492.495883	7933.354548
492.863440	7940.850744
493.230939	7896.410452
493.598380	8047.705562
493.965763	8113.331303
494.333088	8179.360336
494.700354	8331.903130
495.067563	8495.934715
495.434713	8606.756920
495.801805	8768.583000
496.168839	8946.981873
496.535815	9077.663704
496.902733	9310.285228
497.269593	9348.388789
497.636395	9618.171178
498.003139	9789.865317
498.369825	9932.535012
498.736453	10138.408173
499.103023	10274.284913
499.469535	10475.495007
499.835989	10733.781045
500.202385	10965.162445
500.568723	10955.871598
500.935003	11193.715757
501.301226	11263.281160
501.667390	11722.464740
502.033497	12085.936974
502.399546	12106.562855
502.765537	12188.645442
503.131470	12513.520081
503.497345	12790.120631
503.863163	12610.471552
504.228923	13123.847536
504.594625	13417.961054
504.960269	13351.097710
505.325856	13805.860199
505.691385	13721.088156
506.056856	14177.373073
506.422270	14421.649744
506.787625	14343.847096
507.152924	14823.845601
507.518164	14975.304548
507.883347	15053.699531
508.248472	15068.979268
508.613540	15702.427975
508.978550	15796.505988
509.343503	15980.311499
509.708398	16329.688666
510.073236	16607.327694
510.438016	16916.708346
510.802738	16933.840708
511.167403	17261.906397
511.532010	17234.381697
511.896561	17970.586764
512.261053	18171.317948
512.625488	18207.483186
512.989866	18332.261826
513.354186	18383.142192
513.718449	18662.338936
514.082655	19083.786959
514.446803	19095.570656
514.810894	19586.198433
515.174927	19366.983858
515.538904	19568.564477
515.902822	20079.205636
516.266684	20095.690209
516.630488	20152.519136
516.994235	20318.957871
517.357925	20684.073521
517.721558	21007.632419
518.085133	21218.153524
518.448651	21307.386988
518.812112	21239.444837
519.175516	21495.600988
519.538863	21815.573105
519.902152	21757.683014
520.265385	22163.243841
520.628560	22096.075507
520.991678	22248.938416
521.354739	22432.176796
521.717743	22614.064148
522.080690	22534.401314
522.443580	22968.280823
522.806413	23061.078382
523.169189	23288.225213
523.531908	23420.421911
523.894569	23186.033463
524.257174	23345.091949
524.619722	23646.225274
524.982213	23437.367750
525.344647	23634.330672
525.707025	23806.276868
526.069345	23907.374687
526.431608	23961.965342
526.793815	24227.104829
527.155964	23762.267594
527.518057	24007.988556
527.880093	24019.033724
528.242072	24285.322594
528.603995	24084.614095
528.965860	23967.490447
529.327669	24097.035498
529.689421	24147.273117
530.051117	24044.909967
530.412755	24266.141004
530.774337	24132.759635
531.135862	24057.520413
531.497331	24307.904443
531.858743	23914.195368
532.220098	24442.319248
532.581396	24149.299660
532.942638	24172.824205
533.303824	24277.160966
533.664953	24344.649413
534.026025	24059.315064
534.387040	24313.182531
534.747999	24420.551546
535.108902	24608.737819
535.469748	24152.089939
535.830537	24372.736202
536.191270	24493.212217
536.551947	24433.666108
536.912567	24130.513801
537.273131	24434.089565
537.633638	24192.691392
537.994089	24405.221397
538.354483	24000.751980
538.714821	24498.334029
539.075103	24566.850872
539.435328	24386.085177
539.795497	23950.577376
540.155609	24371.264185
540.515665	24673.725854
540.875665	23947.217447
541.235609	24198.647515
541.595496	24214.864907
541.955328	24564.980604
542.315102	24499.813608
542.674821	24083.353806
543.034483	23972.145952
543.394090	24141.528722
543.753640	23933.382000
544.113134	24568.524535
544.472571	24188.340876
544.831953	24472.392252
545.191278	24090.146761
545.550548	24052.098652
545.909761	24258.954839
546.268918	24476.752850
546.628019	24442.142808
546.987064	24168.733308
547.346053	23933.031640
547.704986	24067.562392
548.063863	24225.078285
548.422684	24215.764753
548.781449	23797.424601
549.140158	24188.492111
549.498811	23761.171143
549.857408	23497.357480
550.215949	23949.198620
550.574434	23627.956132
550.932864	23849.356048
551.291237	23996.477082
551.649555	23864.078738
552.007817	23917.204937
552.366022	23802.019613
552.724173	23845.060985
553.082267	23772.672536
553.440305	24240.095882
553.798288	23533.260578
554.156215	24038.873185
554.514086	24135.507063
554.871902	23501.229087
555.229661	23798.921824
555.587365	23658.485360
555.945014	23484.048834
556.302606	23770.023410
556.660143	23688.081974
557.017625	23970.613442
557.375050	23504.997349
557.732421	23892.883891
558.089735	23699.043963
558.446994	23779.462970
558.804197	23782.711994
559.161345	23753.148147
559.518437	23477.233194
559.875474	23695.283263
560.232455	23873.059553
560.589381	23708.236508
560.946251	23666.057173
561.303065	23998.221321
561.659825	24082.161573
562.016528	23686.196583
562.373177	23429.594290
562.729770	23786.870946
563.086307	23661.847810
563.442789	23823.880577
563.799216	23654.555781
564.155587	23666.485671
564.511904	23650.422035
564.868164	23581.390994
565.224370	23562.965577
565.580520	23465.648623
565.936615	23608.371250
566.292654	23259.268825
566.648638	23589.875256
567.004567	23414.312033
567.360441	23366.390824
567.716260	23090.667435
568.072023	23412.749275
568.427732	23173.470907
568.783385	22958.022074
569.138982	23189.191746
569.494525	23238.128747
569.850013	22980.805569
570.205445	23080.963214
570.560823	22874.926215
570.916145	22643.572542
571.271412	22823.463596
571.626625	22587.192277
571.981782	22691.155993
572.336884	22496.217094
572.691931	22633.190285
573.046923	22364.685828
573.401860	22258.383017
573.756743	22246.732911
574.111570	22164.821722
574.466342	22104.106066
574.821059	22200.182896
575.175722	21882.784288
575.530330	21876.649204
575.884882	21906.833113
576.239380	21809.271662
576.593823	21711.536292
576.948211	21684.989576
577.302544	21520.907580
577.656823	21395.561810
578.011047	21499.901092
578.365216	21371.545753
578.719330	21246.794840
579.073389	21160.049185
579.427394	21299.898354
579.781344	21087.842218
580.135239	20959.514605
580.489080	20944.257553
580.842866	20701.820903
581.196597	20884.655991
581.550273	20860.302177
581.903895	20765.841036
582.257463	21077.263356
582.610975	20598.946077
582.964434	20910.050804
583.317837	20622.770570
583.671186	20712.412367
584.024481	20672.181439
584.377721	20455.126998
584.730906	20497.071919
585.084037	20538.416942
585.437113	20432.764440
585.790135	20637.745317
586.143103	20120.381780
586.496016	20125.816144
586.848874	20363.476301
587.201679	20315.161883
587.554428	19958.462439
587.907124	20299.095725
588.259765	20088.667881
588.612352	20162.321660
588.964884	19731.794518
589.317362	19896.042872
589.669786	19954.099321
590.022155	20019.142808
590.374470	20184.711944
590.726731	19986.917232
591.078937	19734.219313
591.431090	19841.482464
591.783188	19584.507126
592.135232	19562.782274
592.487222	19658.753240
592.839157	19689.373209
593.191038	19573.817360
593.542866	19459.700760
593.894639	19183.266568
594.246358	19395.438651
594.598022	19309.912956
594.949633	19063.692920
595.301190	19022.015180
595.652692	19175.112502
596.004141	19429.100956
596.355535	18761.863915
596.706876	18772.626779
597.058162	18661.093771
597.409395	18870.664618
597.760573	18976.271750
598.111698	18752.071474
598.462768	18682.863993
598.813785	18639.986459
599.164748	18472.060584
599.515657	18496.477412
599.866511	18286.319270
600.217312	18652.528850
600.568060	18190.302933
600.918753	18497.515890
601.269392	18390.363644
601.619978	18168.429367
601.970510	18378.653044
602.320988	18324.432914
602.671412	18541.295791
603.021783	18440.238300
603.372100	18171.640582
603.722363	18302.372825
604.072572	18246.635307
604.422728	18377.758239
604.772830	18144.355337
605.122878	18103.038040
605.472872	18094.084951
605.822813	18079.952076
606.172701	18036.293163
606.522534	18239.917970
606.872314	18266.762114
607.222041	18087.745700
607.571714	18310.574782
607.921333	18129.703223
608.270899	18213.446871
608.620411	18408.970543
608.969870	18157.313623
609.319276	18170.546652
609.668627	18196.057411
610.017926	18341.116613
610.367171	18457.894941
610.716362	18487.925095
611.065500	18306.168813
611.414585	18447.484959
611.763616	18421.628881
612.112594	18376.361840
612.461518	18343.823712
612.810389	18533.474440
613.159207	18390.666114
613.507971	18285.119476
613.856682	18585.554601
614.205340	18505.584257
614.553945	18649.889806
614.902496	18396.992762
615.250994	18635.391448
615.599439	18570.385769
615.947830	18563.786898
616.296169	18598.301158
616.644454	18563.565088
616.992686	18538.510553
617.340864	18752.507534
617.688990	18513.438374
618.037063	18692.711887
618.385082	18529.940592
618.733048	18817.031782
619.080961	18683.524385
619.428821	18731.611951
619.776628	18619.431155
620.124382	18536.620120
620.472083	18571.749401
620.819731	18604.970605
621.167326	18294.619530
621.514868	18330.764603
621.862357	18088.693437
622.209793	18106.072814
622.557176	17938.343544
622.904506	17768.315507
623.251783	17658.138569
623.599007	17443.861804
623.946179	17388.630923
624.293297	17337.380032
624.640363	17087.152278
624.987376	17101.869927
625.334336	16892.243627
625.681243	16743.282572
626.028097	16750.322543
626.374899	16683.436514
626.721647	16555.156792
627.068343	16391.548665
627.414987	16305.700336
627.761577	16286.501101
628.108115	16338.306519
628.454600	16054.418981
628.801032	16151.347767
629.147412	16077.744400
629.493739	16099.910353
629.840014	15906.496404
630.186236	16010.671848
630.532405	15777.946981
630.878521	15969.959489
631.224585	15856.364649
631.570597	15693.787438
631.916556	15716.694441
632.262462	15705.661876
632.608316	15618.573422
632.954117	15568.587861
633.299866	15563.324897
633.645562	15482.742053
633.991206	15236.395987
634.336797	15106.462768
634.682336	15072.026646
635.027823	14965.010511
635.373257	14848.731257
635.718639	14742.625051
636.063968	14700.629718
636.409245	14445.481799
636.754470	14474.932220
637.099642	14313.489268
637.444762	14089.906533
637.789829	14138.833452
638.134845	13975.111898
638.479808	13996.269621
638.824719	13951.678094
639.169577	13801.355928
639.514383	13849.559441
639.859137	13670.422039
640.203839	13749.782403
640.548489	13587.353906
640.893086	13583.091610
641.237632	13451.091518
641.582125	13600.952418
641.926566	13436.411678
642.270955	13437.067028
642.615292	13407.074683
642.959576	13427.645111
643.303809	13459.364051
643.647990	13390.542219
643.992118	13444.306124
644.336195	13218.729613
644.680219	13412.166248
645.024192	13339.596318
645.368112	13579.008276
645.711981	13637.893994
646.055797	13811.564264
646.399562	13774.441208
646.743274	14046.703844
647.086935	14319.253827
647.430544	14290.234425
647.774101	14320.085618
648.117606	14472.225120
648.461059	14441.194298
648.804460	14439.344194
649.147810	14172.349563
649.491108	14065.976176
649.834354	14087.217077
650.177548	13787.449905
650.520690	13591.535543
650.863781	13509.183254
651.206820	13556.975913
651.549807	13380.044016
651.892742	13193.919575
652.235626	13134.088640
652.578458	13138.431594
652.921238	12818.154487
653.263967	13013.531967
653.606644	12840.973270
653.949269	12812.543683
654.291843	12617.950104
654.634365	12772.746294
654.976836	12628.339922
655.319255	12645.764670
655.661622	12590.374992
656.003938	12508.864576
656.346203	12440.287239
656.688416	12513.073939
657.030577	12467.186836
657.372687	12394.203531
657.714746	12366.643543
658.056753	12553.009960
658.398708	12372.428267
658.740612	12370.459697
659.082465	12477.591778
659.424266	12448.398456
659.766016	12458.904220
660.107715	12364.664890
660.449362	12443.213629
660.790958	12401.125036
661.132503	12353.942356
661.473996	12410.322621
661.815438	12429.763831
662.156829	12438.386724
662.498168	12430.895570
662.839456	12420.160432
663.180693	12440.320007
663.521879	12530.569263
663.863013	12505.791992
664.204097	12485.808858
664.545129	12601.621806
664.886110	12570.205336
665.227040	12661.508193
665.567918	12667.756704
665.908746	12699.510932
666.249522	12685.206658
666.590248	12724.671331
666.930922	12837.933455
667.271545	12826.094305
667.612118	12913.147470
667.952639	12812.785659
668.293109	12813.501502
668.633528	12775.513888
668.973896	12752.049837
669.314213	12847.995598
669.654480	12575.697673
669.994695	12641.454483
670.334859	12675.426819
670.674973	12614.345679
671.015035	12655.181545
671.355047	12586.205958
671.695008	12563.792988
672.034918	12573.386304
672.374777	12607.519956
672.714585	12522.841175
673.054342	12561.259808
673.394049	12508.156293
673.733705	12606.846962
674.073310	12519.932429
674.412864	12539.494626
674.752368	12411.464442
675.091820	12412.044175
675.431223	12405.964543
675.770574	12277.336982
676.109875	12195.171216
676.449125	12151.978610
676.788324	12099.134714
677.127473	11934.669591
677.466571	11931.370156
677.805619	11828.139928
678.144616	11752.263001
678.483562	11713.741023
678.822458	11589.655542
679.161303	11566.478837
679.500098	11560.139586
679.838842	11504.437357
680.177535	11527.251099
680.516179	11585.002557
680.854771	11532.947603
681.193314	11750.092784
681.531805	11900.324210
681.870247	12304.556692
682.208638	12707.909494
682.546978	13035.619782
682.885268	13095.077671
683.223508	12787.126186
683.561697	12620.551339
683.899836	12515.624763
684.237925	12325.921103
684.575963	12239.568658
684.913951	12171.934017
685.251889	12111.858587
685.589776	12210.619832
685.927614	12139.988225
686.265401	12100.087492
686.603137	12144.978967
686.940824	12292.659569
687.278460	12406.171231
687.616046	12467.663225
687.953582	12638.419709
688.291068	12557.698233
688.628504	12789.233388
688.965889	12806.338023
689.303224	12766.379317
689.640510	12663.194459
689.977745	12369.557330
690.314930	12132.466824
690.652065	12049.350800
690.989150	11763.512335
691.326185	11543.891948
691.663170	11330.749442
692.000105	11081.698798
692.336990	10980.248098
692.673825	10729.002031
693.010610	10610.754206
693.347345	10404.870962
693.684030	10201.657010
694.020665	10146.678186
694.357251	9947.517321
694.693786	9905.368233
695.030272	9730.062108
695.366707	9613.472823
695.703093	9548.192401
696.039429	9540.444148
696.375716	9463.347261
696.711952	9338.024177
697.048139	9374.529692
697.384276	9325.998504
697.720363	9342.818314
698.056400	9281.774982
698.392388	9240.498014
698.728326	9193.577475
699.064214	9133.229822
699.400053	9182.958284
699.735842	8991.470056
700.071581	8950.704765
700.407270	8879.085092
700.742910	8802.726735
701.078501	8706.566725
701.414042	8587.330834
701.749533	8520.311214
702.084974	8385.359526
702.420366	8495.080239
702.755709	8373.112043
703.091002	8246.430367
703.426246	8267.542719
703.761440	8222.605874
704.096584	8177.268257
704.431679	8113.913556
704.766725	8101.887883
705.101721	8046.089872
705.436668	8095.994774
705.771565	7990.034762
706.106413	8067.194662
706.441212	8113.553113
706.775961	8060.805000
707.110661	8098.071730
707.445311	8246.178309
707.779913	8141.818863
708.114465	8266.930219
708.448967	8317.177920
708.783421	8439.125952
709.117825	8628.328018
709.452180	8666.781939
709.786485	8755.443232
710.120742	9026.299388
710.454949	9031.262403
710.789107	9135.029514
711.123216	9344.370989
711.457275	9503.550463
711.791286	9673.923819
712.125247	9665.739506
712.459159	9653.998659
712.793023	9908.082895
713.126837	9481.412236
713.460602	9633.672726
713.794318	9463.445564
714.127985	9488.674018
714.461602	9178.297738
714.795171	9116.994786
715.128691	8876.400678
715.462162	8626.220815
715.795584	8571.529337
716.128957	8425.719003
716.462281	8256.278261
716.795556	8303.965056
717.128782	8107.728060
717.461960	7834.691606
717.795088	7911.450735
718.128167	7816.472876
718.461198	7644.249417
718.794180	7591.329904
719.127113	7584.355468
719.459997	7435.752335
719.792833	7202.553599
720.125619	7262.450068
720.458357	7123.026876
720.791046	7112.281657
721.123686	7114.708972
721.456278	6950.503468
721.788821	6972.140101
722.121315	6863.029367
722.453761	6929.025632
722.786158	6876.108640
723.118506	6885.926288
723.450805	6852.362285
723.783056	6922.787204
724.115259	6825.853378
724.447412	6826.060065
724.779518	6869.015737
725.111574	6872.715944
725.443582	6956.230219
725.775542	6932.345232
726.107453	7120.712987
726.439315	7037.670059
726.771129	7089.233502
727.102895	7253.743996
727.434612	7372.569033
727.766281	7401.273363
728.097901	7492.626632
728.429473	7477.820763
728.760996	7453.129192
729.092471	7431.661438
729.423897	7377.799230
729.755276	7388.609984
730.086606	7323.684964
730.417887	7413.097389
730.749120	7597.394412
731.080305	7796.812376
731.411442	7919.619925
731.742530	7918.899040
732.073570	8015.255654
732.404562	8105.116742
732.735506	7954.630738
733.066401	8094.129547
733.397249	8026.371399
733.728048	7796.709032
734.058798	7460.259904
734.389501	7240.740339
734.720156	7061.270221
735.050762	6829.455282
735.381320	6724.790846
735.711831	6681.598240
736.042293	6574.372898
736.372707	6599.240909
736.703073	6460.248736
737.033391	6496.356001
737.363661	6509.652044
737.693883	6529.322626
738.024056	6615.022242
738.354182	6666.764645
738.684260	6695.955446
739.014290	6803.460572
739.344272	6916.211019
739.674207	6946.092459
740.004093	7009.996645
740.333931	7030.458689
740.663722	7040.719957
740.993464	7118.192410
741.323159	7109.090607
741.652806	6859.883687
741.982405	6860.385282
742.311956	6928.763492
742.641460	6771.361025
742.970915	6574.892136
743.300323	6564.787143
743.629683	6511.411407
743.958996	6380.444750
744.288260	6288.925123
744.617477	6242.100365
744.946647	6248.812662
745.275768	6075.651547
745.604842	6036.101175
745.933869	6016.186097
746.262847	5974.437781
746.591778	5962.177695
746.920662	5918.632208
747.249498	5911.700622
747.578286	5956.834072
747.907027	6033.000865
748.235720	6095.004537
748.564365	6060.757458
748.892963	6083.553556
749.221514	6244.373926
749.550017	6084.188742
749.878473	5961.335822
750.206881	6010.650910
750.535242	5950.089008
750.863555	5882.988730
751.191821	5904.733747
751.520039	5905.595784
751.848210	5817.131096
752.176334	5829.980997
752.504411	5885.726076
752.832440	5806.988294
753.160421	5734.778807
753.488356	5784.570283
753.816243	5816.140509
754.144082	5674.799158
754.471875	5642.094673
754.799620	5679.903327
755.127318	5696.493764
755.454969	5651.241846
755.782572	5611.041165
756.110129	5656.910624
756.437638	5647.982740
756.765100	5584.948153
757.092515	5576.095887
757.419882	5629.189319
757.747203	5613.591989
758.074477	5672.828067
758.401703	5666.345143
758.728882	5614.756495
759.056014	5664.981511
759.383099	5797.203415
759.710138	5813.849305
760.037129	5789.674452
760.364073	5801.551410
760.690970	5878.696187
761.017820	5863.933168
761.344623	5812.566331
761.671379	5916.683802
761.998088	6035.723088
762.324751	6264.704899
762.651366	6847.789959
762.977935	8132.132286
763.304456	9750.433411
763.630931	10673.047744
763.957359	10307.596858
764.283740	9368.011480
764.610074	8553.219867
764.936362	7565.078095
765.262602	6962.672814
765.588796	6427.393016
765.914943	6081.975675
766.241044	5926.887098
766.567097	5730.879474
766.893104	5472.154856
767.219064	5289.965035
767.544978	5232.513526
767.870845	5158.075848
768.196665	5045.416142
768.522438	4973.930060
768.848165	4944.507365
769.173846	4879.703332
769.499479	4837.181200
769.825066	4784.846461
770.150607	4721.010330
770.476101	4695.655847
770.801548	4693.581412
771.126949	4618.831183
771.452303	4566.937545
771.777611	4522.593035
772.102872	4540.390829
772.428087	4503.270292
772.753256	4462.971309
773.078378	4422.659722
773.403453	4352.451572
773.728482	4338.636290
774.053465	4292.792037
774.378401	4279.528761
774.703291	4282.689565
775.028135	4211.642063
775.352932	4163.451153
775.677683	4147.868946
776.002388	4164.819826
776.327046	4180.739790
776.651658	4105.215744
776.976224	4042.372720
777.300743	4046.672824
777.625216	4069.955393
777.949643	4065.559507
778.274024	4023.798588
778.598359	3970.385043
778.922647	3997.914784
779.246889	3990.088393
779.571086	3985.478257
779.895236	3974.133141
780.219339	3955.692600
780.543397	3946.268163
780.867409	4000.009383
781.191374	4015.654604
781.515294	3955.342240
781.839167	3947.742700
782.162995	3968.403869
782.486776	3954.235707
782.810511	3961.147128
783.134201	3964.948158
783.457844	3916.515273
783.781441	3858.816747
784.104993	3867.232953
784.428498	3882.089233
784.751958	3885.809605
785.075372	3865.040051
785.398739	3824.967919
785.722061	3830.271213
786.045337	3879.346846
786.368568	3910.342380
786.691752	3822.868278
787.014891	3868.089949
787.337983	3993.798682
787.661030	4153.194925
787.984031	4310.604954
788.306987	4486.694979
788.629897	4568.187751
788.952760	4526.875495
789.275579	4456.879074
789.598351	4392.732912
789.921078	4256.765431
790.243759	4056.810584
790.566395	4033.217984
790.888984	4031.592212
791.211529	3925.881737
791.534027	3867.492572
791.856480	3857.987477
792.178888	3796.230822
792.501249	3745.657966
792.823566	3752.786158
793.145836	3788.422074
793.468062	3734.695977
793.790241	3687.722506
794.112375	3718.329871
794.434464	3779.781537
794.756507	3805.078047
795.078505	3784.290849
795.400457	3816.811332
795.722364	3950.757310
796.044226	4054.892425
796.366042	4128.006800
796.687812	4112.253194
797.009538	4117.927013
797.331218	4081.144234
797.652852	4046.307340
797.974442	4032.429044
798.295986	4031.012480
798.617484	3952.695634
798.938938	3866.935525
799.260346	3901.830392
799.581709	3899.977768
799.903026	3830.714834
800.224299	3791.103968
800.545526	3782.612144
800.866708	3745.433635
801.187845	3685.310313
801.508936	3719.663256
801.829983	3725.203484
802.150984	3644.066113
802.471940	3629.945841
802.792851	3645.081906
803.113717	3642.604179
803.434538	3644.829848
803.755314	3589.041919
804.076045	3559.200809
804.396731	3580.897935
804.717372	3609.851802
805.037967	3594.715738
805.358518	3580.925661
805.679024	3610.144189
805.999485	3621.940489
806.319901	3624.289667
806.640272	3639.937408
806.960598	3656.706807
807.280879	3626.275881
807.601115	3639.156029
807.921306	3655.234790
808.241453	3700.035524
808.561554	3674.839837
808.881611	3608.956997
809.201623	3642.377327
809.521590	3656.399296
809.841513	3625.423926
810.161390	3657.226045
810.481223	3637.739465
810.801011	3583.663008
811.120755	3571.276893
811.440453	3608.029425
811.760107	3609.047738
812.079716	3574.415011
812.399281	3538.751368
812.718801	3561.872620
813.038276	3534.441182
813.357707	3528.691746
813.677093	3550.625806
813.996434	3500.095801
814.315731	3505.426821
814.634983	3507.261801
814.954191	3522.375180
815.273354	3551.722257
815.592473	3550.290569
815.911547	3553.358112
816.230577	3591.502002
816.549562	3642.389930
816.868502	3684.627237
817.187399	3708.023232
817.506250	3707.821586
817.825058	3678.560208
818.143821	3764.610184
818.462539	3871.180176
818.781213	3913.273811
819.099843	3971.146257
819.418429	4207.707443
819.736970	4448.828352
820.055466	4686.017161
820.373919	5049.812028
820.692327	5459.186488
821.010691	5875.530343
821.329011	7206.435287
821.647286	9879.623061
821.965517	14358.872255
822.283704	18396.367659
822.601847	20624.214860
822.919945	18866.432570
823.237999	16312.957077
823.556010	13852.357281
823.873976	11782.570418
824.191897	9700.757881
824.509775	8347.064401
824.827609	7223.270221
825.145398	6672.748494
825.463144	6553.792387
825.780845	6665.612741
826.098502	6844.929104
826.416116	7687.285747
826.733685	8988.858738
827.051210	10115.785995
827.368692	10195.446308
827.686129	8966.735634
828.003522	7459.660007
828.320872	6446.418331
828.638177	5751.770016
828.955439	5196.050860
829.272656	4703.923339
829.589830	4414.414915
829.906960	4242.128441
830.224046	4057.223959
830.541088	3929.564300
830.858086	3885.683576
831.175041	3810.522493
831.491952	3791.754277
831.808819	3801.685350
832.125642	3874.051113
832.442421	4014.318699
832.759157	4283.690234
833.075849	4813.863343
833.392497	5671.540052
833.709101	6436.978770
834.025662	6789.698222
834.342179	6448.971675
834.658653	5793.392302
834.975083	5152.555784
835.291469	4578.887600
835.607811	4166.513654
835.924110	4030.296636
836.240366	3836.081143
836.556578	3626.749750
836.872746	3513.951412
837.188871	3482.131649
837.504952	3416.982297
837.820990	3337.168229
838.136984	3285.493881
838.452935	3308.715957
838.768842	3308.456337
839.084706	3329.793021
839.400526	3478.403716
839.716303	3804.548725
840.032037	4323.580884
840.347727	4594.963840
840.663373	4334.041278
840.978977	3954.119760
841.294537	3647.899911
841.610054	3423.525715
841.925527	3313.094199
842.240957	3245.552819
842.556344	3191.824202
842.871687	3133.719862
843.186987	3083.893098
843.502244	3047.924465
843.817458	3016.525638
844.132629	2977.844865
844.447756	2992.010507
844.762840	2977.895277
845.077881	2946.642643
845.392879	2928.161773
845.707833	2923.105496
846.022745	2920.771442
846.337613	2923.720517
846.652438	2911.823394
846.967221	2909.421284
847.281960	2897.493914
847.596656	2891.787328
847.911309	2887.416647
848.225919	2884.439846
848.540485	2878.622354
848.855009	2880.563199
849.169490	2871.085829
849.483928	2858.919005
849.798323	2860.093593
850.112675	2856.156452
850.426984	2867.136085
850.741251	2864.199613
851.055474	2858.190558
851.369654	2850.356605
851.683792	2855.919518
851.997887	2863.337576
852.311938	2863.534181
852.625947	2856.491689
852.939914	2859.564272
853.253837	2865.094418
853.567718	2848.050277
853.881555	2846.812674
854.195350	2860.010414
854.509103	2855.982532
854.822812	2849.366018
855.136479	2845.557426
855.450103	2849.479444
855.763685	2839.593741
856.077224	2837.448730
856.390720	2850.301152
856.704173	2860.650641
857.017584	2856.058150
857.330953	2848.448528
857.644278	2859.965044
857.957561	2865.671630
858.270802	2871.010212
858.584000	2871.645397
858.897155	2857.658716
859.210268	2857.084025
859.523339	2855.538911
859.836367	2854.167717
860.149352	2847.674711
860.462295	2843.702282
860.775195	2853.512367
861.088054	2851.954651
861.400869	2838.555264
861.713642	2834.078719
862.026373	2846.573219
862.339062	2849.497088
862.651708	2855.564117
862.964312	2860.151567
863.276873	2851.710155
863.589392	2861.752133
863.901869	2869.865870
864.214303	2899.175139
864.526696	2910.212745
864.839045	2908.644946
865.151353	2906.852816
865.463619	2903.250912
865.775842	2902.935839
866.088023	2923.246648
866.400162	2932.172011
866.712258	2901.907444
867.024313	2890.242214
867.336325	2897.020045
867.648296	2922.165321
867.960224	2913.101326
868.272110	2897.937535
868.583954	2904.717887
868.895755	2917.328334
869.207515	2907.210738
869.519233	2910.404309
869.830909	2920.458890
870.142542	2932.126641
870.454134	2931.050354
870.765684	2933.316353
871.077191	2931.846857
871.388657	2937.576128
871.700081	2953.649847
872.011463	2964.334573
872.322803	2965.226857
872.634101	2963.515385
872.945357	2977.794453
873.256571	3004.744462
873.567744	3000.157012
873.878874	2990.921618
874.189963	3013.284177
874.501010	3018.151411
874.812015	3007.166736
875.122979	3005.924092
875.433900	3003.766478
875.744780	3008.951305
876.055618	3014.456245
876.366415	3012.926255
876.677169	3021.435722
876.987882	3022.728778
877.298554	3016.447501
877.609183	3032.317053
877.919771	3056.605332
878.230317	3083.247830
878.540822	3135.610295
878.851285	3176.781399
879.161707	3212.888663
879.472087	3312.194353
879.782425	3531.474463
880.092722	3957.799802
880.402977	4476.123679
880.713191	5095.648719
881.023363	6219.296706
881.333494	7496.798187
881.643583	8062.849188
881.953631	7778.339068
882.263637	7165.332239
882.573602	6589.776143
882.883526	6013.957907
883.193408	5446.891113
883.503248	4979.891224
883.813048	4677.454761
884.122806	4382.388464
884.432522	4070.608222
884.742197	3839.246987
885.051831	3645.686844
885.361424	3508.154085
885.670975	3435.062395
885.980485	3354.189685
886.289954	3280.266205
886.599382	3238.853126
886.908768	3198.526416
887.218113	3153.158552
887.527417	3097.990685
887.836680	3050.992007
888.145901	3042.628733
888.455082	3034.857794
888.764221	2983.773262
889.073319	2956.067080
889.382376	2953.160855
889.691392	2957.254272
890.000366	2957.486165
890.309300	2943.880091
890.618193	2953.922069
890.927044	2970.598206
891.235855	2971.271200
891.544625	2956.419961
891.853353	2968.783391
892.162041	2983.654795
892.470687	3026.728934
892.779293	3076.492684
893.087858	3120.814509
893.396381	3188.739016
893.704864	3305.048517
894.013306	3539.530227
894.321707	3838.160619
894.630068	4045.848595
894.938387	4048.855644
895.246665	3999.452336
895.554903	3884.375397
895.863100	3685.990869
896.171256	3522.546579
896.479371	3387.209243
896.787446	3266.236674
897.095480	3164.559121
897.403473	3098.141919
897.711425	3059.390570
898.019336	3053.994014
898.327207	3024.609129
898.635038	2988.365753
898.942827	2973.547281
899.250576	2960.246197
899.558284	2931.158739
899.865952	2912.284659
900.173579	2895.409397
900.481165	2887.164590
900.788711	2874.594473
901.096216	2848.897191
901.403681	2837.264728
901.711105	2844.342508
902.018489	2842.308403
902.325832	2840.614575
902.633135	2850.966584
902.940397	2884.086965
903.247619	2959.411886
903.554800	3143.323261
903.861941	3485.312617
904.169041	3903.877100
904.476101	4205.020508
904.783121	4171.184283
905.090100	3932.934311
905.397039	3658.355264
905.703938	3411.263108
906.010796	3227.535736
906.317614	3118.301493
906.624391	3025.335055
906.931129	2954.935341
907.237826	2895.714387
907.544483	2848.042715
907.851099	2817.760504
908.157675	2798.256280
908.464211	2777.821963
908.770707	2763.394180
909.077163	2751.101327
909.383578	2737.230592
909.689954	2726.263562
909.996289	2724.166442
910.302584	2726.407235
910.608839	2730.069633
910.915054	2720.514126
911.221229	2713.451469
911.527363	2715.525904
911.833458	2719.697459
912.139513	2727.206257
912.445527	2729.545353
912.751502	2741.308885
913.057436	2746.970101
913.363331	2761.460898
913.669186	2780.539145
913.975000	2813.498208
914.280775	2871.814276
914.586510	2940.227775
914.892205	3021.574354
915.197859	3141.276552
915.503475	3329.130109
915.809050	3539.308416
916.114585	3684.231507
916.420081	3710.805949
916.725536	3652.003410
917.030952	3537.221378
917.336328	3412.568767
917.641665	3283.129580
917.946961	3183.861699
918.252218	3116.506843
918.557435	3039.125131
918.862612	2978.553147
919.167750	2931.067998
919.472848	2890.995867
919.777906	2865.691795
920.082925	2839.329081
920.387904	2808.764565
920.692843	2792.113634
920.997743	2778.802467
921.302603	2767.895931
921.607423	2758.789086
921.912204	2745.601428
922.216946	2736.063565
922.521647	2728.809344
922.826310	2717.436501
923.130932	2712.796119
923.435516	2704.689944
923.740059	2697.602082
924.044564	2688.464990
924.349028	2681.518280
924.653454	2674.569050
924.957840	2670.248781
925.262186	2666.662000
925.566493	2663.440702
925.870761	2657.232522
926.174989	2655.049702
926.479178	2649.232210
926.783328	2644.110398
927.087438	2644.891777
927.391509	2642.706437
927.695541	2639.041518
927.999533	2635.631177
928.303486	2635.437093
928.607400	2634.310395
928.911275	2632.528347
929.215110	2630.569859
929.518906	2629.037348
929.822663	2629.286885
930.126381	2626.897378
930.430060	2630.340486
930.733699	2632.760240
931.037299	2633.017339
931.340861	2632.687143
931.644383	2635.547998
931.947866	2631.462143
932.251309	2632.916516
932.554714	2631.855353
932.858080	2628.873511
933.161407	2628.197996
933.464694	2626.562142
933.767943	2621.914198
934.071153	2625.092645
934.374323	2624.275978
934.677455	2623.250103
934.980548	2621.697428
935.283602	2622.042747
935.586617	2621.936883
935.889593	2620.933693
936.192530	2621.450412
936.495428	2624.001235
936.798287	2625.838736
937.101108	2626.670526
937.403890	2634.370889
937.706632	2634.748975
938.009336	2643.598721
938.312002	2649.897643
938.614628	2658.918787
938.917216	2665.578152
939.219765	2668.577638
939.522275	2666.803152
939.824747	2663.176042
940.127179	2661.517502
940.429573	2659.044816
940.731929	2656.395690
941.034246	2649.648106
941.336524	2650.709268
941.638763	2646.769607
941.940964	2645.229534
942.243126	2641.425984
942.545250	2639.802732
942.847335	2638.623102
943.149381	2635.558081
943.451389	2633.045065
943.753359	2631.051289
944.055290	2625.125413
944.357182	2626.539456
944.659036	2626.935187
944.960851	2626.068108
945.262628	2624.381843
945.564367	2622.892182
945.866067	2624.054167
946.167729	2624.666668
946.469352	2624.548201
946.770937	2624.780094
947.072484	2622.665330
947.373992	2620.764815
947.675462	2621.120216
947.976893	2616.704165
948.278286	2614.012189
948.579641	2617.616614
948.880958	2612.585542
949.182236	2615.154010
949.483476	2615.595111
949.784678	2615.169134
950.085841	2615.620317
950.386967	2615.128805
950.688054	2618.166100
950.989103	2617.833384
951.290114	2617.677108
951.591087	2621.284053
951.892021	2623.285392
952.192917	2625.947121
952.493776	2626.872173
952.794596	2628.162708
953.095378	2625.793366
953.396122	2626.809158
953.696828	2626.441154
953.997496	2622.456122
954.298126	2621.687346
954.598718	2620.777418
954.899272	2617.082252
955.199788	2615.617797
955.500266	2609.185284
955.800706	2610.458176
956.101108	2608.746704
956.401472	2608.981117
956.701798	2602.725046
957.002087	2600.315374
957.302337	2600.753954
957.602550	2601.769747
957.902724	2595.445619
958.202861	2597.129365
958.502960	2593.792121
958.803022	2596.600044
959.103045	2595.269179
959.403031	2594.129878
959.702979	2595.400249
960.002889	2594.563417
960.302762	2593.630804
960.602596	2590.689291
960.902393	2591.778180
961.202153	2588.524115
961.501875	2592.095773
961.801559	2588.153590
962.101205	2588.806420
962.400814	2589.544949
962.700385	2586.938672
962.999918	2585.302818
963.299414	2586.681573
963.598873	2586.805082
963.898293	2585.431367
964.197677	2588.176276
964.497022	2590.215422
964.796331	2589.882706
965.095601	2586.467324
965.394835	2590.613673
965.694030	2587.951944
965.993189	2586.752150
966.292309	2589.928077
966.591393	2586.928590
966.890439	2586.752150
967.189447	2590.041502
967.488419	2586.205184
967.787353	2588.224167
968.086249	2586.737026
968.385108	2588.501430
968.683930	2588.052767
968.982714	2589.318097
969.281462	2586.661409
969.580172	2588.193920
969.878844	2587.195771
970.177480	2587.399938
970.476078	2587.324321
970.774639	2589.371029
971.073162	2587.314238
971.371649	2588.385483
971.670098	2588.380442
971.968510	2588.753488
972.266885	2586.757191
972.565223	2588.705597
972.863524	2586.621080
973.161788	2585.310380
973.460014	2585.602767
973.758204	2589.234918
974.056356	2585.328024
974.354471	2587.891450
974.652550	2589.688622
974.950591	2587.163004
975.248595	2586.737026
975.546563	2587.941862
975.844493	2585.214598
976.142386	2585.864907
976.440243	2587.694845
976.738062	2587.838518
977.035845	2586.089238
977.333590	2587.737695
977.631299	2583.626634
977.928971	2583.251068
978.226606	2580.589339
978.524204	2582.555389
978.821765	2581.937848
979.119290	2585.837180
979.416777	2582.315934
979.714228	2582.578074
980.011642	2584.450863
980.309020	2583.704772
980.606360	2587.883889
980.903664	2584.564289
981.200931	2588.733323
981.498162	2585.527149
981.795356	2587.911615
982.092513	2587.314238
982.389633	2592.189034
982.686717	2595.004518
982.983764	2596.915116
983.280775	2601.817638
983.577749	2603.345107
983.874686	2602.059613
984.171587	2600.915271
984.468451	2599.329828
984.765279	2593.986205
985.062070	2595.269179
985.358824	2590.540577
985.655543	2589.635690
985.952224	2588.564444
986.248869	2589.469332
986.545478	2586.832808
986.842050	2584.647468
987.138586	2585.872468
987.435086	2584.052612
987.731549	2584.632344
988.027975	2584.521439
988.324366	2581.292580
988.620719	2583.114957
988.917037	2579.823084
989.213318	2586.837849
989.509563	2582.358784
989.805772	2580.808629
990.101944	2583.992118
990.398080	2580.811150
990.694180	2581.453897
990.990244	2579.666808
991.286271	2581.335430
991.582262	2581.716037
991.878217	2581.219483
992.174136	2583.082190
992.470019	2578.736715
992.765865	2578.149421
993.061676	2576.942064
993.357450	2581.095975
993.653188	2576.037177
993.948890	2579.555902
994.244556	2578.716550
994.540186	2582.401634
994.835780	2581.068249
995.131337	2582.215111
995.426859	2582.885585
995.722345	2584.539083
996.017795	2585.038157
996.313208	2584.849114
996.608586	2585.065884
996.903928	2586.449680
997.199234	2586.268199
997.494504	2584.917170
997.789738	2584.226532
998.084936	2585.401120
998.380099	2582.537745
998.675225	2584.254258
998.970316	2583.697210
999.265371	2582.063877
999.560390	2581.801737
999.855373	2580.697724
1000.150320	2581.932807
1000.445232	2580.463310
1000.740108	2578.409040
1001.034948	2580.594380
1001.329752	2583.878692
1001.624521	2578.076324
1001.919254	2578.746797
1002.213951	2582.721747
1002.508613	2579.578588
1002.803239	2580.690162
1003.097829	2580.569174
1003.392384	2580.173444
1003.686903	2579.374421
1003.981386	2581.436253
1004.275834	2578.751838
1004.570246	2580.188567
1004.864623	2579.508012
1005.158964	2579.036664
1005.453270	2579.175295
1005.747540	2579.346695
1006.041775	2580.498598
1006.335974	2578.625810
1006.630138	2578.247723
1006.924266	2580.433063
1007.218359	2580.244020
1007.512416	2575.568350
1007.806438	2575.568350
1008.100425	2577.244533
1008.394376	2572.881415
1008.688292	2578.744277
1008.982172	2580.889288
1009.276017	2576.087589
1009.569827	2577.859554
1009.863602	2577.763772
1010.157341	2579.558423
1010.451045	2579.447518
1010.744714	2576.024574
1011.038347	2579.863413
1011.331945	2578.300655
1011.625508	2581.048084
1011.919036	2576.110274
1012.212528	2578.343505
1012.505986	2577.431056
1012.799408	2574.779409
1013.092795	2578.807291
1013.386147	2580.803588
1013.679464	2578.010789
1013.972745	2576.480799
1014.265992	2576.064903
1014.559204	2575.782599
1014.852380	2577.612538
1015.145521	2579.533217
1015.438628	2579.881057
1015.731699	2578.535069
1016.024736	2579.797878
1016.317737	2578.414081
1016.610703	2577.927610
1016.903635	2580.238979
1017.196531	2576.503484
1017.489393	2578.945923
1017.782219	2578.688824
1018.075011	2579.485326
1018.367768	2576.112794
1018.660490	2580.891808
1018.953177	2580.891808
1019.245829	2580.891808
