Dividing Wavelength (nm)	Counts (n)	Blue Motor Position (mm): 10.800000	Red Motor Position (mm): 0.000000	
326.493990	2163.547284
326.888308	2163.547284
327.282561	2163.547284
327.676750	2120.364760
328.070874	2116.094903
328.464933	2116.079780
328.858929	2122.734103
329.252859	2126.787190
329.646726	2137.275311
330.040528	2149.346354
330.434265	2161.419917
330.827938	2176.568585
331.221547	2196.486183
331.615091	2211.710468
332.008571	2230.266955
332.401986	2250.678587
332.795338	2267.770619
333.188625	2288.363733
333.581847	2306.632874
333.975006	2323.855977
334.368100	2342.432628
334.761129	2357.951821
335.154095	2376.528473
335.546996	2398.747358
335.939833	2419.479103
336.332606	2435.986362
336.725315	2450.215018
337.117960	2459.697429
337.510540	2472.025570
337.903056	2482.632158
338.295508	2493.810917
338.687896	2499.988851
339.080220	2509.592249
339.472480	2515.119874
339.864676	2520.173631
340.256807	2523.833508
340.648875	2528.395753
341.040879	2530.654190
341.432818	2536.696012
341.824694	2537.341280
342.216506	2537.341280
342.608253	2537.396733
342.999937	2543.133566
343.391557	2543.055428
343.783113	2539.977804
344.174605	2539.022505
344.566033	2534.782895
344.957397	2537.069058
345.348697	2534.528316
345.739934	2535.907072
346.131106	2531.007070
346.522215	2530.697039
346.913260	2526.969106
347.304241	2525.824764
347.695159	2527.493386
348.086012	2525.587830
348.476802	2523.026924
348.867528	2513.852024
349.258191	2514.015861
349.648789	2511.689369
350.039324	2509.070489
350.429796	2512.735408
350.820203	2513.436129
351.210548	2511.472599
351.600828	2507.837927
351.991045	2510.330778
352.381198	2507.560664
352.771288	2506.358349
353.161314	2506.224758
353.551276	2506.113853
353.941175	2506.161744
354.331010	2503.825169
354.720782	2502.360714
355.110490	2505.120745
355.500135	2504.969511
355.889717	2505.937412
356.279235	2504.488081
356.668689	2505.458503
357.058080	2504.399860
357.447408	2505.367762
357.836672	2503.898266
358.225873	2504.208297
358.615010	2506.600324
359.004084	2506.028153
359.393095	2505.582011
359.782043	2505.980262
360.170927	2506.428925
360.559748	2510.177023
360.948505	2508.906652
361.337199	2510.764317
361.725830	2509.922444
362.114398	2511.422188
362.502903	2511.946468
362.891344	2511.956550
363.279722	2511.873371
363.668037	2514.005779
364.056289	2513.388238
364.444478	2510.391272
364.832603	2514.746829
365.220665	2513.892353
365.608665	2513.746160
365.996601	2517.494257
366.384474	2513.541993
366.772284	2513.983094
367.160031	2516.395286
367.547715	2516.027282
367.935336	2516.889319
368.322893	2515.908815
368.710388	2513.068124
369.097820	2517.368229
369.485189	2512.800943
369.872495	2516.493588
370.259738	2519.530884
370.646918	2519.588857
371.034035	2519.833353
371.421090	2520.680267
371.808081	2520.720596
372.195010	2518.618435
372.581875	2518.066428
372.968678	2519.286388
373.355418	2523.107582
373.742096	2521.393590
374.128710	2521.990967
374.515262	2523.168076
374.901751	2521.128929
375.288177	2524.312418
375.674540	2518.252951
376.060841	2525.950793
376.447079	2523.009280
376.833254	2523.745288
377.219367	2525.305525
377.605417	2520.949968
377.991404	2523.074815
378.377329	2526.598581
378.763191	2522.961389
379.148991	2523.079856
379.534727	2525.625639
379.920402	2522.169928
380.306013	2525.963396
380.691563	2525.769312
381.077049	2524.012469
381.462474	2523.352078
381.847835	2524.078004
382.233134	2524.624970
382.618371	2525.025741
383.003545	2526.555732
383.388657	2526.401976
383.773706	2525.882737
384.158693	2528.657893
384.543618	2526.729651
384.928480	2528.378109
385.313280	2527.662265
385.698017	2527.619415
386.082692	2528.983047
386.467305	2528.063037
386.851856	2530.187883
387.236344	2528.173942
387.620770	2523.964578
388.005133	2527.523633
388.389435	2527.412728
388.773674	2525.149250
389.157851	2530.581093
389.541965	2528.136133
389.926018	2529.661082
390.310008	2530.686957
390.693936	2531.750641
391.077802	2529.892975
391.461606	2533.000847
391.845348	2530.994468
392.229027	2532.600075
392.612645	2531.319622
392.996200	2530.518078
393.379694	2533.043697
393.763125	2531.206196
394.146494	2531.150743
394.529801	2533.038655
394.913047	2534.306506
395.296230	2531.922040
395.679351	2532.900024
396.062410	2531.536392
396.445408	2531.927081
396.828343	2533.865405
397.211217	2534.177956
397.594028	2532.562266
397.976778	2532.300126
398.359466	2535.977648
398.742092	2532.625281
399.124656	2536.950591
399.507158	2534.359438
399.889598	2537.011085
400.271977	2531.067564
400.654294	2535.932278
401.036549	2536.993441
401.418742	2533.373892
401.800874	2536.017977
402.182944	2538.309182
402.564952	2537.356404
402.946898	2535.034952
403.328783	2538.644418
403.710606	2534.636701
404.092367	2534.351876
404.474067	2536.968235
404.855705	2536.990920
405.237282	2538.606610
405.618797	2536.053265
406.000250	2536.698533
406.381642	2536.897659
406.762972	2533.779705
407.144240	2535.743234
407.525447	2536.953111
407.906593	2529.308202
408.287677	2538.503266
408.668700	2539.617361
409.049661	2536.925385
409.430560	2536.690971
409.811399	2540.179450
410.192176	2537.389171
410.572891	2535.816331
410.953545	2540.691127
411.334138	2539.118287
411.714669	2540.532331
412.095139	2540.744059
412.475547	2541.469985
412.855894	2541.621220
413.236180	2539.753472
413.616405	2540.575180
413.996568	2539.297248
414.376670	2541.502753
414.756711	2537.989068
415.136691	2538.094933
415.516609	2543.849410
415.896466	2542.541230
416.276262	2542.601724
416.655997	2542.700027
417.035670	2539.710623
417.415283	2543.110881
417.794834	2540.875129
418.174324	2543.390665
418.553753	2543.625078
418.933121	2541.606096
419.312428	2541.964018
419.691674	2542.505942
420.070859	2542.750438
420.449983	2543.773793
420.829045	2543.602393
421.208047	2540.923020
421.586988	2543.209183
421.965867	2542.725232
422.344686	2543.730943
422.723444	2544.935778
423.102141	2543.317568
423.480777	2545.467620
423.859352	2544.570295
424.237866	2540.837320
424.616319	2540.499563
424.994712	2542.808412
425.373044	2543.945192
425.751314	2543.675490
426.129524	2537.550488
426.507673	2539.919830
426.885762	2539.057793
427.263789	2544.330840
427.641756	2543.408309
428.019662	2543.438556
428.397508	2545.777651
428.775292	2545.843186
429.153016	2546.934596
429.530679	2545.523073
429.908282	2548.797302
430.285824	2545.611293
430.663305	2545.853268
431.040726	2545.381921
431.418086	2546.985007
431.795385	2547.423588
432.172624	2543.672969
432.549802	2545.762528
432.926920	2547.726057
433.303977	2546.576674
433.680974	2546.410316
434.057910	2547.118598
434.434786	2547.289997
434.811601	2548.043650
435.188355	2549.155224
435.565050	2544.834955
435.941683	2547.552137
436.318257	2551.005328
436.694770	2547.083310
437.071222	2547.597508
437.447614	2546.596839
437.823946	2546.354863
438.200218	2546.553989
438.576429	2548.572971
438.952580	2545.573484
439.328670	2548.951058
439.704700	2548.683876
440.080670	2552.520194
440.456580	2548.731767
440.832429	2548.683876
441.208218	2547.809236
441.583947	2547.773948
441.959616	2548.341078
442.335224	2550.352498
442.710773	2548.204967
443.086261	2547.678166
443.461689	2549.341747
443.837057	2550.677653
444.212365	2547.050542
444.587612	2549.361912
444.962800	2544.361087
445.337927	2548.368804
445.712995	2546.122970
446.088002	2549.611449
446.462949	2549.316541
446.837837	2548.913249
447.212664	2549.195553
447.587431	2550.387786
447.962139	2552.290822
448.336786	2550.652447
448.711374	2550.982642
449.085901	2549.971891
449.460369	2550.806202
449.834776	2549.104813
450.209124	2552.210163
450.583412	2551.002807
450.957640	2551.930379
451.331808	2552.888199
451.705917	2550.886861
452.079965	2553.271326
452.453954	2551.990873
452.827883	2549.855945
453.201752	2548.681356
453.575562	2553.432643
453.949311	2551.385935
454.323001	2551.950544
454.696632	2553.309135
455.070202	2552.096738
455.443713	2550.851573
455.817164	2551.033054
456.190556	2552.653785
456.563888	2552.179917
456.937160	2552.956254
457.310373	2550.521377
457.683526	2552.126984
458.056619	2555.549928
458.429653	2553.258723
458.802628	2550.949875
459.175542	2551.879968
459.548398	2555.897767
459.921194	2553.072201
460.293930	2551.085986
460.666607	2554.256872
461.039224	2553.825853
461.411782	2552.928528
461.784280	2553.359547
462.156719	2554.224104
462.529099	2553.205791
462.901419	2550.478527
463.273680	2550.163455
463.645882	2551.358208
464.018024	2550.463404
464.390106	2550.609597
464.762130	2553.019269
465.134094	2554.582026
465.505999	2555.678477
465.877845	2556.427089
466.249631	2556.618653
466.621358	2553.697304
466.993026	2556.936245
467.364634	2558.375495
467.736184	2556.109496
468.107674	2554.483724
468.479105	2555.408776
468.850477	2553.730071
469.221790	2555.534804
469.593043	2552.878116
469.964238	2556.938766
470.335373	2553.188147
470.706449	2557.039589
471.077467	2555.101265
471.448425	2555.015566
471.819324	2557.329455
472.190164	2555.552448
472.560945	2558.075546
472.931667	2556.916081
473.302330	2556.459856
473.672934	2557.319373
474.043479	2558.476318
474.413965	2556.792572
474.784393	2554.508930
475.154761	2559.686195
475.525070	2556.895916
475.895321	2558.544373
476.265513	2557.707542
476.635645	2555.111348
477.005719	2557.543704
477.375734	2556.285936
477.745691	2556.258210
478.115588	2557.601678
478.485427	2559.149312
478.855207	2560.021431
479.224928	2559.739127
479.594591	2558.746019
479.964194	2559.905485
480.333739	2563.091494
480.703226	2558.546894
481.072653	2560.603685
481.442022	2560.553273
481.811333	2559.625701
482.180584	2558.468756
482.549777	2558.269630
482.918912	2556.205278
483.287988	2562.257183
483.657005	2561.221226
484.025964	2561.165773
484.394864	2558.458674
484.763706	2559.464384
485.132489	2561.639642
485.501213	2562.050496
485.869879	2563.640980
486.238487	2562.123593
486.607036	2559.953376
486.975527	2564.165260
487.343959	2559.595454
487.712333	2561.112841
488.080648	2562.781463
488.448905	2563.779612
488.817104	2562.103428
489.185244	2563.172152
489.553326	2563.338511
489.921350	2563.078891
490.289315	2564.129972
490.657222	2564.974365
491.025070	2564.008984
491.392861	2564.185424
491.760593	2567.396639
492.128267	2562.650393
492.495883	2562.335321
492.863440	2562.824313
493.230939	2564.056875
493.598380	2565.269272
493.965763	2563.580486
494.333088	2562.736093
494.700354	2561.032183
495.067563	2565.559139
495.434713	2565.188614
495.801805	2562.080743
496.168839	2566.181721
496.535815	2565.740620
496.902733	2564.003943
497.269593	2565.007132
497.636395	2563.933367
498.003139	2564.961762
498.369825	2563.663665
498.736453	2564.427400
499.103023	2565.773388
499.469535	2564.515620
499.835989	2564.376988
500.202385	2561.806000
500.568723	2561.929508
500.935003	2563.976217
501.301226	2559.671071
501.667390	2565.176011
502.033497	2567.041238
502.399546	2566.027966
502.765537	2564.341700
503.131470	2566.564849
503.497345	2565.813717
503.863163	2564.117369
504.228923	2565.475960
504.594625	2566.131310
504.960269	2566.484191
505.325856	2563.779612
505.691385	2563.262893
506.056856	2563.900599
506.422270	2565.788511
506.787625	2562.110990
507.152924	2565.705332
507.518164	2566.738769
507.883347	2567.389078
508.248472	2564.525702
508.613540	2564.747513
508.978550	2566.035528
509.343503	2565.062585
509.708398	2564.329097
510.073236	2565.115517
510.438016	2566.254818
510.802738	2565.168449
511.167403	2566.590055
511.532010	2567.850343
511.896561	2568.208265
512.261053	2567.641135
512.625488	2567.373954
512.989866	2566.655590
513.354186	2568.838409
513.718449	2571.603482
514.082655	2568.782957
514.446803	2566.509396
514.810894	2568.893862
515.174927	2569.062741
515.538904	2569.009809
515.902822	2568.467885
516.266684	2570.191959
516.630488	2570.161712
516.994235	2571.167422
517.357925	2571.051476
517.721558	2573.009964
518.085133	2572.074830
518.448651	2568.702298
518.812112	2568.510734
519.175516	2569.912175
519.538863	2567.008471
519.902152	2574.219841
520.265385	2574.096333
520.628560	2577.443659
520.991678	2577.446180
521.354739	2573.204049
521.717743	2576.488360
522.080690	2577.436097
522.443580	2576.241344
522.806413	2579.883577
523.169189	2579.444997
523.531908	2577.980542
523.894569	2578.910635
524.257174	2581.000193
524.619722	2583.568661
524.982213	2581.264854
525.344647	2583.382138
525.707025	2583.263671
526.069345	2581.625296
526.431608	2583.354412
526.793815	2587.127716
527.155964	2585.391038
527.518057	2585.411203
527.880093	2588.014959
528.242072	2587.462952
528.603995	2588.738364
528.965860	2588.582088
529.327669	2588.940010
529.689421	2589.809609
530.051117	2587.387335
530.412755	2593.161977
530.774337	2593.565269
531.135862	2591.659713
531.497331	2591.914291
531.858743	2592.025197
532.220098	2593.081318
532.581396	2593.771956
532.942638	2594.576020
533.303824	2596.857142
533.664953	2597.426793
534.026025	2598.732452
534.387040	2598.334201
534.747999	2599.544077
535.108902	2601.220261
535.469748	2603.085488
535.830537	2600.156578
536.191270	2605.928699
536.551947	2597.283120
536.912567	2598.833275
537.273131	2602.702360
537.633638	2602.251177
537.994089	2605.132197
538.354483	2609.303751
538.714821	2609.427260
539.075103	2609.555809
539.435328	2609.339039
539.795497	2609.031529
540.155609	2610.657301
540.515665	2611.042949
540.875665	2610.062445
541.235609	2610.092692
541.595496	2611.857096
541.955328	2612.792230
542.315102	2616.026130
542.674821	2613.994545
543.034483	2614.854062
543.394090	2613.523197
543.753640	2618.125771
544.113134	2618.798765
544.472571	2618.173662
544.831953	2619.038219
545.191278	2618.093003
545.550548	2618.529063
545.909761	2618.655092
546.268918	2621.659619
546.628019	2622.027624
546.987064	2620.651389
547.346053	2623.708848
547.704986	2620.747171
548.063863	2623.610546
548.422684	2622.977881
548.781449	2623.318159
549.140158	2625.286730
549.498811	2623.665999
549.857408	2624.195320
550.215949	2624.848149
550.574434	2625.740433
550.932864	2624.359157
551.291237	2625.632049
551.649555	2625.410238
552.007817	2626.947790
552.366022	2627.068777
552.724173	2623.446708
553.082267	2628.145064
553.440305	2628.172790
553.798288	2628.603809
554.156215	2631.031124
554.514086	2626.602471
554.871902	2623.900412
555.229661	2623.640793
555.587365	2624.102058
555.945014	2627.923253
556.302606	2630.897534
556.660143	2630.287554
557.017625	2631.726804
557.375050	2633.047586
557.732421	2631.119345
558.089735	2630.912657
558.446994	2626.796555
558.804197	2631.555404
559.161345	2629.957359
559.518437	2631.116824
559.875474	2630.199334
560.232455	2631.734365
560.589381	2631.227729
560.946251	2632.069602
561.303065	2632.591362
561.659825	2633.523975
562.016528	2634.423821
562.373177	2631.257976
562.729770	2632.399798
563.086307	2634.270066
563.442789	2633.927267
563.799216	2633.776033
564.155587	2633.466002
564.511904	2636.447844
564.868164	2631.938532
565.224370	2634.570014
565.580520	2634.103708
565.936615	2635.220323
566.292654	2629.914509
566.648638	2635.910961
567.004567	2635.064048
567.360441	2633.670168
567.716260	2631.925929
568.072023	2635.633698
568.427732	2634.910292
568.783385	2632.813172
569.138982	2633.680251
569.494525	2636.233595
569.850013	2636.548667
570.205445	2633.652524
570.560823	2633.332411
570.916145	2634.191928
571.271412	2635.018677
571.626625	2636.422638
571.981782	2637.529172
572.336884	2634.300313
572.691931	2631.827627
573.046923	2631.764612
573.401860	2633.498769
573.756743	2637.380458
574.111570	2638.018164
574.466342	2636.465488
574.821059	2638.958339
575.175722	2635.545478
575.530330	2636.470529
575.884882	2637.909779
576.239380	2638.630664
576.593823	2639.618730
576.948211	2640.069913
577.302544	2640.468164
577.656823	2637.728297
578.011047	2640.059831
578.365216	2639.293576
578.719330	2642.056128
579.073389	2642.048566
579.427394	2643.681900
579.781344	2638.902886
580.135239	2641.874646
580.489080	2639.681744
580.842866	2640.614358
581.196597	2648.632313
581.550273	2643.916314
581.903895	2646.416726
582.257463	2646.870430
582.610975	2644.886736
582.964434	2650.172386
583.317837	2648.869247
583.671186	2650.941162
584.024481	2654.817809
584.377721	2651.205822
584.730906	2653.126502
585.084037	2654.366626
585.437113	2654.076759
585.790135	2656.889723
586.143103	2656.793941
586.496016	2657.008190
586.848874	2658.036586
587.201679	2658.712100
587.554428	2659.851401
587.907124	2661.459529
588.259765	2661.777122
588.612352	2664.564880
588.964884	2663.304591
589.317362	2667.960097
589.669786	2668.202072
590.022155	2668.507062
590.374470	2671.042762
590.726731	2673.409584
591.078937	2672.600479
591.431090	2677.003927
591.783188	2675.105932
592.135232	2679.486695
592.487222	2682.168589
592.839157	2683.217149
593.191038	2681.543486
593.542866	2682.854186
593.894639	2685.278981
594.246358	2690.118489
594.598022	2692.704601
594.949633	2692.099662
595.301190	2692.576051
595.652692	2695.323480
596.004141	2700.440251
596.355535	2695.746937
596.706876	2697.375230
597.058162	2700.886393
597.409395	2703.457382
597.760573	2707.760007
598.111698	2707.394523
598.462768	2711.021633
598.813785	2713.053218
599.164748	2712.854092
599.515657	2715.006665
599.866511	2718.230483
600.217312	2720.728375
600.568060	2720.559496
600.918753	2729.270610
601.269392	2730.198182
601.619978	2728.998388
601.970510	2738.642115
602.320988	2740.532548
602.671412	2745.009092
603.021783	2746.836511
603.372100	2745.177971
603.722363	2752.089393
604.072572	2758.932759
604.422728	2759.991402
604.772830	2765.629932
605.122878	2763.452154
605.472872	2768.737803
605.822813	2774.731735
606.172701	2780.183743
606.522534	2786.225566
606.872314	2789.688839
607.222041	2789.393931
607.571714	2794.982050
607.921333	2801.510345
608.270899	2811.746407
608.620411	2818.766214
608.969870	2817.689928
609.319276	2829.246773
609.668627	2841.587518
610.017926	2852.471369
610.367171	2858.818182
610.716362	2871.030377
611.065500	2870.637167
611.414585	2878.249309
611.763616	2883.658467
612.112594	2891.154663
612.461518	2896.394942
612.810389	2905.194276
613.159207	2906.346180
613.507971	2912.766089
613.856682	2935.640325
614.205340	2940.167281
614.553945	2958.426340
614.902496	2953.874178
615.250994	2975.440235
615.599439	2981.257726
615.947830	2994.193327
616.296169	2998.932012
616.644454	3015.151924
616.992686	3019.976308
617.340864	3041.620502
617.688990	3057.618604
618.037063	3076.217941
618.385082	3086.716144
618.733048	3110.606172
619.080961	3116.524487
619.428821	3142.100781
619.776628	3156.266423
620.124382	3160.679953
620.472083	3172.579597
620.819731	3190.110209
621.167326	3187.614838
621.514868	3196.714121
621.862357	3200.134544
622.209793	3210.748693
622.557176	3212.515618
622.904506	3210.075699
623.251783	3218.504508
623.599007	3229.292578
623.946179	3234.424472
624.293297	3243.465782
624.640363	3246.177922
624.987376	3253.822832
625.334336	3254.891557
625.681243	3262.975047
626.028097	3272.432252
626.374899	3300.065337
626.721647	3297.552321
627.068343	3303.425266
627.414987	3319.980415
627.761577	3340.137468
628.108115	3357.252186
628.454600	3354.996269
628.801032	3375.334805
629.147412	3388.146897
629.493739	3410.327974
629.840014	3423.588729
630.186236	3440.494239
630.532405	3452.353553
630.878521	3484.690034
631.224585	3494.371570
631.570597	3513.195239
631.916556	3524.061446
632.262462	3544.553736
632.608316	3572.887542
632.954117	3580.229982
633.299866	3606.552367
633.645562	3616.168368
633.991206	3615.565950
634.336797	3608.190742
634.682336	3632.675626
635.027823	3631.634628
635.373257	3653.069614
635.718639	3646.506032
636.063968	3655.088596
636.409245	3654.503822
636.754470	3674.620547
637.099642	3683.505580
637.444762	3671.452182
637.789829	3698.689536
638.134845	3704.912840
638.479808	3720.328689
638.824719	3731.232704
639.169577	3736.034403
639.514383	3760.161366
639.859137	3759.861417
640.203839	3791.628248
640.548489	3788.013741
640.893086	3821.418947
641.237632	3803.830361
641.582125	3857.211139
641.926566	3855.051005
642.270955	3871.018859
642.615292	3886.606107
642.959576	3904.401380
643.303809	3939.926391
643.647990	3946.933595
643.992118	3983.507166
644.336195	3967.171307
644.680219	4014.296013
645.024192	4037.389539
645.368112	4080.297320
645.711981	4124.321717
646.055797	4164.277902
646.399562	4198.930794
646.743274	4252.240996
647.086935	4340.703163
647.430544	4371.048389
647.774101	4399.389756
648.117606	4462.646154
648.461059	4467.021876
648.804460	4508.976879
649.147810	4485.011233
649.491108	4465.249910
649.834354	4504.200385
650.177548	4472.441116
650.520690	4463.883758
650.863781	4469.260148
651.206820	4494.450794
651.549807	4486.737828
651.892742	4480.963187
652.235626	4486.775637
652.578458	4512.142723
652.921238	4478.629133
653.263967	4539.032238
653.606644	4529.791803
653.949269	4541.005850
654.291843	4545.038773
654.634365	4580.281479
654.976836	4589.544599
655.319255	4612.814566
655.661622	4635.333400
656.003938	4638.547135
656.346203	4645.904699
656.688416	4678.324360
657.030577	4691.537224
657.372687	4706.353175
657.714746	4715.149989
658.056753	4767.893061
658.398708	4771.487403
658.740612	4792.554385
659.082465	4836.929142
659.424266	4834.922763
659.766016	4872.958269
660.107715	4878.841295
660.449362	4911.903703
660.790958	4941.878403
661.132503	4953.644457
661.473996	4988.047811
661.815438	5017.563767
662.156829	5040.364906
662.498168	5066.019338
662.839456	5082.362758
663.180693	5110.915854
663.521879	5166.176982
663.863013	5179.745248
664.204097	5210.955031
664.545129	5266.158186
664.886110	5272.855359
665.227040	5320.746321
665.567918	5358.733936
665.908746	5398.523763
666.249522	5400.746912
666.590248	5444.887255
666.930922	5504.297253
667.271545	5530.556623
667.612118	5578.903809
667.952639	5582.011681
668.293109	5601.248724
668.633528	5614.128872
668.973896	5625.804184
669.314213	5708.761412
669.654480	5633.864989
669.994695	5668.570813
670.334859	5714.067226
670.674973	5721.780192
671.015035	5764.110760
671.355047	5773.943531
671.695008	5781.596003
672.034918	5815.807793
672.374777	5846.563873
672.714585	5853.651735
673.054342	5894.278394
673.394049	5900.758797
673.733705	5951.513134
674.073310	5953.214523
674.412864	6001.362584
674.752368	5975.395600
675.091820	5983.746272
675.431223	6034.588829
675.770574	5996.306307
676.109875	5990.803887
676.449125	6002.249827
676.788324	6008.732751
677.127473	5977.437268
677.466571	5992.306151
677.805619	5992.356563
678.144616	5985.162836
678.483562	6001.044991
678.822458	5961.761800
679.161303	5980.262834
679.500098	6007.069170
679.838842	6008.246279
680.177535	6036.103696
680.516179	6071.565692
680.854771	6075.167597
681.193314	6200.062183
681.531805	6251.938177
681.870247	6461.214117
682.208638	6631.126208
682.546978	6796.188708
682.885268	6857.426124
683.223508	6753.316215
683.561697	6717.357665
683.899836	6700.106836
684.237925	6633.931610
684.575963	6641.354709
684.913951	6643.966026
685.251889	6605.169306
685.589776	6715.363888
685.927614	6699.620365
686.265401	6679.100348
686.603137	6744.111068
686.940824	6830.314799
687.278460	6891.095991
687.616046	6947.471214
687.953582	7043.167438
688.291068	7011.781214
688.628504	7139.327447
688.965889	7161.216137
689.303224	7193.661003
689.640510	7171.706778
689.977745	7055.591361
690.314930	6974.464073
690.652065	6982.212326
690.989150	6857.610126
691.326185	6778.264885
691.663170	6704.674122
692.000105	6612.438650
692.336990	6612.297498
692.673825	6485.194886
693.010610	6456.845957
693.347345	6368.272884
693.684030	6284.995543
694.020665	6288.504186
694.357251	6207.775149
694.693786	6227.357511
695.030272	6123.998733
695.366707	6101.963850
695.703093	6075.003759
696.039429	6095.067552
696.375716	6091.624443
696.711952	6018.174832
697.048139	6059.713940
697.384276	6063.905659
697.720363	6074.774387
698.056400	6054.085491
698.392388	6056.593465
698.728326	6041.704418
699.064214	6022.976531
699.400053	6074.166928
699.735842	5980.409028
700.071581	5981.704604
700.407270	5963.531245
700.742910	5937.710455
701.078501	5909.064098
701.414042	5856.366396
701.749533	5832.728426
702.084974	5765.761738
702.420366	5838.752605
702.755709	5807.235311
703.091002	5743.164766
703.426246	5764.146048
703.761440	5756.428042
704.096584	5739.872893
704.431679	5718.291713
704.766725	5725.861006
705.101721	5706.230752
705.436668	5748.127782
705.771565	5696.314803
706.106413	5750.030818
706.441212	5804.560979
706.775961	5779.062823
707.110661	5802.836904
707.445311	5919.620274
707.779913	5857.959401
708.114465	5948.052382
708.448967	5986.135779
708.783421	6060.893570
709.117825	6191.691347
709.452180	6222.313836
709.786485	6269.849397
710.120742	6449.601819
710.454949	6454.474094
710.789107	6513.117837
711.123216	6625.490198
711.457275	6744.418578
711.791286	6853.831782
712.125247	6839.789648
712.459159	6867.954574
712.793023	7029.140427
713.126837	6778.678260
713.460602	6890.498614
713.794318	6786.963396
714.127985	6843.414237
714.461602	6693.775147
714.795171	6666.865468
715.128691	6550.981944
715.462162	6400.374952
715.795584	6404.314614
716.128957	6329.856771
716.462281	6215.536005
716.795556	6295.050125
717.128782	6169.399365
717.461960	5988.921016
717.795088	6053.110028
718.128167	6006.839798
718.461198	5910.397483
718.794180	5887.228340
719.127113	5905.376494
719.459997	5813.675385
719.792833	5649.190097
720.125619	5710.142688
720.458357	5618.232371
720.791046	5617.282113
721.123686	5650.130272
721.456278	5543.774529
721.788821	5557.622578
722.121315	5491.931302
722.453761	5547.784767
722.786158	5523.919944
723.118506	5536.026275
723.450805	5528.225090
723.783056	5586.198359
724.115259	5507.866390
724.447412	5511.924519
724.779518	5551.646290
725.111574	5559.172733
725.443582	5629.378362
725.775542	5613.791114
726.107453	5746.509572
726.439315	5697.592735
726.771129	5719.287341
727.102895	5847.294840
727.434612	5935.691473
727.766281	5951.820644
728.097901	6013.912536
728.429473	6003.038768
728.760996	5992.601058
729.092471	5994.972921
729.423897	5988.086705
729.755276	6015.142578
730.086606	5971.793696
730.417887	6041.096958
730.749120	6168.174365
731.080305	6329.788716
731.411442	6432.734118
731.742530	6427.811432
732.073570	6542.182610
732.404562	6617.368899
732.735506	6479.576520
733.066401	6601.665704
733.397249	6574.554379
733.728048	6430.624396
734.058798	6202.670980
734.389501	6062.358025
734.720156	5945.410817
735.050762	5760.339977
735.381320	5695.896387
735.711831	5676.745044
736.042293	5594.347384
736.372707	5625.247137
736.703073	5515.596999
737.033391	5546.653027
737.363661	5561.476540
737.693883	5571.248817
738.024056	5640.766329
738.354182	5683.233009
738.684260	5703.228745
739.014290	5782.871414
739.344272	5863.003075
739.674207	5876.117637
740.004093	5927.003044
740.333931	5943.532988
740.663722	5957.696109
740.993464	6030.518097
741.323159	6047.839502
741.652806	5848.222412
741.982405	5847.478842
742.311956	5944.790755
742.641460	5836.884857
742.970915	5672.021482
743.300323	5693.970666
743.629683	5655.405839
743.958996	5560.223814
744.288260	5499.949258
744.617477	5463.224452
744.946647	5494.335933
745.275768	5358.817115
745.604842	5333.780224
745.933869	5317.754396
746.262847	5285.357421
746.591778	5287.996465
746.920662	5265.628865
747.249498	5250.034056
747.578286	5294.650788
747.907027	5364.581674
748.235720	5410.801493
748.564365	5377.459302
748.892963	5390.556219
749.221514	5547.830137
749.550017	5425.897228
749.878473	5310.764836
750.206881	5361.443556
750.535242	5319.165919
750.863555	5269.354278
751.191821	5296.725223
751.520039	5303.699659
751.848210	5227.855499
752.176334	5242.704218
752.504411	5301.252179
752.832440	5235.991922
753.160421	5162.978370
753.488356	5217.125403
753.816243	5259.138380
754.144082	5132.076097
754.471875	5093.763328
754.799620	5143.867356
755.127318	5154.897400
755.454969	5115.546153
755.782572	5082.256894
756.110129	5131.125839
756.437638	5136.971057
756.765100	5080.437038
757.092515	5070.064863
757.419882	5112.491214
757.747203	5102.983598
758.074477	5164.155479
758.401703	5160.241023
758.728882	5108.024752
759.056014	5139.602540
759.383099	5275.179331
759.710138	5278.937511
760.037129	5257.560498
760.364073	5266.725316
760.690970	5344.500238
761.017820	5343.993602
761.344623	5291.915962
761.671379	5375.347058
761.998088	5481.423017
762.324751	5684.329460
762.651366	6159.659856
762.977935	7198.356838
763.304456	8550.908498
763.630931	9345.805198
763.957359	9107.388868
764.283740	8393.402687
764.610074	7734.954898
764.936362	6891.259828
765.262602	6368.623244
765.588796	5892.120780
765.914943	5587.352783
766.241044	5460.182116
766.567097	5304.549093
766.893104	5073.364299
767.219064	4914.207510
767.544978	4867.269327
767.870845	4811.793949
768.196665	4711.545564
768.522438	4648.160616
768.848165	4627.673367
769.173846	4578.423814
769.499479	4538.777660
769.825066	4491.315196
770.150607	4441.788380
770.476101	4422.541255
770.801548	4425.487809
771.126949	4368.454715
771.452303	4322.759176
771.777611	4280.095891
772.102872	4299.774035
772.428087	4266.827574
772.753256	4235.990836
773.078378	4202.751988
773.403453	4143.883914
773.728482	4129.108292
774.053465	4092.310390
774.378401	4076.496290
774.703291	4087.634720
775.028135	4025.714227
775.352932	3977.538440
775.677683	3965.895895
776.002388	3989.400275
776.327046	4006.714118
776.651658	3932.382305
776.976224	3868.576420
777.300743	3880.836507
777.625216	3900.428951
777.949643	3901.641348
778.274024	3859.230121
778.598359	3816.145900
778.922647	3832.396059
779.246889	3828.201819
779.571086	3831.327335
779.895236	3820.393072
780.219339	3800.173004
780.543397	3785.956950
780.867409	3833.888241
781.191374	3854.879605
781.515294	3801.844146
781.839167	3793.735450
782.162995	3810.509890
782.486776	3801.710556
782.810511	3806.852533
783.134201	3818.157320
783.457844	3781.871095
783.781441	3723.693659
784.104993	3728.611304
784.428498	3747.785333
784.751958	3752.213987
785.075372	3732.924012
785.398739	3696.143753
785.722061	3702.278837
786.045337	3744.090167
786.368568	3784.736991
786.691752	3698.656768
787.014891	3738.781832
787.337983	3848.386599
787.661030	3985.092609
787.984031	4133.635248
788.306987	4291.685504
788.629897	4375.577866
788.952760	4334.147143
789.275579	4278.293679
789.598351	4233.371957
789.921078	4113.808390
790.243759	3927.341151
790.566395	3903.191503
790.888984	3903.869538
791.211529	3803.323725
791.534027	3750.419336
791.856480	3745.247112
792.178888	3683.946681
792.501249	3635.216368
792.823566	3647.352946
793.145836	3675.313705
793.468062	3633.961120
793.790241	3583.022781
794.112375	3611.215434
794.434464	3669.949918
794.756507	3694.240718
795.078505	3682.915765
795.400457	3702.576265
795.722364	3821.020696
796.044226	3918.060387
796.366042	3983.441631
796.687812	3979.517093
797.009538	3990.350533
797.331218	3947.725056
797.652852	3920.444852
797.974442	3905.044127
798.295986	3913.810694
798.617484	3841.555836
798.938938	3752.279522
799.260346	3790.587250
799.581709	3790.693114
799.903026	3727.958475
800.224299	3688.473638
800.545526	3684.423070
800.866708	3653.314110
801.187845	3586.412957
801.508936	3621.060808
801.829983	3632.065647
802.150984	3551.119839
802.471940	3537.952345
802.792851	3545.992986
803.113717	3546.325702
803.434538	3555.387176
803.755314	3503.443127
804.076045	3470.340390
804.396731	3487.016527
804.717372	3514.077441
805.037967	3504.252232
805.358518	3492.655058
805.679024	3515.010054
805.999485	3524.641179
806.319901	3527.791900
806.640272	3543.237995
806.960598	3561.486972
807.280879	3533.460677
807.601115	3541.443344
807.921306	3555.858524
808.241453	3600.686984
808.561554	3578.941967
808.881611	3516.134232
809.201623	3549.093295
809.521590	3562.235583
809.841513	3537.291954
810.161390	3563.198444
810.481223	3555.941703
810.801011	3499.747961
811.120755	3478.880105
811.440453	3518.183461
811.760107	3527.383566
812.079716	3491.004080
812.399281	3455.491671
812.718801	3476.888849
813.038276	3453.495374
813.357707	3448.880198
813.677093	3467.469453
813.996434	3423.724840
814.315731	3424.024789
814.634983	3430.474945
814.954191	3438.261008
815.273354	3470.564721
815.592473	3471.971203
815.911547	3469.332159
816.230577	3502.097139
816.549562	3552.894325
816.868502	3599.585492
817.187399	3626.747229
817.506250	3622.847897
817.825058	3588.653750
818.143821	3673.473684
818.462539	3774.926905
818.781213	3823.332065
819.099843	3873.446175
819.418429	4088.164041
819.736970	4308.994306
820.055466	4537.681209
820.373919	4886.599631
820.692327	5286.468995
821.010691	5668.482592
821.329011	6878.919084
821.647286	9294.282085
821.965517	13319.497237
822.283704	16969.537118
822.601847	19210.942503
822.919945	17735.270743
823.237999	15543.303954
823.556010	13268.077468
823.873976	11353.984120
824.191897	9381.811639
824.509775	8069.911844
824.827609	6988.352451
825.145398	6451.502334
825.463144	6331.253171
825.780845	6450.567200
826.098502	6592.634477
826.416116	7342.682552
826.733685	8561.026093
827.051210	9651.936827
827.368692	9810.304675
827.686129	8687.077625
828.003522	7233.057621
828.320872	6262.897645
828.638177	5599.063383
828.955439	5072.409000
829.272656	4593.093572
829.589830	4304.414417
829.906960	4138.167246
830.224046	3961.736943
830.541088	3836.660875
830.858086	3794.962971
831.175041	3728.268506
831.491952	3703.226574
831.808819	3715.932802
832.125642	3778.604427
832.442421	3910.957401
832.759157	4161.260772
833.075849	4660.793747
833.392497	5461.008865
833.709101	6195.230237
834.025662	6559.682975
834.342179	6271.959119
834.658653	5639.460670
834.975083	5030.151528
835.291469	4477.736848
835.607811	4071.805497
835.924110	3939.313891
836.240366	3754.180037
836.556578	3548.483316
836.872746	3441.207562
837.188871	3410.438879
837.504952	3349.453521
837.820990	3270.919906
838.136984	3219.127091
838.452935	3241.104001
838.768842	3240.932602
839.084706	3258.737957
839.400526	3396.507651
839.716303	3699.034855
840.032037	4176.825334
840.347727	4463.858552
840.663373	4240.154829
840.978977	3881.403636
841.294537	3584.255343
841.610054	3357.849563
841.925527	3250.762852
842.240957	3181.462110
842.556344	3132.515027
842.871687	3076.417067
843.186987	3026.381094
843.502244	2996.088801
843.817458	2958.829633
844.132629	2925.966351
844.447756	2939.038063
844.762840	2927.007349
845.077881	2895.578275
845.392879	2875.781664
845.707833	2869.800335
846.022745	2868.993751
846.337613	2870.493494
846.652438	2858.563603
846.967221	2858.387163
847.281960	2847.009279
847.596656	2842.194977
847.911309	2839.203052
848.225919	2834.083760
848.540485	2828.034376
848.855009	2827.590754
849.169490	2823.212512
849.483928	2811.522076
849.798323	2809.694658
850.112675	2805.699543
850.426984	2815.053404
850.741251	2817.508446
851.055474	2807.952939
851.369654	2800.098822
851.683792	2805.510500
851.997887	2811.229689
852.311938	2814.143476
852.625947	2805.507980
852.939914	2806.987558
853.253837	2814.299752
853.567718	2799.463636
853.881555	2794.175466
854.195350	2810.692806
854.509103	2809.934113
854.822812	2800.413894
855.136479	2800.144192
855.450103	2799.256949
855.763685	2790.770166
856.077224	2786.706996
856.390720	2801.306178
856.704173	2814.481233
857.017584	2801.863225
857.330953	2799.652679
857.644278	2806.763227
857.957561	2817.979794
858.270802	2818.894764
858.584000	2821.498520
858.897155	2808.527631
859.210268	2808.210038
859.523339	2806.851447
859.836367	2804.260294
860.149352	2798.737710
860.462295	2794.346865
860.775195	2805.702064
861.088054	2804.779533
861.400869	2788.312604
861.713642	2781.040739
862.026373	2795.281999
862.339062	2799.740900
862.651708	2807.363124
862.964312	2810.047539
863.276873	2801.810293
863.589392	2809.165337
863.901869	2819.197233
864.214303	2838.794718
864.526696	2858.898840
864.839045	2857.094107
865.151353	2855.259127
865.463619	2852.063035
865.775842	2852.057994
866.088023	2864.325642
866.400162	2876.989021
866.712258	2852.579754
867.024313	2837.932681
867.336325	2845.391068
867.648296	2868.345962
867.960224	2860.912781
868.272110	2847.773013
868.583954	2851.553879
868.895755	2868.431662
869.207515	2854.069415
869.519233	2855.992615
869.830909	2866.213554
870.142542	2874.191180
870.454134	2875.542209
870.765684	2880.374155
871.077191	2878.309803
871.388657	2884.283570
871.700081	2897.355282
872.011463	2907.218300
872.322803	2911.059659
872.634101	2910.721902
872.945357	2924.315373
873.256571	2949.117850
873.567744	2944.928651
873.878874	2934.251487
874.189963	2956.833336
874.501010	2957.970116
874.812015	2949.647171
875.122979	2948.860751
875.433900	2943.610389
875.744780	2948.870833
876.055618	2953.687656
876.366415	2950.156328
876.677169	2968.135603
876.987882	2966.015798
877.298554	2956.172945
877.609183	2973.327991
877.919771	2993.396825
878.230317	3019.323479
878.540822	3071.688464
878.851285	3109.910493
879.161707	3146.539517
879.472087	3232.269379
879.782425	3430.144750
880.092722	3827.659895
880.402977	4325.519208
880.713191	4902.355757
881.023363	5946.119099
881.333494	7136.716130
881.643583	7699.565998
881.953631	7436.984897
882.263637	6899.728967
882.573602	6377.432661
882.883526	5831.316903
883.193408	5275.927942
883.503248	4824.013706
883.813048	4536.557031
884.122806	4267.188017
884.432522	3974.128100
884.742197	3751.039398
885.051831	3557.058318
885.361424	3426.641148
885.670975	3356.513657
885.980485	3281.350053
886.289954	3205.931871
886.599382	3168.385357
886.908768	3127.814151
887.218113	3088.951896
887.527417	3032.705222
887.836680	2984.479023
888.145901	2979.470637
888.455082	2974.920996
888.764221	2926.803182
889.073319	2894.869993
889.382376	2896.999881
889.691392	2899.953997
890.000366	2899.187742
890.309300	2887.328427
890.618193	2898.960890
890.927044	2912.330030
891.235855	2916.451173
891.544625	2897.771177
891.853353	2908.773496
892.162041	2925.994077
892.470687	2960.341979
892.779293	3012.303672
893.087858	3056.408727
893.396381	3118.798047
893.704864	3228.705283
894.013306	3445.255608
894.321707	3729.014597
894.630068	3932.493210
894.938387	3937.310032
895.246665	3893.845204
895.554903	3786.420736
895.863100	3594.514092
896.171256	3437.764454
896.479371	3305.771923
896.787446	3193.845704
897.095480	3095.563369
897.403473	3033.373175
897.711425	2996.270282
898.019336	2985.517501
898.327207	2963.180148
898.635038	2928.605395
898.942827	2913.892787
899.250576	2904.874163
899.558284	2873.906355
899.865952	2857.764580
900.173579	2837.279852
900.481165	2829.881958
900.788711	2821.385094
901.096216	2794.921557
901.403681	2784.120884
901.711105	2790.770166
902.018489	2787.737912
902.325832	2787.264044
902.633135	2795.917184
902.940397	2824.863490
903.247619	2896.959552
903.554800	3065.321487
903.861941	3377.384034
904.169041	3777.583593
904.476101	4080.887135
904.783121	4062.381059
905.090100	3841.318902
905.397039	3581.530600
905.703938	3341.226358
906.010796	3163.127433
906.317614	3055.183727
906.624391	2970.580562
906.931129	2896.548698
907.237826	2842.162209
907.544483	2794.672019
907.851099	2765.282092
908.157675	2748.222828
908.464211	2728.126268
908.770707	2717.242417
909.077163	2701.239274
909.383578	2688.391893
909.689954	2679.093485
909.996289	2675.789009
910.302584	2679.574915
910.608839	2679.867302
910.915054	2673.091992
911.221229	2667.269459
911.527363	2671.655263
911.833458	2672.093843
912.139513	2679.085923
912.445527	2679.869823
912.751502	2691.250228
913.057436	2700.823379
913.363331	2709.378217
913.669186	2729.741958
913.975000	2755.628283
914.280775	2810.203814
914.586510	2876.658825
914.892205	2951.456945
915.197859	3066.924574
915.503475	3240.042838
915.809050	3435.480811
916.114585	3577.938778
916.420081	3603.192438
916.725536	3556.617217
917.030952	3449.979170
917.336328	3330.324863
917.641665	3205.316850
917.946961	3107.463013
918.252218	3045.114022
918.557435	2976.549288
918.862612	2917.678694
919.167750	2871.136241
919.472848	2834.489573
919.777906	2809.878660
920.082925	2785.532407
920.387904	2761.057606
920.692843	2742.652353
920.997743	2732.156671
921.302603	2716.201419
921.607423	2708.874102
921.912204	2697.718028
922.216946	2688.651513
922.521647	2677.994514
922.826310	2673.316323
923.130932	2666.528409
923.435516	2657.446771
923.740059	2652.055257
924.044564	2641.962867
924.349028	2640.064872
924.653454	2632.041876
924.957840	2626.322687
925.262186	2623.371091
925.566493	2618.733230
925.870761	2613.785337
926.174989	2612.860285
926.479178	2604.749069
926.783328	2600.837133
927.087438	2599.070209
927.391509	2601.439551
927.695541	2594.323963
927.999533	2595.896803
928.303486	2591.447984
928.607400	2588.413210
928.911275	2591.768098
929.215110	2587.616707
929.518906	2586.507654
929.822663	2589.532346
930.126381	2587.089907
930.430060	2586.285843
930.733699	2589.141657
931.037299	2588.113261
931.340861	2589.620566
931.644383	2591.029569
931.947866	2588.892119
932.251309	2587.911615
932.554714	2586.001018
932.858080	2586.142170
933.161407	2581.625296
933.464694	2581.169072
933.767943	2576.914338
934.071153	2582.015986
934.374323	2580.294432
934.677455	2582.767117
934.980548	2578.827456
935.283602	2580.836356
935.586617	2578.318299
935.889593	2581.852148
936.192530	2578.474575
936.495428	2578.638413
936.798287	2580.397775
937.101108	2584.589495
937.403890	2587.989753
937.706632	2591.450505
938.009336	2599.261773
938.312002	2608.194697
938.614628	2616.074021
938.917216	2621.273971
939.219765	2620.913529
939.522275	2620.162397
939.824747	2618.420678
940.127179	2616.956223
940.429573	2614.576798
940.731929	2609.828031
941.034246	2608.108998
941.336524	2606.160592
941.638763	2603.128338
941.940964	2603.924840
942.243126	2600.093563
942.545250	2599.329828
942.847335	2595.203644
943.149381	2594.351689
943.451389	2587.808271
943.753359	2584.972622
944.055290	2586.908425
944.357182	2584.148394
944.659036	2582.646130
944.960851	2585.265009
945.262628	2580.654874
945.564367	2583.397262
945.866067	2581.882395
946.167729	2583.682087
946.469352	2587.473035
946.770937	2583.722416
947.072484	2581.781572
947.373992	2579.646643
947.675462	2577.773855
947.976893	2574.605489
948.278286	2571.976528
948.579641	2574.189594
948.880958	2570.809501
949.182236	2576.919379
949.483476	2574.749162
949.784678	2572.737742
950.085841	2572.770509
950.386967	2575.089440
950.688054	2572.009295
950.989103	2575.273442
951.290114	2574.766806
951.591087	2579.402147
951.892021	2580.012127
952.192917	2584.191243
952.493776	2586.197623
952.794596	2587.147880
953.095378	2587.349526
953.396122	2585.229721
953.696828	2583.782910
953.997496	2584.435739
954.298126	2579.896180
954.598718	2578.608166
954.899272	2575.865778
955.199788	2573.151117
955.500266	2572.278997
955.800706	2569.297154
956.101108	2569.980231
956.401472	2564.583676
956.701798	2562.297512
957.002087	2562.405897
957.302337	2560.611246
957.602550	2560.812893
957.902724	2556.913560
958.202861	2556.719476
958.502960	2557.004301
958.803022	2555.680998
959.103045	2557.337017
959.403031	2555.358364
959.702979	2553.251162
960.002889	2552.089176
960.302762	2553.805689
960.602596	2555.270144
960.902393	2552.739485
961.202153	2553.891388
961.501875	2551.106151
961.801559	2549.568599
962.101205	2553.578837
962.400814	2550.476007
962.700385	2551.297715
962.999918	2549.122457
963.299414	2545.477703
963.598873	2547.882333
963.898293	2545.848227
964.197677	2549.636654
964.497022	2550.982642
964.796331	2551.983312
965.095601	2549.803012
965.394835	2549.314021
965.694030	2550.962478
965.993189	2550.660009
966.292309	2548.862837
966.591393	2549.881150
966.890439	2549.296377
967.189447	2550.125646
967.488419	2551.146480
967.787353	2549.205636
968.086249	2548.162117
968.385108	2550.440718
968.683930	2547.017775
968.982714	2548.756973
969.281462	2549.694628
969.580172	2548.293187
969.878844	2550.392827
970.177480	2549.283774
970.476078	2547.715975
970.774639	2549.951727
971.073162	2548.656150
971.371649	2551.736295
971.670098	2550.173537
971.968510	2549.266130
972.266885	2549.293856
972.565223	2549.916438
972.863524	2550.085317
973.161788	2550.695297
973.460014	2551.149001
973.758204	2552.051367
974.056356	2551.237221
974.354471	2550.511295
974.652550	2550.271840
974.950591	2550.370142
975.248595	2551.217056
975.546563	2552.184958
975.844493	2549.709751
976.142386	2553.813250
976.440243	2549.369473
976.738062	2551.123795
977.035845	2549.646737
977.333590	2551.229659
977.631299	2547.821839
977.928971	2546.682538
978.226606	2540.862526
978.524204	2545.717157
978.821765	2543.562064
979.119290	2548.217570
979.416777	2547.912580
979.714228	2548.177240
980.011642	2546.874102
980.309020	2548.232693
980.606360	2548.018444
980.903664	2547.705893
981.200931	2549.321582
981.498162	2549.261088
981.795356	2550.899463
982.092513	2549.122457
982.389633	2551.181768
982.686717	2559.106462
982.983764	2561.710218
983.280775	2565.314643
983.577749	2564.941597
983.874686	2563.068809
984.171587	2559.545042
984.468451	2560.286092
984.765279	2556.790052
985.062070	2557.147974
985.358824	2554.760987
985.655543	2553.828374
985.952224	2552.111861
986.248869	2551.567416
986.545478	2550.241593
986.842050	2547.746222
987.138586	2548.552806
987.435086	2549.019113
987.731549	2545.913762
988.027975	2547.887374
988.324366	2547.191695
988.620719	2546.803526
988.917037	2545.152548
989.213318	2547.879812
989.509563	2547.597508
989.805772	2548.336037
990.101944	2549.102292
990.398080	2544.842517
990.694180	2546.995090
990.990244	2546.919472
991.286271	2549.303938
991.582262	2547.932744
991.878217	2546.054915
992.174136	2549.944165
992.470019	2545.192877
992.765865	2545.507949
993.061676	2540.154244
993.357450	2544.134235
993.653188	2544.315717
993.948890	2547.897456
994.244556	2545.417209
994.540186	2546.977446
994.835780	2548.089020
995.131337	2546.909390
995.426859	2550.292004
995.722345	2547.589946
996.017795	2546.909390
996.313208	2552.600853
996.608586	2548.351160
996.903928	2550.922149
997.199234	2549.992056
997.494504	2550.244113
997.789738	2551.075904
998.084936	2550.934752
998.380099	2551.063301
998.675225	2548.993907
998.970316	2548.724206
999.265371	2551.370811
999.560390	2548.036088
999.855373	2548.530121
1000.150320	2546.319575
1000.445232	2548.857796
1000.740108	2545.497867
1001.034948	2545.601211
1001.329752	2542.803370
1001.624521	2545.318906
1001.919254	2546.601880
1002.213951	2545.964174
1002.508613	2543.821683
1002.803239	2547.471479
1003.097829	2546.226314
1003.392384	2547.320244
1003.686903	2545.578526
1003.981386	2545.880995
1004.275834	2544.449307
1004.570246	2547.204298
1004.864623	2544.429142
1005.158964	2546.957281
1005.453270	2545.644061
1005.747540	2543.589790
1006.041775	2542.495860
1006.335974	2543.965356
1006.630138	2546.906870
1006.924266	2548.847714
1007.218359	2547.166489
1007.512416	2541.016281
1007.806438	2546.241437
1008.100425	2540.860006
1008.394376	2539.458565
1008.688292	2546.175902
1008.982172	2544.356046
1009.276017	2543.178936
1009.569827	2543.660367
1009.863602	2545.087013
1010.157341	2546.012065
1010.451045	2546.420398
1010.744714	2546.390151
1011.038347	2545.739843
1011.331945	2541.396888
1011.625508	2545.845707
1011.919036	2544.807229
1012.212528	2544.973587
1012.505986	2545.641540
1012.799408	2544.749256
1013.092795	2545.036602
1013.386147	2544.235058
1013.679464	2544.280428
1013.972745	2546.395192
1014.265992	2545.394523
1014.559204	2547.405944
1014.852380	2545.898639
1015.145521	2543.892260
1015.438628	2543.788916
1015.731699	2543.599873
1016.024736	2545.812939
1016.317737	2543.519214
1016.610703	2546.634647
1016.903635	2548.174720
1017.196531	2544.514842
1017.489393	2541.845551
1017.782219	2546.879143
1018.075011	2544.169523
1018.367768	2545.127342
1018.660490	2544.287990
1018.953177	2544.287990
1019.245829	2544.287990
