Dividing Wavelength (nm)	Counts (n)	Blue Motor Position (mm): 17.400000	Red Motor Position (mm): 0.000000	
326.493990	2178.731240
326.888308	2178.731240
327.282561	2178.731240
327.676750	2139.412760
328.070874	2133.643160
328.464933	2134.222892
328.858929	2139.576598
329.252859	2142.412247
329.646726	2152.852476
330.040528	2165.102480
330.434265	2174.496670
330.827938	2195.450226
331.221547	2212.761549
331.615091	2229.563714
332.008571	2247.527866
332.401986	2266.054107
332.795338	2284.610594
333.188625	2301.851340
333.581847	2322.401604
333.975006	2342.213338
334.368100	2361.604137
334.761129	2377.854296
335.154095	2395.044631
335.546996	2417.016500
335.939833	2444.127825
336.332606	2459.929322
336.725315	2474.326857
337.117960	2485.104844
337.510540	2495.620691
337.903056	2507.961436
338.295508	2517.826974
338.687896	2527.863911
339.080220	2534.235929
339.472480	2540.252547
339.864676	2545.621375
340.256807	2549.490461
340.648875	2557.919270
341.040879	2555.428940
341.432818	2559.930691
341.824694	2564.213151
342.216506	2565.647359
342.608253	2566.998388
342.999937	2564.772719
343.391557	2568.225909
343.783113	2564.918912
344.174605	2562.589899
344.566033	2562.032852
344.957397	2565.715415
345.348697	2558.020093
345.739934	2557.405072
346.131106	2557.130330
346.522215	2557.810885
346.913260	2551.590102
347.304241	2552.517674
347.695159	2548.545245
348.086012	2549.354350
348.476802	2543.526776
348.867528	2542.223638
349.258191	2541.807743
349.648789	2539.418236
350.039324	2536.259953
350.429796	2538.737680
350.820203	2540.434028
351.210548	2536.743903
351.600828	2534.677030
351.991045	2534.608975
352.381198	2534.306506
352.771288	2531.032276
353.161314	2531.508665
353.551276	2531.269210
353.941175	2529.860208
354.331010	2527.972296
354.720782	2531.400280
355.110490	2531.680064
355.500135	2528.282327
355.889717	2530.049251
356.279235	2531.692667
356.668689	2531.806093
357.058080	2530.278624
357.447408	2530.780218
357.836672	2530.921371
358.225873	2527.937008
358.615010	2530.608819
359.004084	2533.492359
359.393095	2531.866587
359.782043	2531.974972
360.170927	2532.874818
360.559748	2535.828934
360.948505	2533.283151
361.337199	2533.724252
361.725830	2535.644932
362.114398	2536.786753
362.502903	2536.141486
362.891344	2537.003523
363.279722	2536.955632
363.668037	2537.933616
364.056289	2536.529654
364.444478	2540.313040
364.832603	2537.371527
365.220665	2541.442259
365.608665	2541.348997
365.996601	2540.605427
366.384474	2541.258257
366.772284	2543.133566
367.160031	2543.156251
367.547715	2541.941333
367.935336	2544.655994
368.322893	2541.104502
368.710388	2539.604758
369.097820	2539.430838
369.485189	2542.387475
369.872495	2542.513504
370.259738	2541.938813
370.646918	2547.143804
371.034035	2543.995603
371.421090	2543.904863
371.808081	2545.034081
372.195010	2541.802701
372.581875	2545.238248
372.968678	2545.666746
373.355418	2544.373690
373.742096	2543.889739
374.128710	2543.884698
374.515262	2549.152704
374.901751	2548.336037
375.288177	2549.835780
375.674540	2547.960471
376.060841	2547.605069
376.447079	2549.629093
376.833254	2549.714792
377.219367	2548.845193
377.605417	2547.650440
377.991404	2547.363094
378.377329	2550.970040
378.763191	2549.969371
379.148991	2550.428116
379.534727	2552.235369
379.920402	2548.706562
380.306013	2550.715461
380.691563	2549.775286
381.077049	2548.905687
381.462474	2550.438198
381.847835	2550.803682
382.233134	2552.580688
382.618371	2549.112374
383.003545	2551.247303
383.388657	2549.256047
383.773706	2554.455997
384.158693	2552.600853
384.543618	2554.024979
384.928480	2552.749567
385.313280	2550.995245
385.698017	2555.486913
386.082692	2553.241079
386.467305	2551.965668
386.851856	2556.185113
387.236344	2553.404917
387.620770	2554.604712
388.005133	2548.449463
388.389435	2554.254351
388.773674	2549.039278
389.157851	2554.589588
389.541965	2555.655792
389.926018	2555.446584
390.310008	2558.088149
390.693936	2557.639486
391.077802	2557.901626
391.461606	2557.100083
391.845348	2557.067315
392.229027	2557.750392
392.612645	2555.575134
392.996200	2557.634445
393.379694	2558.045299
393.763125	2559.184600
394.146494	2559.403890
394.529801	2559.658468
394.913047	2557.667212
395.296230	2556.895916
395.679351	2561.710218
396.062410	2557.878941
396.445408	2559.315670
396.828343	2562.965465
397.211217	2560.543191
397.594028	2562.448747
397.976778	2559.514795
398.359466	2562.519323
398.742092	2558.451112
399.124656	2562.617626
399.507158	2562.620146
399.889598	2561.122923
400.271977	2564.497976
400.654294	2561.526216
401.036549	2561.679971
401.418742	2562.410938
401.800874	2561.806000
402.182944	2562.635270
402.564952	2562.670558
402.946898	2563.507389
403.328783	2564.056875
403.710606	2565.077709
404.092367	2565.307081
404.474067	2562.368088
404.855705	2563.593089
405.237282	2565.049982
405.618797	2563.197358
406.000250	2563.726679
406.381642	2564.220712
406.762972	2564.601320
407.144240	2563.154508
407.525447	2562.577296
407.906593	2562.927657
408.287677	2567.873028
408.668700	2563.351113
409.049661	2566.027966
409.430560	2566.585014
409.811399	2566.779098
410.192176	2566.070816
410.572891	2568.167936
410.953545	2565.107956
411.334138	2568.102401
411.714669	2567.888152
412.095139	2567.744479
412.475547	2568.916547
412.855894	2567.152143
413.236180	2569.609706
413.616405	2566.920250
413.996568	2567.290775
414.376670	2568.601475
414.756711	2568.505693
415.136691	2569.120714
415.516609	2570.325550
415.896466	2569.304716
416.276262	2565.377657
416.655997	2571.164902
417.035670	2570.597772
417.415283	2571.326219
417.794834	2570.708677
418.174324	2569.879408
418.553753	2571.636250
418.933121	2572.526013
419.312428	2570.527196
419.691674	2570.081054
420.070859	2572.427711
420.449983	2569.385375
420.829045	2568.974521
421.208047	2570.711198
421.586988	2572.626837
421.965867	2570.625498
422.344686	2570.421332
422.723444	2572.697413
423.102141	2571.792526
423.480777	2572.757907
423.859352	2571.658935
424.237866	2572.805797
424.616319	2574.333267
424.994712	2572.846127
425.373044	2570.960735
425.751314	2569.188770
426.129524	2569.937381
426.507673	2569.473595
426.885762	2569.584500
427.263789	2571.449727
427.641756	2573.168761
428.019662	2576.001889
428.397508	2570.703636
428.775292	2573.567012
429.153016	2571.001064
429.530679	2573.682958
429.908282	2574.865109
430.285824	2572.286559
430.663305	2577.670511
431.040726	2572.369738
431.418086	2573.330077
431.795385	2576.707651
432.172624	2575.364183
432.549802	2575.323854
432.926920	2575.432239
433.303977	2576.768144
433.680974	2573.725808
434.057910	2575.089440
434.434786	2575.742270
434.811601	2577.431056
435.188355	2575.205387
435.565050	2574.708833
435.941683	2576.659760
436.318257	2575.217990
436.694770	2577.118505
437.071222	2577.184040
437.447614	2577.158834
437.823946	2576.574060
438.200218	2576.662280
438.576429	2578.560275
438.952580	2577.698237
439.328670	2578.096488
439.704700	2578.661098
440.080670	2575.177660
440.456580	2578.096488
440.832429	2579.031622
441.208218	2579.704617
441.583947	2580.816191
441.959616	2579.669328
442.335224	2577.683114
442.710773	2581.189236
443.086261	2577.254616
443.461689	2582.951120
443.837057	2580.203691
444.212365	2580.107909
444.587612	2575.820407
444.962800	2576.090109
445.337927	2576.982393
445.712995	2572.863771
446.088002	2578.887950
446.462949	2579.419791
446.837837	2579.356777
447.212664	2581.368197
447.587431	2582.081521
447.962139	2582.431881
448.336786	2584.362643
448.711374	2582.704103
449.085901	2581.935327
449.460369	2580.022209
449.834776	2583.926583
450.209124	2581.406006
450.583412	2584.307190
450.957640	2583.984556
451.331808	2581.912642
451.705917	2584.004721
452.079965	2580.992631
452.453954	2584.100503
452.827883	2582.041191
453.201752	2582.890626
453.575562	2585.446491
453.949311	2583.125039
454.323001	2582.094123
454.696632	2583.356932
455.070202	2582.925914
455.443713	2584.826429
455.817164	2586.666450
456.190556	2584.619742
456.563888	2587.271388
456.937160	2586.517736
457.310373	2585.171748
457.683526	2583.374577
458.056619	2586.643765
458.429653	2584.518918
458.802628	2587.795668
459.175542	2585.247365
459.548398	2586.719382
459.921194	2588.244331
460.293930	2587.581419
460.666607	2589.171903
461.039224	2587.878847
461.411782	2590.711976
461.784280	2588.370360
462.156719	2590.558221
462.529099	2589.645772
462.901419	2590.152408
463.273680	2586.542942
463.645882	2586.646285
464.018024	2588.272057
464.390106	2585.698548
464.762130	2590.099476
465.134094	2591.977306
465.505999	2592.345310
465.877845	2595.523757
466.249631	2598.114910
466.621358	2594.709611
466.993026	2596.375712
467.364634	2601.840323
467.736184	2594.563417
468.107674	2594.092070
468.479105	2596.400918
468.850477	2596.988212
469.221790	2593.817327
469.593043	2593.104003
469.964238	2596.501741
470.335373	2593.398911
470.706449	2594.069384
471.077467	2593.383787
471.448425	2596.705908
471.819324	2599.793615
472.190164	2600.035590
472.560945	2597.855291
472.931667	2598.876125
473.302330	2597.056268
473.672934	2597.179776
474.043479	2595.790938
474.413965	2597.139447
474.784393	2595.362440
475.154761	2599.632298
475.525070	2595.397728
475.895321	2596.562235
476.265513	2594.949066
476.635645	2599.571804
477.005719	2596.496700
477.375734	2600.244798
477.745691	2600.746393
478.115588	2600.396032
478.485427	2603.327463
478.855207	2600.380909
479.224928	2605.401898
479.594591	2607.410798
479.964194	2608.038422
480.333739	2607.675459
480.703226	2608.096395
481.072653	2607.123452
481.442022	2606.790736
481.811333	2605.767382
482.180584	2605.369131
482.549777	2603.945005
482.918912	2603.909717
483.287988	2608.565222
483.657005	2610.049842
484.025964	2609.240737
484.394864	2609.659153
484.763706	2607.683020
485.132489	2611.433639
485.501213	2608.603031
485.869879	2609.699482
486.238487	2607.403236
486.607036	2609.132352
486.975527	2608.361056
487.343959	2610.133021
487.712333	2609.432301
488.080648	2611.836931
488.448905	2608.252671
488.817104	2611.947837
489.185244	2613.104781
489.553326	2615.015379
489.921350	2615.632920
490.289315	2616.963785
490.657222	2621.029475
491.025070	2622.138529
491.392861	2623.754219
491.760593	2622.715741
492.128267	2621.553755
492.495883	2619.812037
492.863440	2620.943776
493.230939	2621.047119
493.598380	2618.448404
493.965763	2618.203908
494.333088	2619.043261
494.700354	2617.563682
495.067563	2620.752212
495.434713	2621.770525
495.801805	2622.607356
496.168839	2621.548714
496.535815	2621.813375
496.902733	2621.480658
497.269593	2621.936883
497.636395	2624.386884
498.003139	2625.206071
498.369825	2625.934518
498.736453	2628.084570
499.103023	2627.154477
499.469535	2628.714714
499.835989	2629.382667
500.202385	2627.101545
500.568723	2628.059364
500.935003	2631.046248
501.301226	2630.123717
501.667390	2634.307874
502.033497	2640.579070
502.399546	2635.351393
502.765537	2638.154275
503.131470	2642.121663
503.497345	2643.394554
503.863163	2645.312713
504.228923	2647.084679
504.594625	2651.054587
504.960269	2651.382262
505.325856	2655.614311
505.691385	2653.529794
506.056856	2662.187976
506.422270	2662.213182
506.787625	2661.731751
507.152924	2670.609223
507.518164	2670.054696
507.883347	2671.476302
508.248472	2680.056346
508.613540	2681.994669
508.978550	2687.857531
509.343503	2688.898529
509.708398	2696.288861
510.073236	2702.718853
510.438016	2708.818649
510.802738	2709.544575
511.167403	2718.321224
511.532010	2721.948334
511.896561	2735.627505
512.261053	2740.308216
512.625488	2747.925400
512.989866	2752.338930
513.354186	2763.338728
513.718449	2769.922475
514.082655	2784.977881
514.446803	2791.422996
514.810894	2805.447486
515.174927	2809.326654
515.538904	2822.428612
515.902822	2839.883608
516.266684	2851.624455
516.630488	2860.252390
516.994235	2877.740153
517.357925	2892.185579
517.721558	2912.519073
518.085133	2926.843512
518.448651	2947.474434
518.812112	2957.844087
519.175516	2983.158241
519.538863	3001.192969
519.902152	3019.469672
520.265385	3050.500495
520.628560	3065.918864
520.991678	3094.466918
521.354739	3119.811319
521.717743	3146.509270
522.080690	3170.570697
522.443580	3207.620657
522.806413	3232.155953
523.169189	3267.605347
523.531908	3299.533495
523.894569	3321.066783
524.257174	3364.004811
524.619722	3404.659197
524.982213	3427.639296
525.344647	3473.042448
525.707025	3513.472502
526.069345	3557.932959
526.431608	3601.372581
526.793815	3655.527177
527.155964	3673.251873
527.518057	3727.373701
527.880093	3774.228706
528.242072	3820.934996
528.603995	3855.386241
528.965860	3900.799476
529.327669	3965.381698
529.689421	4012.196373
530.051117	4054.002662
530.412755	4129.650216
530.774337	4168.744364
531.135862	4217.058783
531.497331	4289.268271
531.858743	4318.307837
532.220098	4430.627266
532.581396	4446.602682
532.942638	4537.600550
533.303824	4591.813119
533.664953	4668.516795
534.026025	4726.580805
534.387040	4796.211742
534.747999	4894.294952
535.108902	4967.968895
535.469748	5001.371581
535.830537	5106.933342
536.191270	5178.825237
536.551947	5274.087921
536.912567	5284.422287
537.273131	5411.111524
537.633638	5444.108397
537.994089	5585.827834
538.354483	5599.514567
538.714821	5757.945429
539.075103	5873.473552
539.435328	5929.763076
539.795497	5954.936078
540.155609	6107.367967
540.515665	6244.845273
540.875665	6221.492128
541.235609	6346.696746
541.595496	6464.626978
541.955328	6610.911181
542.315102	6693.422266
542.674821	6727.777730
543.034483	6793.179139
543.394090	6900.638895
543.753640	6970.753783
544.113134	7180.861514
544.472571	7229.987558
544.831953	7419.459325
545.191278	7421.637104
545.550548	7533.845627
545.909761	7633.476471
546.268918	7830.363775
546.628019	7914.939213
546.987064	8012.861106
547.346053	8064.164929
547.704986	8175.982763
548.063863	8346.870316
548.422684	8404.626816
548.781449	8452.149773
549.140158	8660.848501
549.498811	8713.389927
549.857408	8718.690700
550.215949	8959.713307
550.574434	8981.523859
550.932864	9169.289196
551.291237	9303.898086
551.649555	9424.414430
552.007817	9556.512826
552.366022	9648.526486
552.724173	9746.942412
553.082267	9868.961020
553.440305	10136.124530
553.798288	10022.852324
554.156215	10316.645729
554.514086	10469.057454
554.871902	10375.029852
555.229661	10586.521379
555.587365	10684.788591
555.945014	10729.952289
556.302606	10973.142591
556.660143	11042.458457
557.017625	11287.990375
557.375050	11251.973852
557.732421	11489.500418
558.089735	11575.169787
558.446994	11691.539782
558.804197	11852.337466
559.161345	11981.955614
559.518437	11938.158069
559.875474	12207.020448
560.232455	12359.306144
560.589381	12457.785084
560.946251	12525.097091
561.303065	12845.800175
561.659825	13017.164118
562.016528	12951.349334
562.373177	12974.987304
562.729770	13230.460378
563.086307	13353.242721
563.442789	13543.382442
563.799216	13589.559411
564.155587	13683.501313
564.511904	13838.310106
564.868164	13885.018917
565.224370	14048.012024
565.580520	14070.755189
565.936615	14298.431341
566.292654	14222.488879
566.648638	14562.542432
567.004567	14541.480492
567.360441	14636.314678
567.716260	14598.080046
568.072023	14942.257263
568.427732	14900.027518
568.783385	14882.822060
569.138982	15113.341422
569.494525	15291.808351
569.850013	15277.143634
570.205445	15418.895839
570.560823	15395.577982
570.916145	15404.457974
571.271412	15574.312092
571.626625	15576.608337
571.981782	15713.349635
572.336884	15683.548854
572.691931	15890.062242
573.046923	15790.002900
573.401860	15865.032913
573.756743	15984.992210
574.111570	16018.107550
574.466342	16067.772998
574.821059	16240.974441
575.175722	16124.480937
575.530330	16252.485916
575.884882	16343.047724
576.239380	16397.013276
576.593823	16404.537198
576.948211	16459.374869
577.302544	16438.761591
577.656823	16443.202848
578.011047	16620.850589
578.365216	16597.552896
578.719330	16594.198008
579.073389	16601.268227
579.427394	16818.370558
579.781344	16702.129112
580.135239	16737.245790
580.489080	16766.141684
580.842866	16640.821120
581.196597	16902.799803
581.550273	16913.585352
581.903895	16962.718957
582.257463	17261.238444
582.610975	16973.249928
582.964434	17273.286802
583.317837	17123.277187
583.671186	17261.863547
584.024481	17312.433882
584.377721	17177.908171
584.730906	17295.974515
585.084037	17413.589675
585.437113	17387.373155
585.790135	17614.585520
586.143103	17247.949963
586.496016	17293.801778
586.848874	17605.370291
587.201679	17606.804499
587.554428	17356.581787
587.907124	17709.465077
588.259765	17568.408551
588.612352	17716.724338
588.964884	17383.554481
589.317362	17600.119929
589.669786	17674.910488
590.022155	17795.643602
590.374470	17995.999220
590.726731	17894.621616
591.078937	17701.739508
591.431090	17856.596193
591.783188	17659.466913
592.135232	17686.419442
592.487222	17846.876848
592.839157	17909.918998
593.191038	17854.451182
593.542866	17794.884908
593.894639	17602.910208
594.246358	17838.861414
594.598022	17784.232950
594.949633	17606.991022
595.301190	17605.919777
595.652692	17794.229558
596.004141	18070.099141
596.355535	17475.696691
596.706876	17521.316612
597.058162	17456.283207
597.409395	17700.239765
597.760573	17839.196650
598.111698	17657.132859
598.462768	17623.094988
598.813785	17608.929346
599.164748	17476.828430
599.515657	17540.644396
599.866511	17364.738374
600.217312	17730.353098
600.568060	17318.684913
600.918753	17642.702556
601.269392	17576.605467
601.619978	17374.591309
601.970510	17618.124410
602.320988	17585.213237
602.671412	17809.249676
603.021783	17731.079024
603.372100	17506.782966
603.722363	17649.848391
604.072572	17616.115510
604.422728	17755.034587
604.772830	17559.437818
605.122878	17522.707971
605.472872	17530.824228
605.822813	17548.155715
606.172701	17511.446033
606.522534	17737.670332
606.872314	17758.344104
607.222041	17618.568032
607.571714	17841.054316
607.921333	17686.232919
608.270899	17767.322399
608.620411	17991.661307
608.969870	17745.670644
609.319276	17765.459693
609.668627	17819.140420
610.017926	17961.058983
610.367171	18094.571422
610.716362	18140.307290
611.065500	17967.579715
611.414585	18106.493751
611.763616	18095.887163
612.112594	18047.260193
612.461518	18042.720634
612.810389	18244.873424
613.159207	18093.805167
613.507971	18015.137961
613.856682	18321.110793
614.205340	18248.157736
614.553945	18393.655518
614.902496	18149.714083
615.250994	18416.509589
615.599439	18346.732458
615.947830	18342.797837
616.296169	18380.966934
616.644454	18360.756948
616.992686	18332.269388
617.340864	18536.607518
617.688990	18317.622315
618.037063	18487.337800
618.385082	18347.511316
618.733048	18613.908571
619.080961	18494.334922
619.428821	18540.504329
619.776628	18441.130584
620.124382	18359.244602
620.472083	18397.292710
620.819731	18431.633050
621.167326	18124.276421
621.514868	18171.181837
621.862357	17938.948482
622.209793	17958.608982
622.557176	17808.478379
622.904506	17629.744270
623.251783	17537.160959
623.599007	17330.889546
623.946179	17276.011546
624.293297	17236.360350
624.640363	16990.566291
624.987376	17007.708735
625.334336	16794.782999
625.681243	16644.349928
626.028097	16640.231305
626.374899	16590.066783
626.721647	16470.518340
627.068343	16296.938810
627.414987	16225.394755
627.761577	16207.160901
628.108115	16252.758138
628.454600	15975.789584
628.801032	16066.031279
629.147412	15991.941441
629.493739	16024.540062
629.840014	15829.258365
630.186236	15941.527382
630.532405	15693.903384
630.878521	15890.833539
631.224585	15777.037052
631.570597	15614.727022
631.916556	15645.120138
632.262462	15626.886285
632.608316	15547.157916
632.954117	15485.388658
633.299866	15485.784389
633.645562	15410.678758
633.991206	15163.992415
634.336797	15033.111459
634.682336	14995.476725
635.027823	14900.566921
635.373257	14793.611281
635.718639	14673.195759
636.063968	14633.468946
636.409245	14382.762283
636.754470	14416.704372
637.099642	14260.731072
637.444762	14034.421073
637.789829	14087.930401
638.134845	13938.102267
638.479808	13951.365543
638.824719	13904.089602
639.169577	13755.998146
639.514383	13809.789778
639.859137	13617.184934
640.203839	13698.702912
640.548489	13536.982697
640.893086	13523.333773
641.237632	13398.217375
641.582125	13539.664591
641.926566	13382.209191
642.270955	13391.837795
642.615292	13357.242877
642.959576	13371.090927
643.303809	13404.851534
643.647990	13343.835928
643.992118	13395.999268
644.336195	13171.262109
644.680219	13359.718083
645.024192	13286.991877
645.368112	13519.956200
645.711981	13589.357765
646.055797	13763.789249
646.399562	13731.820772
646.743274	14001.580476
647.086935	14274.178350
647.430544	14241.297424
647.774101	14254.999280
648.117606	14418.723354
648.461059	14382.331265
648.804460	14395.435744
649.147810	14110.618113
649.491108	14020.610832
649.834354	14037.423080
650.177548	13736.037698
650.520690	13544.907391
650.863781	13465.831851
651.206820	13507.602852
651.549807	13333.226820
651.892742	13155.306857
652.235626	13084.443357
652.578458	13087.442844
652.921238	12768.216817
653.263967	12965.444400
653.606644	12801.193525
653.949269	12759.523348
654.291843	12574.429823
654.634365	12724.812483
654.976836	12583.604723
655.319255	12602.743463
655.661622	12546.327910
656.003938	12469.498205
656.346203	12402.226528
656.688416	12465.019140
657.030577	12422.000454
657.372687	12346.234432
657.714746	12326.218531
658.056753	12503.352074
658.398708	12329.850682
658.740612	12332.835045
659.082465	12431.850868
659.424266	12390.082388
659.766016	12401.939182
660.107715	12320.895072
660.449362	12395.118501
660.790958	12355.789939
661.132503	12306.784883
661.473996	12361.284797
661.815438	12381.368754
662.156829	12392.912996
662.498168	12383.309598
662.839456	12365.337884
663.180693	12396.845096
663.521879	12481.730565
663.863013	12458.596710
664.204097	12436.556785
664.545129	12549.811348
664.886110	12524.388809
665.227040	12609.823764
665.567918	12615.973971
665.908746	12650.836071
666.249522	12630.648770
666.590248	12671.673680
666.930922	12788.656176
667.271545	12782.697532
667.612118	12854.050023
667.952639	12766.505346
668.293109	12767.359821
668.633528	12732.240623
668.973896	12705.691386
669.314213	12798.340232
669.654480	12538.756097
669.994695	12589.475146
670.334859	12615.064043
670.674973	12568.151065
671.015035	12603.224893
671.355047	12545.433106
671.695008	12513.875483
672.034918	12523.481401
672.374777	12555.336452
672.714585	12479.222591
673.054342	12508.723423
673.394049	12450.172942
673.733705	12546.075853
674.073310	12464.973770
674.412864	12478.232004
674.752368	12363.523069
675.091820	12359.359076
675.431223	12358.222296
675.770574	12221.644835
676.109875	12155.603199
676.449125	12118.759926
676.788324	12053.129144
677.127473	11892.717108
677.466571	11876.174562
677.805619	11784.196190
678.144616	11701.506143
678.483562	11667.445587
678.822458	11536.632686
679.161303	11512.974551
679.500098	11512.268789
679.838842	11455.964142
680.177535	11481.893317
680.516179	11543.135774
680.854771	11479.987761
681.193314	11700.823067
681.531805	11843.190293
681.870247	12241.786765
682.208638	12644.068322
682.546978	12973.371614
682.885268	13035.183722
683.223508	12730.309861
683.561697	12566.369018
683.899836	12466.014768
684.237925	12272.563010
684.575963	12190.069568
684.913951	12117.729010
685.251889	12071.720920
685.589776	12159.741987
685.927614	12091.716657
686.265401	12046.318546
686.603137	12088.366810
686.940824	12243.309194
687.278460	12354.365813
687.616046	12406.135943
687.953582	12577.683887
688.291068	12508.970440
688.628504	12723.839540
688.965889	12742.564906
689.303224	12710.760267
689.640510	12616.863735
689.977745	12319.128148
690.314930	12088.006367
690.652065	11998.765341
690.989150	11722.346273
691.326185	11490.400264
691.663170	11288.832248
692.000105	11040.094156
692.336990	10940.238980
692.673825	10684.632316
693.010610	10570.210726
693.347345	10364.118275
693.684030	10161.050515
694.020665	10105.237381
694.357251	9906.573069
694.693786	9865.913643
695.030272	9694.779073
695.366707	9570.156708
695.703093	9496.507971
696.039429	9495.769442
696.375716	9433.959855
696.711952	9297.735275
697.048139	9336.234567
697.384276	9285.165158
697.720363	9298.937590
698.056400	9238.547088
698.392388	9195.241056
698.728326	9160.368874
699.064214	9084.514632
699.400053	9143.299527
699.735842	8952.277605
700.071581	8915.222604
700.407270	8842.710647
700.742910	8758.694777
701.078501	8668.367382
701.414042	8550.595946
701.749533	8480.561716
702.084974	8342.421498
702.420366	8456.991801
702.755709	8339.515273
703.091002	8206.101136
703.426246	8231.276658
703.761440	8181.152466
704.096584	8137.244016
704.431679	8073.465858
704.766725	8057.019093
705.101721	8011.031167
705.436668	8050.001807
705.771565	7949.672763
706.106413	8024.480966
706.441212	8078.186898
706.775961	8027.641769
707.110661	8050.614308
707.445311	8208.379738
707.779913	8104.657997
708.114465	8230.901093
708.448967	8274.277701
708.783421	8409.244513
709.117825	8591.530115
709.452180	8624.784087
709.786485	8713.049649
710.120742	8982.423705
710.454949	8979.714085
710.789107	9083.158562
711.123216	9295.433988
711.457275	9451.261095
711.791286	9617.394841
712.125247	9608.232543
712.459159	9598.898847
712.793023	9858.755204
713.126837	9437.740720
713.460602	9589.207229
713.794318	9412.605527
714.127985	9444.745404
714.461602	9139.748034
714.795171	9083.428263
715.128691	8838.919699
715.462162	8586.451153
715.795584	8533.655148
716.128957	8402.247391
716.462281	8225.227274
716.795556	8272.165457
717.128782	8071.099036
717.461960	7799.736245
717.795088	7866.496246
718.128167	7778.039119
718.461198	7608.472348
718.794180	7551.383801
719.127113	7544.847945
719.459997	7404.673621
719.792833	7161.082547
720.125619	7224.699388
720.458357	7088.552946
720.791046	7073.800009
721.123686	7078.074907
721.456278	6920.468274
721.788821	6938.674401
722.121315	6828.711712
722.453761	6889.508027
722.786158	6845.297108
723.118506	6852.349682
723.450805	6821.898593
723.783056	6892.532720
724.115259	6790.056144
724.447412	6789.511700
724.779518	6830.801270
725.111574	6839.683783
725.443582	6918.880310
725.775542	6897.460448
726.107453	7078.828560
726.439315	6994.235478
726.771129	7042.365894
727.102895	7211.431071
727.434612	7327.286868
727.766281	7350.385435
728.097901	7437.274763
728.429473	7423.807321
728.760996	7394.916468
729.092471	7379.959364
729.423897	7332.411201
729.755276	7350.085487
730.086606	7278.720392
730.417887	7375.021554
730.749120	7555.265489
731.080305	7745.727843
731.411442	7881.576857
731.742530	7874.536886
732.073570	7978.389696
732.404562	8061.740134
732.735506	7912.718585
733.066401	8060.411790
733.397249	7991.864701
733.728048	7760.100173
734.058798	7431.721932
734.389501	7206.152983
734.720156	7029.296703
735.050762	6790.741741
735.381320	6690.352203
735.711831	6650.237222
736.042293	6539.548607
736.372707	6561.835548
736.703073	6422.868580
737.033391	6457.047603
737.363661	6468.034798
737.693883	6481.282951
738.024056	6573.130253
738.354182	6624.630681
738.684260	6659.616288
739.014290	6765.954388
739.344272	6875.107971
739.674207	6901.064873
740.004093	6962.997968
740.333931	6983.195351
740.663722	6994.631208
740.993464	7066.782723
741.323159	7074.898981
741.652806	6821.137378
741.982405	6811.473486
742.311956	6877.159721
742.641460	6733.822073
742.970915	6534.273039
743.300323	6529.451176
743.629683	6471.538400
743.958996	6345.101221
744.288260	6252.122179
744.617477	6201.219128
744.946647	6210.638524
745.275768	6048.270520
745.604842	5997.916955
745.933869	5983.136292
746.262847	5938.448984
746.591778	5926.700575
746.920662	5885.171549
747.249498	5866.718406
747.578286	5923.446510
747.907027	5999.565413
748.235720	6056.631274
748.564365	6027.793353
748.892963	6045.213061
749.221514	6207.071908
749.550017	6053.493156
749.878473	5923.761582
750.206881	5971.264375
750.535242	5914.301857
750.863555	5843.738306
751.191821	5868.318972
751.520039	5871.598243
751.848210	5782.483246
752.176334	5799.050998
752.504411	5847.151167
752.832440	5773.348675
753.160421	5698.177509
753.488356	5742.085959
753.816243	5783.776302
754.144082	5638.404548
754.471875	5604.245690
754.799620	5650.591537
755.127318	5654.243853
755.454969	5609.546463
755.782572	5575.581689
756.110129	5622.232527
756.437638	5609.702739
756.765100	5551.394233
757.092515	5545.677564
757.419882	5592.088947
757.747203	5572.859466
758.074477	5643.496113
758.401703	5628.337364
758.728882	5578.117389
759.056014	5627.530779
759.383099	5764.309886
759.710138	5767.006903
760.037129	5753.690695
760.364073	5757.784112
760.690970	5842.125137
761.017820	5830.333878
761.344623	5780.015601
761.671379	5870.151432
761.998088	5982.788453
762.324751	6213.625408
762.651366	6782.421317
762.977935	8045.396713
763.304456	9655.100151
763.630931	10586.402912
763.957359	10242.197969
764.283740	9317.242020
764.610074	8508.656067
764.936362	7525.711725
765.262602	6929.796929
765.588796	6389.165946
765.914943	6039.997987
766.241044	5890.038783
766.567097	5700.322520
766.893104	5440.335093
767.219064	5256.204428
767.544978	5196.181930
767.870845	5123.601917
768.196665	5017.417573
768.522438	4939.715748
768.848165	4913.867232
769.173846	4847.719732
769.499479	4803.977640
769.825066	4751.300103
770.150607	4686.468344
770.476101	4663.798275
770.801548	4658.668901
771.126949	4593.446453
771.452303	4539.085170
771.777611	4495.665712
772.102872	4509.312115
772.428087	4474.099656
772.753256	4436.681691
773.078378	4393.607552
773.403453	4324.936955
773.728482	4314.411025
774.053465	4263.674333
774.378401	4252.979525
774.703291	4255.812653
775.028135	4190.209598
775.352932	4133.360506
775.677683	4123.051346
776.002388	4140.246722
776.327046	4154.311541
776.651658	4082.704471
776.976224	4016.982948
777.300743	4020.955378
777.625216	4040.777195
777.949643	4044.129562
778.274024	3995.237931
778.598359	3947.495684
778.922647	3970.682471
779.246889	3966.276502
779.571086	3962.533446
779.895236	3949.076086
780.219339	3928.611522
780.543397	3917.939399
780.867409	3970.632059
781.191374	3990.035461
781.515294	3929.161007
781.839167	3920.480140
782.162995	3941.577369
782.486776	3927.812499
782.810511	3936.079991
783.134201	3936.198458
783.457844	3893.494844
783.781441	3834.828416
784.104993	3839.204137
784.428498	3855.799616
784.751958	3858.478989
785.075372	3837.608612
785.398739	3798.602684
785.722061	3809.443686
786.045337	3848.585725
786.368568	3888.131056
786.691752	3801.493786
787.014891	3847.332998
787.337983	3965.137202
787.661030	4117.599338
787.984031	4279.289307
788.306987	4456.473261
788.629897	4533.610477
788.952760	4486.947036
789.275579	4421.618724
789.598351	4366.518912
789.921078	4234.244076
790.243759	4035.277296
790.566395	4007.366947
790.888984	4007.823172
791.211529	3898.094897
791.534027	3837.464939
791.856480	3835.554342
792.178888	3774.979838
792.501249	3717.931620
792.823566	3730.519381
793.145836	3763.072632
793.468062	3712.958522
793.790241	3663.618228
794.112375	3690.520346
794.434464	3751.609048
794.756507	3778.914458
795.078505	3765.515071
795.400457	3789.470634
795.722364	3924.200512
796.044226	4026.341851
796.366042	4098.211060
796.687812	4088.383331
797.009538	4094.294084
797.331218	4048.543092
797.652852	4020.279863
797.974442	4003.535671
798.295986	4004.291844
798.617484	3923.383845
798.938938	3834.576358
799.260346	3874.600599
799.581709	3873.776371
799.903026	3807.238181
800.224299	3765.893158
800.545526	3759.750512
800.866708	3721.863720
801.187845	3660.144873
801.508936	3694.092003
801.829983	3698.104762
802.150984	3618.189871
802.471940	3605.244187
802.792851	3617.390848
803.113717	3617.428656
803.434538	3622.961323
803.755314	3568.640369
804.076045	3540.198179
804.396731	3553.017834
804.717372	3583.521856
805.037967	3570.661872
805.358518	3562.109555
805.679024	3583.090837
805.999485	3597.206068
806.319901	3598.852004
806.640272	3615.860857
806.960598	3630.447436
807.280879	3603.467181
807.601115	3615.616362
807.921306	3629.008187
808.241453	3671.628622
808.561554	3649.908811
808.881611	3585.707196
809.201623	3617.514356
809.521590	3631.145636
809.841513	3602.010287
810.161390	3630.765029
810.481223	3614.187194
810.801011	3559.430181
811.120755	3545.690517
811.440453	3583.133687
811.760107	3592.497630
812.079716	3549.753687
812.399281	3513.742204
812.718801	3535.736758
813.038276	3509.275742
813.357707	3506.397243
813.677093	3528.885830
813.996434	3474.590083
814.315731	3480.692399
814.634983	3485.884788
814.954191	3498.971623
815.273354	3530.930018
815.592473	3527.539842
815.911547	3528.532949
816.230577	3567.571645
816.549562	3615.913790
816.868502	3656.958864
817.187399	3686.507588
817.506250	3681.715971
817.825058	3651.295128
818.143821	3739.109507
818.462539	3840.981144
818.781213	3887.558885
819.099843	3937.993109
819.418429	4171.690919
819.736970	4406.399480
820.055466	4645.289679
820.373919	5000.522146
820.692327	5403.421244
821.010691	5812.795704
821.329011	7105.546675
821.647286	9724.869720
821.965517	14136.169202
822.283704	18148.171490
822.601847	20434.150757
822.919945	18701.480975
823.237999	16206.278699
823.556010	13761.490483
823.873976	11715.865870
824.191897	9652.685438
824.509775	8291.861245
824.827609	7175.923704
825.145398	6615.296984
825.463144	6498.057390
825.780845	6616.988292
826.098502	6776.772704
826.416116	7592.139009
826.733685	8878.636430
827.051210	10001.606381
827.368692	10108.723338
827.686129	8914.501719
828.003522	7404.250164
828.320872	6404.090282
828.638177	5713.336259
828.955439	5165.715717
829.272656	4673.666334
829.589830	4383.938619
829.906960	4210.706929
830.224046	4032.424003
830.541088	3903.438520
830.858086	3858.471428
831.175041	3786.327475
831.491952	3764.080863
831.808819	3775.446144
832.125642	3841.744879
832.442421	3979.068430
832.759157	4238.196341
833.075849	4763.908029
833.392497	5603.449187
833.709101	6366.639550
834.025662	6721.403191
834.342179	6397.002420
834.658653	5751.218009
834.975083	5118.265856
835.291469	4548.819638
835.607811	4139.147750
835.924110	4001.814117
836.240366	3807.419662
836.556578	3601.193620
836.872746	3494.011128
837.188871	3456.066363
837.504952	3395.597723
837.820990	3314.523366
838.136984	3262.380191
838.452935	3285.869447
838.768842	3283.613531
839.084706	3308.030360
839.400526	3450.485806
839.716303	3770.795680
840.032037	4270.845374
840.347727	4555.932706
840.663373	4309.669820
840.978977	3931.898354
841.294537	3629.267806
841.610054	3401.929412
841.925527	3289.418420
842.240957	3225.587330
842.556344	3172.070440
842.871687	3117.326030
843.186987	3065.573545
843.502244	3026.549973
843.817458	2994.105107
844.132629	2962.454222
844.447756	2972.493680
844.762840	2959.895837
845.077881	2928.849891
845.392879	2907.321643
845.707833	2906.298289
846.022745	2903.147568
846.337613	2904.054976
846.652438	2894.791855
846.967221	2891.575599
847.281960	2877.195708
847.596656	2872.862836
847.911309	2871.980634
848.225919	2867.614995
848.540485	2861.379088
848.855009	2861.852956
849.169490	2852.027747
849.483928	2842.174812
849.798323	2842.517611
850.112675	2840.748166
850.426984	2854.087059
850.741251	2848.413240
851.055474	2839.750017
851.369654	2831.979078
851.683792	2835.649038
851.997887	2842.686489
852.311938	2843.598938
852.625947	2836.027125
852.939914	2836.740448
853.253837	2848.382993
853.567718	2829.904644
853.881555	2826.456494
854.195350	2841.431242
854.509103	2838.230109
854.822812	2831.595951
855.136479	2827.434478
855.450103	2830.456650
855.763685	2824.170331
856.077224	2820.021462
856.390720	2829.839109
856.704173	2843.692199
857.017584	2836.175839
857.330953	2834.802125
857.644278	2844.468537
857.957561	2850.414578
858.270802	2853.955989
858.584000	2852.617562
858.897155	2841.176664
859.210268	2838.194821
859.523339	2836.309430
859.836367	2836.498473
860.149352	2832.367247
860.462295	2826.622852
860.775195	2834.479491
861.088054	2836.521158
861.400869	2819.877789
861.713642	2815.597849
862.026373	2828.614108
862.339062	2832.538647
862.651708	2836.753051
862.964312	2841.539627
863.276873	2834.466888
863.589392	2842.119359
863.901869	2853.829960
864.214303	2872.451982
864.526696	2892.881258
864.839045	2886.794065
865.151353	2885.816081
865.463619	2883.754249
865.775842	2887.121740
866.088023	2904.533885
866.400162	2915.218611
866.712258	2883.872716
867.024313	2873.412322
867.336325	2882.448590
867.648296	2901.685633
867.960224	2891.772204
868.272110	2878.322406
868.583954	2887.514950
868.895755	2900.909296
869.207515	2886.068139
869.519233	2892.167935
869.830909	2902.439286
870.142542	2910.492529
870.454134	2910.608476
870.765684	2914.699372
871.077191	2912.864392
871.388657	2920.428643
871.700081	2934.319543
872.011463	2944.381686
872.322803	2946.556944
872.634101	2946.322530
872.945357	2961.617391
873.256571	2985.499857
873.567744	2981.124136
873.878874	2972.438228
874.189963	2992.108810
874.501010	2997.462515
874.812015	2987.912049
875.122979	2986.029178
875.433900	2985.119250
875.744780	2986.240907
876.055618	2994.730210
876.366415	2991.329952
876.677169	3002.765809
876.987882	3003.615243
877.298554	2990.140239
877.609183	3013.848786
877.919771	3034.656148
878.230317	3060.660940
878.540822	3110.281018
878.851285	3148.094713
879.161707	3187.602235
879.472087	3280.687141
879.782425	3491.039368
880.092722	3903.325094
880.402977	4421.094444
880.713191	5019.363459
881.023363	6123.313137
881.333494	7382.391721
881.643583	7956.304401
881.953631	7674.864344
882.263637	7086.463388
882.573602	6518.567324
882.883526	5953.380882
883.193408	5388.338112
883.503248	4922.011216
883.813048	4626.803768
884.122806	4344.577290
884.432522	4036.892986
884.742197	3805.332625
885.051831	3613.725929
885.361424	3479.182574
885.670975	3408.997109
885.980485	3327.040551
886.289954	3254.372318
886.599382	3206.279710
886.908768	3174.767458
887.218113	3132.066364
887.527417	3074.980338
887.836680	3026.446629
888.145901	3020.934128
888.455082	3012.643950
888.764221	2962.822227
889.073319	2933.510438
889.382376	2931.924995
889.691392	2935.277362
890.000366	2935.143771
890.309300	2919.062491
890.618193	2933.308791
890.927044	2953.375104
891.235855	2952.964250
891.544625	2939.784153
891.853353	2949.412757
892.162041	2966.000674
892.470687	3001.981910
892.779293	3053.799930
893.087858	3099.689553
893.396381	3163.286230
893.704864	3276.825617
894.013306	3505.706605
894.321707	3794.408444
894.630068	4001.577182
894.938387	4005.040455
895.246665	3961.815081
895.554903	3848.931044
895.863100	3653.243534
896.171256	3489.375787
896.479371	3354.474510
896.787446	3240.549474
897.095480	3141.573980
897.403473	3072.868094
897.711425	3036.032383
898.019336	3029.133564
898.327207	3004.585666
898.635038	2968.266673
898.942827	2955.220167
899.250576	2944.013682
899.558284	2912.193918
899.865952	2891.678943
900.173579	2874.866695
900.481165	2865.659027
900.788711	2854.686956
901.096216	2829.740806
901.403681	2817.642037
901.711105	2825.498675
902.018489	2824.508088
902.325832	2822.935248
902.633135	2831.424552
902.940397	2863.740868
903.247619	2938.140737
903.554800	3116.068262
903.861941	3440.055658
904.169041	3851.948174
904.476101	4158.409999
904.783121	4136.062564
905.090100	3900.209661
905.397039	3631.130512
905.703938	3385.008779
906.010796	3202.007332
906.317614	3096.740478
906.624391	3004.731859
906.931129	2935.506734
907.237826	2876.920965
907.544483	2828.057061
907.851099	2800.918009
908.157675	2782.081738
908.464211	2758.947883
908.770707	2748.416912
909.077163	2736.343349
909.383578	2721.867676
909.689954	2708.861499
909.996289	2708.692620
910.302584	2707.427290
910.608839	2708.158258
910.915054	2706.033411
911.221229	2698.738862
911.527363	2700.273893
911.833458	2703.956456
912.139513	2709.947867
912.445527	2714.290821
912.751502	2721.711400
913.057436	2730.074674
913.363331	2744.371386
913.669186	2763.888213
913.975000	2795.269396
914.280775	2849.403827
914.586510	2917.023344
914.892205	2992.907833
915.197859	3112.519290
915.503475	3295.334214
915.809050	3500.234432
916.114585	3642.715084
916.420081	3666.610153
916.725536	3614.663583
917.030952	3500.257118
917.336328	3379.168602
917.641665	3252.655805
917.946961	3157.025117
918.252218	3093.393152
918.557435	3014.191584
918.862612	2956.619087
919.167750	2908.123187
919.472848	2871.184132
919.777906	2842.825121
920.082925	2820.011379
920.387904	2790.714714
920.692843	2775.424894
920.997743	2762.784201
921.302603	2751.345823
921.607423	2742.226375
921.912204	2726.495455
922.216946	2721.494630
922.521647	2712.811243
922.826310	2704.894111
923.130932	2693.861545
923.435516	2686.758560
923.740059	2681.183043
924.044564	2672.411436
924.349028	2670.397495
924.653454	2661.290650
924.957840	2655.848725
925.262186	2652.012407
925.566493	2647.301448
925.870761	2645.201808
926.174989	2639.800212
926.479178	2636.488173
926.783328	2630.678244
927.087438	2626.675567
927.391509	2627.469549
927.695541	2626.168932
927.999533	2621.735237
928.303486	2617.414968
928.607400	2619.476800
928.911275	2618.029989
929.215110	2617.392283
929.518906	2614.327261
929.822663	2615.116202
930.126381	2617.533435
930.430060	2616.280708
930.733699	2616.394134
931.037299	2616.361367
931.340861	2615.219545
931.644383	2619.683487
931.947866	2615.839607
932.251309	2616.973867
932.554714	2614.191150
932.858080	2612.928341
933.161407	2610.243927
933.464694	2610.571602
933.767943	2608.537496
934.071153	2612.739298
934.374323	2610.281735
934.677455	2607.899790
934.980548	2605.049017
935.283602	2609.122270
935.586617	2604.930550
935.889593	2604.696137
936.192530	2608.567743
936.495428	2609.356683
936.798287	2611.363063
937.101108	2612.782147
937.403890	2616.663836
937.706632	2621.518467
938.009336	2626.599950
938.312002	2635.033801
938.614628	2643.588639
938.917216	2648.299597
939.219765	2649.416212
939.522275	2648.181130
939.824747	2645.925213
940.127179	2644.488485
940.429573	2642.043525
940.731929	2642.829945
941.034246	2639.938843
941.336524	2635.084212
941.638763	2631.217647
941.940964	2629.768315
942.243126	2630.368213
942.545250	2628.225722
942.847335	2625.508540
943.149381	2621.727675
943.451389	2614.360029
943.753359	2615.179216
944.055290	2613.346757
944.357182	2614.390276
944.659036	2612.351129
944.960851	2612.830038
945.262628	2611.242075
945.564367	2612.222579
945.866067	2611.806684
946.167729	2612.003289
946.469352	2610.959770
946.770937	2609.086982
947.072484	2609.646550
947.373992	2608.711416
947.675462	2608.149327
947.976893	2603.697988
948.278286	2601.086671
948.579641	2603.042638
948.880958	2598.107349
949.182236	2602.780498
949.483476	2601.109356
949.784678	2598.467791
950.085841	2599.589448
950.386967	2601.421907
950.688054	2601.323605
950.989103	2602.132710
951.290114	2604.255036
951.591087	2604.383585
951.892021	2607.151179
952.192917	2611.446242
952.493776	2613.167796
952.794596	2613.616458
953.095378	2611.819287
953.396122	2612.499843
953.696828	2608.492126
953.997496	2611.655450
954.298126	2604.900303
954.598718	2605.772423
954.899272	2603.234202
955.199788	2598.351845
955.500266	2598.382092
955.800706	2594.717173
956.101108	2591.206009
956.401472	2590.722058
956.701798	2589.746595
957.002087	2587.387335
957.302337	2583.533373
957.602550	2585.474217
957.902724	2585.053281
958.202861	2582.658733
958.502960	2582.111768
958.803022	2582.631006
959.103045	2579.495409
959.403031	2580.070100
959.702979	2579.160172
960.002889	2579.288721
960.302762	2576.571539
960.602596	2579.066911
960.902393	2578.340984
961.202153	2578.885429
961.501875	2576.445511
961.801559	2577.264698
962.101205	2577.446180
962.400814	2576.183371
962.700385	2576.334605
962.999918	2573.143555
963.299414	2569.859243
963.598873	2571.989131
963.898293	2569.022412
964.197677	2574.897876
964.497022	2574.048442
964.796331	2574.635736
965.095601	2574.068607
965.394835	2572.462999
965.694030	2574.756724
965.993189	2572.364697
966.292309	2575.160016
966.591393	2576.150603
966.890439	2575.243195
967.189447	2572.462999
967.488419	2574.552557
967.787353	2576.049780
968.086249	2574.063565
968.385108	2572.876374
968.683930	2571.696744
968.982714	2573.574573
969.281462	2572.205900
969.580172	2574.766806
969.878844	2574.761765
970.177480	2574.839903
970.476078	2573.435942
970.774639	2575.618761
971.073162	2575.593556
971.371649	2574.484502
971.670098	2573.617423
971.968510	2574.585325
972.266885	2574.300500
972.565223	2577.012640
972.863524	2574.996179
973.161788	2574.948288
973.460014	2577.249575
973.758204	2574.925603
974.056356	2571.563153
974.354471	2577.647826
974.652550	2572.946950
974.950591	2573.894687
975.248595	2573.808987
975.546563	2574.638257
975.844493	2573.942578
976.142386	2571.048955
976.440243	2574.676066
976.738062	2573.551888
977.035845	2574.829821
977.333590	2575.439800
977.631299	2570.073492
977.928971	2571.653894
978.226606	2567.827658
978.524204	2570.978379
978.821765	2567.578121
979.119290	2573.723287
979.416777	2570.033163
979.714228	2571.364027
980.011642	2572.107598
980.309020	2568.528378
980.606360	2571.555591
980.903664	2569.718091
981.200931	2573.153637
981.498162	2573.834193
981.795356	2573.864440
982.092513	2574.484502
982.389633	2576.188412
982.686717	2582.061356
982.983764	2586.749629
983.280775	2588.917325
983.577749	2587.906574
983.874686	2589.779362
984.171587	2586.595874
984.468451	2585.179310
984.765279	2579.835687
985.062070	2579.752508
985.358824	2580.690162
985.655543	2576.395099
985.952224	2576.672363
986.248869	2573.357804
986.545478	2570.769171
986.842050	2572.437793
987.138586	2570.751527
987.435086	2572.546178
987.731549	2568.127607
988.027975	2568.856053
988.324366	2568.767833
988.620719	2569.072823
988.917037	2568.916547
989.213318	2571.164902
989.509563	2571.003585
989.805772	2570.242371
990.101944	2569.085426
990.398080	2568.160374
990.694180	2565.470919
990.990244	2569.798749
991.286271	2569.377813
991.582262	2567.704150
991.878217	2569.397977
992.174136	2570.622978
992.470019	2569.728173
992.765865	2568.717422
993.061676	2562.524364
993.357450	2564.722307
993.653188	2564.455126
993.948890	2567.739438
994.244556	2566.325394
994.540186	2567.610888
994.835780	2565.929664
995.131337	2571.101887
995.426859	2568.578790
995.722345	2571.726991
996.017795	2571.099367
996.313208	2574.794533
996.608586	2572.967114
996.903928	2572.752865
997.199234	2575.154975
997.494504	2572.442834
997.789738	2573.567012
998.084936	2573.221693
998.380099	2573.249419
998.675225	2570.076013
998.970316	2569.201372
999.265371	2571.583318
999.560390	2566.716084
999.855373	2566.274983
1000.150320	2567.840261
1000.445232	2569.166084
1000.740108	2567.515107
1001.034948	2567.928481
1001.329752	2569.012329
1001.624521	2569.241702
1001.919254	2567.656259
1002.213951	2567.933522
1002.508613	2566.942936
1002.803239	2568.483008
1003.097829	2567.747000
1003.392384	2567.893193
1003.686903	2566.655590
1003.981386	2566.844633
1004.275834	2566.660631
1004.570246	2567.764644
1004.864623	2567.973852
1005.158964	2564.891186
1005.453270	2566.302709
1005.747540	2564.790363
1006.041775	2567.794891
1006.335974	2563.988819
1006.630138	2564.825651
1006.924266	2566.622822
1007.218359	2567.590724
1007.512416	2565.475960
1007.806438	2562.189127
1008.100425	2564.815569
1008.394376	2562.000084
1008.688292	2565.599468
1008.982172	2565.170970
1009.276017	2565.670044
1009.569827	2565.715415
1009.863602	2564.981927
1010.157341	2566.756413
1010.451045	2567.323543
1010.744714	2564.896227
1011.038347	2564.082081
1011.331945	2565.720456
1011.625508	2567.928481
1011.919036	2563.240208
1012.212528	2567.411763
1012.505986	2563.255332
1012.799408	2567.505024
1013.092795	2566.668193
1013.386147	2563.777091
1013.679464	2566.640466
1013.972745	2569.763461
1014.265992	2563.832544
1014.559204	2567.472257
1014.852380	2565.450754
1015.145521	2566.166598
1015.438628	2566.665672
1015.731699	2564.465208
1016.024736	2566.446382
1016.317737	2562.743654
1016.610703	2565.294478
1016.903635	2564.434962
1017.196531	2563.739282
1017.489393	2566.171639
1017.782219	2563.371278
1018.075011	2567.114335
1018.367768	2564.253480
1018.660490	2564.019066
1018.953177	2564.019066
1019.245829	2564.019066
