Dividing Wavelength (nm)	Counts (n)	Blue Motor Position (mm): 31.200000	Red Motor Position (mm): 0.000000	
326.493990	2216.144163
326.888308	2216.144163
327.282561	2216.144163
327.676750	2176.734943
328.070874	2172.863337
328.464933	2172.805363
328.858929	2174.968018
329.252859	2181.773576
329.646726	2190.640966
330.040528	2202.119673
330.434265	2211.592001
330.827938	2232.515310
331.221547	2251.122209
331.615091	2266.984199
332.008571	2286.357354
332.401986	2304.923923
332.795338	2325.738848
333.188625	2341.005982
333.581847	2362.808972
333.975006	2380.768083
334.368100	2401.151988
334.761129	2421.515729
335.154095	2435.119283
335.546996	2462.457460
335.939833	2499.197390
336.332606	2514.716582
336.725315	2527.886596
337.117960	2541.454862
337.510540	2551.259906
337.903056	2564.961762
338.295508	2572.762948
338.687896	2581.645461
339.080220	2582.779720
339.472480	2591.795824
339.864676	2599.720518
340.256807	2605.112032
340.648875	2608.976076
341.040879	2610.876591
341.432818	2615.527056
341.824694	2618.221552
342.216506	2616.729371
342.608253	2621.692387
342.999937	2620.588374
343.391557	2620.147273
343.783113	2617.309104
344.174605	2618.440843
344.566033	2617.430091
344.957397	2619.416306
345.348697	2616.106788
345.739934	2615.065790
346.131106	2612.572940
346.522215	2608.406426
346.913260	2606.773092
347.304241	2605.079264
347.695159	2606.183277
348.086012	2606.636981
348.476802	2601.343769
348.867528	2597.842688
349.258191	2593.003180
349.648789	2593.330855
350.039324	2588.022520
350.429796	2595.609457
350.820203	2592.483942
351.210548	2591.561410
351.600828	2590.832964
351.991045	2587.659557
352.381198	2587.021851
352.771288	2586.691656
353.161314	2585.688466
353.551276	2584.735688
353.941175	2585.890112
354.331010	2584.962540
354.720782	2584.763414
355.110490	2585.902715
355.500135	2584.246696
355.889717	2584.551686
356.279235	2582.134453
356.668689	2583.268712
357.058080	2585.481779
357.447408	2586.860534
357.836672	2584.496233
358.225873	2585.857345
358.615010	2587.720051
359.004084	2585.406162
359.393095	2587.624269
359.782043	2589.691142
360.170927	2588.322469
360.559748	2588.183837
360.948505	2589.310535
361.337199	2592.345310
361.725830	2592.171390
362.114398	2592.551997
362.502903	2589.600402
362.891344	2590.522933
363.279722	2592.158787
363.668037	2592.027717
364.056289	2593.179621
364.444478	2594.661720
364.832603	2596.262286
365.220665	2594.001329
365.608665	2593.797162
365.996601	2599.125662
366.384474	2595.107862
366.772284	2598.848398
367.160031	2597.386464
367.547715	2599.917123
367.935336	2597.860332
368.322893	2595.735486
368.710388	2596.589961
369.097820	2597.313367
369.485189	2595.627101
369.872495	2602.813266
370.259738	2599.279417
370.646918	2600.191866
371.034035	2600.809407
371.421090	2600.872422
371.808081	2601.653800
372.195010	2601.787391
372.581875	2603.599686
372.968678	2599.700353
373.355418	2603.135900
373.742096	2603.715632
374.128710	2605.094388
374.515262	2602.510797
374.901751	2603.360231
375.288177	2603.715632
375.674540	2604.996085
376.060841	2606.916765
376.447079	2603.231682
376.833254	2605.875767
377.219367	2606.100098
377.605417	2606.601693
377.991404	2602.810745
378.377329	2606.294182
378.763191	2606.286621
379.148991	2606.490787
379.534727	2611.471447
379.920402	2605.308637
380.306013	2608.348453
380.691563	2608.792074
381.077049	2606.584049
381.462474	2609.202928
381.847835	2610.236365
382.233134	2608.625716
382.618371	2609.664194
383.003545	2608.403905
383.388657	2609.787702
383.773706	2611.708382
384.158693	2611.186622
384.543618	2612.217538
384.928480	2611.539503
385.313280	2612.918259
385.698017	2611.131170
386.082692	2612.368773
386.467305	2611.746190
386.851856	2617.626696
387.236344	2612.509925
387.620770	2612.643516
388.005133	2613.450100
388.389435	2611.736108
388.773674	2610.533793
389.157851	2615.973198
389.541965	2614.927158
389.926018	2615.448918
390.310008	2615.423712
390.693936	2617.528394
391.077802	2617.571244
391.461606	2620.479989
391.845348	2616.421861
392.229027	2616.961264
392.612645	2618.007303
392.996200	2620.714403
393.379694	2619.280195
393.763125	2619.139042
394.146494	2618.589557
394.529801	2620.157356
394.913047	2621.876389
395.296230	2622.642644
395.679351	2624.661627
396.062410	2619.202057
396.445408	2623.489558
396.828343	2623.081225
397.211217	2623.731534
397.594028	2622.940072
397.976778	2623.441667
398.359466	2625.195989
398.742092	2624.026441
399.124656	2624.444857
399.507158	2625.931997
399.889598	2626.920063
400.271977	2626.665485
400.654294	2628.160187
401.036549	2628.455095
401.418742	2628.510547
401.800874	2629.148253
402.182944	2628.939046
402.564952	2631.086577
402.946898	2630.519447
403.328783	2634.244860
403.710606	2630.363172
404.092367	2633.229067
404.474067	2639.001189
404.855705	2634.396095
405.237282	2635.628657
405.618797	2633.198821
406.000250	2635.883235
406.381642	2639.505304
406.762972	2636.324336
407.144240	2631.651186
407.525447	2636.851137
407.906593	2634.648152
408.287677	2639.714512
408.668700	2641.047897
409.049661	2641.236940
409.430560	2640.785757
409.811399	2642.265336
410.192176	2644.680048
410.572891	2642.139307
410.953545	2646.389000
411.334138	2645.824390
411.714669	2649.285143
412.095139	2646.976294
412.475547	2645.932775
412.855894	2648.034936
413.236180	2647.084679
413.616405	2649.126346
413.996568	2649.343116
414.376670	2650.608445
414.756711	2651.092396
415.136691	2653.260092
415.516609	2654.311173
415.896466	2653.827222
416.276262	2654.064156
416.655997	2657.920639
417.035670	2662.704694
417.415283	2667.894562
417.794834	2669.732062
418.174324	2674.874039
418.553753	2677.997034
418.933121	2688.832994
419.312428	2696.417410
419.691674	2703.631302
420.070859	2721.292984
420.449983	2728.169118
420.829045	2751.232397
421.208047	2766.877618
421.586988	2789.479631
421.965867	2820.245793
422.344686	2852.191585
422.723444	2877.546068
423.102141	2884.775083
423.480777	2960.447843
423.859352	2974.706747
424.237866	3054.735064
424.616319	3099.450099
424.994712	3185.590815
425.373044	3211.618292
425.751314	3314.268788
426.129524	3363.498175
426.507673	3457.823205
426.885762	3547.686813
427.263789	3617.153913
427.641756	3685.544727
428.019662	3788.926190
428.397508	3916.548040
428.775292	3950.880819
429.153016	4121.060090
429.530679	4179.366076
429.908282	4285.333650
430.285824	4310.998164
430.663305	4582.038321
431.040726	4546.447775
431.418086	4640.389677
431.795385	4836.198175
432.172624	4972.299246
432.549802	5054.742276
432.926920	5193.857958
433.303977	5253.141927
433.680974	5436.090441
434.057910	5589.974183
434.434786	5719.441096
434.811601	5789.911386
435.188355	6145.128730
435.565050	6146.184852
435.941683	6234.372276
436.318257	6597.584890
436.694770	6782.559948
437.071222	6948.983560
437.447614	6994.094326
437.823946	7056.231588
438.200218	7277.543283
438.576429	7278.939682
438.952580	7540.547841
439.328670	7703.903911
439.704700	7683.981271
440.080670	7790.458002
440.456580	8287.329248
440.832429	8230.248263
441.208218	8064.727018
441.583947	8410.020850
441.959616	8615.049618
442.335224	8582.808919
442.710773	8791.447153
443.086261	9055.986743
443.461689	8595.694108
443.837057	9183.490126
444.212365	9521.774234
444.587612	9320.813678
444.962800	9614.372669
445.337927	9513.985652
445.712995	9213.800064
446.088002	10231.140198
446.462949	10002.176031
446.837837	10053.946161
447.212664	10138.025045
447.587431	10637.792435
447.962139	11326.192239
448.336786	13384.913770
448.711374	14012.242517
449.085901	12137.467648
449.460369	11847.008967
449.834776	11411.599468
450.209124	12223.210113
450.583412	12641.567909
450.957640	13608.677987
451.331808	12896.635171
451.705917	11956.054165
452.079965	11353.699295
452.453954	12232.924417
452.827883	11909.599933
453.201752	12204.038605
453.575562	11764.691965
453.949311	12191.395392
454.323001	12166.928151
454.696632	12395.844427
455.070202	12697.897763
455.443713	12980.603150
455.817164	13432.792129
456.190556	13457.778608
456.563888	13821.465091
456.937160	14022.743240
457.310373	13363.829144
457.683526	13455.419348
458.056619	13029.162064
458.429653	13157.666117
458.802628	12637.953402
459.175542	12988.570693
459.548398	13934.034056
459.921194	14263.826341
460.293930	14332.333101
460.666607	15228.325100
461.039224	16243.510141
461.411782	16934.760718
461.784280	16865.699431
462.156719	16897.655305
462.529099	16606.052282
462.901419	15525.236459
463.273680	15327.575337
463.645882	15183.403378
464.018024	14921.076856
464.390106	15142.701102
464.762130	15868.778491
465.134094	16616.973942
465.505999	18563.522238
465.877845	21819.396820
466.249631	24648.913295
466.621358	24384.494693
466.993026	22941.834929
467.364634	22394.957957
467.736184	20953.082093
468.107674	20132.921650
468.479105	20263.142216
468.850477	19734.403315
469.221790	19321.006015
469.593043	18642.375966
469.964238	18093.994210
470.335373	17762.984487
470.706449	18169.251075
471.077467	17712.003298
471.448425	19529.800525
471.819324	23497.478468
472.190164	25603.307061
472.560945	22116.812294
472.931667	19711.813905
473.302330	19065.575791
473.672934	18553.084529
474.043479	18920.579603
474.413965	18728.073061
474.784393	18362.576804
475.154761	19025.798566
475.525070	19054.649090
475.895321	18700.069452
476.265513	19280.162586
476.635645	19838.183029
477.005719	19647.957609
477.375734	19833.156999
477.745691	20319.686318
478.115588	20828.976447
478.485427	21329.810041
478.855207	22382.715515
479.224928	24130.428101
479.594591	26338.730749
479.964194	26435.795646
480.333739	26622.159542
480.703226	26202.901900
481.072653	25860.312646
481.442022	26413.438128
481.811333	27315.356004
482.180584	27268.679961
482.549777	26320.960682
482.918912	25966.915406
483.287988	26065.956435
483.657005	25772.127742
484.025964	25479.062784
484.394864	25424.729227
484.763706	25113.392607
485.132489	24539.051429
485.501213	24703.151069
485.869879	24626.785150
486.238487	24415.520474
486.607036	24593.722742
486.975527	24269.286684
487.343959	24606.865030
487.712333	24553.262442
488.080648	24224.138110
488.448905	24693.855181
488.817104	24441.066522
489.185244	25081.817340
489.553326	25067.699589
489.921350	26040.516252
490.289315	28293.551579
490.657222	30108.208167
491.025070	30599.075399
491.392861	30392.325077
491.760593	29556.116121
492.128267	28657.059100
492.495883	27630.047513
492.863440	26757.106189
493.230939	25872.050973
493.598380	25727.637039
493.965763	25323.631408
494.333088	24881.706217
494.700354	24803.696882
495.067563	24680.541494
495.434713	24446.200937
495.801805	24587.648152
496.168839	24400.540686
496.535815	24227.452668
496.902733	24433.938330
497.269593	24105.544966
497.636395	24305.391428
498.003139	24275.220122
498.369825	24032.148286
498.736453	24225.017791
499.103023	24098.197484
499.469535	24112.897488
499.835989	24327.559902
500.202385	24354.250291
500.568723	23863.272153
500.935003	24119.340083
501.301226	23712.460994
501.667390	24559.357197
502.033497	24790.305057
502.399546	24527.718915
502.765537	24106.210398
503.131470	24482.035979
503.497345	24614.951041
503.863163	23823.071472
504.228923	24435.501088
504.594625	24628.670541
504.960269	24151.971472
505.325856	24659.214892
505.691385	24054.483118
506.056856	24665.864174
506.422270	24619.999757
506.787625	24213.037489
507.152924	24616.541525
507.518164	24648.298274
507.883347	24453.704694
508.248472	24139.098886
508.613540	24928.382261
508.978550	24705.273395
509.343503	24695.735532
509.708398	24973.782893
510.073236	25120.480469
510.438016	25322.227446
510.802738	24997.511604
511.167403	25254.857466
511.532010	24956.590037
511.896561	25734.699695
512.261053	25710.726488
512.625488	25546.447887
512.989866	25428.568066
513.354186	25281.787310
513.718449	25381.357660
514.082655	25758.509065
514.446803	25500.021381
514.810894	25961.957431
515.174927	25448.193278
515.538904	25466.439734
515.902822	25962.116228
516.266684	25711.684307
516.630488	25638.998431
516.994235	25608.063390
517.357925	25895.295733
517.721558	26075.489257
518.085133	26167.881004
518.448651	26089.173469
518.812112	25825.316956
519.175516	26018.695618
519.538863	26172.125656
519.902152	25954.471318
520.265385	26249.235145
520.628560	26027.263059
520.991678	26050.396914
521.354739	26126.709901
521.717743	26182.974219
522.080690	25981.837221
522.443580	26316.040516
522.806413	26302.870501
523.169189	26400.298361
523.531908	26450.230990
523.894569	26054.697018
524.257174	26120.839477
524.619722	26322.198285
524.982213	25994.213254
525.344647	26070.289307
525.707025	26192.870004
526.069345	26185.232656
526.431608	26138.569215
526.793815	26329.306312
527.155964	25789.360926
527.518057	25956.497862
527.880093	25881.283846
528.242072	26100.450530
528.603995	25830.206875
528.965860	25620.119309
529.327669	25664.967935
529.689421	25653.353116
530.051117	25478.974563
530.412755	25662.059189
530.774337	25465.839837
531.135862	25332.670197
531.497331	25529.612954
531.858743	25082.833133
532.220098	25558.072788
532.581396	25245.400262
532.942638	25187.787435
533.303824	25285.260665
533.664953	25304.175074
534.026025	24970.538910
534.387040	25196.375041
534.747999	25252.851087
535.108902	25420.139257
535.469748	24911.854838
535.830537	25112.170127
536.191270	25223.357817
536.551947	25093.916109
536.912567	24755.944552
537.273131	25083.609470
537.633638	24791.714060
537.994089	25010.658933
538.354483	24543.780031
538.714821	25049.722834
539.075103	25093.149854
539.435328	24869.504105
539.795497	24451.647903
540.155609	24829.792415
540.515665	25123.968948
540.875665	24367.387538
541.235609	24650.743233
541.595496	24616.085301
541.955328	24972.570495
542.315102	24887.899275
542.674821	24446.581544
543.034483	24334.299924
543.394090	24488.062678
543.753640	24271.903043
544.113134	24914.788790
544.472571	24505.406768
544.831953	24800.009278
545.191278	24417.526854
545.550548	24354.076371
545.909761	24545.423447
546.268918	24777.182934
546.628019	24742.706482
546.987064	24441.381594
547.346053	24211.562952
547.704986	24328.081661
548.063863	24489.091074
548.422684	24477.078004
548.781449	24020.147819
549.140158	24424.372741
549.498811	23993.570856
549.857408	23746.745882
550.215949	24168.380428
550.574434	23860.038253
550.932864	24077.458177
551.291237	24230.918462
551.649555	24102.243010
552.007817	24152.848633
552.366022	24007.222301
552.724173	24055.992944
553.082267	23993.233099
553.440305	24482.076308
553.798288	23742.753288
554.156215	24251.433437
554.514086	24341.596994
554.871902	23726.873653
555.229661	24008.502754
555.587365	23860.456668
555.945014	23716.526685
556.302606	23979.264062
556.660143	23927.055352
557.017625	24167.714995
557.375050	23700.263923
557.732421	24090.378654
558.089735	23902.068873
558.446994	23970.124450
558.804197	23993.626309
559.161345	23947.857673
559.518437	23696.858623
559.875474	23886.716039
560.232455	24072.411982
560.589381	23899.739860
560.946251	23884.087077
561.303065	24203.827301
561.659825	24292.032370
562.016528	23887.953642
562.373177	23627.845227
562.729770	23984.494259
563.086307	23843.465459
563.442789	24024.382389
563.799216	23842.452187
564.155587	23852.910061
564.511904	23839.717362
564.868164	23761.297172
565.224370	23749.039607
565.580520	23660.932840
565.936615	23798.694972
566.292654	23482.775943
566.648638	23781.812148
567.004567	23600.559982
567.360441	23543.836919
567.716260	23278.024438
568.072023	23599.095527
568.427732	23365.758159
568.783385	23150.705057
569.138982	23382.804821
569.494525	23416.275562
569.850013	23163.345750
570.205445	23259.883846
570.560823	23062.358836
570.916145	22828.038443
571.271412	23002.038909
571.626625	22750.376948
571.981782	22864.029761
572.336884	22677.330628
572.691931	22807.589002
573.046923	22539.268548
573.401860	22421.983583
573.756743	22437.951438
574.111570	22350.308458
574.466342	22276.669803
574.821059	22358.669211
575.175722	22070.295047
575.530330	22058.637378
575.884882	22078.486922
576.239380	21982.677272
576.593823	21878.012836
576.948211	21854.727747
577.302544	21693.269671
577.656823	21570.056309
578.011047	21664.250269
578.365216	21547.517311
578.719330	21406.181001
579.073389	21312.728091
579.427394	21458.775359
579.781344	21227.237683
580.135239	21120.289604
580.489080	21089.999832
580.842866	20851.361691
581.196597	21048.085158
581.550273	21027.398783
581.903895	20911.248078
582.257463	21226.234494
582.610975	20754.495920
582.964434	21069.242881
583.317837	20771.991244
583.671186	20852.435457
584.024481	20823.844553
584.377721	20598.033628
584.730906	20661.136271
585.084037	20685.023778
585.437113	20599.155284
585.790135	20783.812750
586.143103	20256.195506
586.496016	20264.644480
586.848874	20513.934579
587.201679	20439.980852
587.554428	20111.166551
587.907124	20454.801844
588.259765	20225.774663
588.612352	20306.934719
588.964884	19867.015908
589.317362	20043.340347
589.669786	20090.649055
590.022155	20134.827207
590.374470	20324.344344
590.726731	20122.118458
591.078937	19885.068280
591.431090	19979.957919
591.783188	19735.719057
592.135232	19699.132883
592.487222	19803.046187
592.839157	19822.767181
593.191038	19706.971877
593.542866	19581.147197
593.894639	19302.444486
594.246358	19527.398415
594.598022	19433.532130
594.949633	19187.347382
595.301190	19155.996447
595.652692	19320.338062
596.004141	19550.766684
596.355535	18881.853459
596.706876	18898.491787
597.058162	18784.675137
597.409395	19004.091358
597.760573	19096.238609
598.111698	18863.987610
598.462768	18800.930337
598.813785	18758.163708
599.164748	18585.156350
599.515657	18622.143295
599.866511	18412.721162
600.217312	18782.091545
600.568060	18298.554151
600.918753	18604.973125
601.269392	18519.810393
601.619978	18294.604407
601.970510	18497.064707
602.320988	18442.113609
602.671412	18653.088418
603.021783	18557.298933
603.372100	18286.412532
603.722363	18439.086396
604.072572	18374.189102
604.422728	18512.485596
604.772830	18271.815871
605.122878	18218.876193
605.472872	18206.517805
605.822813	18196.054890
606.172701	18170.902053
606.522534	18362.170992
606.872314	18383.852994
607.222041	18223.728304
607.571714	18444.994629
607.921333	18266.900746
608.270899	18349.731944
608.620411	18524.937246
608.969870	18295.395868
609.319276	18292.792112
609.668627	18325.287389
610.017926	18457.042986
610.367171	18564.837979
610.716362	18610.576368
611.065500	18440.253423
611.414585	18566.035253
611.763616	18547.398107
612.112594	18492.079006
612.461518	18465.474316
612.810389	18655.304005
613.159207	18508.566099
613.507971	18419.834230
613.856682	18703.394092
614.205340	18634.330285
614.553945	18776.543755
614.902496	18505.128032
615.250994	18744.207274
615.599439	18685.815589
615.947830	18676.623045
616.296169	18728.783864
616.644454	18696.054173
616.992686	18660.819028
617.340864	18880.754488
617.688990	18639.326068
618.037063	18810.143046
618.385082	18665.073762
618.733048	18933.048897
619.080961	18813.180341
619.428821	18852.128296
619.776628	18733.000789
620.124382	18662.275921
620.472083	18698.068113
620.819731	18719.011587
621.167326	18410.366943
621.514868	18448.508313
621.862357	18220.159167
622.209793	18233.513184
622.557176	18059.875681
622.904506	17889.981234
623.251783	17799.863047
623.599007	17559.599135
623.946179	17506.740116
624.293297	17442.598995
624.640363	17192.497270
624.987376	17214.365796
625.334336	17013.349786
625.681243	16859.740787
626.028097	16866.183382
626.374899	16791.292000
626.721647	16651.548695
627.068343	16490.085579
627.414987	16425.631906
627.761577	16403.196251
628.108115	16435.908298
628.454600	16162.287070
628.801032	16252.506080
629.147412	16191.034250
629.493739	16214.770523
629.840014	16021.220462
630.186236	16120.269053
630.532405	15874.273348
630.878521	16079.677682
631.224585	15972.071733
631.570597	15786.753876
631.916556	15825.308621
632.262462	15802.903213
632.608316	15717.301900
632.954117	15659.265616
633.299866	15660.102448
633.645562	15565.222891
633.991206	15328.328990
634.336797	15198.446181
634.682336	15171.077757
635.027823	15061.420058
635.373257	14938.531851
635.718639	14842.074413
636.063968	14784.055773
636.409245	14541.848496
636.754470	14566.585438
637.099642	14411.035595
637.444762	14185.844732
637.789829	14227.454416
638.134845	14068.511876
638.479808	14099.840127
638.824719	14043.028843
639.169577	13895.209610
639.514383	13941.368935
639.859137	13759.070729
640.203839	13845.740767
640.548489	13680.363194
640.893086	13666.351307
641.237632	13537.839693
641.582125	13696.094115
641.926566	13522.882589
642.270955	13526.396274
642.615292	13491.665244
642.959576	13508.918593
643.303809	13533.801729
643.647990	13469.821925
643.992118	13532.206203
644.336195	13301.376810
644.680219	13509.213501
645.024192	13435.589969
645.368112	13668.360207
645.711981	13726.227612
646.055797	13906.494232
646.399562	13874.087175
646.743274	14145.767559
647.086935	14421.624538
647.430544	14394.929108
647.774101	14413.752777
648.117606	14566.035952
648.461059	14538.362538
648.804460	14517.915618
649.147810	14250.835287
649.491108	14157.624353
649.834354	14163.212472
650.177548	13858.822561
650.520690	13670.248119
650.863781	13591.212909
651.206820	13632.873005
651.549807	13470.878046
651.892742	13275.271195
652.235626	13208.105382
652.578458	13211.656874
652.921238	12899.417887
653.263967	13101.084206
653.606644	12925.261363
653.949269	12897.461920
654.291843	12701.872712
654.634365	12863.149306
654.976836	12719.864590
655.319255	12715.909805
655.661622	12675.343640
656.003938	12594.871701
656.346203	12522.894107
656.688416	12604.374276
657.030577	12558.214951
657.372687	12474.085655
657.714746	12458.705095
658.056753	12636.451138
658.398708	12452.421297
658.740612	12462.669962
659.082465	12556.543809
659.424266	12528.807380
659.766016	12547.825133
660.107715	12452.940535
660.449362	12532.172350
660.790958	12489.975372
661.132503	12427.964139
661.473996	12496.445693
661.815438	12514.742561
662.156829	12534.627392
662.498168	12508.985563
662.839456	12505.592867
663.180693	12530.274356
663.521879	12619.749796
663.863013	12600.021240
664.204097	12568.256930
664.545129	12695.558667
664.886110	12658.670024
665.227040	12757.648038
665.567918	12763.825973
665.908746	12789.727421
666.249522	12776.222170
666.590248	12832.988083
666.930922	12939.918518
667.271545	12916.953541
667.612118	12999.605779
667.952639	12901.777147
668.293109	12913.588571
668.633528	12877.287222
668.973896	12851.337883
669.314213	12930.579780
669.654480	12669.561437
669.994695	12737.627096
670.334859	12762.195159
670.674973	12705.474617
671.015035	12738.869740
671.355047	12682.829754
671.695008	12656.061227
672.034918	12664.613544
672.374777	12706.535780
672.714585	12619.006225
673.054342	12651.713232
673.394049	12606.829318
673.733705	12696.279552
674.073310	12611.880554
674.412864	12626.608285
674.752368	12493.166423
675.091820	12504.851817
675.431223	12489.025115
675.770574	12372.697969
676.109875	12286.642952
676.449125	12243.120151
676.788324	12195.082996
677.127473	12027.709126
677.466571	12017.059689
677.805619	11910.764439
678.144616	11837.526556
678.483562	11809.056640
678.822458	11669.819971
679.161303	11648.110242
679.500098	11644.168059
679.838842	11594.106881
680.177535	11616.706374
680.516179	11680.449243
680.854771	11625.059566
681.193314	11844.732886
681.531805	11997.701658
681.870247	12419.041296
682.208638	12831.687465
682.546978	13143.790341
682.885268	13187.950848
683.223508	12873.670194
683.561697	12717.709497
683.899836	12622.794652
684.237925	12424.604210
684.575963	12343.950789
684.913951	12261.543047
685.251889	12203.174047
685.589776	12314.918784
685.927614	12237.043040
686.265401	12202.105323
686.603137	12242.371539
686.940824	12401.094789
687.278460	12528.204962
687.616046	12571.319431
687.953582	12735.109040
688.291068	12668.943895
688.628504	12897.903021
688.965889	12904.690934
689.303224	12875.853014
689.640510	12768.589863
689.977745	12452.922891
690.314930	12231.691855
690.652065	12143.156590
690.989150	11851.503155
691.326185	11624.106787
691.663170	11415.239181
692.000105	11178.095742
692.336990	11064.447970
692.673825	10803.810234
693.010610	10688.017450
693.347345	10487.858437
693.684030	10288.420308
694.020665	10225.325227
694.357251	10030.603098
694.693786	9970.280651
695.030272	9811.690992
695.366707	9689.488382
695.703093	9627.041088
696.039429	9622.234348
696.375716	9539.514055
696.711952	9413.906145
697.048139	9450.068862
697.384276	9407.256863
697.720363	9425.019369
698.056400	9363.915543
698.392388	9313.995517
698.728326	9275.929764
699.064214	9209.552892
699.400053	9253.748687
699.735842	9073.078775
700.071581	9032.106797
700.407270	8955.632493
700.742910	8872.917241
701.078501	8785.216287
701.414042	8661.720621
701.749533	8594.514478
702.084974	8455.182027
702.420366	8575.000172
702.755709	8449.382180
703.091002	8319.781676
703.426246	8348.115481
703.761440	8298.883573
704.096584	8257.505782
704.431679	8184.066253
704.766725	8173.270622
705.101721	8122.975030
705.436668	8167.853902
705.771565	8060.391625
706.106413	8143.482444
706.441212	8191.161677
706.775961	8139.895663
707.110661	8181.253289
707.445311	8322.095566
707.779913	8225.416317
708.114465	8350.618414
708.448967	8387.537304
708.783421	8530.481742
709.117825	8714.304897
709.452180	8745.605421
709.786485	8836.368875
710.120742	9121.304973
710.454949	9121.972926
710.789107	9215.529179
711.123216	9432.825595
711.457275	9603.430844
711.791286	9759.683928
712.125247	9756.016489
712.459159	9740.424200
712.793023	9985.653650
713.126837	9567.704187
713.460602	9720.756138
713.794318	9550.105519
714.127985	9570.474301
714.461602	9247.611083
714.795171	9202.893527
715.128691	8950.787944
715.462162	8706.972538
715.795584	8644.275708
716.128957	8506.120366
716.462281	8328.018921
716.795556	8381.377014
717.128782	8179.317486
717.461960	7907.899242
717.795088	7978.891291
718.128167	7886.073567
718.461198	7726.659679
718.794180	7665.334042
719.127113	7656.658217
719.459997	7499.449834
719.792833	7274.405165
720.125619	7334.566295
720.458357	7192.683020
720.791046	7178.847573
721.123686	7182.083994
721.456278	7018.221288
721.788821	7036.737446
722.121315	6930.404388
722.453761	7005.008424
722.786158	6943.523991
723.118506	6954.238963
723.450805	6924.344921
723.783056	6986.590568
724.115259	6901.321971
724.447412	6895.249902
724.779518	6937.499812
725.111574	6944.002900
725.443582	7019.257245
725.775542	7003.382652
726.107453	7198.039246
726.439315	7102.484174
726.771129	7171.076634
727.102895	7334.921696
727.434612	7441.975639
727.766281	7474.077707
728.097901	7553.586785
728.429473	7546.478758
728.760996	7527.181221
729.092471	7501.423446
729.423897	7452.962834
729.755276	7456.204296
730.086606	7391.589306
730.417887	7492.132599
730.749120	7683.973709
731.080305	7877.105354
731.411442	7996.827717
731.742530	7996.406780
732.073570	8105.928368
732.404562	8183.569699
732.735506	8036.385651
733.066401	8176.721292
733.397249	8106.051876
733.728048	7867.872481
734.058798	7532.547530
734.389501	7309.078221
734.720156	7130.823021
735.050762	6897.329378
735.381320	6803.384955
735.711831	6750.543580
736.042293	6644.321428
736.372707	6657.057903
736.703073	6524.914137
737.033391	6561.044087
737.363661	6573.858700
737.693883	6600.544048
738.024056	6691.355393
738.354182	6729.963070
738.684260	6765.833400
739.014290	6881.152315
739.344272	6985.789025
739.674207	7020.187338
740.004093	7085.576144
740.333931	7103.116839
740.663722	7110.270237
740.993464	7187.755292
741.323159	7175.497726
741.652806	6926.512617
741.982405	6941.852848
742.311956	6994.880746
742.641460	6830.092988
742.970915	6637.082331
743.300323	6632.315920
743.629683	6581.077632
743.958996	6443.484379
744.288260	6359.251739
744.617477	6309.039327
744.946647	6307.867258
745.275768	6143.092104
745.604842	6096.161482
745.933869	6080.629687
746.262847	6036.764087
746.591778	6024.942581
746.920662	5989.256253
747.249498	5977.023893
747.578286	6030.293766
747.907027	6105.096927
748.235720	6158.681872
748.564365	6131.620958
748.892963	6162.485423
749.221514	6315.900337
749.550017	6141.846939
749.878473	6022.013671
750.206881	6074.885292
750.535242	6019.031828
750.863555	5951.543381
751.191821	5967.412933
751.520039	5970.248582
751.848210	5874.872472
752.176334	5900.665536
752.504411	5945.178924
752.832440	5872.510692
753.160421	5801.901770
753.488356	5847.088153
753.816243	5880.432865
754.144082	5733.815946
754.471875	5701.219846
754.799620	5746.464201
755.127318	5760.904587
755.454969	5716.451692
755.782572	5672.664230
756.110129	5724.159616
756.437638	5708.930290
756.765100	5646.745137
757.092515	5649.842926
757.419882	5697.711202
757.747203	5674.199261
758.074477	5743.280713
758.401703	5726.382765
758.728882	5677.881824
759.056014	5736.812912
759.383099	5865.919383
759.710138	5872.117482
760.037129	5861.926789
760.364073	5863.182036
760.690970	5943.953924
761.017820	5926.670328
761.344623	5879.568307
761.671379	5987.970759
761.998088	6110.952227
762.324751	6350.933836
762.651366	6956.119314
762.977935	8270.907689
763.304456	9903.971834
763.630931	10804.216047
763.957359	10399.227391
764.283740	9461.706366
764.610074	8616.020041
764.936362	7621.745706
765.262602	7024.363934
765.588796	6488.471636
765.914943	6153.663403
766.241044	5985.251056
766.567097	5785.906189
766.893104	5528.356160
767.219064	5350.017781
767.544978	5289.017298
767.870845	5206.755750
768.196665	5103.951500
768.522438	5034.199574
768.848165	4995.997711
769.173846	4933.668884
769.499479	4890.370414
769.825066	4836.851004
770.150607	4777.277169
770.476101	4750.614506
770.801548	4748.441769
771.126949	4673.371426
771.452303	4618.226244
771.777611	4575.368875
772.102872	4594.555506
772.428087	4558.720464
772.753256	4521.536913
773.078378	4471.132937
773.403453	4403.326897
773.728482	4391.691914
774.053465	4342.240715
774.378401	4329.799147
774.703291	4329.370649
775.028135	4258.625617
775.352932	4210.490159
775.677683	4197.151266
776.002388	4216.342939
776.327046	4225.200246
776.651658	4151.758197
776.976224	4090.041871
777.300743	4094.909105
777.625216	4115.482053
777.949643	4114.183956
778.274024	4067.034044
778.598359	4021.240203
778.922647	4047.623082
779.246889	4040.260476
779.571086	4033.064229
779.895236	4020.902446
780.219339	4002.535002
780.543397	3999.192717
780.867409	4049.301786
781.191374	4065.095721
781.515294	3999.472501
781.839167	3997.763549
782.162995	4012.771064
782.486776	3999.510309
782.810511	4012.098070
783.134201	4007.563552
783.457844	3963.723158
783.781441	3906.488418
784.104993	3911.300199
784.428498	3933.458591
784.751958	3928.692180
785.075372	3907.826844
785.398739	3870.171946
785.722061	3885.169378
786.045337	3926.723609
786.368568	3958.797951
786.691752	3868.473077
787.014891	3921.314451
787.337983	4046.254408
787.661030	4205.804407
787.984031	4368.026217
788.306987	4537.280437
788.629897	4617.054176
788.952760	4575.318463
789.275579	4506.189121
789.598351	4441.939615
789.921078	4300.192451
790.243759	4103.347996
790.566395	4084.902414
790.888984	4084.310079
791.211529	3972.663644
791.534027	3913.530910
791.856480	3904.033376
792.178888	3841.122297
792.501249	3790.892240
792.823566	3801.839105
793.145836	3829.983867
793.468062	3778.604427
793.790241	3732.934094
794.112375	3762.611367
794.434464	3826.172755
794.756507	3848.762165
795.078505	3832.557376
795.400457	3866.718755
795.722364	4003.465094
796.044226	4108.172380
796.366042	4182.158875
796.687812	4163.327645
797.009538	4164.905526
797.331218	4122.980770
797.652852	4097.154939
797.974442	4080.899738
798.295986	4076.355138
798.617484	3996.437726
798.938938	3910.528903
799.260346	3954.480202
799.581709	3945.501907
799.903026	3872.553891
800.224299	3836.189527
800.545526	3827.730471
800.866708	3791.005666
801.187845	3730.486614
801.508936	3770.253756
801.829983	3762.321500
802.150984	3685.945499
802.471940	3676.397553
802.792851	3685.108667
803.113717	3683.682021
803.434538	3689.343237
803.755314	3630.717138
804.076045	3602.095987
804.396731	3622.381590
804.717372	3652.802433
805.037967	3637.132006
805.358518	3622.467290
805.679024	3649.739932
805.999485	3666.642921
806.319901	3671.568128
806.640272	3680.924510
806.960598	3695.816078
807.280879	3670.675844
807.601115	3685.053215
807.921306	3699.997715
808.241453	3740.964652
808.561554	3713.276114
808.881611	3651.640447
809.201623	3687.853576
809.521590	3699.990153
809.841513	3671.666431
810.161390	3701.038713
810.481223	3678.504756
810.801011	3620.498719
811.120755	3618.973770
811.440453	3654.508863
811.760107	3653.430057
812.079716	3615.293728
812.399281	3583.161413
812.718801	3604.099846
813.038276	3576.139086
813.357707	3573.653797
813.677093	3592.724482
813.996434	3541.077861
814.315731	3549.572205
814.634983	3553.398441
814.954191	3567.526274
815.273354	3595.144236
815.592473	3589.082248
815.911547	3598.499124
816.230577	3638.697284
816.549562	3690.056560
816.868502	3733.319742
817.187399	3758.182713
817.506250	3753.688524
817.825058	3725.664750
818.143821	3820.362825
818.462539	3918.998041
818.781213	3967.551914
819.099843	4023.233979
819.418429	4271.551135
819.736970	4512.999719
820.055466	4763.199747
820.373919	5126.268688
820.692327	5533.440163
821.010691	5985.472867
821.329011	7367.454782
821.647286	10138.748451
821.965517	14710.306213
822.283704	18747.471421
822.601847	20873.242819
822.919945	19052.854439
823.237999	16467.314687
823.556010	13974.950581
823.873976	11879.121117
824.191897	9783.291652
824.509775	8434.351979
824.827609	7302.154196
825.145398	6756.650938
825.463144	6647.210009
825.780845	6761.354335
826.098502	6948.988602
826.416116	7842.870878
826.733685	9163.113782
827.051210	10281.251788
827.368692	10312.254884
827.686129	9042.499135
828.003522	7530.117693
828.320872	6512.228073
828.638177	5809.009797
828.955439	5249.396350
829.272656	4750.581738
829.589830	4468.204026
829.906960	4289.903456
830.224046	4105.296402
830.541088	3982.488853
830.858086	3933.093107
831.175041	3855.214842
831.491952	3840.106504
831.808819	3850.435828
832.125642	3926.274947
832.442421	4073.955549
832.759157	4352.451572
833.075849	4907.434720
833.392497	5773.416730
833.709101	6546.197889
834.025662	6886.715228
834.342179	6515.550194
834.658653	5849.175190
834.975083	5201.250810
835.291469	4624.936020
835.607811	4217.779668
835.924110	4071.999581
836.240366	3874.560270
836.556578	3670.937984
836.872746	3561.524781
837.188871	3523.718648
837.504952	3457.974440
837.820990	3370.790204
838.136984	3327.469049
838.452935	3352.120291
838.768842	3347.515197
839.084706	3370.212992
839.400526	3529.634442
839.716303	3869.254456
840.032037	4400.317328
840.347727	4661.451618
840.663373	4378.027866
840.978977	3992.591326
841.294537	3688.309800
841.610054	3460.477373
841.925527	3352.659695
842.240957	3283.348870
842.556344	3227.974316
842.871687	3172.214113
843.186987	3119.889457
843.502244	3082.436204
843.817458	3047.188457
844.132629	3017.949764
844.447756	3025.932432
844.762840	3008.437107
845.077881	2977.348311
845.392879	2963.296095
845.707833	2956.752677
846.022745	2958.123871
846.337613	2954.983232
846.652438	2946.009978
846.967221	2942.879422
847.281960	2930.485745
847.596656	2924.968202
847.911309	2925.489962
848.225919	2920.383273
848.540485	2913.449166
848.855009	2914.293559
849.169490	2902.434245
849.483928	2894.005435
849.798323	2894.743964
850.112675	2890.330434
850.426984	2903.492887
850.741251	2899.732186
851.055474	2889.692728
851.369654	2882.408261
851.683792	2886.983108
851.997887	2896.636918
852.311938	2896.445354
852.625947	2885.710217
852.939914	2892.193141
853.253837	2894.680950
853.567718	2880.303579
853.881555	2879.270143
854.195350	2893.861763
854.509103	2888.913870
854.822812	2882.065463
855.136479	2880.233003
855.450103	2884.376832
855.763685	2873.054400
856.077224	2870.848895
856.390720	2884.936400
856.704173	2895.074160
857.017584	2887.819940
857.330953	2885.611914
857.644278	2893.831516
857.957561	2900.213616
858.270802	2905.093453
858.584000	2903.921385
858.897155	2892.268758
859.210268	2891.043757
859.523339	2885.432953
859.836367	2888.185423
860.149352	2883.479506
860.462295	2879.040770
860.775195	2887.782131
861.088054	2885.639641
861.400869	2869.485263
861.713642	2866.251363
862.026373	2883.406409
862.339062	2882.446070
862.651708	2890.590054
862.964312	2893.947462
863.276873	2885.385062
863.589392	2897.740930
863.901869	2910.134607
864.214303	2929.989192
864.526696	2944.706840
864.839045	2941.112498
865.151353	2938.929678
865.463619	2937.588731
865.775842	2940.197528
866.088023	2960.175621
866.400162	2965.854481
866.712258	2936.643515
867.024313	2924.708583
867.336325	2934.097732
867.648296	2957.614715
867.960224	2947.731533
868.272110	2934.049841
868.583954	2939.365738
868.895755	2956.314097
869.207515	2940.928495
869.519233	2941.356993
869.830909	2956.314097
870.142542	2964.359778
870.454134	2965.310036
870.765684	2968.997640
871.077191	2967.495376
871.388657	2978.361583
871.700081	2987.438181
872.011463	3000.956035
872.322803	3001.906292
872.634101	3000.467043
872.945357	3015.766945
873.256571	3043.642005
873.567744	3035.480377
873.878874	3028.773122
874.189963	3048.700803
874.501010	3055.292112
874.812015	3046.863302
875.122979	3044.183929
875.433900	3040.944988
875.744780	3046.346584
876.055618	3053.172306
876.366415	3049.691390
876.677169	3060.802093
876.987882	3061.084397
877.298554	3053.252965
877.609183	3071.776685
877.919771	3097.234512
878.230317	3124.038327
878.540822	3176.199145
878.851285	3211.671224
879.161707	3258.841301
879.472087	3362.346272
879.782425	3593.213474
880.092722	4032.802089
880.402977	4557.613931
880.713191	5191.571795
881.023363	6356.201841
881.333494	7637.751369
881.643583	8187.184206
881.953631	7887.837970
882.263637	7253.338183
882.573602	6668.002248
882.883526	6084.909627
883.193408	5508.655330
883.503248	5049.353283
883.813048	4746.077467
884.122806	4439.363585
884.432522	4123.240389
884.742197	3886.522928
885.051831	3692.138556
885.361424	3554.935993
885.670975	3484.735405
885.980485	3398.440933
886.289954	3320.519818
886.599382	3273.652211
886.908768	3239.447982
887.218113	3195.763863
887.527417	3138.425780
887.836680	3086.045671
888.145901	3082.718509
888.455082	3071.738876
888.764221	3020.359436
889.073319	2990.442708
889.382376	2986.883654
889.691392	2994.304232
890.000366	2994.369767
890.309300	2981.045998
890.618193	2994.478152
890.927044	3009.601614
891.235855	3007.297806
891.544625	2996.434120
891.853353	3006.297137
892.162041	3020.961854
892.470687	3065.316446
892.779293	3115.801081
893.087858	3162.227587
893.396381	3236.370358
893.704864	3358.613297
894.013306	3600.132457
894.321707	3902.561359
894.630068	4105.828244
894.938387	4102.438068
895.246665	4061.403076
895.554903	3938.608130
895.863100	3734.827047
896.171256	3569.699012
896.479371	3428.430758
896.787446	3304.622540
897.095480	3200.023638
897.403473	3137.893938
897.711425	3102.041252
898.019336	3089.277050
898.327207	3062.420303
898.635038	3028.707587
898.942827	3010.816532
899.250576	2996.234994
899.558284	2970.661221
899.865952	2948.845628
900.173579	2928.025662
900.481165	2921.217584
900.788711	2904.924575
901.096216	2883.078734
901.403681	2872.767054
901.711105	2879.728888
902.018489	2877.480533
902.325832	2877.586397
902.633135	2888.944117
902.940397	2920.854621
903.247619	3004.142044
903.554800	3198.004656
903.861941	3546.217317
904.169041	3975.716063
904.476101	4274.588431
904.783121	4227.574630
905.090100	3977.830827
905.397039	3705.258159
905.703938	3454.349850
906.010796	3271.325718
906.317614	3156.833553
906.624391	3063.050447
906.931129	2990.173007
907.237826	2926.561207
907.544483	2877.488095
907.851099	2847.440297
908.157675	2830.139057
908.464211	2809.616520
908.770707	2796.234777
909.077163	2784.461162
909.383578	2767.038935
909.689954	2757.279261
909.996289	2756.369332
910.302584	2757.846391
910.608839	2756.586102
910.915054	2752.406986
911.221229	2740.794688
911.527363	2748.195102
911.833458	2752.079311
912.139513	2758.683222
912.445527	2761.612132
912.751502	2769.657814
913.057436	2779.684669
913.363331	2793.399128
913.669186	2813.289001
913.975000	2848.360308
914.280775	2911.984711
914.586510	2980.373004
914.892205	3060.600447
915.197859	3188.814633
915.503475	3386.246382
915.809050	3598.552056
916.114585	3744.654777
916.420081	3762.845780
916.725536	3702.997202
917.030952	3587.343050
917.336328	3453.974284
917.641665	3325.623987
917.946961	3224.052298
918.252218	3151.000938
918.557435	3076.238106
918.862612	3015.605628
919.167750	2964.130406
919.472848	2923.203798
919.777906	2901.345355
920.082925	2873.324102
920.387904	2840.165912
920.692843	2825.309632
920.997743	2813.979639
921.302603	2800.592855
921.607423	2789.308232
921.912204	2780.458486
922.216946	2767.900972
922.521647	2757.470825
922.826310	2748.318610
923.130932	2742.261663
923.435516	2733.033831
923.740059	2725.875393
924.044564	2719.798282
924.349028	2713.842159
924.653454	2706.373689
924.957840	2699.371527
925.262186	2696.336752
925.566493	2692.238294
925.870761	2689.228725
926.174989	2685.997345
926.479178	2678.327230
926.783328	2673.928823
927.087438	2673.883453
927.391509	2672.285407
927.695541	2669.321208
927.999533	2663.680157
928.303486	2662.276196
928.607400	2661.066319
928.911275	2660.368119
929.215110	2658.318890
929.518906	2658.691936
929.822663	2659.813592
930.126381	2659.201092
930.430060	2658.260917
930.733699	2658.966678
931.037299	2659.561535
931.340861	2660.814261
931.644383	2663.594458
931.947866	2662.921464
932.251309	2662.324087
932.554714	2658.518016
932.858080	2657.852583
933.161407	2653.333189
933.464694	2653.522232
933.767943	2652.206491
934.071153	2654.336379
934.374323	2653.749084
934.677455	2653.597850
934.980548	2650.792447
935.283602	2649.829587
935.586617	2652.110709
935.889593	2649.953095
936.192530	2651.041985
936.495428	2651.732623
936.798287	2652.362767
937.101108	2658.031544
937.403890	2659.465753
937.706632	2663.924653
938.009336	2672.313133
938.312002	2679.766479
938.614628	2692.049251
938.917216	2695.925898
939.219765	2693.060002
939.522275	2695.189889
939.824747	2692.739889
940.127179	2687.182017
940.429573	2686.536749
940.731929	2685.241172
941.034246	2682.019875
941.336524	2679.937878
941.638763	2675.123577
941.940964	2673.432269
942.243126	2670.843637
942.545250	2672.177022
942.847335	2667.140909
943.149381	2665.837771
943.451389	2661.089004
943.753359	2658.303767
944.055290	2656.894764
944.357182	2657.013231
944.659036	2653.839825
944.960851	2656.516678
945.262628	2651.188178
945.564367	2653.239928
945.866067	2653.058446
946.167729	2653.008035
946.469352	2652.634989
946.770937	2655.528612
947.072484	2650.802530
947.373992	2652.203971
947.675462	2649.937972
947.976893	2646.736839
948.278286	2644.901859
948.579641	2645.474030
948.880958	2640.803401
949.182236	2646.946047
949.483476	2643.419760
949.784678	2643.863382
950.085841	2642.812301
950.386967	2646.802374
950.688054	2645.975625
950.989103	2646.890594
951.290114	2645.211890
951.591087	2649.035605
951.892021	2652.768580
952.192917	2655.069867
952.493776	2654.953920
952.794596	2655.604229
953.095378	2656.415855
953.396122	2655.941986
953.696828	2656.125988
953.997496	2652.450987
954.298126	2648.460914
954.598718	2649.562406
954.899272	2650.429484
955.199788	2644.783392
955.500266	2639.603607
955.800706	2636.142854
956.101108	2638.300468
956.401472	2633.770992
956.701798	2633.539098
957.002087	2630.736217
957.302337	2627.116668
957.602550	2631.245373
957.902724	2626.221864
958.202861	2626.436113
958.502960	2625.105248
958.803022	2625.742954
959.103045	2624.772532
959.403031	2624.114661
959.702979	2623.305556
960.002889	2623.597943
960.302762	2621.972171
960.602596	2619.068466
960.902393	2619.570061
961.202153	2619.408744
961.501875	2619.771707
961.801559	2619.940586
962.101205	2618.322376
962.400814	2621.536111
962.700385	2615.643002
962.999918	2615.753908
963.299414	2614.813732
963.598873	2614.475975
963.898293	2611.408433
964.197677	2614.836418
964.497022	2617.500667
964.796331	2616.091665
965.095601	2619.433950
965.394835	2615.567385
965.694030	2616.585698
965.993189	2617.404886
966.292309	2615.418671
966.591393	2614.397837
966.890439	2616.076542
967.189447	2615.746346
967.488419	2615.895060
967.787353	2616.315996
968.086249	2614.465893
968.385108	2617.747684
968.683930	2615.600152
968.982714	2616.656274
969.281462	2614.687704
969.580172	2616.371449
969.878844	2614.894391
970.177480	2616.189967
970.476078	2616.817591
970.774639	2617.883795
971.073162	2615.804319
971.371649	2618.576954
971.670098	2615.890019
971.968510	2615.302724
972.266885	2617.664505
972.565223	2617.268774
972.863524	2616.694083
973.161788	2617.241048
973.460014	2618.458487
973.758204	2619.766666
974.056356	2617.664505
974.354471	2615.242231
974.652550	2615.663167
974.950591	2615.781634
975.248595	2615.794237
975.546563	2617.288939
975.844493	2615.940430
976.142386	2614.523866
976.440243	2615.398506
976.738062	2614.034874
977.035845	2613.624020
977.333590	2618.037550
977.631299	2616.013527
977.928971	2611.151334
978.226606	2610.937085
978.524204	2611.174019
978.821765	2609.114708
979.119290	2613.084617
979.416777	2614.619648
979.714228	2613.394648
980.011642	2613.434977
980.309020	2615.020420
980.606360	2613.102261
980.903664	2614.019751
981.200931	2614.518825
981.498162	2615.388424
981.795356	2614.501181
982.092513	2616.295832
982.389633	2620.469907
982.686717	2623.723972
982.983764	2628.266052
983.280775	2630.524488
983.577749	2632.296454
983.874686	2632.724952
984.171587	2628.031638
984.468451	2625.379991
984.765279	2620.777417
985.062070	2622.050309
985.358824	2620.512757
985.655543	2617.367077
985.952224	2617.082252
986.248869	2616.777262
986.545478	2615.494288
986.842050	2612.605707
987.138586	2611.166458
987.435086	2614.024792
987.731549	2612.202415
988.027975	2613.341716
988.324366	2610.039760
988.620719	2612.323402
988.917037	2613.772734
989.213318	2608.633278
989.509563	2610.155706
989.805772	2608.991200
990.101944	2609.444904
990.398080	2610.291817
990.694180	2612.000769
990.990244	2610.168309
991.286271	2607.249481
991.582262	2609.732249
991.878217	2611.547065
992.174136	2609.460027
992.470019	2609.838114
992.765865	2609.870881
993.061676	2606.566405
993.357450	2606.165633
993.653188	2602.803183
993.948890	2611.476489
994.244556	2609.069338
994.540186	2609.782661
994.835780	2612.096551
995.131337	2611.766355
995.426859	2614.465893
995.722345	2611.368104
996.017795	2613.596294
996.313208	2616.925976
996.608586	2616.706686
996.903928	2614.644854
997.199234	2615.587550
997.494504	2615.156531
997.789738	2612.489761
998.084936	2613.939092
998.380099	2612.237703
998.675225	2611.002620
998.970316	2610.995058
999.265371	2611.945316
999.560390	2610.642178
999.855373	2612.706530
1000.150320	2610.133021
1000.445232	2609.190325
1000.740108	2610.934565
1001.034948	2610.795933
1001.329752	2605.575818
1001.624521	2607.511621
1001.919254	2610.269132
1002.213951	2610.140583
1002.508613	2608.908021
1002.803239	2608.030860
1003.097829	2607.133535
1003.392384	2605.999275
1003.686903	2606.883998
1003.981386	2611.804164
1004.275834	2607.342742
1004.570246	2608.010695
1004.864623	2608.434152
1005.158964	2607.405757
1005.453270	2609.149996
1005.747540	2606.190839
1006.041775	2608.224944
1006.335974	2609.661673
1006.630138	2607.025150
1006.924266	2607.804008
1007.218359	2605.245623
1007.512416	2604.807042
1007.806438	2603.564398
1008.100425	2603.519027
1008.394376	2603.995416
1008.688292	2607.589759
1008.982172	2606.291662
1009.276017	2608.282918
1009.569827	2605.865684
1009.863602	2606.856271
1010.157341	2607.861981
1010.451045	2607.912393
1010.744714	2608.366097
1011.038347	2606.112701
1011.331945	2609.167640
1011.625508	2605.603544
1011.919036	2606.810901
1012.212528	2605.837958
1012.505986	2609.606221
1012.799408	2606.243771
1013.092795	2609.228134
1013.386147	2607.640171
1013.679464	2608.257712
1013.972745	2608.121601
1014.265992	2604.633122
1014.559204	2607.584718
1014.852380	2606.765530
1015.145521	2606.616816
1015.438628	2607.758638
1015.731699	2606.309306
1016.024736	2605.469954
1016.317737	2607.083123
1016.610703	2606.001796
1016.903635	2608.529934
1017.196531	2604.302927
1017.489393	2606.967177
1017.782219	2604.991044
1018.075011	2604.683534
1018.367768	2607.846858
1018.660490	2605.674121
1018.953177	2605.674121
1019.245829	2605.674121
