Dividing Wavelength (nm)	Counts (n)	Blue Motor Position (mm): 18.300000	Red Motor Position (mm): 0.000000	
326.493990	2180.725016
326.888308	2180.725016
327.282561	2180.725016
327.676750	2141.076341
328.070874	2137.320681
328.464933	2136.962759
328.858929	2140.141207
329.252859	2144.716054
329.646726	2153.971613
330.040528	2166.491318
330.434265	2179.406754
330.827938	2197.885104
331.221547	2213.386652
331.615091	2233.354662
332.008571	2249.950141
332.401986	2266.371699
332.795338	2287.249638
333.188625	2307.278142
333.581847	2323.182983
333.975006	2344.282732
334.368100	2359.547346
334.761129	2380.183309
335.154095	2398.084446
335.546996	2419.771490
335.939833	2448.294339
336.332606	2463.395115
336.725315	2477.081848
337.117960	2491.406286
337.510540	2501.423059
337.903056	2509.965294
338.295508	2520.425688
338.687896	2530.583613
339.080220	2534.850950
339.472480	2542.188350
339.864676	2547.852086
340.256807	2553.407438
340.648875	2558.269630
341.040879	2562.007646
341.432818	2562.090825
341.824694	2567.953687
342.216506	2566.479149
342.608253	2570.643142
342.999937	2567.426886
343.391557	2569.849161
343.783113	2565.627194
344.174605	2566.227092
344.566033	2565.912020
344.957397	2566.217009
345.348697	2561.967317
345.739934	2559.802141
346.131106	2563.247770
346.522215	2559.449260
346.913260	2557.032027
347.304241	2553.926676
347.695159	2553.755277
348.086012	2552.033723
348.476802	2548.260419
348.867528	2546.226314
349.258191	2542.616848
349.648789	2542.420243
350.039324	2537.719367
350.429796	2544.562733
350.820203	2540.731456
351.210548	2539.544264
351.600828	2538.314223
351.991045	2535.254242
352.381198	2537.288348
352.771288	2535.382792
353.161314	2533.502442
353.551276	2531.319622
353.941175	2535.322298
354.331010	2532.927750
354.720782	2532.494211
355.110490	2534.059489
355.500135	2533.116793
355.889717	2531.980013
356.279235	2531.130579
356.668689	2535.052596
357.058080	2534.838347
357.447408	2533.131917
357.836672	2532.806762
358.225873	2532.002698
358.615010	2536.847247
359.004084	2535.639891
359.393095	2534.062010
359.782043	2536.703574
360.170927	2537.376568
360.559748	2538.127700
360.948505	2539.937474
361.337199	2540.844882
361.725830	2538.485622
362.114398	2540.756662
362.502903	2541.200283
362.891344	2540.565098
363.279722	2542.168185
363.668037	2543.088196
364.056289	2542.553833
364.444478	2543.448638
364.832603	2541.507794
365.220665	2545.374359
365.608665	2544.451828
365.996601	2546.962322
366.384474	2546.304452
366.772284	2546.198588
367.160031	2545.540717
367.547715	2546.740512
367.935336	2543.758669
368.322893	2543.103319
368.710388	2545.649102
369.097820	2544.600542
369.485189	2540.739018
369.872495	2546.715306
370.259738	2547.048022
370.646918	2546.228834
371.034035	2546.828732
371.421090	2548.073897
371.808081	2547.224462
372.195010	2550.125646
372.581875	2550.665050
372.968678	2548.091541
373.355418	2551.501881
373.742096	2550.286963
374.128710	2549.684545
374.515262	2553.747715
374.901751	2551.244783
375.288177	2553.377191
375.674540	2550.985163
376.060841	2552.071532
376.447079	2552.815102
376.833254	2551.330482
377.219367	2554.208981
377.605417	2554.947510
377.991404	2552.033723
378.377329	2553.271326
378.763191	2553.891388
379.148991	2553.868703
379.534727	2550.811243
379.920402	2553.478014
380.306013	2555.842315
380.691563	2555.194527
381.077049	2552.477345
381.462474	2553.651933
381.847835	2555.370967
382.233134	2554.529094
382.618371	2555.507078
383.003545	2556.543035
383.388657	2556.601008
383.773706	2555.479352
384.158693	2557.019424
384.543618	2555.038251
384.928480	2559.219888
385.313280	2558.130999
385.698017	2555.799465
386.082692	2558.032696
386.467305	2557.369784
386.851856	2557.820968
387.236344	2556.472459
387.620770	2559.056050
388.005133	2553.193188
388.389435	2555.880123
388.773674	2556.164949
389.157851	2557.047151
389.541965	2561.317008
389.926018	2560.843139
390.310008	2558.788869
390.693936	2559.802141
391.077802	2557.221070
391.461606	2560.727193
391.845348	2561.400187
392.229027	2562.345403
392.612645	2557.415155
392.996200	2561.269117
393.379694	2560.709549
393.763125	2562.370609
394.146494	2562.337842
394.529801	2560.979251
394.913047	2563.169632
395.296230	2563.688871
395.679351	2565.304561
396.062410	2561.715259
396.445408	2565.029818
396.828343	2564.003943
397.211217	2565.899417
397.594028	2565.370096
397.976778	2562.894889
398.359466	2564.283727
398.742092	2561.649724
399.124656	2566.166598
399.507158	2563.459498
399.889598	2566.282544
400.271977	2565.730538
400.654294	2564.830692
401.036549	2566.491752
401.418742	2568.104922
401.800874	2568.273800
402.182944	2567.167267
402.564952	2568.871177
402.946898	2566.287586
403.328783	2568.157854
403.710606	2567.283213
404.092367	2568.346897
404.474067	2564.114848
404.855705	2566.421176
405.237282	2568.477967
405.618797	2568.094839
406.000250	2569.408060
406.381642	2567.852864
406.762972	2567.421845
407.144240	2568.437638
407.525447	2568.447720
407.906593	2563.872873
408.287677	2566.224571
408.668700	2570.043245
409.049661	2568.367062
409.430560	2569.095508
409.811399	2572.052145
410.192176	2570.272618
410.572891	2571.447207
410.953545	2572.546178
411.334138	2572.717577
411.714669	2572.205900
412.095139	2571.522824
412.475547	2571.147258
412.855894	2571.321178
413.236180	2570.519634
413.616405	2568.311609
413.996568	2570.794377
414.376670	2573.950139
414.756711	2571.376630
415.136691	2572.437793
415.516609	2573.854357
415.896466	2570.872515
416.276262	2573.700602
416.655997	2574.749162
417.035670	2572.740262
417.415283	2573.587176
417.794834	2572.715057
418.174324	2573.178843
418.553753	2573.559450
418.933121	2577.090778
419.312428	2578.051118
419.691674	2576.185891
420.070859	2575.013823
420.449983	2574.497105
420.829045	2574.071127
421.208047	2575.497774
421.586988	2575.575912
421.965867	2577.065572
422.344686	2575.356621
422.723444	2576.576581
423.102141	2573.262022
423.480777	2577.299986
423.859352	2574.098853
424.237866	2576.881570
424.616319	2577.751169
424.994712	2578.613207
425.373044	2575.467527
425.751314	2571.863102
426.129524	2572.493246
426.507673	2574.522310
426.885762	2574.373596
427.263789	2576.725295
427.641756	2577.680593
428.019662	2579.412230
428.397508	2575.706982
428.775292	2575.969122
429.153016	2576.994996
429.530679	2578.585480
429.908282	2578.242682
430.285824	2579.084555
430.663305	2578.993814
431.040726	2578.961046
431.418086	2578.194791
431.795385	2579.772672
432.172624	2577.242013
432.549802	2579.452559
432.926920	2578.855182
433.303977	2578.754359
433.680974	2578.865264
434.057910	2579.271077
434.434786	2578.978690
434.811601	2581.158989
435.188355	2582.129412
435.565050	2581.375759
435.941683	2579.702096
436.318257	2576.697568
436.694770	2578.948443
437.071222	2578.421643
437.447614	2581.204360
437.823946	2581.872313
438.200218	2581.267374
438.576429	2581.370718
438.952580	2579.830645
439.328670	2583.629155
439.704700	2581.894998
440.080670	2579.828125
440.456580	2581.070769
440.832429	2585.050760
441.208218	2580.082703
441.583947	2584.140832
441.959616	2583.694690
442.335224	2584.123188
442.710773	2583.755184
443.086261	2585.224680
443.461689	2582.497416
443.837057	2584.471027
444.212365	2580.667477
444.587612	2580.513722
444.962800	2581.118660
445.337927	2582.058835
445.712995	2579.271077
446.088002	2584.150914
446.462949	2584.339957
446.837837	2585.456573
447.212664	2583.823239
447.587431	2586.411872
447.962139	2585.970771
448.336786	2589.023189
448.711374	2588.564444
449.085901	2589.257603
449.460369	2586.532859
449.834776	2589.101327
450.209124	2585.396079
450.583412	2588.443457
450.957640	2590.938828
451.331808	2589.552511
451.705917	2586.190061
452.079965	2588.919846
452.453954	2590.442274
452.827883	2589.401276
453.201752	2586.903384
453.575562	2588.556883
453.949311	2588.635021
454.323001	2588.075453
454.696632	2590.162490
455.070202	2589.847418
455.443713	2590.109558
455.817164	2589.565113
456.190556	2589.832295
456.563888	2591.079980
456.937160	2591.818509
457.310373	2590.200299
457.683526	2589.766760
458.056619	2587.243662
458.429653	2591.173242
458.802628	2591.752974
459.175542	2589.981009
459.548398	2593.953438
459.921194	2592.231884
460.293930	2592.456215
460.666607	2597.940991
461.039224	2591.662233
461.411782	2594.727255
461.784280	2594.510485
462.156719	2595.075095
462.529099	2597.346134
462.901419	2594.991916
463.273680	2596.206834
463.645882	2591.397573
464.018024	2591.750454
464.390106	2592.252048
464.762130	2596.781525
465.134094	2596.940322
465.505999	2598.941660
465.877845	2602.251177
466.249631	2600.259921
466.621358	2601.437031
466.993026	2603.529110
467.364634	2610.374997
467.736184	2602.578852
468.107674	2600.917792
468.479105	2602.520879
468.850477	2602.394850
469.221790	2602.354521
469.593043	2603.042638
469.964238	2602.311671
470.335373	2600.867380
470.706449	2602.291506
471.077467	2600.330497
471.448425	2603.672782
471.819324	2606.820983
472.190164	2608.867692
472.560945	2605.885849
472.931667	2603.387957
473.302330	2602.367124
473.672934	2599.395363
474.043479	2603.065323
474.413965	2603.793770
474.784393	2604.229830
475.154761	2604.247474
475.525070	2603.854264
475.895321	2605.608586
476.265513	2603.680344
476.635645	2602.777978
477.005719	2606.692434
477.375734	2604.910386
477.745691	2606.964656
478.115588	2606.954574
478.485427	2607.839296
478.855207	2611.680655
479.224928	2614.160903
479.594591	2616.542848
479.964194	2614.435646
480.333739	2614.954885
480.703226	2617.654423
481.072653	2616.263064
481.442022	2618.090482
481.811333	2617.344392
482.180584	2616.510081
482.549777	2616.434463
482.918912	2614.775924
483.287988	2620.777417
483.657005	2618.778600
484.025964	2621.256327
484.394864	2619.658281
484.763706	2620.696759
485.132489	2620.784979
485.501213	2621.435288
485.869879	2623.570217
486.238487	2620.411934
486.607036	2622.352778
486.975527	2621.432767
487.343959	2622.037706
487.712333	2624.044085
488.080648	2622.824126
488.448905	2624.386884
488.817104	2627.401494
489.185244	2626.438633
489.553326	2627.227574
489.921350	2631.000877
490.289315	2636.886425
490.657222	2638.718884
491.025070	2641.355407
491.392861	2643.689462
491.760593	2643.349184
492.128267	2641.244502
492.495883	2640.274080
492.863440	2639.419604
493.230939	2640.321971
493.598380	2643.709626
493.965763	2640.803401
494.333088	2644.523773
494.700354	2645.416057
495.067563	2645.607621
495.434713	2643.311375
495.801805	2647.031747
496.168839	2647.669453
496.535815	2653.945689
496.902733	2650.936120
497.269593	2657.081287
497.636395	2658.263437
498.003139	2665.011022
498.369825	2661.424241
498.736453	2665.966321
499.103023	2669.583348
499.469535	2674.193484
499.835989	2676.819925
500.202385	2675.617610
500.568723	2682.077848
500.935003	2688.994311
501.301226	2690.489013
501.667390	2703.094419
502.033497	2710.479709
502.399546	2713.781665
502.765537	2714.774772
503.131470	2723.765670
503.497345	2734.657083
503.863163	2736.376116
504.228923	2747.771645
504.594625	2756.984353
504.960269	2761.607091
505.325856	2771.732249
505.691385	2780.566871
506.056856	2793.404169
506.422270	2807.416056
506.787625	2817.213539
507.152924	2829.080415
507.518164	2846.316120
507.883347	2855.682584
508.248472	2867.105838
508.613540	2895.038872
508.978550	2909.416243
509.343503	2929.626228
509.708398	2950.788992
510.073236	2975.364617
510.438016	3001.611385
510.802738	3019.353726
511.167403	3048.015206
511.532010	3063.761250
511.896561	3112.589866
512.261053	3141.616830
512.625488	3164.609533
512.989866	3191.297401
513.354186	3217.823953
513.718449	3256.943307
514.082655	3298.898309
514.446803	3333.979699
514.810894	3383.544324
515.174927	3406.595000
515.538904	3449.321299
515.902822	3509.636184
516.266684	3553.821898
516.630488	3588.252978
516.994235	3636.814413
517.357925	3695.019576
517.721558	3765.000873
518.085133	3819.268895
518.448651	3870.292933
518.812112	3913.745159
519.175516	3980.311075
519.538863	4055.550296
519.902152	4102.158284
520.265385	4191.797561
520.628560	4245.291765
520.991678	4318.973270
521.354739	4395.402203
521.717743	4470.752330
522.080690	4528.904560
522.443580	4642.935460
522.806413	4702.758832
523.169189	4807.750944
523.531908	4876.499679
523.894569	4942.934525
524.257174	5030.693452
524.619722	5133.273371
524.982213	5178.651317
525.344647	5288.130055
525.707025	5382.374427
526.069345	5478.912523
526.431608	5577.308284
526.793815	5705.925763
527.155964	5708.892482
527.518057	5838.699673
527.880093	5931.517397
528.242072	6028.131111
528.603995	6097.767089
528.965860	6174.586712
529.327669	6324.230844
529.689421	6400.006948
530.051117	6482.941490
530.412755	6649.506254
530.774337	6689.573345
531.135862	6784.490710
531.497331	6931.705006
531.858743	6958.728111
532.220098	7188.365271
532.581396	7196.990686
532.942638	7359.704008
533.303824	7461.139585
533.664953	7600.192253
534.026025	7671.799322
534.387040	7809.904252
534.747999	7987.335224
535.108902	8117.263402
535.469748	8131.126576
535.830537	8314.985018
536.191270	8444.943444
536.551947	8588.182789
536.912567	8584.197757
537.273131	8799.397053
537.633638	8836.237805
537.994089	9064.763391
538.354483	9043.446872
538.714821	9322.134460
539.075103	9497.440585
539.435328	9556.858145
539.795497	9555.292866
540.155609	9821.238938
540.515665	10040.632473
540.875665	9927.773642
541.235609	10145.833792
541.595496	10306.265993
541.955328	10546.479494
542.315102	10663.696404
542.674821	10662.673049
543.034483	10738.285316
543.394090	10911.113714
543.753640	10973.593775
544.113134	11339.974754
544.472571	11366.844104
544.831953	11644.667133
545.191278	11587.248391
545.550548	11741.820250
545.909761	11887.038249
546.268918	12164.150476
546.628019	12264.572781
546.987064	12344.848115
547.346053	12376.088145
547.704986	12546.141388
548.063863	12778.795679
548.422684	12849.074405
548.781449	12848.958458
549.140158	13167.438393
549.498811	13154.911126
549.857408	13115.030558
550.215949	13480.151249
550.574434	13445.258903
550.932864	13693.548332
551.291237	13881.701838
551.649555	13993.086132
552.007817	14153.697294
552.366022	14244.304472
552.724173	14360.603892
553.082267	14483.769362
553.440305	14860.449419
553.798288	14611.736532
554.156215	15034.800245
554.514086	15220.967536
554.871902	14995.670809
555.229661	15277.884684
555.587365	15361.368712
555.945014	15366.062026
556.302606	15676.617268
556.660143	15726.554938
557.017625	16039.237546
557.375050	15892.096348
557.732421	16233.337093
558.089735	16282.977335
558.446994	16414.402736
558.804197	16572.601705
559.161345	16683.726380
559.518437	16593.618276
559.875474	16905.330462
560.232455	17089.312413
560.589381	17144.331566
560.946251	17196.230245
561.303065	17581.371878
561.659825	17766.147811
562.016528	17590.519052
562.373177	17548.332156
562.729770	17880.004791
563.086307	17954.417263
563.442789	18187.636163
563.799216	18168.719233
564.155587	18260.947143
564.511904	18386.711328
564.868164	18403.896622
565.224370	18565.667249
565.580520	18542.689670
565.936615	18778.303118
566.292654	18609.759701
566.648638	19001.555657
567.004567	18920.380477
567.360441	18991.460747
567.716260	18869.832828
568.072023	19250.835674
568.427732	19139.232089
568.783385	19048.135919
569.138982	19312.234407
569.494525	19446.311455
569.850013	19352.581282
570.205445	19499.334312
570.560823	19399.330422
570.916145	19324.766716
571.271412	19507.072483
571.626625	19419.898330
571.981782	19561.050638
572.336884	19468.371545
572.691931	19658.536471
573.046923	19482.277567
573.401860	19506.896042
573.756743	19565.509538
574.111570	19554.784483
574.466342	19565.817048
574.821059	19725.261183
575.175722	19510.939048
575.530330	19593.359393
575.884882	19670.791516
576.239380	19652.237549
576.593823	19603.325754
576.948211	19637.010744
577.302544	19554.265244
577.656823	19500.322378
578.011047	19648.005500
578.365216	19589.623897
578.719330	19524.189721
579.073389	19475.202308
579.427394	19669.064920
579.781344	19511.917032
580.135239	19468.396750
580.489080	19470.665270
580.842866	19287.716755
581.196597	19504.113325
581.550273	19507.569036
581.903895	19479.940993
582.257463	19793.732655
582.610975	19393.149967
582.964434	19703.105312
583.317837	19480.059460
583.671186	19598.423232
584.024481	19590.715307
584.377721	19412.999511
584.730906	19486.474328
585.084037	19563.178004
585.437113	19490.741665
585.790135	19720.414113
586.143103	19244.267050
586.496016	19273.079765
586.848874	19557.123579
587.201679	19520.434061
587.554428	19207.504436
587.907124	19553.551921
588.259765	19369.484271
588.612352	19466.082861
588.964884	19068.098888
589.317362	19263.052910
589.669786	19324.370985
590.022155	19408.936341
590.374470	19587.625080
590.726731	19422.706252
591.078937	19199.272232
591.431090	19322.165480
591.783188	19091.991437
592.135232	19077.306556
592.487222	19196.118990
592.839157	19239.364528
593.191038	19133.757396
593.542866	19047.858655
593.894639	18780.831257
594.246358	19008.295680
594.598022	18939.012582
594.949633	18712.226194
595.301190	18668.158948
595.652692	18845.569754
596.004141	19096.110059
596.355535	18446.824568
596.706876	18464.778637
597.058162	18370.985449
597.409395	18595.339480
597.760573	18712.611842
598.111698	18493.692175
598.462768	18432.290921
598.813785	18400.234224
599.164748	18237.203308
599.515657	18270.240510
599.866511	18065.322647
600.217312	18439.787117
600.568060	17971.683215
600.918753	18292.708933
601.269392	18196.498512
601.619978	17963.324982
601.970510	18205.701138
602.320988	18146.896078
602.671412	18361.248460
603.021783	18264.246578
603.372100	18006.225201
603.722363	18144.952713
604.072572	18084.602540
604.422728	18223.748469
604.772830	17991.026122
605.122878	17936.256506
605.472872	17940.811188
605.822813	17929.866843
606.172701	17887.180873
606.522534	18098.380014
606.872314	18120.472870
607.222041	17948.204041
607.571714	18169.082196
607.921333	18007.359460
608.270899	18072.304645
608.620411	18284.517058
608.969870	18021.356224
609.319276	18043.938073
609.668627	18068.601918
610.017926	18212.310091
610.367171	18327.039190
610.716362	18366.463534
611.065500	18189.206483
611.414585	18322.587852
611.763616	18295.655487
612.112594	18256.082429
612.461518	18229.351711
612.810389	18420.441689
613.159207	18278.903733
613.507971	18184.561059
613.856682	18467.465572
614.205340	18407.997601
614.553945	18548.734013
614.902496	18285.162325
615.250994	18537.315800
615.599439	18465.928020
615.947830	18461.529613
616.296169	18495.043204
616.644454	18465.935582
616.992686	18441.619576
617.340864	18651.863418
617.688990	18419.851874
618.037063	18597.058514
618.385082	18440.208053
618.733048	18723.848574
619.080961	18570.985666
619.428821	18620.686402
619.776628	18524.299540
620.124382	18441.801058
620.472083	18472.700810
620.819731	18495.383482
621.167326	18201.600159
621.514868	18237.004183
621.862357	17999.212956
622.209793	18008.483638
622.557176	17851.885235
622.904506	17678.935849
623.251783	17575.725786
623.599007	17356.125562
623.946179	17304.816699
624.293297	17249.873163
624.640363	17013.054879
624.987376	17018.280035
625.334336	16812.830330
625.681243	16664.718710
626.028097	16665.467321
626.374899	16604.708814
626.721647	16470.276365
627.068343	16297.536187
627.414987	16232.485138
627.761577	16203.412803
628.108115	16264.120899
628.454600	15972.442258
628.801032	16079.763382
629.147412	16003.205899
629.493739	16029.573654
629.840014	15835.842112
630.186236	15940.637618
630.532405	15700.232553
630.878521	15896.512398
631.224585	15774.932371
631.570597	15615.316837
631.916556	15647.239944
632.262462	15620.932682
632.608316	15542.651125
632.954117	15486.999307
633.299866	15492.093393
633.645562	15413.748821
633.991206	15165.103990
634.336797	15027.402352
634.682336	14999.552498
635.027823	14884.939344
635.373257	14777.013282
635.718639	14662.954655
636.063968	14625.733296
636.409245	14374.981262
636.754470	14400.504624
637.099642	14250.777314
637.444762	14018.405327
637.789829	14070.104881
638.134845	13918.371191
638.479808	13936.622688
638.824719	13892.787335
639.169577	13734.772368
639.514383	13792.927119
639.859137	13604.690434
640.203839	13687.748485
640.548489	13521.975182
640.893086	13512.064273
641.237632	13385.654820
641.582125	13532.682592
641.926566	13373.553530
642.270955	13374.070248
642.615292	13346.139736
642.959576	13355.090304
643.303809	13389.687743
643.647990	13325.428155
643.992118	13380.306156
644.336195	13154.757371
644.680219	13348.486393
645.024192	13284.544397
645.368112	13511.686187
645.711981	13572.724478
646.055797	13747.675201
646.399562	13710.295045
646.743274	13977.728257
647.086935	14256.985495
647.430544	14229.417945
647.774101	14246.905708
648.117606	14403.050407
648.461059	14370.963463
648.804460	14366.751579
649.147810	14106.620478
649.491108	13996.980423
649.834354	14016.676212
650.177548	13721.617477
650.520690	13531.220658
650.863781	13456.336838
651.206820	13492.066016
651.549807	13314.856855
651.892742	13121.969706
652.235626	13071.177561
652.578458	13072.014392
652.921238	12757.335487
653.263967	12949.950414
653.606644	12781.069239
653.949269	12741.629772
654.291843	12556.846278
654.634365	12711.211450
654.976836	12558.961042
655.319255	12581.545411
655.661622	12528.711598
656.003938	12453.449692
656.346203	12384.131306
656.688416	12449.144547
657.030577	12405.936817
657.372687	12332.192298
657.714746	12301.418574
658.056753	12481.702839
658.398708	12314.767550
658.740612	12314.961634
659.082465	12412.326479
659.424266	12365.544572
659.766016	12394.853840
660.107715	12301.232052
660.449362	12375.394986
660.790958	12338.569358
661.132503	12287.883076
661.473996	12344.850635
661.815438	12364.594314
662.156829	12377.658464
662.498168	12353.269362
662.839456	12353.642407
663.180693	12374.938762
663.521879	12459.257101
663.863013	12435.329264
664.204097	12419.842840
664.545129	12541.175851
664.886110	12512.658044
665.227040	12590.266607
665.567918	12590.359869
665.908746	12631.294038
666.249522	12612.480452
666.590248	12661.669510
666.930922	12775.642437
667.271545	12761.353287
667.612118	12833.484636
667.952639	12750.419024
668.293109	12748.957089
668.633528	12708.033002
668.973896	12680.538549
669.314213	12776.358281
669.654480	12515.332376
669.994695	12571.261457
670.334859	12595.234664
670.674973	12544.782797
671.015035	12585.540526
671.355047	12520.229857
671.695008	12491.437307
672.034918	12498.880570
672.374777	12540.215511
672.714585	12457.843058
673.054342	12489.940084
673.394049	12433.186774
673.733705	12528.918286
674.073310	12445.900564
674.412864	12466.576857
674.752368	12343.338289
675.091820	12345.037158
675.431223	12339.673370
675.770574	12213.299205
676.109875	12134.921866
676.449125	12096.793098
676.788324	12033.725743
677.127473	11869.474869
677.466571	11853.915347
677.805619	11769.385280
678.144616	11683.962928
678.483562	11648.727783
678.822458	11515.646363
679.161303	11500.863179
679.500098	11488.756848
679.838842	11447.832761
680.177535	11455.815428
680.516179	11522.290603
680.854771	11475.536422
681.193314	11687.416118
681.531805	11830.700834
681.870247	12229.287224
682.208638	12632.577012
682.546978	12959.047176
682.885268	13027.805994
683.223508	12706.871016
683.561697	12545.445708
683.899836	12441.277826
684.237925	12263.420877
684.575963	12169.400837
684.913951	12105.569747
685.251889	12037.587267
685.589776	12140.134419
685.927614	12069.583471
686.265401	12030.196936
686.603137	12074.460787
686.940824	12223.074002
687.278460	12340.674039
687.616046	12396.857699
687.953582	12571.967219
688.291068	12484.742654
688.628504	12713.295967
688.965889	12727.101167
689.303224	12695.684696
689.640510	12595.791712
689.977745	12300.924541
690.314930	12070.800909
690.652065	11980.057619
690.989150	11696.646471
691.326185	11475.249076
691.663170	11265.481623
692.000105	11023.874243
692.336990	10919.590414
692.673825	10669.098000
693.010610	10549.887314
693.347345	10345.438279
693.684030	10141.546291
694.020665	10088.505791
694.357251	9889.072704
694.693786	9846.676600
695.030272	9676.847688
695.366707	9556.893433
695.703093	9491.527311
696.039429	9479.678079
696.375716	9412.088809
696.711952	9288.179768
697.048139	9319.686980
697.384276	9275.155947
697.720363	9289.175396
698.056400	9227.617866
698.392388	9184.286628
698.728326	9141.547726
699.064214	9080.436339
699.400053	9133.426427
699.735842	8935.674565
700.071581	8894.112772
700.407270	8826.856218
700.742910	8746.966532
701.078501	8660.556114
701.414042	8542.719143
701.749533	8467.222823
702.084974	8334.184253
702.420366	8441.757434
702.755709	8327.494641
703.091002	8196.502779
703.426246	8219.077066
703.761440	8172.378337
704.096584	8132.366699
704.431679	8058.687715
704.766725	8048.197074
705.101721	8000.651432
705.436668	8036.302472
705.771565	7942.259747
706.106413	8013.607197
706.441212	8065.110145
706.775961	8018.792024
707.110661	8041.358749
707.445311	8199.731638
707.779913	8091.472859
708.114465	8223.631749
708.448967	8262.294878
708.783421	8396.739931
709.117825	8576.772137
709.452180	8616.589691
709.786485	8698.720169
710.120742	8978.700813
710.454949	8975.721491
710.789107	9076.353004
711.123216	9283.622565
711.457275	9447.538203
711.791286	9610.632133
712.125247	9604.973437
712.459159	9602.727603
712.793023	9847.770530
713.126837	9422.841590
713.460602	9569.476153
713.794318	9399.566583
714.127985	9430.090769
714.461602	9123.666753
714.795171	9071.246315
715.128691	8829.175149
715.462162	8573.082013
715.795584	8514.496243
716.128957	8388.263230
716.462281	8211.356539
716.795556	8259.302953
717.128782	8064.505207
717.461960	7784.859800
717.795088	7859.143723
718.128167	7760.397601
718.461198	7599.486491
718.794180	7540.694034
719.127113	7535.267232
719.459997	7394.447641
719.792833	7157.785632
720.125619	7213.495423
720.458357	7080.129178
720.791046	7067.919503
721.123686	7069.820018
721.456278	6913.453508
721.788821	6930.669048
722.121315	6819.360372
722.453761	6881.779938
722.786158	6828.928482
723.118506	6846.012952
723.450805	6814.064639
723.783056	6882.916719
724.115259	6783.558097
724.447412	6777.785976
724.779518	6826.886814
725.111574	6826.879253
725.443582	6905.186016
725.775542	6889.815538
726.107453	7073.353867
726.439315	6991.987123
726.771129	7038.680811
727.102895	7203.176181
727.434612	7322.936353
727.766281	7349.041968
728.097901	7433.385513
728.429473	7423.288082
728.760996	7397.585759
729.092471	7374.320834
729.423897	7323.924419
729.755276	7342.329672
730.086606	7273.235617
730.417887	7363.063937
730.749120	7542.460959
731.080305	7735.612768
731.411442	7866.811318
731.742530	7867.393571
732.073570	7965.685989
732.404562	8054.793424
732.735506	7899.886328
733.066401	8043.639871
733.397249	7978.782906
733.728048	7746.501661
734.058798	7416.913543
734.389501	7196.536982
734.720156	7018.760691
735.050762	6785.083046
735.381320	6683.713004
735.711831	6643.260265
736.042293	6528.054776
736.372707	6553.255504
736.703073	6413.403814
737.033391	6447.408917
737.363661	6465.128573
737.693883	6486.971893
738.024056	6567.330406
738.354182	6614.031655
738.684260	6654.096225
739.014290	6761.971876
739.344272	6867.987342
739.674207	6897.258801
740.004093	6963.686086
740.333931	6977.161090
740.663722	6993.174315
740.993464	7067.886736
741.323159	7067.465799
741.652806	6814.087325
741.982405	6807.160779
742.311956	6872.249637
742.641460	6729.322843
742.970915	6528.092585
743.300323	6524.583942
743.629683	6465.559592
743.958996	6338.847669
744.288260	6246.919708
744.617477	6190.483991
744.946647	6210.018462
745.275768	6035.947420
745.604842	5993.228682
745.933869	5976.479448
746.262847	5931.862716
746.591778	5925.888949
746.920662	5888.055089
747.249498	5869.307038
747.578286	5913.482669
747.907027	5989.926726
748.235720	6052.479884
748.564365	6019.896386
748.892963	6041.807761
749.221514	6202.849941
749.550017	6048.560387
749.878473	5916.764461
750.206881	5965.671215
750.535242	5913.764974
750.863555	5843.866855
751.191821	5863.199680
751.520039	5866.085741
751.848210	5777.006032
752.176334	5783.425941
752.504411	5845.994222
752.832440	5768.809116
753.160421	5697.862437
753.488356	5740.195527
753.816243	5778.200785
754.144082	5633.013034
754.471875	5598.650009
754.799620	5647.317308
755.127318	5654.959697
755.454969	5606.980516
755.782572	5569.844856
756.110129	5614.602740
756.437638	5609.148212
756.765100	5550.532195
757.092515	5535.950658
757.419882	5583.130817
757.747203	5569.688580
758.074477	5637.403879
758.401703	5634.810205
758.728882	5572.294857
759.056014	5621.365448
759.383099	5759.278814
759.710138	5769.255258
760.037129	5751.563328
760.364073	5756.755717
760.690970	5836.526935
761.017820	5828.340102
761.344623	5778.140292
761.671379	5872.087235
761.998088	5983.385829
762.324751	6211.288833
762.651366	6788.626977
762.977935	8054.377529
763.304456	9658.192899
763.630931	10587.275032
763.957359	10229.942924
764.283740	9302.022777
764.610074	8492.116041
764.936362	7516.123450
765.262602	6918.580362
765.588796	6389.281893
765.914943	6042.513523
766.241044	5883.729779
766.567097	5694.338671
766.893104	5439.457932
767.219064	5259.466055
767.544978	5194.150345
767.870845	5119.410198
768.196665	5011.491697
768.522438	4941.142395
768.848165	4908.747940
769.173846	4845.138661
769.499479	4803.294564
769.825066	4746.556377
770.150607	4688.656205
770.476101	4665.446732
770.801548	4664.859438
771.126949	4592.672635
771.452303	4535.639541
771.777611	4494.591946
772.102872	4508.313967
772.428087	4474.235767
772.753256	4436.858132
773.078378	4390.764342
773.403453	4325.534331
773.728482	4308.286023
774.053465	4260.110237
774.378401	4251.172271
774.703291	4255.237962
775.028135	4188.331768
775.352932	4136.024755
775.677683	4121.186119
776.002388	4139.762771
776.327046	4155.448321
776.651658	4082.086930
776.976224	4017.756766
777.300743	4021.212477
777.625216	4044.610992
777.949643	4041.402298
778.274024	3995.527798
778.598359	3949.333184
778.922647	3969.452429
779.246889	3966.006801
779.571086	3961.295842
779.895236	3948.506435
780.219339	3932.422634
780.543397	3922.453752
780.867409	3973.656752
781.191374	3986.552023
781.515294	3934.635700
781.839167	3922.884771
782.162995	3939.452523
782.486776	3929.803754
782.810511	3937.879683
783.134201	3936.659724
783.457844	3895.037437
783.781441	3836.907892
784.104993	3841.016432
784.428498	3857.692569
784.751958	3860.752550
785.075372	3837.424610
785.398739	3798.781645
785.722061	3811.727328
786.045337	3848.212679
786.368568	3888.257085
786.691752	3798.821975
787.014891	3844.197400
787.337983	3966.636945
787.661030	4124.278867
787.984031	4280.141262
788.306987	4456.095175
788.629897	4534.424623
788.952760	4493.611442
789.275579	4426.576698
789.598351	4367.764077
789.921078	4232.020928
790.243759	4033.744785
790.566395	4007.261083
790.888984	4006.893079
791.211529	3902.843664
791.534027	3840.224971
791.856480	3834.946883
792.178888	3774.566463
792.501249	3721.117629
792.823566	3728.376891
793.145836	3762.162704
793.468062	3711.826783
793.790241	3664.505472
794.112375	3691.331972
794.434464	3755.498298
794.756507	3779.680713
795.078505	3764.663116
795.400457	3791.701345
795.722364	3921.813526
796.044226	4025.953682
796.366042	4100.698870
796.687812	4089.167230
797.009538	4092.489351
797.331218	4051.666087
797.652852	4024.005276
797.974442	4000.503417
798.295986	4007.699664
798.617484	3929.501285
798.938938	3838.876462
799.260346	3877.917678
799.581709	3876.370044
799.903026	3804.926812
800.224299	3766.576234
800.545526	3761.925770
800.866708	3725.755491
801.187845	3662.158814
801.508936	3692.579657
801.829983	3698.513095
802.150984	3621.920324
802.471940	3606.015484
802.792851	3620.992752
803.113717	3619.908904
803.434538	3624.604739
803.755314	3567.299422
804.076045	3539.321019
804.396731	3556.208884
804.717372	3584.426743
805.037967	3572.126327
805.358518	3560.312383
805.679024	3581.954057
805.999485	3597.974844
806.319901	3601.911985
806.640272	3618.986373
806.960598	3633.404073
807.280879	3606.423817
807.601115	3617.864716
807.921306	3632.811737
808.241453	3674.920495
808.561554	3655.149090
808.881611	3586.755756
809.201623	3617.239613
809.521590	3637.119403
809.841513	3606.141513
810.161390	3633.018425
810.481223	3615.593676
810.801011	3559.452867
811.120755	3547.888460
811.440453	3586.909511
811.760107	3592.318669
812.079716	3549.100857
812.399281	3513.028881
812.718801	3537.894372
813.038276	3512.340763
813.357707	3510.851102
813.677093	3528.938762
813.996434	3474.595124
814.315731	3481.133500
814.634983	3485.078203
814.954191	3498.250738
815.273354	3528.411962
815.592473	3528.873227
815.911547	3530.330121
816.230577	3567.790935
816.549562	3615.820528
816.868502	3657.949451
817.187399	3686.550437
817.506250	3679.694468
817.825058	3654.511384
818.143821	3741.277203
818.462539	3842.760672
818.781213	3888.738515
819.099843	3940.571659
819.418429	4174.279551
819.736970	4408.428545
820.055466	4648.342097
820.373919	5004.444164
820.692327	5406.216564
821.010691	5815.275951
821.329011	7114.903057
821.647286	9726.520698
821.965517	14144.900480
822.283704	18133.345457
822.601847	20411.372304
822.919945	18680.345937
823.237999	16176.949266
823.556010	13734.399322
823.873976	11680.164418
824.191897	9627.651068
824.509775	8279.265923
824.827609	7159.804614
825.145398	6609.855059
825.463144	6492.718808
825.780845	6604.128308
826.098502	6772.938906
826.416116	7589.837722
826.733685	8875.296665
827.051210	9997.497841
827.368692	10106.109500
827.686129	8903.113752
828.003522	7401.207828
828.320872	6394.582666
828.638177	5700.814033
828.955439	5160.724974
829.272656	4669.769522
829.589830	4381.498701
829.906960	4208.647618
830.224046	4029.374105
830.541088	3903.259559
830.858086	3858.141232
831.175041	3788.439718
831.491952	3764.360647
831.808819	3773.790125
832.125642	3840.673634
832.442421	3977.321671
832.759157	4238.072833
833.075849	4768.767701
833.392497	5608.865907
833.709101	6366.168202
834.025662	6719.490073
834.342179	6401.055508
834.658653	5746.078553
834.975083	5118.636381
835.291469	4550.853744
835.607811	4134.202378
835.924110	4000.248838
836.240366	3809.042914
836.556578	3601.244032
836.872746	3496.342662
837.188871	3459.690953
837.504952	3394.123185
837.820990	3313.530258
838.136984	3266.271962
838.452935	3287.376752
838.768842	3287.212915
839.084706	3304.035245
839.400526	3454.120477
839.716303	3773.684261
840.032037	4273.131537
840.347727	4556.119229
840.663373	4303.015497
840.978977	3934.365999
841.294537	3629.718989
841.610054	3399.267683
841.925527	3293.779018
842.240957	3225.635221
842.556344	3174.033970
842.871687	3115.576750
843.186987	3063.962896
843.502244	3031.112217
843.817458	2995.889675
844.132629	2961.955148
844.447756	2975.959473
844.762840	2958.945579
845.077881	2929.757298
845.392879	2909.002868
845.707833	2907.251067
846.022745	2907.324164
846.337613	2907.931623
846.652438	2894.933008
846.967221	2895.558111
847.281960	2880.094371
847.596656	2876.356356
847.911309	2877.505739
848.225919	2867.219264
848.540485	2865.109542
848.855009	2864.461753
849.169490	2856.368181
849.483928	2842.681448
849.798323	2842.890656
850.112675	2840.692713
850.426984	2851.226204
850.741251	2850.112109
851.055474	2838.255315
851.369654	2835.384378
851.683792	2840.203721
851.997887	2845.736387
852.311938	2846.537931
852.625947	2839.729852
852.939914	2841.249760
853.253837	2847.750328
853.567718	2830.312977
853.881555	2829.453460
854.195350	2844.163547
854.509103	2843.296469
854.822812	2835.039059
855.136479	2830.799448
855.450103	2833.441013
855.763685	2825.120589
856.077224	2820.155052
856.390720	2836.374965
856.704173	2844.894515
857.017584	2837.698267
857.330953	2835.351610
857.644278	2845.012982
857.957561	2852.156297
858.270802	2856.063191
858.584000	2856.279961
858.897155	2841.864781
859.210268	2843.041891
859.523339	2840.458299
859.836367	2840.750686
860.149352	2834.502176
860.462295	2828.742658
860.775195	2836.047290
861.088054	2837.783967
861.400869	2822.070691
861.713642	2818.015082
862.026373	2831.490087
862.339062	2833.778770
862.651708	2840.763289
862.964312	2842.991479
863.276873	2839.102229
863.589392	2846.122036
863.901869	2857.986391
864.214303	2879.209649
864.526696	2894.859911
864.839045	2889.680125
865.151353	2891.784807
865.463619	2889.745660
865.775842	2885.069990
866.088023	2906.270563
866.400162	2915.044691
866.712258	2885.990001
867.024313	2873.251005
867.336325	2880.948847
867.648296	2903.462640
867.960224	2897.403173
868.272110	2885.367418
868.583954	2888.036709
868.895755	2904.100346
869.207515	2887.383880
869.519233	2892.414951
869.830909	2903.288720
870.142542	2914.825401
870.454134	2913.912952
870.765684	2916.017634
871.077191	2912.440935
871.388657	2923.128181
871.700081	2934.425407
872.011463	2948.301183
872.322803	2945.513425
872.634101	2944.505194
872.945357	2963.081846
873.256571	2987.249138
873.567744	2979.682366
873.878874	2972.062662
874.189963	2996.650889
874.501010	2999.224398
874.812015	2987.463387
875.122979	2987.894405
875.433900	2986.520691
875.744780	2990.364571
876.055618	2997.737258
876.366415	2995.062926
876.677169	3006.992817
876.987882	3003.259842
877.298554	2994.528564
877.609183	3015.890453
877.919771	3035.228319
878.230317	3060.953327
878.540822	3114.462655
878.851285	3149.775937
879.161707	3186.505784
879.472087	3283.643778
879.782425	3494.956344
880.092722	3913.054521
880.402977	4420.572684
880.713191	5019.812121
881.023363	6123.454289
881.333494	7376.546503
881.643583	7953.756098
881.953631	7666.102818
882.263637	7072.199443
882.573602	6510.118351
882.883526	5943.457370
883.193408	5378.490217
883.503248	4919.467954
883.813048	4623.905104
884.122806	4338.522864
884.432522	4032.948283
884.742197	3807.722132
885.051831	3615.114767
885.361424	3477.692913
885.670975	3408.049372
885.980485	3330.743278
886.289954	3255.708224
886.599382	3210.577294
886.908768	3174.427180
887.218113	3129.994450
887.527417	3076.406984
887.836680	3025.614839
888.145901	3024.145342
888.455082	3014.637726
888.764221	2964.773153
889.073319	2937.795418
889.382376	2932.552618
889.691392	2938.233999
890.000366	2935.930191
890.309300	2924.010383
890.618193	2937.389605
890.927044	2951.366204
891.235855	2952.974333
891.544625	2940.011005
891.853353	2946.839248
892.162041	2965.184007
892.470687	3003.015346
892.779293	3053.482337
893.087858	3100.423041
893.396381	3163.127433
893.704864	3280.309055
894.013306	3505.278107
894.321707	3795.862817
894.630068	4005.148840
894.938387	4005.922657
895.246665	3962.251141
895.554903	3847.585056
895.863100	3654.317300
896.171256	3493.696056
896.479371	3360.849049
896.787446	3241.860174
897.095480	3137.717497
897.403473	3075.524783
897.711425	3039.538506
898.019336	3029.882176
898.327207	3004.089112
898.635038	2968.276755
898.942827	2956.717389
899.250576	2942.763475
899.558284	2913.975966
899.865952	2895.961403
900.173579	2875.494318
900.481165	2868.643390
900.788711	2857.078983
901.096216	2834.781960
901.403681	2817.508446
901.711105	2828.094869
902.018489	2827.003460
902.325832	2824.389621
902.633135	2832.735252
902.940397	2864.746578
903.247619	2939.479164
903.554800	3120.554889
903.861941	3442.868622
904.169041	3854.909852
904.476101	4152.751304
904.783121	4126.814567
905.090100	3895.569279
905.397039	3632.978095
905.703938	3383.761093
906.010796	3207.262735
906.317614	3098.557814
906.624391	3004.043742
906.931129	2937.006478
907.237826	2876.434494
907.544483	2829.947493
907.851099	2803.123514
908.157675	2779.563681
908.464211	2761.077770
908.770707	2749.873806
909.077163	2738.717732
909.383578	2723.768191
909.689954	2712.292004
909.996289	2711.666901
910.302584	2710.174719
910.608839	2713.423743
910.915054	2708.856457
911.221229	2698.968234
911.527363	2700.185673
911.833458	2706.613144
912.139513	2710.094061
912.445527	2715.364587
912.751502	2723.112841
913.057436	2734.263873
913.363331	2742.980028
913.669186	2764.467946
913.975000	2794.785445
914.280775	2854.437419
914.586510	2918.923859
914.892205	2992.756598
915.197859	3113.751852
915.503475	3297.801858
915.809050	3500.831809
916.114585	3643.267090
916.420081	3670.701050
916.725536	3617.743728
917.030952	3505.898169
917.336328	3380.257491
917.641665	3254.999942
917.946961	3158.177020
918.252218	3090.746547
918.557435	3017.730474
918.862612	2961.486321
919.167750	2912.148548
919.472848	2872.958618
919.777906	2845.386027
920.082925	2823.172183
920.387904	2794.379632
920.692843	2777.532096
920.997743	2764.798142
921.302603	2752.429671
921.607423	2743.526993
921.912204	2733.341342
922.216946	2721.260217
922.521647	2713.257385
922.826310	2703.780016
923.130932	2698.978317
923.435516	2690.889785
923.740059	2684.134639
924.044564	2677.283711
924.349028	2671.390602
924.653454	2662.503048
924.957840	2659.170845
925.262186	2655.541214
925.566493	2648.980153
925.870761	2643.228196
926.174989	2641.277270
926.479178	2638.194604
926.783328	2630.685805
927.087438	2629.720424
927.391509	2632.833337
927.695541	2625.732872
927.999533	2627.043572
928.303486	2621.210957
928.607400	2623.199692
928.911275	2622.146091
929.215110	2618.518981
929.518906	2617.064608
929.822663	2616.963785
930.126381	2619.176851
930.430060	2618.924793
930.733699	2618.871861
931.037299	2621.531070
931.340861	2622.241873
931.644383	2623.113992
931.947866	2618.788682
932.251309	2620.822788
932.554714	2620.505195
932.858080	2615.504371
933.161407	2615.010337
933.464694	2613.288783
933.767943	2611.940275
934.071153	2613.271139
934.374323	2610.745521
934.677455	2611.494133
934.980548	2611.547065
935.283602	2609.833072
935.586617	2608.587907
935.889593	2610.894235
936.192530	2610.254009
936.495428	2609.709564
936.798287	2611.753752
937.101108	2615.401027
937.403890	2621.125257
937.706632	2623.799589
938.009336	2629.808645
938.312002	2638.048411
938.614628	2648.329844
938.917216	2651.583909
939.219765	2654.250679
939.522275	2654.558189
939.824747	2650.507622
940.127179	2648.045019
940.429573	2643.878505
940.731929	2642.008237
941.034246	2640.856333
941.336524	2640.145531
941.638763	2631.447020
941.940964	2630.222019
942.243126	2628.666823
942.545250	2630.784108
942.847335	2627.381329
943.149381	2623.303036
943.451389	2617.490585
943.753359	2618.178703
944.055290	2614.239041
944.357182	2614.097889
944.659036	2613.465224
944.960851	2610.667383
945.262628	2612.235182
945.564367	2613.135028
945.866067	2611.998248
946.167729	2612.076386
946.469352	2611.904987
946.770937	2613.152672
947.072484	2610.014554
947.373992	2610.475820
947.675462	2607.052876
947.976893	2603.723194
948.278286	2604.159254
948.579641	2607.322578
948.880958	2602.596496
949.182236	2604.292844
949.483476	2601.691609
949.784678	2602.248657
950.085841	2601.643718
950.386967	2604.338215
950.688054	2603.241764
950.989103	2607.335181
951.290114	2608.086313
951.591087	2608.199739
951.892021	2609.192846
952.192917	2611.814246
952.493776	2615.814402
952.794596	2615.610235
953.095378	2614.428084
953.396122	2616.736933
953.696828	2611.892384
953.997496	2612.469596
954.298126	2607.567074
954.598718	2605.404419
954.899272	2606.412650
955.199788	2603.274531
955.500266	2600.537185
955.800706	2596.121134
956.101108	2596.395877
956.401472	2593.870259
956.701798	2592.118458
957.002087	2590.038982
957.302337	2587.906574
957.602550	2587.331882
957.902724	2589.481934
958.202861	2584.828949
958.502960	2583.790472
958.803022	2581.980697
959.103045	2583.029257
959.403031	2584.413054
959.702979	2579.092116
960.002889	2579.961715
960.302762	2582.953640
960.602596	2578.139338
960.902393	2580.017168
961.202153	2581.262333
961.501875	2581.980697
961.801559	2576.601786
962.101205	2580.483475
962.400814	2582.111767
962.700385	2580.422981
962.999918	2574.474419
963.299414	2572.833524
963.598873	2576.135480
963.898293	2574.270253
964.197677	2577.791499
964.497022	2574.146744
964.796331	2575.225551
965.095601	2578.426684
965.394835	2575.172619
965.694030	2577.526838
965.993189	2577.065572
966.292309	2576.357290
966.591393	2578.381314
966.890439	2577.352918
967.189447	2575.621282
967.488419	2575.177660
967.787353	2575.517938
968.086249	2576.987435
968.385108	2578.910635
968.683930	2576.914338
968.982714	2574.784450
969.281462	2575.344018
969.580172	2576.110274
969.878844	2575.553226
970.177480	2575.275963
970.476078	2575.366704
970.774639	2576.576581
971.073162	2576.374934
971.371649	2574.544996
971.670098	2578.807291
971.968510	2574.358473
972.266885	2576.526169
972.565223	2575.061714
972.863524	2575.349060
973.161788	2576.697568
973.460014	2576.513566
973.758204	2578.857703
974.056356	2575.401992
974.354471	2574.350911
974.652550	2577.380645
974.950591	2578.209914
975.248595	2576.695048
975.546563	2575.419636
975.844493	2577.363001
976.142386	2576.722774
976.440243	2574.010633
976.738062	2577.005079
977.035845	2574.660942
977.333590	2577.980542
977.631299	2571.820252
977.928971	2572.430232
978.226606	2570.154151
978.524204	2573.705643
978.821765	2569.642473
979.119290	2573.630026
979.416777	2574.645819
979.714228	2576.342167
980.011642	2574.325705
980.309020	2572.082392
980.606360	2576.135480
980.903664	2572.515931
981.200931	2574.759245
981.498162	2575.979204
981.795356	2576.190932
982.092513	2577.547003
982.389633	2579.820563
982.686717	2582.787282
982.983764	2586.038826
983.280775	2589.403797
983.577749	2591.077460
983.874686	2591.216091
984.171587	2587.692325
984.468451	2586.855493
984.765279	2583.296439
985.062070	2581.060687
985.358824	2578.262847
985.655543	2579.122363
985.952224	2579.535738
986.248869	2575.555747
986.545478	2572.399985
986.842050	2575.613720
987.138586	2574.809656
987.435086	2572.692372
987.731549	2573.453586
988.027975	2573.821590
988.324366	2570.544840
988.620719	2571.522824
988.917037	2570.474264
989.213318	2571.565674
989.509563	2572.785633
989.805772	2570.272618
990.101944	2569.922258
990.398080	2573.917372
990.694180	2572.589028
990.990244	2572.241188
991.286271	2569.677762
991.582262	2569.256825
991.878217	2569.826476
992.174136	2570.691033
992.470019	2572.039542
992.765865	2565.932184
993.061676	2565.728017
993.357450	2568.941753
993.653188	2564.172822
993.948890	2571.028791
994.244556	2573.687999
994.540186	2569.496280
994.835780	2571.351425
995.131337	2573.715726
995.426859	2572.682289
995.722345	2576.894173
996.017795	2571.671538
996.313208	2572.934347
996.608586	2574.577763
996.903928	2574.363514
997.199234	2574.479461
997.494504	2576.347208
997.789738	2574.769327
998.084936	2575.722105
998.380099	2575.192784
998.675225	2576.599266
998.970316	2573.655232
999.265371	2571.999213
999.560390	2571.565674
999.855373	2571.384192
1000.150320	2572.243709
1000.445232	2571.974007
1000.740108	2567.986454
1001.034948	2570.146589
1001.329752	2570.474264
1001.624521	2569.826476
1001.919254	2570.282700
1002.213951	2571.958884
1002.508613	2571.167423
1002.803239	2567.862946
1003.097829	2569.428224
1003.392384	2570.378482
1003.686903	2569.065261
1003.981386	2570.116342
1004.275834	2569.781105
1004.570246	2569.050138
1004.864623	2569.017370
1005.158964	2570.131465
1005.453270	2569.783626
1005.747540	2568.808162
1006.041775	2567.149623
1006.335974	2568.031825
1006.630138	2571.530386
1006.924266	2572.243709
1007.218359	2567.802452
1007.512416	2567.000909
1007.806438	2565.627194
1008.100425	2566.582493
1008.394376	2562.857080
1008.688292	2570.486867
1008.982172	2566.990827
1009.276017	2566.592575
1009.569827	2566.471588
1009.863602	2570.980900
1010.157341	2568.505693
1010.451045	2568.556105
1010.744714	2567.996537
1011.038347	2569.970148
1011.331945	2569.259346
1011.625508	2569.332442
1011.919036	2569.145920
1012.212528	2569.186249
1012.505986	2568.667010
1012.799408	2569.534089
1013.092795	2567.414283
1013.386147	2568.238512
1013.679464	2568.082236
1013.972745	2569.508883
1014.265992	2570.622978
1014.559204	2571.588359
1014.852380	2567.368913
1015.145521	2571.280848
1015.438628	2567.822617
1015.731699	2567.378995
1016.024736	2568.435117
1016.317737	2568.908986
1016.610703	2567.578121
1016.903635	2568.712381
1017.196531	2564.908830
1017.489393	2567.411763
1017.782219	2566.000240
1018.075011	2567.162226
1018.367768	2569.851681
1018.660490	2569.065261
1018.953177	2569.065261
1019.245829	2569.065261
