Dividing Wavelength (nm)	Counts (n)	Blue Motor Position (mm): 28.100000	Red Motor Position (mm): 0.000000	
326.493990	2208.716023
326.888308	2208.716023
327.282561	2208.716023
327.676750	2169.909220
328.070874	2163.486790
328.464933	2165.750268
328.858929	2166.423263
329.252859	2173.216217
329.646726	2180.276353
330.040528	2194.116841
330.434265	2205.623275
330.827938	2226.128168
331.221547	2243.404202
331.615091	2258.043713
332.008571	2276.436363
332.401986	2299.310598
332.795338	2314.247537
333.188625	2332.393171
333.581847	2353.888651
333.975006	2372.288862
334.368100	2390.757129
334.761129	2407.236661
335.154095	2424.605957
335.546996	2449.042950
335.939833	2489.311687
336.332606	2503.058913
336.725315	2516.806140
337.117960	2527.231246
337.510540	2536.902700
337.903056	2553.238559
338.295508	2562.436144
338.687896	2571.187587
339.080220	2576.274111
339.472480	2581.789134
339.864676	2585.209557
340.256807	2594.442430
340.648875	2598.969386
341.040879	2598.447627
341.432818	2602.339397
341.824694	2607.587238
342.216506	2608.960953
342.608253	2606.299224
342.999937	2606.238730
343.391557	2609.369286
343.783113	2609.260902
344.174605	2607.718308
344.566033	2605.354007
344.957397	2607.801487
345.348697	2603.876949
345.739934	2603.261928
346.131106	2599.846547
346.522215	2597.857812
346.913260	2597.325970
347.304241	2596.864704
347.695159	2593.106524
348.086012	2592.408324
348.476802	2588.982860
348.867528	2583.193095
349.258191	2584.216449
349.648789	2582.996490
350.039324	2577.478947
350.429796	2583.714854
350.820203	2580.291911
351.210548	2578.809812
351.600828	2577.327712
351.991045	2576.498443
352.381198	2576.057342
352.771288	2575.986766
353.161314	2575.185222
353.551276	2574.862588
353.941175	2574.265212
354.331010	2572.248750
354.720782	2571.724470
355.110490	2570.761610
355.500135	2574.988617
355.889717	2572.261353
356.279235	2571.953842
356.668689	2573.718246
357.058080	2575.245716
357.447408	2572.185736
357.836672	2576.024574
358.225873	2573.042732
358.615010	2575.270922
359.004084	2575.800243
359.393095	2575.623802
359.782043	2575.943916
360.170927	2576.921900
360.559748	2575.538103
360.948505	2575.394430
361.337199	2579.417271
361.725830	2579.203022
362.114398	2577.219328
362.502903	2578.305696
362.891344	2580.649833
363.279722	2579.984401
363.668037	2581.055646
364.056289	2581.325348
364.444478	2581.219483
364.832603	2581.678228
365.220665	2582.653692
365.608665	2584.458425
365.996601	2584.639906
366.384474	2584.813826
366.772284	2583.767787
367.160031	2584.609659
367.547715	2586.739547
367.935336	2584.861717
368.322893	2588.876996
368.710388	2584.667632
369.097820	2585.118816
369.485189	2583.268712
369.872495	2590.472521
370.259738	2588.183837
370.646918	2588.410689
371.034035	2588.841708
371.421090	2589.676019
371.808081	2589.915474
372.195010	2590.212902
372.581875	2589.499578
372.968678	2590.941348
373.355418	2591.221132
373.742096	2592.173911
374.128710	2587.283991
374.515262	2590.948910
374.901751	2590.061667
375.288177	2590.659044
375.674540	2591.536205
376.060841	2592.352872
376.447079	2592.247007
376.833254	2594.659199
377.219367	2593.300608
377.605417	2594.616350
377.991404	2593.817327
378.377329	2597.315887
378.763191	2592.589806
379.148991	2595.649786
379.534727	2594.296236
379.920402	2595.543922
380.306013	2593.872779
380.691563	2597.983840
381.077049	2597.545260
381.462474	2597.603233
381.847835	2598.810590
382.233134	2599.004674
382.618371	2596.226998
383.003545	2597.751947
383.388657	2594.167687
383.773706	2597.583069
384.158693	2597.825044
384.543618	2595.828747
384.928480	2598.866042
385.313280	2599.014756
385.698017	2599.617174
386.082692	2598.578697
386.467305	2600.206989
386.851856	2602.115066
387.236344	2600.201948
387.620770	2598.394694
388.005133	2599.188676
388.389435	2598.573655
388.773674	2599.937287
389.157851	2601.293358
389.541965	2599.965014
389.926018	2604.844851
390.310008	2603.972731
390.693936	2605.578339
391.077802	2603.186311
391.461606	2604.577670
391.845348	2604.570108
392.229027	2605.313678
392.612645	2604.756631
392.996200	2605.613627
393.379694	2606.097577
393.763125	2604.154213
394.146494	2607.095726
394.529801	2604.209665
394.913047	2607.705706
395.296230	2607.423401
395.679351	2607.073041
396.062410	2608.245109
396.445408	2608.794595
396.828343	2606.362238
397.211217	2611.847013
397.594028	2610.029678
397.976778	2608.474482
398.359466	2609.802826
398.742092	2609.707044
399.124656	2608.658484
399.507158	2612.562857
399.889598	2612.134359
400.271977	2611.806684
400.654294	2610.934565
401.036549	2611.829369
401.418742	2611.806684
401.800874	2614.410440
402.182944	2612.278032
402.564952	2611.489092
402.946898	2613.064452
403.328783	2616.714247
403.710606	2612.507405
404.092367	2613.364401
404.474067	2616.288270
404.855705	2617.256172
405.237282	2616.278188
405.618797	2615.620317
406.000250	2618.697942
406.381642	2614.438167
406.762972	2614.208794
407.144240	2611.176540
407.525447	2614.491099
407.906593	2611.078237
408.287677	2619.386059
408.668700	2619.113837
409.049661	2618.632407
409.430560	2619.214660
409.811399	2618.844135
410.192176	2620.646348
410.572891	2620.961420
410.953545	2620.613580
411.334138	2620.048971
411.714669	2620.442181
412.095139	2620.976543
412.475547	2620.792541
412.855894	2623.424023
413.236180	2621.813375
413.616405	2623.119033
413.996568	2624.346554
414.376670	2624.333952
414.756711	2623.108951
415.136691	2626.113479
415.516609	2625.034672
415.896466	2625.536267
416.276262	2626.042903
416.655997	2626.529374
417.035670	2625.266565
417.415283	2630.688326
417.794834	2628.114817
418.174324	2627.623304
418.553753	2628.344189
418.933121	2630.098511
419.312428	2631.673872
419.691674	2627.986267
420.070859	2631.784777
420.449983	2631.976341
420.829045	2631.202524
421.208047	2633.662607
421.586988	2634.754017
421.965867	2634.534726
422.344686	2633.801238
422.723444	2635.500107
423.102141	2635.298461
423.480777	2637.025056
423.859352	2635.721918
424.237866	2639.031436
424.616319	2638.171919
424.994712	2639.399440
425.373044	2640.130407
425.751314	2636.833492
426.129524	2638.739049
426.507673	2641.355407
426.885762	2638.050931
427.263789	2643.109729
427.641756	2645.065697
428.019662	2646.197436
428.397508	2645.650471
428.775292	2647.119967
429.153016	2649.459062
429.530679	2646.225162
429.908282	2651.964516
430.285824	2652.861841
430.663305	2655.148004
431.040726	2653.370998
431.418086	2655.228663
431.795385	2659.438026
432.172624	2663.322235
432.549802	2665.734427
432.926920	2670.019408
433.303977	2674.188442
433.680974	2682.851665
434.057910	2685.793179
434.434786	2695.973789
434.811601	2700.399922
435.188355	2716.151007
435.565050	2721.900443
435.941683	2732.078533
436.318257	2754.814137
436.694770	2771.838113
437.071222	2789.711524
437.447614	2810.826397
437.823946	2830.481856
438.200218	2856.307687
438.576429	2877.092364
438.952580	2915.369845
439.328670	2951.761935
439.704700	2978.351501
440.080670	3017.634692
440.456580	3088.699838
440.832429	3125.510343
441.208218	3144.172695
441.583947	3217.418140
441.959616	3287.888429
442.335224	3326.299501
442.710773	3405.377561
443.086261	3495.430213
443.461689	3487.616424
443.837057	3629.671098
444.212365	3737.955083
444.587612	3775.730969
444.962800	3886.094430
445.337927	3942.184828
445.712995	3957.482210
446.088002	4226.710072
446.462949	4265.640383
446.837837	4353.903425
447.212664	4461.189261
447.587431	4668.597453
447.962139	4943.604999
448.336786	5592.928299
448.711374	5927.378610
449.085901	5490.010623
449.460369	5481.493593
449.834776	5462.259071
450.209124	5841.489951
450.583412	6107.252020
450.957640	6568.789820
451.331808	6448.218022
451.705917	6221.136727
452.079965	6097.600731
452.453954	6586.327994
452.827883	6568.857875
453.201752	6826.942267
453.575562	6760.255363
453.949311	7068.244657
454.323001	7184.445774
454.696632	7424.863442
455.070202	7718.283802
455.443713	7968.193963
455.817164	8365.257925
456.190556	8505.981734
456.563888	8850.763890
456.937160	9102.957693
457.310373	8884.146411
457.683526	9070.507786
458.056619	8965.855953
458.429653	9180.072224
458.802628	9014.692131
459.175542	9345.918624
459.548398	10066.014683
459.921194	10439.513772
460.293930	10592.651422
460.666607	11327.923876
461.039224	12133.288532
461.411782	12799.260243
461.784280	12932.150099
462.156719	13165.245492
462.529099	13085.126433
462.901419	12454.904065
463.273680	12450.770319
463.645882	12471.557517
464.018024	12398.231413
464.390106	12709.058877
464.762130	13435.325309
465.134094	14100.961783
465.505999	15696.829774
465.877845	18435.005582
466.249631	20971.792336
466.621358	21030.161335
466.993026	20056.154960
467.364634	19796.343973
467.736184	18703.436942
468.107674	18118.043034
468.479105	18341.809771
468.850477	17963.241802
469.221790	17687.621757
469.593043	17192.028443
469.964238	16797.401879
470.335373	16581.501863
470.706449	17015.031011
471.077467	16659.798543
471.448425	18403.894101
471.819324	22164.975478
472.190164	24289.005157
472.560945	21123.755398
472.931667	18883.632987
473.302330	18333.607814
473.672934	17846.697887
474.043479	18280.353065
474.413965	18143.092528
474.784393	17831.002255
475.154761	18505.183485
475.525070	18594.187577
475.895321	18255.474970
476.265513	18844.448098
476.635645	19443.649726
477.005719	19278.942627
477.375734	19489.249483
477.745691	19989.793210
478.115588	20495.594861
478.485427	21021.238493
478.855207	22067.703894
479.224928	23795.108191
479.594591	26018.125967
479.964194	26144.505174
480.333739	26371.173095
480.703226	25953.626924
481.072653	25633.188501
481.442022	26184.166452
481.811333	27078.850272
482.180584	27055.993680
482.549777	26126.475487
482.918912	25763.499807
483.287988	25871.372938
483.657005	25592.271976
484.025964	25309.367463
484.394864	25272.690548
484.763706	24986.471477
485.132489	24406.854731
485.501213	24567.007148
485.869879	24499.856458
486.238487	24301.668535
486.607036	24462.957732
486.975527	24129.787874
487.343959	24475.444670
487.712333	24438.112405
488.080648	24110.860862
488.448905	24572.050822
488.817104	24317.036493
489.185244	24972.618386
489.553326	24965.028929
489.921350	25906.981128
490.289315	28162.300097
490.657222	29973.062394
491.025070	30472.527314
491.392861	30287.363213
491.760593	29449.294071
492.128267	28552.293841
492.495883	27537.282720
492.863440	26652.388821
493.230939	25762.801607
493.598380	25625.568797
493.965763	25219.377826
494.333088	24788.540653
494.700354	24704.386152
495.067563	24598.368166
495.434713	24345.735782
495.801805	24490.492514
496.168839	24320.651000
496.535815	24134.682835
496.902733	24340.341747
497.269593	24017.768395
497.636395	24206.415933
498.003139	24201.657084
498.369825	23956.089877
498.736453	24129.951712
499.103023	24015.714125
499.469535	24032.728019
499.835989	24234.447269
500.202385	24265.808288
500.568723	23763.706844
500.935003	24040.090624
501.301226	23624.717191
501.667390	24457.866167
502.033497	24700.149062
502.399546	24423.258646
502.765537	24013.599361
503.131470	24408.414968
503.497345	24528.434759
503.863163	23734.727771
504.228923	24369.865265
504.594625	24551.966865
504.960269	24064.008378
505.325856	24566.868516
505.691385	23970.820129
506.056856	24581.172790
506.422270	24551.306474
506.787625	24143.593074
507.152924	24542.292891
507.518164	24553.612802
507.883347	24375.171079
508.248472	24069.420057
508.613540	24849.894016
508.978550	24627.654749
509.343503	24618.285764
509.708398	24898.155503
510.073236	25033.402098
510.438016	25241.684931
510.802738	24928.525934
511.167403	25177.228738
511.532010	24864.767941
511.896561	25654.744475
512.261053	25623.892613
512.625488	25474.150179
512.989866	25352.555028
513.354186	25219.400511
513.718449	25312.523225
514.082655	25688.099269
514.446803	25430.186277
514.810894	25871.632557
515.174927	25368.545568
515.538904	25408.572329
515.902822	25895.845219
516.266684	25649.171479
516.630488	25545.984101
516.994235	25535.624530
517.357925	25828.644118
517.721558	26019.580340
518.085133	26100.649656
518.448651	26033.899738
518.812112	25738.450314
519.175516	25930.488028
519.538863	26108.075275
519.902152	25888.033951
520.265385	26178.664032
520.628560	25969.456147
520.991678	25979.548537
521.354739	26052.647789
521.717743	26102.507321
522.080690	25899.462247
522.443580	26234.472126
522.806413	26231.654121
523.169189	26325.958986
523.531908	26387.670271
523.894569	25981.451573
524.257174	26047.798199
524.619722	26247.967295
524.982213	25926.538284
525.344647	26011.025502
525.707025	26121.031041
526.069345	26118.059281
526.431608	26070.760655
526.793815	26261.865756
527.155964	25712.367384
527.518057	25889.637038
527.880093	25811.547044
528.242072	26048.972788
528.603995	25746.107826
528.965860	25550.818567
529.327669	25595.352121
529.689421	25590.661327
530.051117	25422.843836
530.412755	25593.055875
530.774337	25401.781895
531.135862	25268.334991
531.497331	25471.944674
531.858743	25009.562482
532.220098	25507.789799
532.581396	25173.210939
532.942638	25131.402129
533.303824	25208.650250
533.664953	25235.708643
534.026025	24891.102928
534.387040	25142.631299
534.747999	25196.024680
535.108902	25360.371337
535.469748	24848.784962
535.830537	25044.832915
536.191270	25149.578009
536.551947	25031.932602
536.912567	24706.805905
537.273131	25016.219326
537.633638	24744.541462
537.994089	24943.099910
538.354483	24497.852599
538.714821	24991.195038
539.075103	25030.763054
539.435328	24828.622867
539.795497	24374.954309
540.155609	24783.381032
540.515665	25066.376286
540.875665	24321.455064
541.235609	24590.856846
541.595496	24564.128649
541.955328	24912.558079
542.315102	24835.945143
542.674821	24394.340067
543.034483	24265.082361
543.394090	24438.855976
543.753640	24214.761564
544.113134	24860.094791
544.472571	24467.741787
544.831953	24743.603808
545.191278	24358.336146
545.550548	24282.108858
545.909761	24497.739173
546.268918	24721.581527
546.628019	24679.729868
546.987064	24398.985490
547.346053	24154.592872
547.704986	24282.184476
548.063863	24424.045066
548.422684	24430.467496
548.781449	23979.959741
549.140158	24376.149063
549.498811	23960.707574
549.857408	23689.503580
550.215949	24133.851044
550.574434	23802.067504
550.932864	24029.925137
551.291237	24167.329347
551.649555	24047.299474
552.007817	24096.700261
552.366022	23973.776766
552.724173	24013.521223
553.082267	23944.102014
553.440305	24418.711525
553.798288	23682.864380
554.156215	24205.463155
554.514086	24298.679131
554.871902	23663.778572
555.229661	23966.457010
555.587365	23819.023425
555.945014	23668.066073
556.302606	23922.107459
556.660143	23863.070507
557.017625	24124.542554
557.375050	23651.037055
557.732421	24038.459811
558.089735	23854.190514
558.446994	23921.933540
558.804197	23943.925573
559.161345	23896.929417
559.518437	23642.119254
559.875474	23843.362116
560.232455	24023.812738
560.589381	23853.789743
560.946251	23819.953518
561.303065	24152.604137
561.659825	24232.294697
562.016528	23838.383976
562.373177	23580.720521
562.729770	23939.567496
563.086307	23806.712927
563.442789	23964.722853
563.799216	23786.661738
564.155587	23806.846518
564.511904	23802.748060
564.868164	23715.861253
565.224370	23711.851015
565.580520	23617.410039
565.936615	23756.447582
566.292654	23415.826899
566.648638	23729.963881
567.004567	23548.686509
567.360441	23513.927753
567.716260	23229.654567
568.072023	23559.451893
568.427732	23306.678357
568.783385	23104.896092
569.138982	23333.318334
569.494525	23371.812585
569.850013	23117.214151
570.205445	23219.181570
570.560823	23021.822918
570.916145	22785.196197
571.271412	22956.136683
571.626625	22717.710271
571.981782	22834.251665
572.336884	22638.135657
572.691931	22761.084358
573.046923	22493.406651
573.401860	22387.421432
573.756743	22382.697871
574.111570	22295.816105
574.466342	22226.875806
574.821059	22310.226243
575.175722	22020.153210
575.530330	22011.789936
575.884882	22037.890510
576.239380	21938.771343
576.593823	21833.988440
576.948211	21813.055048
577.302544	21655.529073
577.656823	21522.845904
578.011047	21615.313268
578.365216	21506.114314
578.719330	21366.872604
579.073389	21272.250146
579.427394	21423.719175
579.781344	21189.643278
580.135239	21082.549006
580.489080	21050.240251
580.842866	20818.178296
581.196597	21001.469608
581.550273	20982.272894
581.903895	20870.863394
582.257463	21193.298115
582.610975	20720.700024
582.964434	21020.600787
583.317837	20728.801158
583.671186	20818.763069
584.024481	20791.646703
584.377721	20563.567259
584.730906	20619.070363
585.084037	20647.472223
585.437113	20558.301774
585.790135	20748.580126
586.143103	20230.447813
586.496016	20226.762729
586.848874	20480.305041
587.201679	20411.286604
587.554428	20079.936603
587.907124	20418.828170
588.259765	20199.026301
588.612352	20271.676889
588.964884	19832.330249
589.317362	20009.254585
589.669786	20065.889428
590.022155	20107.098340
590.374470	20293.434509
590.726731	20099.095508
591.078937	19847.894812
591.431090	19953.131419
591.783188	19703.536330
592.135232	19663.736421
592.487222	19772.945457
592.839157	19793.205854
593.191038	19678.761580
593.542866	19558.474608
593.894639	19282.660478
594.246358	19504.937554
594.598022	19404.787471
594.949633	19164.538682
595.301190	19116.829202
595.652692	19285.276837
596.004141	19532.043838
596.355535	18855.861270
596.706876	18865.691520
597.058162	18758.524151
597.409395	18986.091918
597.760573	19063.834072
598.111698	18847.245938
598.462768	18778.262789
598.813785	18738.772910
599.164748	18565.410150
599.515657	18592.365200
599.866511	18391.999499
600.217312	18750.823788
600.568060	18282.225853
600.918753	18580.349609
601.269392	18493.608996
601.619978	18259.691896
601.970510	18483.894692
602.320988	18415.357685
602.671412	18635.378845
603.021783	18542.241007
603.372100	18271.929297
603.722363	18408.962982
604.072572	18352.237398
604.422728	18481.706832
604.772830	18245.750585
605.122878	18193.819138
605.472872	18191.018777
605.822813	18169.782917
606.172701	18147.445564
606.522534	18336.508998
606.872314	18362.145786
607.222041	18200.415488
607.571714	18415.423220
607.921333	18239.867558
608.270899	18316.878745
608.620411	18505.397734
608.969870	18272.705634
609.319276	18264.559130
609.668627	18301.629254
610.017926	18434.135983
610.367171	18533.802115
610.716362	18593.076002
611.065500	18411.445750
611.414585	18549.593530
611.763616	18527.326753
612.112594	18475.228949
612.461518	18436.104554
612.810389	18634.473958
613.159207	18489.500455
613.507971	18392.168378
613.856682	18679.234363
614.205340	18602.535727
614.553945	18756.381661
614.902496	18491.872318
615.250994	18729.061127
615.599439	18673.855452
615.947830	18649.100866
616.296169	18707.726964
616.644454	18674.364608
616.992686	18647.089445
617.340864	18854.424541
617.688990	18614.553838
618.037063	18792.418349
618.385082	18634.289956
618.733048	18915.911495
619.080961	18791.160581
619.428821	18823.701229
619.776628	18710.098827
620.124382	18638.277508
620.472083	18672.557354
620.819731	18695.255150
621.167326	18396.216424
621.514868	18418.838602
621.862357	18198.940951
622.209793	18209.489565
622.557176	18038.349954
622.904506	17876.942290
623.251783	17774.047299
623.599007	17540.130198
623.946179	17492.501377
624.293297	17431.805885
624.640363	17184.996033
624.987376	17201.052108
625.334336	16990.238616
625.681243	16838.504927
626.028097	16843.415011
626.374899	16777.759023
626.721647	16646.830175
627.068343	16474.137888
627.414987	16406.588947
627.761577	16381.138682
628.108115	16432.573575
628.454600	16136.443595
628.801032	16239.497383
629.147412	16167.905436
629.493739	16199.059767
629.840014	16002.732031
630.186236	16097.893892
630.532405	15860.110227
630.878521	16060.851493
631.224585	15953.555575
631.570597	15776.530416
631.916556	15815.831252
632.262462	15782.839420
632.608316	15714.516662
632.954117	15652.422250
633.299866	15651.343443
633.645562	15562.064608
633.991206	15313.906248
634.336797	15184.837587
634.682336	15157.133926
635.027823	15041.205031
635.373257	14930.327373
635.718639	14819.479962
636.063968	14785.653819
636.409245	14533.606209
636.754470	14557.725610
637.099642	14403.705757
637.444762	14174.280325
637.789829	14219.602818
638.134845	14054.603332
638.479808	14081.208022
638.824719	14026.713149
639.169577	13882.594122
639.514383	13934.712091
639.859137	13750.586468
640.203839	13835.671062
640.548489	13677.945961
640.893086	13662.003312
641.237632	13530.822407
641.582125	13679.385211
641.926566	13517.453267
642.270955	13518.993339
642.615292	13491.468639
642.959576	13501.240916
643.303809	13526.930636
643.647990	13460.400008
643.992118	13525.599771
644.336195	13294.422538
644.680219	13491.403104
645.024192	13424.484308
645.368112	13661.983147
645.711981	13712.470303
646.055797	13896.079209
646.399562	13866.807749
646.743274	14130.792811
647.086935	14412.532817
647.430544	14380.297159
647.774101	14406.312033
648.117606	14554.426175
648.461059	14531.226785
648.804460	14520.302604
649.147810	14248.405451
649.491108	14144.590449
649.834354	14167.021063
650.177548	13858.779711
650.520690	13665.514476
650.863781	13584.732506
651.206820	13631.910144
651.549807	13463.061737
651.892742	13268.538734
652.235626	13200.251264
652.578458	13204.143035
652.921238	12893.618040
653.263967	13086.802617
653.606644	12915.889858
653.949269	12892.824058
654.291843	12697.217207
654.634365	12855.504396
654.976836	12703.533772
655.319255	12718.337121
655.661622	12673.727950
656.003938	12590.677461
656.346203	12513.857838
656.688416	12587.960279
657.030577	12547.573075
657.372687	12467.849748
657.714746	12440.569544
658.056753	12633.923000
658.398708	12450.596399
658.740612	12449.429372
659.082465	12550.476780
659.424266	12514.641738
659.766016	12537.818443
660.107715	12449.991460
660.449362	12526.924509
660.790958	12480.971871
661.132503	12427.558326
661.473996	12490.545022
661.815438	12503.669667
662.156829	12529.417360
662.498168	12503.452897
662.839456	12497.854696
663.180693	12528.646063
663.521879	12613.929783
663.863013	12590.251484
664.204097	12560.238974
664.545129	12684.725227
664.886110	12657.089622
665.227040	12746.822161
665.567918	12747.238056
665.908746	12782.886575
666.249522	12772.285029
666.590248	12814.829847
666.930922	12931.343515
667.271545	12899.533834
667.612118	12988.870642
667.952639	12899.120459
668.293109	12906.596491
668.633528	12869.627189
668.973896	12839.050070
669.314213	12924.805138
669.654480	12669.415243
669.994695	12730.030077
670.334859	12752.982451
670.674973	12697.950695
671.015035	12737.105337
671.355047	12676.432529
671.695008	12646.258703
672.034918	12652.003098
672.374777	12694.363914
672.714585	12611.479783
673.054342	12646.180565
673.394049	12594.874222
673.733705	12684.717666
674.073310	12596.623502
674.412864	12614.449022
674.752368	12486.287768
675.091820	12493.491577
675.431223	12490.280362
675.770574	12355.742048
676.109875	12278.551900
676.449125	12233.544479
676.788324	12177.310408
677.127473	12014.493741
677.466571	12000.557472
677.805619	11901.367728
678.144616	11824.805204
678.483562	11789.804473
678.822458	11661.161789
679.161303	11633.279167
679.500098	11625.301541
679.838842	11583.916188
680.177535	11607.896957
680.516179	11672.469097
680.854771	11605.449477
681.193314	11831.199908
681.531805	11982.376550
681.870247	12397.613872
682.208638	12811.149804
682.546978	13125.203607
682.885268	13176.265454
683.223508	12872.989638
683.561697	12708.673229
683.899836	12605.783279
684.237925	12412.873445
684.575963	12327.141062
684.913951	12253.517530
685.251889	12197.601052
685.589776	12296.730301
685.927614	12226.141544
686.265401	12185.487159
686.603137	12232.695044
686.940824	12379.390101
687.278460	12513.928415
687.616046	12561.844582
687.953582	12725.644273
688.291068	12648.625525
688.628504	12886.348696
688.965889	12895.631981
689.303224	12863.832383
689.640510	12752.526226
689.977745	12437.789348
690.314930	12211.933052
690.652065	12127.529013
690.989150	11835.389107
691.326185	11604.680701
691.663170	11412.224571
692.000105	11170.796151
692.336990	11056.994624
692.673825	10802.154215
693.010610	10679.323981
693.347345	10468.588626
693.684030	10274.501683
694.020665	10206.811589
694.357251	10024.810812
694.693786	9968.775867
695.030272	9801.054157
695.366707	9673.467595
695.703093	9610.624571
696.039429	9603.549312
696.375716	9540.807111
696.711952	9402.190503
697.048139	9436.394732
697.384276	9392.642558
697.720363	9411.967821
698.056400	9350.674952
698.392388	9298.849370
698.728326	9267.823589
699.064214	9198.144760
699.400053	9239.499866
699.735842	9058.343482
700.071581	9019.556844
700.407270	8942.154968
700.742910	8857.975261
701.078501	8766.874049
701.414042	8649.284094
701.749533	8583.365967
702.084974	8444.744318
702.420366	8557.797234
702.755709	8436.703678
703.091002	8303.912124
703.426246	8334.804314
703.761440	8285.335472
704.096584	8240.741425
704.431679	8172.355652
704.766725	8163.120258
705.101721	8107.070189
705.436668	8155.145153
705.771565	8049.893423
706.106413	8127.678426
706.441212	8173.268101
706.775961	8128.331256
707.110661	8156.229001
707.445311	8308.043349
707.779913	8202.100981
708.114465	8334.506886
708.448967	8376.461889
708.783421	8511.317796
709.117825	8694.122637
709.452180	8727.094304
709.786485	8816.549579
710.120742	9100.568187
710.454949	9101.710008
710.789107	9204.146254
711.123216	9415.572246
711.457275	9579.014016
711.791286	9743.978214
712.125247	9738.957224
712.459159	9728.277540
712.793023	9973.242329
713.126837	9551.199449
713.460602	9700.626811
713.794318	9529.030975
714.127985	9558.892250
714.461602	9236.359227
714.795171	9180.783027
715.128691	8946.059342
715.462162	8684.141152
715.795584	8635.854460
716.128957	8487.818457
716.462281	8310.866395
716.795556	8362.941515
717.128782	8163.049682
717.461960	7890.744196
717.795088	7967.233623
718.128167	7873.296762
718.461198	7705.018006
718.794180	7648.063049
719.127113	7642.807647
719.459997	7490.872311
719.792833	7259.735407
720.125619	7321.789490
720.458357	7178.819847
720.791046	7166.388361
721.123686	7168.540934
721.456278	7007.067735
721.788821	7025.818307
722.121315	6920.606905
722.453761	6981.529250
722.786158	6926.142092
723.118506	6943.957530
723.450805	6909.077787
723.783056	6970.461396
724.115259	6883.312449
724.447412	6879.176182
724.779518	6924.223933
725.111574	6927.052021
725.443582	6999.377455
725.775542	6985.269786
726.107453	7176.853797
726.439315	7089.563697
726.771129	7146.180896
727.102895	7316.173645
727.434612	7434.802077
727.766281	7460.030532
728.097901	7541.354425
728.429473	7533.422170
728.760996	7513.718820
729.092471	7486.020200
729.423897	7433.423322
729.755276	7438.141842
730.086606	7370.305555
730.417887	7466.871377
730.749120	7662.332035
731.080305	7855.219184
731.411442	7976.506825
731.742530	7972.259653
732.073570	8080.490706
732.404562	8170.613934
732.735506	8015.399327
733.066401	8155.006521
733.397249	8088.836336
733.728048	7847.927155
734.058798	7512.501381
734.389501	7293.463247
734.720156	7111.288550
735.050762	6878.152828
735.381320	6787.109590
735.711831	6736.070428
736.042293	6628.461958
736.372707	6646.078270
736.703073	6508.101889
737.033391	6544.229318
737.363661	6555.148457
737.693883	6585.405463
738.024056	6672.567013
738.354182	6713.329783
738.684260	6748.295226
739.014290	6858.346135
739.344272	6974.383414
739.674207	6997.935685
740.004093	7068.652991
740.333931	7084.099086
740.663722	7089.455312
740.993464	7166.736201
741.323159	7161.322002
741.652806	6915.142295
741.982405	6923.263593
742.311956	6979.452294
742.641460	6821.548232
742.970915	6621.767305
743.300323	6612.983095
743.629683	6561.318830
743.958996	6428.340753
744.288260	6338.625858
744.617477	6289.703981
744.946647	6293.978879
745.275768	6119.522189
745.604842	6077.468883
745.933869	6064.250978
746.262847	6020.874370
746.591778	6007.238049
746.920662	5974.223532
747.249498	5956.687878
747.578286	6012.533781
747.907027	6081.529533
748.235720	6143.132433
748.564365	6115.779132
748.892963	6142.348533
749.221514	6295.579446
749.550017	6124.709536
749.878473	6002.204457
750.206881	6056.714453
750.535242	6002.615311
750.863555	5929.193425
751.191821	5953.680830
751.520039	5954.880625
751.848210	5863.560123
752.176334	5879.346496
752.504411	5930.670483
752.832440	5855.040573
753.160421	5785.059275
753.488356	5834.623900
753.816243	5869.629672
754.144082	5715.985385
754.471875	5686.141754
754.799620	5729.082303
755.127318	5744.510754
755.454969	5697.474268
755.782572	5661.424977
756.110129	5706.870979
756.437638	5692.327250
756.765100	5630.905832
757.092515	5626.003310
757.419882	5672.760012
757.747203	5656.817362
758.074477	5716.557556
758.401703	5706.291246
758.728882	5659.466489
759.056014	5713.404314
759.383099	5844.907854
759.710138	5859.360842
760.037129	5843.811403
760.364073	5843.234191
760.690970	5926.786274
761.017820	5909.527884
761.344623	5865.054825
761.671379	5963.548889
761.998088	6081.965593
762.324751	6328.294014
762.651366	6923.934067
762.977935	8226.124599
763.304456	9859.108085
763.630931	10764.431260
763.957359	10385.432273
764.283740	9433.765771
764.610074	8602.227444
764.936362	7611.113912
765.262602	7009.321131
765.588796	6472.339944
765.914943	6133.246730
766.241044	5976.335776
766.567097	5769.192243
766.893104	5515.720507
767.219064	5332.691335
767.544978	5272.956182
767.870845	5193.346281
768.196665	5088.006330
768.522438	5017.175598
768.848165	4983.873736
769.173846	4916.375206
769.499479	4875.025142
769.825066	4820.109332
770.150607	4763.164458
770.476101	4736.249738
770.801548	4734.298812
771.126949	4656.372655
771.452303	4599.886527
771.777611	4563.517122
772.102872	4581.597220
772.428087	4542.374523
772.753256	4497.903984
773.078378	4455.308755
773.403453	4386.733939
773.728482	4372.285992
774.053465	4329.771421
774.378401	4316.281293
774.703291	4315.152075
775.028135	4243.015684
775.352932	4200.211247
775.677683	4185.092826
776.002388	4200.468346
776.327046	4215.508628
776.651658	4139.094818
776.976224	4076.138368
777.300743	4079.931837
777.625216	4103.688274
777.949643	4098.221143
778.274024	4055.320923
778.598359	4008.423069
778.922647	4032.391235
779.246889	4027.685318
779.571086	4017.555119
779.895236	4002.431658
780.219339	3986.874657
780.543397	3981.709995
780.867409	4033.681771
781.191374	4050.070562
781.515294	3989.420440
781.839167	3978.551712
782.162995	3999.200278
782.486776	3986.284842
782.810511	3997.541739
783.134201	3995.447139
783.457844	3948.027526
783.781441	3891.218763
784.104993	3893.993918
784.428498	3918.751025
784.751958	3913.540992
785.075372	3888.859503
785.398739	3856.356663
785.722061	3867.076677
786.045337	3909.593769
786.368568	3942.474695
786.691752	3852.739636
787.014891	3902.654620
787.337983	4030.833519
787.661030	4188.324206
787.984031	4351.841593
788.306987	4518.678579
788.629897	4606.346765
788.952760	4561.790527
789.275579	4491.224455
789.598351	4430.755815
789.921078	4286.583856
790.243759	4088.766459
790.566395	4067.888520
790.888984	4063.840473
791.211529	3959.120585
791.534027	3894.550966
791.856480	3888.680542
792.178888	3827.538907
792.501249	3776.187194
792.823566	3783.789254
793.145836	3817.499450
793.468062	3766.639248
793.790241	3716.247875
794.112375	3748.508739
794.434464	3809.925116
794.756507	3836.388653
795.078505	3817.212104
795.400457	3847.123790
795.722364	3986.186540
796.044226	4091.249227
796.366042	4165.439888
796.687812	4143.427690
797.009538	4151.536386
797.331218	4111.612968
797.652852	4085.335953
797.974442	4062.020617
798.295986	4062.265113
798.617484	3985.901714
798.938938	3897.663878
799.260346	3932.772994
799.581709	3931.028755
799.903026	3859.830018
800.224299	3820.390551
800.545526	3817.252433
800.866708	3777.180301
801.187845	3717.414902
801.508936	3750.000920
801.829983	3753.199532
802.150984	3675.033921
802.471940	3659.262672
802.792851	3673.866894
803.113717	3673.140968
803.434538	3673.813962
803.755314	3615.780199
804.076045	3590.859255
804.396731	3612.432873
804.717372	3640.093684
805.037967	3622.749594
805.358518	3613.045373
805.679024	3640.693581
805.999485	3652.764624
806.319901	3655.562465
806.640272	3671.396729
806.960598	3682.618337
807.280879	3660.643948
807.601115	3669.775998
807.921306	3686.983977
808.241453	3725.170717
808.561554	3700.572407
808.881611	3639.012357
809.201623	3671.225330
809.521590	3683.835776
809.841513	3656.923576
810.161390	3690.137218
810.481223	3667.406656
810.801011	3610.048407
811.120755	3604.677058
811.440453	3637.671410
811.760107	3643.413284
812.079716	3597.740430
812.399281	3564.829257
812.718801	3587.607711
813.038276	3566.107190
813.357707	3560.803896
813.677093	3577.417018
813.996434	3524.487423
814.315731	3535.199875
814.634983	3536.896224
814.954191	3552.617062
815.273354	3584.981270
815.592473	3578.720157
815.911547	3584.341043
816.230577	3622.220273
816.549562	3672.757840
816.868502	3717.704768
817.187399	3742.010691
817.506250	3739.916092
817.825058	3710.599262
818.143821	3799.913384
818.462539	3905.076895
818.781213	3951.238741
819.099843	4006.835106
819.418429	4248.681941
819.736970	4495.403572
820.055466	4737.530191
820.373919	5103.253300
820.692327	5514.641701
821.010691	5947.583555
821.329011	7317.834705
821.647286	10056.552437
821.965517	14602.821252
822.283704	18643.059043
822.601847	20813.863068
822.919945	19003.925000
823.237999	16441.365347
823.556010	13944.108802
823.873976	11859.344670
824.191897	9762.257437
824.509775	8411.941530
824.827609	7281.445136
825.145398	6733.897690
825.463144	6617.232788
825.780845	6727.152627
826.098502	6916.964672
826.416116	7789.500182
826.733685	9113.723078
827.051210	10224.987470
827.368692	10278.519482
827.686129	9028.220067
828.003522	7508.556678
828.320872	6494.415156
828.638177	5791.269977
828.955439	5238.071398
829.272656	4736.748812
829.589830	4452.541161
829.906960	4275.735293
830.224046	4092.534721
830.541088	3967.501503
830.858086	3918.403185
831.175041	3842.884180
831.491952	3823.760563
831.808819	3838.034590
832.125642	3909.402205
832.442421	4057.506264
832.759157	4327.601204
833.075849	4878.624526
833.392497	5740.505558
833.709101	6513.647158
834.025662	6853.375557
834.342179	6494.710064
834.658653	5837.535166
834.975083	5188.022822
835.291469	4610.036890
835.607811	4198.686298
835.924110	4059.847880
836.240366	3862.640462
836.556578	3656.958864
836.872746	3549.385682
837.188871	3509.268180
837.504952	3443.586987
837.820990	3358.411651
838.136984	3312.332984
838.452935	3339.111594
838.768842	3332.966427
839.084706	3358.083976
839.400526	3511.352697
839.716303	3849.475488
840.032037	4372.918657
840.347727	4642.559894
840.663373	4365.170403
840.978977	3981.785612
841.294537	3677.282276
841.610054	3445.479940
841.925527	3340.039166
842.240957	3270.975358
842.556344	3218.973336
842.871687	3159.850683
843.186987	3109.096347
843.502244	3070.460943
843.817458	3036.276879
844.132629	3006.531551
844.447756	3015.346008
844.762840	3004.134482
845.077881	2969.080819
845.392879	2952.878551
845.707833	2948.739763
846.022745	2944.333795
846.337613	2947.628189
846.652438	2932.769388
846.967221	2933.170160
847.281960	2917.595515
847.596656	2911.483116
847.911309	2914.749783
848.225919	2907.377096
848.540485	2901.922568
848.855009	2903.303844
849.169490	2890.935373
849.483928	2882.690566
849.798323	2881.732746
850.112675	2879.726367
850.426984	2890.809344
850.741251	2887.890516
851.055474	2879.343239
851.369654	2871.834441
851.683792	2876.230327
851.997887	2885.521173
852.311938	2887.580485
852.625947	2875.643033
852.939914	2882.017572
853.253837	2881.636964
853.567718	2867.690612
853.881555	2866.392515
854.195350	2884.066801
854.509103	2876.605893
854.822812	2868.991230
855.136479	2865.795138
855.450103	2870.057434
855.763685	2862.697349
856.077224	2859.355064
856.390720	2873.195552
856.704173	2883.650905
857.017584	2875.532127
857.330953	2872.865357
857.644278	2882.352808
857.957561	2887.870351
858.270802	2894.514592
858.584000	2893.178686
858.897155	2878.849206
859.210268	2878.082951
859.523339	2875.869884
859.836367	2877.263763
860.149352	2869.651621
860.462295	2867.279758
860.775195	2872.835110
861.088054	2874.763351
861.400869	2858.205681
861.713642	2854.591174
862.026373	2871.307640
862.339062	2874.173536
862.651708	2877.135214
862.964312	2882.408261
863.276873	2875.582539
863.589392	2883.154352
863.901869	2896.369737
864.214303	2917.686256
864.526696	2935.602516
864.839045	2930.021959
865.151353	2930.566404
865.463619	2926.029365
865.775842	2926.629263
866.088023	2944.737087
866.400162	2951.910649
866.712258	2928.232349
867.024313	2915.311872
867.336325	2922.150197
867.648296	2945.281532
867.960224	2935.882300
868.272110	2923.697832
868.583954	2929.802669
868.895755	2944.328754
869.207515	2930.218564
869.519233	2933.029007
869.830909	2943.665842
870.142542	2952.621452
870.454134	2955.643623
870.765684	2955.958696
871.077191	2957.029941
871.388657	2962.983543
871.700081	2979.349649
872.011463	2990.281392
872.322803	2989.968840
872.634101	2991.249293
872.945357	3004.502487
873.256571	3032.642207
873.567744	3022.519570
873.878874	3014.494053
874.189963	3041.224772
874.501010	3042.805173
874.812015	3031.923843
875.122979	3030.953421
875.433900	3028.223636
875.744780	3032.942156
876.055618	3041.280224
876.366415	3036.826365
876.677169	3049.310782
876.987882	3046.661656
877.298554	3040.057745
877.609183	3059.816547
877.919771	3082.703386
878.230317	3110.084413
878.540822	3160.621980
878.851285	3204.742158
879.161707	3243.105339
879.472087	3347.026205
879.782425	3572.267480
880.092722	4007.288810
880.402977	4533.912946
880.713191	5161.723123
881.023363	6317.571479
881.333494	7596.585307
881.643583	8154.336048
881.953631	7859.720935
882.263637	7230.161478
882.573602	6646.524412
882.883526	6068.291463
883.193408	5489.849306
883.503248	5031.328637
883.813048	4727.087441
884.122806	4426.682563
884.432522	4109.321763
884.742197	3875.213099
885.051831	3681.378213
885.361424	3543.338818
885.670975	3471.119248
885.980485	3386.712689
886.289954	3309.328457
886.599382	3263.970675
886.908768	3222.028275
887.218113	3183.934796
887.527417	3126.150570
887.836680	3074.128383
888.145901	3070.032445
888.455082	3060.855025
888.764221	3008.923578
889.073319	2980.564568
889.382376	2978.341419
889.691392	2981.403920
890.000366	2982.507932
890.309300	2965.932618
890.618193	2981.172027
890.927044	2997.104593
891.235855	2997.717093
891.544625	2984.363077
891.853353	2994.122751
892.162041	3014.446163
892.470687	3051.138201
892.779293	3105.340687
893.087858	3149.970022
893.396381	3221.718244
893.704864	3342.768951
894.013306	3581.477668
894.321707	3882.454717
894.630068	4086.916355
894.938387	4088.267384
895.246665	4040.840209
895.554903	3919.348401
895.863100	3719.093606
896.171256	3555.062022
896.479371	3416.178233
896.787446	3291.069398
897.095480	3189.979139
897.403473	3125.918677
897.711425	3084.760176
898.019336	3080.064342
898.327207	3047.528735
898.635038	3015.091430
898.942827	2999.357989
899.250576	2989.379025
899.558284	2956.873665
899.865952	2934.846343
900.173579	2913.829773
900.481165	2910.041346
900.788711	2895.114489
901.096216	2871.761344
901.403681	2858.608974
901.711105	2867.531816
902.018489	2867.672968
902.325832	2865.689274
902.633135	2875.438866
902.940397	2908.410533
903.247619	2991.892040
903.554800	3181.472192
903.861941	3525.644368
904.169041	3952.037763
904.476101	4253.493722
904.783121	4210.550653
905.090100	3965.840443
905.397039	3689.907846
905.703938	3441.008436
906.010796	3257.603698
906.317614	3145.939619
906.624391	3051.420505
906.931129	2979.243785
907.237826	2915.193405
907.544483	2870.349821
907.851099	2840.780933
908.157675	2816.061635
908.464211	2800.625622
908.770707	2788.514250
909.077163	2770.918102
909.383578	2758.809251
909.689954	2744.923393
909.996289	2743.514390
910.302584	2748.154772
910.608839	2747.645616
910.915054	2742.904411
911.221229	2734.614233
911.527363	2737.044069
911.833458	2743.809298
912.139513	2748.542941
912.445527	2749.702407
912.751502	2757.077615
913.057436	2768.911723
913.363331	2782.477468
913.669186	2804.411529
913.975000	2835.308761
914.280775	2898.232443
914.586510	2966.766929
914.892205	3047.672408
915.197859	3175.463137
915.503475	3365.832230
915.809050	3580.045980
916.114585	3726.829257
916.420081	3749.287597
916.725536	3691.737785
917.030952	3573.555494
917.336328	3445.280814
917.641665	3312.164106
917.946961	3209.586707
918.252218	3140.729587
918.557435	3063.340314
918.862612	3004.013495
919.167750	2953.546503
919.472848	2914.956471
919.777906	2888.543345
920.082925	2860.650641
920.387904	2833.110817
920.692843	2815.983497
920.997743	2803.360448
921.302603	2788.660443
921.607423	2779.440173
921.912204	2771.397012
922.216946	2755.431678
922.521647	2748.787437
922.826310	2739.030284
923.130932	2733.726990
923.435516	2722.485217
923.740059	2717.128991
924.044564	2708.480892
924.349028	2705.950232
924.653454	2696.777853
924.957840	2690.015145
925.262186	2685.092458
925.566493	2683.658250
925.870761	2678.521314
926.174989	2673.825479
926.479178	2669.575787
926.783328	2663.954900
927.087438	2663.370126
927.391509	2662.528254
927.695541	2658.964158
927.999533	2653.307983
928.303486	2653.310504
928.607400	2654.669095
928.911275	2654.064156
929.215110	2650.540390
929.518906	2649.668270
929.822663	2647.732467
930.126381	2646.502426
930.430060	2650.253044
930.733699	2649.393527
931.037299	2651.762870
931.340861	2654.414517
931.644383	2653.804537
931.947866	2650.041316
932.251309	2652.632469
932.554714	2649.454021
932.858080	2647.412354
933.161407	2646.774648
933.464694	2645.221972
933.767943	2639.593524
934.071153	2643.334060
934.374323	2642.179636
934.677455	2644.760707
934.980548	2644.627116
935.283602	2641.171405
935.586617	2638.091260
935.889593	2643.376910
936.192530	2642.567805
936.495428	2643.823052
936.798287	2645.199287
937.101108	2646.585605
937.403890	2650.464772
937.706632	2653.484424
938.009336	2659.629590
938.312002	2670.198369
938.614628	2679.819411
938.917216	2685.475586
939.219765	2687.469362
939.522275	2683.993487
939.824747	2683.965760
940.127179	2678.080213
940.429573	2675.945285
940.731929	2675.549554
941.034246	2673.830521
941.336524	2669.779953
941.638763	2663.985147
941.940964	2662.621515
942.243126	2662.470280
942.545250	2662.636638
942.847335	2658.986843
943.149381	2652.372849
943.451389	2649.219607
943.753359	2647.190543
944.055290	2645.882364
944.357182	2644.364976
944.659036	2646.855306
944.960851	2646.109216
945.262628	2641.947743
945.564367	2640.873977
945.866067	2644.226345
946.167729	2643.444966
946.469352	2644.294400
946.770937	2645.549647
947.072484	2641.093267
947.373992	2643.482774
947.675462	2638.615540
947.976893	2634.985910
948.278286	2636.452885
948.579641	2634.575056
948.880958	2633.302164
949.182236	2636.228554
949.483476	2635.318626
949.784678	2632.934160
950.085841	2637.181332
950.386967	2633.392905
950.688054	2636.132772
950.989103	2636.709984
951.290114	2638.184522
951.591087	2637.924902
951.892021	2641.597383
952.192917	2646.799854
952.493776	2644.682569
952.794596	2646.862868
953.095378	2648.402941
953.396122	2646.820018
953.696828	2643.069400
953.997496	2641.816673
954.298126	2640.054790
954.598718	2639.953967
954.899272	2636.672176
955.199788	2634.438944
955.500266	2626.300002
955.800706	2629.473408
956.101108	2627.749333
956.401472	2626.189096
956.701798	2623.466873
957.002087	2620.653909
957.302337	2621.503344
957.602550	2617.001593
957.902724	2615.927827
958.202861	2616.668877
958.502960	2616.825153
958.803022	2614.770883
959.103045	2614.430605
959.403031	2612.434308
959.702979	2612.295676
960.002889	2611.922631
960.302762	2610.483381
960.602596	2610.932044
960.902393	2610.934565
961.202153	2611.247116
961.501875	2609.026488
961.801559	2610.405243
962.101205	2607.988010
962.400814	2609.039091
962.700385	2608.575305
962.999918	2604.295365
963.299414	2600.663214
963.598873	2605.699326
963.898293	2603.456013
964.197677	2608.678648
964.497022	2605.911055
964.796331	2605.142279
965.095601	2608.111518
965.394835	2607.312496
965.694030	2606.105139
965.993189	2606.473143
966.292309	2606.185798
966.591393	2607.912393
966.890439	2607.274687
967.189447	2605.301075
967.488419	2605.222937
967.787353	2604.403750
968.086249	2606.175715
968.385108	2603.216558
968.683930	2607.831734
968.982714	2605.175046
969.281462	2604.058431
969.580172	2605.200252
969.878844	2605.593462
970.177480	2607.670417
970.476078	2605.301075
970.774639	2605.303596
971.073162	2606.508432
971.371649	2604.554984
971.670098	2608.991200
971.968510	2607.027670
972.266885	2607.098247
972.565223	2607.748555
972.863524	2606.430294
973.161788	2607.388113
973.460014	2608.519852
973.758204	2608.446755
974.056356	2607.347784
974.354471	2608.421549
974.652550	2606.551281
974.950591	2607.315016
975.248595	2608.071189
975.546563	2603.279573
975.844493	2607.607403
976.142386	2605.278390
976.440243	2605.686723
976.738062	2607.131014
977.035845	2604.794439
977.333590	2603.244284
977.631299	2604.192021
977.928971	2602.369644
978.226606	2600.688419
978.524204	2603.024994
978.821765	2601.489963
979.119290	2603.093050
979.416777	2604.323091
979.714228	2605.134717
980.011642	2603.292175
980.309020	2603.866867
980.606360	2604.179418
980.903664	2601.651280
981.200931	2604.249995
981.498162	2606.253853
981.795356	2604.055910
982.092513	2606.901642
982.389633	2610.611931
982.686717	2614.397837
982.983764	2618.624845
983.280775	2621.447891
983.577749	2621.263889
983.874686	2621.231121
984.171587	2620.059053
984.468451	2617.699793
984.765279	2613.722323
985.062070	2615.292642
985.358824	2609.631426
985.655543	2607.229317
985.952224	2607.156220
986.248869	2605.424583
986.545478	2604.852412
986.842050	2603.077926
987.138586	2603.834099
987.435086	2603.294696
987.731549	2602.919130
988.027975	2603.587083
988.324366	2602.651949
988.620719	2599.279417
988.917037	2599.901999
989.213318	2600.602720
989.509563	2600.063316
989.805772	2602.251177
990.101944	2598.936618
990.398080	2601.603389
990.694180	2600.320415
990.990244	2600.201948
991.286271	2600.658172
991.582262	2597.058789
991.878217	2599.307143
992.174136	2599.944849
992.470019	2599.597010
992.765865	2597.416711
993.061676	2598.283789
993.357450	2599.612133
993.653188	2595.158274
993.948890	2602.309150
994.244556	2601.202617
994.540186	2601.245467
994.835780	2602.029366
995.131337	2600.388471
995.426859	2600.917792
995.722345	2603.521548
996.017795	2604.071034
996.313208	2604.910386
996.608586	2606.062289
996.903928	2605.447269
997.199234	2606.558843
997.494504	2606.911724
997.789738	2604.484408
998.084936	2603.655138
998.380099	2603.924840
998.675225	2602.175560
998.970316	2604.197062
999.265371	2602.505755
999.560390	2602.457864
999.855373	2602.334356
1000.150320	2601.169850
1000.445232	2600.511979
1000.740108	2600.320415
1001.034948	2601.600868
1001.329752	2599.750765
1001.624521	2597.482246
1001.919254	2599.607092
1002.213951	2600.529623
1002.508613	2598.858481
1002.803239	2597.515013
1003.097829	2597.812441
1003.392384	2599.607092
1003.686903	2599.450816
1003.981386	2598.424941
1004.275834	2598.709767
1004.570246	2597.383943
1004.864623	2600.517020
1005.158964	2598.024170
1005.453270	2598.803028
1005.747540	2597.073912
1006.041775	2599.324787
1006.335974	2596.332862
1006.630138	2599.712956
1006.924266	2597.489807
1007.218359	2597.028542
1007.512416	2596.927719
1007.806438	2594.626432
1008.100425	2595.700198
1008.394376	2592.869590
1008.688292	2596.368151
1008.982172	2599.390322
1009.276017	2597.111721
1009.569827	2594.863366
1009.863602	2598.082143
1010.157341	2597.414190
1010.451045	2598.334201
1010.744714	2597.686412
1011.038347	2596.557194
1011.331945	2597.207503
1011.625508	2597.308326
1011.919036	2597.401587
1012.212528	2597.656165
1012.505986	2598.261104
1012.799408	2599.365117
1013.092795	2596.736155
1013.386147	2596.209354
1013.679464	2596.582400
1013.972745	2598.455188
1014.265992	2598.301433
1014.559204	2598.021649
1014.852380	2596.012749
1015.145521	2596.882348
1015.438628	2595.997626
1015.731699	2599.236567
1016.024736	2599.660024
1016.317737	2595.864035
1016.610703	2597.595672
1016.903635	2598.324118
1017.196531	2595.717842
1017.489393	2595.659868
1017.782219	2594.719693
1018.075011	2597.202462
1018.367768	2596.947883
1018.660490	2596.970568
1018.953177	2596.970568
1019.245829	2596.970568
