Dividing Wavelength (nm)	Counts (n)	Blue Motor Position (mm): 25.000000	Red Motor Position (mm): 0.000000	
326.493990	2199.321833
326.888308	2199.321833
327.282561	2199.321833
327.676750	2158.967396
328.070874	2154.664771
328.464933	2157.230718
328.858929	2159.085863
329.252859	2165.026863
329.646726	2172.744869
330.040528	2185.337672
330.434265	2198.815197
330.827938	2215.025027
331.221547	2232.969014
331.615091	2250.305542
332.008571	2268.889756
332.401986	2288.073867
332.795338	2305.586835
333.188625	2324.231543
333.581847	2346.004286
333.975006	2362.844260
334.368100	2382.479555
334.761129	2401.895559
335.154095	2418.052457
335.546996	2442.040787
335.939833	2477.301138
336.332606	2490.400576
336.725315	2504.861126
337.117960	2518.134484
337.510540	2527.873993
337.903056	2540.451672
338.295508	2550.307128
338.687896	2557.153015
339.080220	2566.953018
339.472480	2571.704305
339.864676	2577.978021
340.256807	2581.106057
340.648875	2587.256265
341.040879	2588.239290
341.432818	2595.014601
341.824694	2594.132399
342.216506	2595.052409
342.608253	2596.486618
342.999937	2597.315887
343.391557	2598.094746
343.783113	2595.526278
344.174605	2598.210692
344.566033	2595.286823
344.957397	2594.669282
345.348697	2592.209199
345.739934	2588.884558
346.131106	2590.293560
346.522215	2586.621080
346.913260	2587.911615
347.304241	2583.364494
347.695159	2582.038671
348.086012	2578.618248
348.476802	2576.417784
348.867528	2575.180181
349.258191	2572.092474
349.648789	2569.075344
350.039324	2567.812535
350.429796	2570.630540
350.820203	2567.381516
351.210548	2568.664490
351.600828	2567.200034
351.991045	2567.462174
352.381198	2565.375137
352.771288	2567.346228
353.161314	2563.376319
353.551276	2564.510579
353.941175	2558.962789
354.331010	2561.979920
354.720782	2563.300702
355.110490	2564.084601
355.500135	2560.432285
355.889717	2560.550753
356.279235	2561.138047
356.668689	2564.497976
357.058080	2562.947821
357.447408	2561.019580
357.836672	2565.697771
358.225873	2564.205589
358.615010	2562.879766
359.004084	2565.286917
359.393095	2565.816238
359.782043	2565.448233
360.170927	2562.657955
360.559748	2568.891342
360.948505	2566.312791
361.337199	2566.577452
361.725830	2569.186249
362.114398	2567.804973
362.502903	2568.054510
362.891344	2568.825807
363.279722	2569.022412
363.668037	2572.324367
364.056289	2568.019222
364.444478	2571.999213
364.832603	2573.193966
365.220665	2571.893349
365.608665	2573.128431
365.996601	2571.903431
366.384474	2575.686817
366.772284	2573.330077
367.160031	2576.921900
367.547715	2576.884091
367.935336	2573.597259
368.322893	2573.390571
368.710388	2572.377299
369.097820	2572.399985
369.485189	2572.084912
369.872495	2575.371745
370.259738	2575.865778
370.646918	2577.219328
371.034035	2581.549679
371.421090	2577.463824
371.808081	2579.404668
372.195010	2577.436097
372.581875	2577.279822
372.968678	2579.450038
373.355418	2579.581108
373.742096	2579.157651
374.128710	2578.782085
374.515262	2579.296283
374.901751	2579.651684
375.288177	2581.257292
375.674540	2583.755184
376.060841	2579.782754
376.447079	2578.081365
376.833254	2579.762590
377.219367	2582.613362
377.605417	2583.931624
377.991404	2580.874164
378.377329	2581.312745
378.763191	2582.192426
379.148991	2581.491706
379.534727	2583.372056
379.920402	2582.704103
380.306013	2582.010944
380.691563	2582.139494
381.077049	2584.103023
381.462474	2580.475913
381.847835	2584.486151
382.233134	2584.163517
382.618371	2585.030596
383.003545	2587.435226
383.388657	2582.709144
383.773706	2584.463466
384.158693	2588.105699
384.543618	2587.064701
384.928480	2586.374063
385.313280	2588.067891
385.698017	2586.210226
386.082692	2587.455391
386.467305	2588.972778
386.851856	2591.173242
387.236344	2588.829105
387.620770	2587.233580
388.005133	2586.653847
388.389435	2587.324321
388.773674	2583.566140
389.157851	2587.107551
389.541965	2590.868252
389.926018	2590.782552
390.310008	2590.611153
390.693936	2587.639393
391.077802	2590.838005
391.461606	2593.683736
391.845348	2591.664754
392.229027	2593.686257
392.612645	2591.470670
392.996200	2591.294229
393.379694	2589.907912
393.763125	2593.766915
394.146494	2592.965372
394.529801	2593.908067
394.913047	2594.109714
395.296230	2593.242635
395.679351	2594.991916
396.062410	2594.374374
396.445408	2592.940166
396.828343	2596.262286
397.211217	2596.353027
397.594028	2594.596185
397.976778	2597.041145
398.359466	2594.533171
398.742092	2595.266658
399.124656	2596.544591
399.507158	2595.367482
399.889598	2599.418049
400.271977	2597.028542
400.654294	2596.587441
401.036549	2596.617688
401.418742	2598.409818
401.800874	2599.145826
402.182944	2597.089036
402.564952	2600.022987
402.946898	2599.745724
403.328783	2599.803697
403.710606	2598.306474
404.092367	2599.082812
404.474067	2597.331011
404.855705	2601.195055
405.237282	2600.131372
405.618797	2599.493666
406.000250	2603.496342
406.381642	2601.409304
406.762972	2598.372009
407.144240	2597.162132
407.525447	2603.077926
407.906593	2598.147678
408.287677	2602.200766
408.668700	2600.171701
409.049661	2604.134048
409.430560	2603.002309
409.811399	2602.777978
410.192176	2606.999944
410.572891	2602.523399
410.953545	2603.786208
411.334138	2603.997937
411.714669	2605.870726
412.095139	2603.445931
412.475547	2603.869388
412.855894	2606.021960
413.236180	2605.187649
413.616405	2607.133535
413.996568	2608.116560
414.376670	2606.606734
414.756711	2605.406939
415.136691	2607.166302
415.516609	2606.773092
415.896466	2608.534975
416.276262	2606.521034
416.655997	2608.870212
417.035670	2610.443052
417.415283	2612.197374
417.794834	2609.185284
418.174324	2606.911724
418.553753	2608.739142
418.933121	2610.863988
419.312428	2608.877774
419.691674	2611.657970
420.070859	2612.013372
420.449983	2610.135542
420.829045	2612.777106
421.208047	2607.940119
421.586988	2612.393979
421.965867	2612.767024
422.344686	2612.378855
422.723444	2615.932869
423.102141	2611.370624
423.480777	2612.323402
423.859352	2613.056890
424.237866	2610.765686
424.616319	2612.830038
424.994712	2614.917076
425.373044	2615.630399
425.751314	2613.308948
426.129524	2611.612600
426.507673	2611.456324
426.885762	2612.618310
427.263789	2614.786006
427.641756	2615.295163
428.019662	2617.921604
428.397508	2615.401027
428.775292	2616.482354
429.153016	2617.614093
429.530679	2618.949999
429.908282	2618.949999
430.285824	2617.961933
430.663305	2618.584516
431.040726	2620.653909
431.418086	2620.356481
431.795385	2621.253807
432.172624	2620.459825
432.549802	2621.193313
432.926920	2620.994187
433.303977	2620.820267
433.680974	2621.183230
434.057910	2624.197840
434.434786	2620.656430
434.811601	2624.822943
435.188355	2623.638272
435.565050	2625.566514
435.941683	2625.727831
436.318257	2627.151957
436.694770	2628.019035
437.071222	2626.604991
437.447614	2628.699591
437.823946	2628.215640
438.200218	2628.591206
438.576429	2630.721093
438.952580	2630.900054
439.328670	2631.956176
439.704700	2631.512555
440.080670	2628.344189
440.456580	2629.911988
440.832429	2630.716052
441.208218	2633.395426
441.583947	2635.164871
441.959616	2637.123359
442.335224	2634.479274
442.710773	2637.574542
443.086261	2634.542288
443.461689	2636.543626
443.837057	2637.168729
444.212365	2639.999337
444.587612	2635.313585
444.962800	2638.920530
445.337927	2638.242495
445.712995	2637.435910
446.088002	2647.235913
446.462949	2648.324803
446.837837	2649.736326
447.212664	2648.644916
447.587431	2655.425268
447.962139	2660.897440
448.336786	2667.476146
448.711374	2673.623833
449.085901	2669.618637
449.460369	2674.054852
449.834776	2676.509894
450.209124	2684.469876
450.583412	2695.958665
450.957640	2704.442927
451.331808	2709.726057
451.705917	2711.326623
452.079965	2715.011706
452.453954	2730.004098
452.827883	2741.601272
453.201752	2753.213570
453.575562	2761.879314
453.949311	2778.880605
454.323001	2796.663275
454.696632	2819.613128
455.070202	2841.935357
455.443713	2875.143958
455.817164	2906.000861
456.190556	2935.715942
456.563888	2980.332674
456.937160	3021.355064
457.310373	3026.799510
457.683526	3059.083059
458.056619	3080.223138
458.429653	3125.802730
458.802628	3147.015906
459.175542	3208.644012
459.548398	3309.179743
459.921194	3394.791138
460.293930	3465.735296
460.666607	3607.089250
461.039224	3781.185498
461.411782	3935.956483
461.784280	3998.804548
462.156719	4083.329574
462.529099	4114.332670
462.901419	4092.723764
463.273680	4147.064882
463.645882	4212.035273
464.018024	4262.837501
464.390106	4391.495309
464.762130	4608.733752
465.134094	4821.336853
465.505999	5290.257422
465.877845	6044.799686
466.249631	6730.235292
466.621358	6811.833929
466.993026	6672.183885
467.364634	6691.660383
467.736184	6576.089410
468.107674	6543.929369
468.479105	6720.415124
468.850477	6777.420492
469.221790	6815.277037
469.593043	6783.817716
469.964238	6816.086142
470.335373	6861.632967
470.706449	7129.356045
471.077467	7133.905686
471.448425	7837.809560
471.819324	9285.003841
472.190164	10180.746303
472.560945	9286.072566
472.931667	8640.114235
473.302330	8590.312677
473.672934	8559.198675
474.043479	8883.004589
474.413965	8986.249941
474.784393	9026.382567
475.154761	9468.388415
475.525070	9655.211056
475.895321	9661.618363
476.265513	10098.310835
476.635645	10519.037973
477.005719	10632.905036
477.375734	10913.026832
477.745691	11349.356341
478.115588	11758.163671
478.485427	12242.384142
478.855207	12984.951145
479.224928	14063.594230
479.594591	15496.282592
479.964194	15768.089004
480.333739	16246.799494
480.703226	16192.922162
481.072653	16287.574867
481.442022	16854.477823
481.811333	17617.108618
482.180584	17877.360706
482.549777	17504.484200
482.918912	17567.060042
483.287988	17857.012088
483.657005	17906.440602
484.025964	17921.906862
484.394864	18143.021952
484.763706	18169.619079
485.132489	18026.740176
485.501213	18306.501530
485.869879	18517.241925
486.238487	18483.488879
486.607036	18872.481954
486.975527	18802.351942
487.343959	19241.060877
487.712333	19448.196847
488.080648	19322.306632
488.448905	19904.050745
488.817104	19860.853098
489.185244	20553.449663
489.553326	20756.494737
489.921350	21628.132922
490.289315	23611.587506
490.657222	25281.557938
491.025070	25899.210189
491.392861	25922.512923
491.760593	25409.794809
492.128267	24909.591360
492.495883	24174.268495
492.863440	23594.475309
493.230939	22944.955404
493.598380	22951.637453
493.965763	22705.810627
494.333088	22449.523407
494.700354	22480.430721
495.067563	22511.174198
495.434713	22373.641438
495.801805	22576.081574
496.168839	22541.469012
496.535815	22462.048153
496.902733	22739.951841
497.269593	22491.029747
497.636395	22774.995422
498.003139	22839.565041
498.369825	22692.070962
498.736453	22910.630187
499.103023	22868.660061
499.469535	22954.616775
499.835989	23212.658317
500.202385	23284.041055
500.568723	22853.680272
500.935003	23180.636908
501.301226	22808.390546
501.667390	23652.473784
502.033497	23943.686118
502.399546	23717.476943
502.765537	23371.157235
503.131470	23766.552575
503.497345	23941.631848
503.863163	23194.812632
504.228923	23841.776673
504.594625	24053.195103
504.960269	23590.954063
505.325856	24106.643937
505.691385	23567.774838
506.056856	24166.495036
506.422270	24160.717874
506.787625	23782.946407
507.152924	24193.356824
507.518164	24224.314550
507.883347	24053.903386
508.248472	23761.766000
508.613540	24548.001997
508.978550	24337.163300
509.343503	24334.423433
509.708398	24628.468895
510.073236	24792.873525
510.438016	25004.188612
510.802738	24705.303642
511.167403	24949.897906
511.532010	24649.316587
511.896561	25439.325888
512.261053	25406.235755
512.625488	25263.472798
512.989866	25162.745503
513.354186	25027.458578
513.718449	25104.923469
514.082655	25514.093762
514.446803	25251.263124
514.810894	25704.349428
515.174927	25188.586458
515.538904	25221.686674
515.902822	25715.117333
516.266684	25474.676980
516.630488	25373.937082
516.994235	25372.618820
517.357925	25659.526009
517.721558	25851.989701
518.085133	25933.147237
518.448651	25871.481323
518.812112	25578.721354
519.175516	25769.029953
519.538863	25946.274402
519.902152	25712.027106
520.265385	26035.006271
520.628560	25809.480171
520.991678	25841.002506
521.354739	25904.513483
521.717743	25959.366278
522.080690	25757.614260
522.443580	26090.872338
522.806413	26093.513902
523.169189	26178.288466
523.531908	26253.487358
523.894569	25841.468813
524.257174	25900.904017
524.619722	26123.392821
524.982213	25788.357737
525.344647	25875.204215
525.707025	25986.628838
526.069345	25988.395763
526.431608	25935.551867
526.793815	26128.983461
527.155964	25579.931231
527.518057	25748.189823
527.880093	25668.106053
528.242072	25910.517497
528.603995	25607.798729
528.965860	25413.235397
529.327669	25471.284283
529.689421	25454.144360
530.051117	25284.015500
530.412755	25464.897141
530.774337	25279.649861
531.135862	25137.174250
531.497331	25333.862429
531.858743	24875.031730
532.220098	25372.822987
532.581396	25045.911722
532.942638	25004.634754
533.303824	25088.572486
533.664953	25112.021413
534.026025	24776.641010
534.387040	25008.483675
534.747999	25074.021196
535.108902	25232.426852
535.469748	24717.495672
535.830537	24918.569655
536.191270	25024.678382
536.551947	24931.409474
536.912567	24592.028915
537.273131	24889.857763
537.633638	24624.670386
537.994089	24823.160777
538.354483	24383.758685
538.714821	24885.166970
539.075103	24922.196765
539.435328	24707.163827
539.795497	24252.789508
540.155609	24661.954760
540.515665	24950.908657
540.875665	24197.472927
541.235609	24471.096675
541.595496	24447.604898
541.955328	24811.639220
542.315102	24726.113525
542.674821	24279.905874
543.034483	24156.921885
543.394090	24331.035777
543.753640	24113.227684
544.113134	24736.652057
544.472571	24357.486711
544.831953	24638.720082
545.191278	24243.453291
545.550548	24180.922818
545.909761	24392.953749
546.268918	24618.799962
546.628019	24572.933024
546.987064	24297.174347
547.346053	24044.892323
547.704986	24172.630120
548.063863	24330.879501
548.422684	24318.379960
548.781449	23880.197827
549.140158	24275.741881
549.498811	23859.014898
549.857408	23587.551284
550.215949	24031.356825
550.574434	23712.408062
550.932864	23932.401496
551.291237	24059.322626
551.649555	23937.810654
552.007817	23994.821063
552.366022	23866.319530
552.724173	23909.731427
553.082267	23835.994469
553.440305	24313.376615
553.798288	23594.203087
554.156215	24114.734989
554.514086	24192.855230
554.871902	23575.699532
555.229661	23850.956614
555.587365	23716.380492
555.945014	23561.803591
556.302606	23842.429502
556.660143	23765.183902
557.017625	24039.072311
557.375050	23561.788468
557.732421	23954.819507
558.089735	23754.768878
558.446994	23826.212110
558.804197	23841.426313
559.161345	23802.450632
559.518437	23539.509088
559.875474	23742.644903
560.232455	23919.970010
560.589381	23748.008691
560.946251	23721.940884
561.303065	24054.684764
561.659825	24130.044973
562.016528	23741.435026
562.373177	23469.789931
562.729770	23830.176978
563.086307	23705.405900
563.442789	23877.299163
563.799216	23697.957595
564.155587	23707.198030
564.511904	23695.116905
564.868164	23613.654379
565.224370	23616.061530
565.580520	23515.593854
565.936615	23649.633094
566.292654	23312.558863
566.648638	23628.177943
567.004567	23462.848262
567.360441	23395.372417
567.716260	23132.791317
568.072023	23456.035142
568.427732	23218.654769
568.783385	23005.431606
569.138982	23227.771696
569.494525	23274.747688
569.850013	23020.161857
570.205445	23119.825469
570.560823	22923.331374
570.916145	22688.479140
571.271412	22855.812680
571.626625	22624.063276
571.981782	22727.797619
572.336884	22543.006563
572.691931	22672.579341
573.046923	22407.724679
573.401860	22293.930714
573.756743	22286.421915
574.111570	22213.088250
574.466342	22144.175677
574.821059	22239.236715
575.175722	21929.142739
575.530330	21910.747569
575.884882	21951.485133
576.239380	21848.738856
576.593823	21735.600240
576.948211	21729.374415
577.302544	21559.981563
577.656823	21432.914240
578.011047	21537.538347
578.365216	21414.561919
578.719330	21291.041047
579.073389	21191.395079
579.427394	21331.763488
579.781344	21112.823656
580.135239	21000.910040
580.489080	20972.737552
580.842866	20736.060420
581.196597	20919.616393
581.550273	20900.739793
581.903895	20796.647527
582.257463	21116.518821
582.610975	20633.120058
582.964434	20944.817121
583.317837	20655.853142
583.671186	20746.755228
584.024481	20708.507994
584.377721	20491.259469
584.730906	20541.176974
585.084037	20567.640511
585.437113	20472.488732
585.790135	20676.221924
586.143103	20143.616458
586.496016	20150.172479
586.848874	20399.475181
587.201679	20340.962508
587.554428	20008.120325
587.907124	20339.588793
588.259765	20121.211050
588.612352	20197.163594
588.964884	19753.539535
589.317362	19935.142062
589.669786	19990.642645
590.022155	20036.000427
590.374470	20206.613237
590.726731	20017.953096
591.078937	19768.683162
591.431090	19869.236537
591.783188	19619.777559
592.135232	19602.788871
592.487222	19682.030768
592.839157	19728.890814
593.191038	19598.803839
593.542866	19489.365430
593.894639	19203.441266
594.246358	19423.293547
594.598022	19343.640796
594.949633	19086.685622
595.301190	19049.791938
595.652692	19203.088385
596.004141	19456.597930
596.355535	18781.569786
596.706876	18799.662487
597.058162	18687.743830
597.409395	18918.316125
597.760573	19000.063476
598.111698	18781.539539
598.462768	18709.418271
598.813785	18672.514505
599.164748	18495.033122
599.515657	18524.193676
599.866511	18320.309250
600.217312	18685.644190
600.568060	18206.205253
600.918753	18519.049179
601.269392	18417.837933
601.619978	18200.788533
601.970510	18406.041633
602.320988	18351.105659
602.671412	18567.111539
603.021783	18466.379203
603.372100	18206.232980
603.722363	18349.116924
604.072572	18273.660933
604.422728	18409.348630
604.772830	18176.679215
605.122878	18135.868554
605.472872	18121.536554
605.822813	18112.291078
606.172701	18082.631449
606.522534	18271.218494
606.872314	18296.608265
607.222041	18115.439278
607.571714	18332.836517
607.921333	18176.838012
608.270899	18242.299915
608.620411	18428.631043
608.969870	18180.185338
609.319276	18190.461730
609.668627	18223.382985
610.017926	18359.058079
610.367171	18478.004104
610.716362	18511.368981
611.065500	18342.570985
611.414585	18476.232138
611.763616	18459.606413
612.112594	18405.421571
612.461518	18375.393938
612.810389	18561.198266
613.159207	18419.899765
613.507971	18323.286051
613.856682	18607.672663
614.205340	18534.008803
614.553945	18681.626390
614.902496	18418.304240
615.250994	18664.055448
615.599439	18602.656715
615.947830	18590.847812
616.296169	18634.209297
616.644454	18613.522922
616.992686	18569.997600
617.340864	18787.707391
617.688990	18544.527170
618.037063	18711.971616
618.385082	18558.387823
618.733048	18858.812866
619.080961	18714.041009
619.428821	18751.211957
619.776628	18645.188930
620.124382	18564.371672
620.472083	18599.178319
620.819731	18623.448954
621.167326	18314.433785
621.514868	18364.807515
621.862357	18126.055948
622.209793	18136.755797
622.557176	17972.033575
622.904506	17800.762893
623.251783	17704.149180
623.599007	17470.295094
623.946179	17418.111590
624.293297	17362.220318
624.640363	17114.918954
624.987376	17132.194988
625.334336	16925.999193
625.681243	16770.083866
626.028097	16784.856967
626.374899	16712.624795
626.721647	16580.246615
627.068343	16415.574804
627.414987	16345.003692
627.761577	16322.628530
628.108115	16362.025148
628.454600	16082.140286
628.801032	16183.154927
629.147412	16109.796056
629.493739	16131.195754
629.840014	15946.175326
630.186236	16042.773916
630.532405	15801.529498
630.878521	16004.282185
631.224585	15894.327058
631.570597	15721.889350
631.916556	15757.747077
632.262462	15732.947121
632.608316	15643.857329
632.954117	15597.501399
633.299866	15588.906232
633.645562	15515.519635
633.991206	15261.984884
634.336797	15140.896369
634.682336	15102.724752
635.027823	14992.033617
635.373257	14877.327202
635.718639	14767.825779
636.063968	14721.800044
636.409245	14469.165140
636.754470	14508.687786
637.099642	14353.717675
637.444762	14120.226553
637.789829	14169.408050
638.134845	14004.461496
638.479808	14040.765365
638.824719	13986.247807
639.169577	13829.583869
639.514383	13880.648237
639.859137	13698.833982
640.203839	13782.116364
640.548489	13625.021408
640.893086	13615.067649
641.237632	13483.876662
641.582125	13634.191266
641.926566	13469.995844
642.270955	13477.081186
642.615292	13437.419908
642.959576	13452.992033
643.303809	13480.887257
643.647990	13417.764449
643.992118	13472.045073
644.336195	13244.520156
644.680219	13444.598511
645.024192	13374.392882
645.368112	13610.142442
645.711981	13672.884643
646.055797	13850.996170
646.399562	13813.043843
646.743274	14079.136108
647.086935	14356.011400
647.430544	14326.155167
647.774101	14358.794117
648.117606	14506.106715
648.461059	14470.553978
648.804460	14464.325632
649.147810	14204.338205
649.491108	14097.730404
649.834354	14113.854534
650.177548	13811.118122
650.520690	13624.343372
650.863781	13535.054455
651.206820	13583.646137
651.549807	13415.354778
651.892742	13220.907392
652.235626	13160.158967
652.578458	13158.797856
652.921238	12847.388139
653.263967	13045.374415
653.606644	12877.055329
653.949269	12843.811440
654.291843	12648.537305
654.634365	12808.122591
654.976836	12660.220179
655.319255	12672.104699
655.661622	12624.359931
656.003938	12540.626365
656.346203	12470.004841
656.688416	12542.199205
657.030577	12503.100016
657.372687	12427.749890
657.714746	12405.044533
658.056753	12586.427769
658.398708	12404.414388
658.740612	12398.188563
659.082465	12505.794513
659.424266	12467.360756
659.766016	12492.241371
660.107715	12405.102506
660.449362	12477.798465
660.790958	12435.309100
661.132503	12382.704659
661.473996	12445.865276
661.815438	12463.776496
662.156829	12476.155049
662.498168	12454.899024
662.839456	12453.474898
663.180693	12481.102941
663.521879	12573.386304
663.863013	12544.639124
664.204097	12513.273065
664.545129	12632.314872
664.886110	12610.627828
665.227040	12698.106970
665.567918	12699.596631
665.908746	12739.706572
666.249522	12716.083725
666.590248	12763.062238
666.930922	12876.415103
667.271545	12856.832740
667.612118	12945.476390
667.952639	12846.868900
668.293109	12852.484745
668.633528	12812.944455
668.973896	12785.155094
669.314213	12875.792520
669.654480	12615.701749
669.994695	12685.680526
670.334859	12706.014020
670.674973	12648.948159
671.015035	12685.806555
671.355047	12636.357877
671.695008	12600.941251
672.034918	12601.334461
672.374777	12659.214468
672.714585	12564.415570
673.054342	12596.716764
673.394049	12545.516285
673.733705	12633.938123
674.073310	12555.550701
674.412864	12562.512535
674.752368	12431.571084
675.091820	12451.206378
675.431223	12443.805965
675.770574	12310.303608
676.109875	12233.826783
676.449125	12197.853110
676.788324	12132.809622
677.127473	11975.742392
677.466571	11962.075824
677.805619	11859.644619
678.144616	11777.229315
678.483562	11760.079310
678.822458	11626.592076
679.161303	11591.775347
679.500098	11592.796181
679.838842	11537.950948
680.177535	11564.878271
680.516179	11624.870522
680.854771	11573.838922
681.193314	11789.423866
681.531805	11932.451483
681.870247	12352.165349
682.208638	12751.225608
682.546978	13073.584712
682.885268	13129.234009
683.223508	12820.468377
683.561697	12660.898214
683.899836	12564.062690
684.237925	12372.685366
684.575963	12283.716562
684.913951	12204.015920
685.251889	12151.978610
685.589776	12249.396387
685.927614	12178.326200
686.265401	12132.862554
686.603137	12185.028414
686.940824	12338.216477
687.278460	12457.404477
687.616046	12508.330213
687.953582	12676.548476
688.291068	12602.773710
688.628504	12831.730315
688.965889	12840.660719
689.303224	12800.873412
689.640510	12693.837113
689.977745	12393.422153
690.314930	12171.150118
690.652065	12084.918661
690.989150	11801.883078
691.326185	11569.269116
691.663170	11366.987777
692.000105	11119.991403
692.336990	11013.925526
692.673825	10763.135684
693.010610	10644.184618
693.347345	10436.342886
693.684030	10238.054140
694.020665	10178.883597
694.357251	9980.073092
694.693786	9924.194423
695.030272	9760.825750
695.366707	9646.187391
695.703093	9578.255322
696.039429	9575.530578
696.375716	9493.442950
696.711952	9365.881593
697.048139	9402.495493
697.384276	9362.897230
697.720363	9376.604127
698.056400	9315.691865
698.392388	9268.231922
698.728326	9225.838339
699.064214	9164.358947
699.400053	9211.241678
699.735842	9029.351806
700.071581	8983.021082
700.407270	8911.855113
700.742910	8828.671033
701.078501	8739.924040
701.414042	8613.126418
701.749533	8549.297849
702.084974	8411.006396
702.420366	8527.162142
702.755709	8409.834328
703.091002	8272.321733
703.426246	8301.633522
703.761440	8255.023014
704.096584	8209.730767
704.431679	8145.987897
704.766725	8128.240515
705.101721	8077.017351
705.436668	8121.813044
705.771565	8016.894029
706.106413	8098.694312
706.441212	8137.957339
706.775961	8094.948735
707.110661	8127.743961
707.445311	8273.831559
707.779913	8164.539343
708.114465	8302.697206
708.448967	8340.480654
708.783421	8477.804205
709.117825	8662.111310
709.452180	8699.204120
709.786485	8784.293756
710.120742	9059.951610
710.454949	9065.494359
710.789107	9159.718565
711.123216	9374.159168
711.457275	9539.808962
711.791286	9708.859015
712.125247	9695.507519
712.459159	9689.198515
712.793023	9945.851219
713.126837	9514.666208
713.460602	9657.913115
713.794318	9495.439247
714.127985	9521.920428
714.461602	9204.559629
714.795171	9152.784458
715.128691	8903.985872
715.462162	8652.449939
715.795584	8601.201569
716.128957	8455.988612
716.462281	8283.266078
716.795556	8334.706012
717.128782	8131.116493
717.461960	7865.593879
717.795088	7935.668438
718.128167	7847.075200
718.461198	7677.911721
718.794180	7621.148329
719.127113	7610.531659
719.459997	7458.992054
719.792833	7231.983855
720.125619	7288.966537
720.458357	7144.983622
720.791046	7135.929710
721.123686	7135.753269
721.456278	6981.665361
721.788821	6996.846796
722.121315	6888.280506
722.453761	6952.920702
722.786158	6904.956643
723.118506	6911.603405
723.450805	6879.486213
723.783056	6947.899712
724.115259	6849.677871
724.447412	6849.929928
724.779518	6897.450365
725.111574	6893.157823
725.443582	6976.218394
725.775542	6957.971938
726.107453	7144.497151
726.439315	7056.186218
726.771129	7115.878520
727.102895	7286.007380
727.434612	7398.765389
727.766281	7428.160357
728.097901	7514.112030
728.429473	7504.702716
728.760996	7481.253789
729.092471	7458.414842
729.423897	7406.153200
729.755276	7411.297697
730.086606	7340.040988
730.417887	7442.126874
730.749120	7631.097046
731.080305	7821.629976
731.411442	7947.177392
731.742530	7939.489633
732.073570	8045.457207
732.404562	8132.192780
732.735506	7977.769634
733.066401	8120.388918
733.397249	8059.597644
733.728048	7827.565935
734.058798	7485.964748
734.389501	7264.665655
734.720156	7090.924809
735.050762	6853.783891
735.381320	6756.640856
735.711831	6710.443722
736.042293	6597.962977
736.372707	6624.275279
736.703073	6480.917467
737.033391	6514.995667
737.363661	6530.751793
737.693883	6554.835906
738.024056	6644.976778
738.354182	6686.462953
738.684260	6720.591565
739.014290	6831.091137
739.344272	6939.354957
739.674207	6970.242106
740.004093	7040.039402
740.333931	7057.570014
740.663722	7064.393216
740.993464	7140.111347
741.323159	7134.931561
741.652806	6883.632562
741.982405	6892.384006
742.311956	6951.206709
742.641460	6795.119983
742.970915	6594.398881
743.300323	6588.961997
743.629683	6539.788062
743.958996	6406.179841
744.288260	6312.714328
744.617477	6260.866060
744.946647	6268.095075
745.275768	6100.592656
745.604842	6058.740997
745.933869	6035.902049
746.262847	5996.780175
746.591778	5981.200489
746.920662	5943.764881
747.249498	5933.233910
747.578286	5979.539429
747.907027	6059.177057
748.235720	6119.915399
748.564365	6090.283497
748.892963	6113.427434
749.221514	6268.090034
749.550017	6106.490806
749.878473	5981.606302
750.206881	6035.660074
750.535242	5978.155632
750.863555	5906.178037
751.191821	5926.917344
751.520039	5930.718374
751.848210	5836.234548
752.176334	5854.929668
752.504411	5907.299694
752.832440	5830.210370
753.160421	5759.914000
753.488356	5806.204395
753.816243	5838.535835
754.144082	5690.242733
754.471875	5661.898846
754.799620	5705.262851
755.127318	5714.218461
755.454969	5671.698849
755.782572	5636.130988
756.110129	5682.582700
756.437638	5668.616183
756.765100	5606.277275
757.092515	5605.117809
757.419882	5653.681765
757.747203	5633.683507
758.074477	5691.621489
758.401703	5686.154357
758.728882	5635.793230
759.056014	5687.432290
759.383099	5821.232075
759.710138	5829.149207
760.037129	5810.070960
760.364073	5815.964069
760.690970	5902.223252
761.017820	5885.932764
761.344623	5839.080280
761.671379	5936.455208
761.998088	6057.213527
762.324751	6292.050638
762.651366	6889.850826
762.977935	8177.379162
763.304456	9800.580289
763.630931	10716.588190
763.957359	10332.182565
764.283740	9403.685206
764.610074	8577.566119
764.936362	7586.757578
765.262602	6982.045968
765.588796	6447.986129
765.914943	6112.593123
766.241044	5947.250838
766.567097	5753.302527
766.893104	5493.136138
767.219064	5310.414476
767.544978	5248.935084
767.870845	5172.271737
768.196665	5067.496396
768.522438	4995.019727
768.848165	4963.956137
769.173846	4898.824429
769.499479	4851.578735
769.825066	4799.483451
770.150607	4741.167384
770.476101	4719.006471
770.801548	4715.497828
771.126949	4638.665602
771.452303	4583.578394
771.777611	4542.296385
772.102872	4558.874219
772.428087	4524.712840
772.753256	4484.630626
773.078378	4441.191003
773.403453	4366.816340
773.728482	4355.579608
774.053465	4310.821724
774.378401	4296.305721
774.703291	4296.172131
775.028135	4228.635793
775.352932	4181.163247
775.677683	4162.982326
776.002388	4185.503680
776.327046	4198.429199
776.651658	4123.129484
776.976224	4056.389648
777.300743	4064.596647
777.625216	4084.897373
777.949643	4080.083071
778.274024	4038.816186
778.598359	3990.912621
778.922647	4015.538658
779.246889	4005.473994
779.571086	4001.970392
779.895236	3986.680573
780.219339	3974.533912
780.543397	3966.216009
780.867409	4017.091333
781.191374	4032.716390
781.515294	3970.059888
781.839167	3965.984116
782.162995	3983.766786
782.486776	3968.378664
782.810511	3981.616734
783.134201	3979.527175
783.457844	3931.348868
783.781441	3874.386350
784.104993	3881.880025
784.428498	3901.202768
784.751958	3898.072212
785.075372	3877.247205
785.398739	3838.364785
785.722061	3850.037577
786.045337	3895.176069
786.368568	3931.061522
786.691752	3842.097760
787.014891	3887.861354
787.337983	4010.321064
787.661030	4172.550436
787.984031	4332.486083
788.306987	4501.037061
788.629897	4583.545626
788.952760	4541.373854
789.275579	4473.540088
789.598351	4409.066251
789.921078	4273.522227
790.243759	4074.900765
790.566395	4050.564595
790.888984	4049.594173
791.211529	3942.232719
791.534027	3885.469327
791.856480	3870.197151
792.178888	3810.124242
792.501249	3760.443670
792.823566	3769.414404
793.145836	3799.893220
793.468062	3751.203235
793.790241	3704.607850
794.112375	3731.875452
794.434464	3793.647230
794.756507	3823.140501
795.078505	3801.690391
795.400457	3831.770956
795.722364	3972.504848
796.044226	4073.547215
796.366042	4146.437259
796.687812	4131.800268
797.009538	4135.964262
797.331218	4093.038837
797.652852	4064.102613
797.974442	4048.187691
798.295986	4047.018143
798.617484	3966.089980
798.938938	3878.469685
799.260346	3919.315634
799.581709	3915.559974
799.903026	3845.009026
800.224299	3807.006288
800.545526	3803.646359
800.866708	3764.327879
801.187845	3699.937221
801.508936	3737.750916
801.829983	3738.373499
802.150984	3654.851662
802.471940	3643.088129
802.792851	3659.338289
803.113717	3655.932989
803.434538	3660.454904
803.755314	3603.366358
804.076045	3574.054569
804.396731	3598.952827
804.717372	3622.532825
805.037967	3608.125207
805.358518	3600.452571
805.679024	3624.088021
805.999485	3636.766522
806.319901	3641.825320
806.640272	3652.076507
806.960598	3666.766429
807.280879	3644.650887
807.601115	3655.527177
807.921306	3669.629804
808.241453	3712.774520
808.561554	3685.161599
808.881611	3622.318576
809.201623	3659.335768
809.521590	3671.079136
809.841513	3642.127790
810.161390	3672.261287
810.481223	3653.344357
810.801011	3600.603805
811.120755	3589.064604
811.440453	3621.282618
811.760107	3625.597846
812.079716	3582.311979
812.399281	3554.691497
812.718801	3576.554981
813.038276	3550.209911
813.357707	3546.618089
813.677093	3566.480235
813.996434	3511.486288
814.315731	3521.132536
814.634983	3522.050026
814.954191	3539.620967
815.273354	3568.035431
815.592473	3562.328845
815.911547	3571.102973
816.230577	3610.376082
816.549562	3657.525994
816.868502	3699.649876
817.187399	3726.683063
817.506250	3722.191395
817.825058	3696.562169
818.143821	3781.901342
818.462539	3887.788258
818.781213	3934.953293
819.099843	3986.804081
819.418429	4230.674939
819.736970	4471.576558
820.055466	4713.398188
820.373919	5074.211212
820.692327	5483.875539
821.010691	5918.332259
821.329011	7273.545648
821.647286	9971.359458
821.965517	14495.782432
822.283704	18524.884314
822.601847	20723.220601
822.919945	18935.229196
823.237999	16388.559261
823.556010	13896.868149
823.873976	11817.334214
824.191897	9732.232325
824.509775	8387.217191
824.827609	7253.769201
825.145398	6708.553289
825.463144	6586.358241
825.780845	6699.572474
826.098502	6882.228601
826.416116	7741.183243
826.733685	9052.604128
827.051210	10173.333287
827.368692	10228.904446
827.686129	8997.592537
828.003522	7482.803944
828.320872	6469.146373
828.638177	5769.691318
828.955439	5216.921237
829.272656	4718.532603
829.589830	4430.758336
829.906960	4256.543620
830.224046	4076.912185
830.541088	3952.289821
830.858086	3903.060433
831.175041	3829.116789
831.491952	3810.237668
831.808819	3819.520952
832.125642	3894.341758
832.442421	4039.206875
832.759157	4306.282165
833.075849	4844.909289
833.392497	5706.760074
833.709101	6472.602084
834.025662	6820.466905
834.342179	6469.174099
834.658653	5811.308563
834.975083	5168.841232
835.291469	4594.290846
835.607811	4184.949153
835.924110	4043.156619
836.240366	3851.121425
836.556578	3642.936895
836.872746	3533.120399
837.188871	3496.037672
837.504952	3429.287754
837.820990	3346.280114
838.136984	3301.449133
838.452935	3326.085252
838.768842	3321.628872
839.084706	3341.879187
839.400526	3498.475070
839.716303	3829.147036
840.032037	4348.859750
840.347727	4620.328405
840.663373	4351.508877
840.978977	3966.299188
841.294537	3661.117816
841.610054	3434.255811
841.925527	3327.491734
842.240957	3257.863317
842.556344	3204.543033
842.871687	3146.980618
843.186987	3094.756784
843.502244	3061.268399
843.817458	3025.385466
844.132629	2997.011332
844.447756	3004.285717
844.762840	2989.348778
845.077881	2960.362143
845.392879	2938.826334
845.707833	2937.586210
846.022745	2935.045469
846.337613	2936.424224
846.652438	2922.377049
846.967221	2921.575506
847.281960	2905.222003
847.596656	2902.346024
847.911309	2903.308885
848.225919	2895.482493
848.540485	2890.622821
848.855009	2888.558469
849.169490	2882.216697
849.483928	2874.014740
849.798323	2870.737990
850.112675	2865.532998
850.426984	2882.103271
850.741251	2876.661346
851.055474	2866.347145
851.369654	2861.663913
851.683792	2864.023173
851.997887	2875.988352
852.311938	2875.469113
852.625947	2865.734645
852.939914	2869.172712
853.253837	2875.103629
853.567718	2860.043182
853.881555	2857.411700
854.195350	2870.813607
854.509103	2867.562063
854.822812	2860.035620
855.136479	2859.150898
855.450103	2858.714838
855.763685	2852.541945
856.077224	2846.807632
856.390720	2863.347658
856.704173	2871.622712
857.017584	2864.895292
857.330953	2858.246011
857.644278	2869.127341
857.957561	2878.738301
858.270802	2879.691079
858.584000	2883.650905
858.897155	2871.347969
859.210268	2867.783874
859.523339	2867.733462
859.836367	2867.206662
860.149352	2861.210209
860.462295	2855.818695
860.775195	2863.778677
861.088054	2863.188862
861.400869	2846.893332
861.713642	2845.068434
862.026373	2858.750126
862.339062	2864.343286
862.651708	2864.471836
862.964312	2871.544574
863.276873	2863.183821
863.589392	2871.778988
863.901869	2887.683828
864.214303	2906.401633
864.526696	2922.492996
864.839045	2919.574168
865.151353	2916.352870
865.463619	2916.640216
865.775842	2917.124167
866.088023	2934.692588
866.400162	2943.350770
866.712258	2916.052922
867.024313	2904.274266
867.336325	2912.952612
867.648296	2933.835592
867.960224	2925.197575
868.272110	2911.959505
868.583954	2918.008889
868.895755	2931.146136
869.207515	2918.049219
869.519233	2921.691452
869.830909	2932.640838
870.142542	2942.576953
870.454134	2945.291614
870.765684	2946.506532
871.077191	2944.679114
871.388657	2951.202367
871.700081	2964.677371
872.011463	2979.221100
872.322803	2979.034577
872.634101	2978.459886
872.945357	2996.164418
873.256571	3017.934641
873.567744	3014.572191
873.878874	3004.230264
874.189963	3026.678522
874.501010	3031.192876
874.812015	3018.907584
875.122979	3020.941689
875.433900	3015.530011
875.744780	3024.132740
876.055618	3030.368647
876.366415	3027.901002
876.677169	3038.074051
876.987882	3033.889893
877.298554	3026.887730
877.609183	3047.707696
877.919771	3073.314237
878.230317	3099.888679
878.540822	3149.539003
878.851285	3188.796989
879.161707	3230.084039
879.472087	3330.781087
879.782425	3551.054304
880.092722	3986.420953
880.402977	4509.869163
880.713191	5131.637517
881.023363	6271.369304
881.333494	7548.800210
881.643583	8111.778627
881.953631	7815.114285
882.263637	7199.483536
882.573602	6618.074660
882.883526	6038.571340
883.193408	5473.820957
883.503248	5014.014794
883.813048	4705.148339
884.122806	4408.368051
884.432522	4088.547168
884.742197	3856.016386
885.051831	3663.441788
885.361424	3527.466745
885.670975	3454.899336
885.980485	3370.694423
886.289954	3298.817651
886.599382	3251.236720
886.908768	3212.129969
887.218113	3169.764112
887.527417	3113.225052
887.836680	3062.989953
888.145901	3058.732699
888.455082	3046.437325
888.764221	2998.798421
889.073319	2969.884883
889.382376	2965.806590
889.691392	2970.938484
890.000366	2967.994450
890.309300	2957.730661
890.618193	2969.277424
890.927044	2986.001452
891.235855	2986.815598
891.544625	2970.968731
891.853353	2982.326451
892.162041	3002.032321
892.470687	3042.490101
892.779293	3092.195878
893.087858	3137.137765
893.396381	3205.463043
893.704864	3327.806806
894.013306	3559.800706
894.321707	3863.555431
894.630068	4068.254004
894.938387	4064.384918
895.246665	4021.698948
895.554903	3904.668561
895.863100	3704.554918
896.171256	3540.314126
896.479371	3400.759864
896.787446	3277.959877
897.095480	3177.419105
897.403473	3111.069958
897.711425	3075.754155
898.019336	3066.344841
898.327207	3038.905841
898.635038	3006.065244
898.942827	2990.369612
899.250576	2975.291521
899.558284	2945.669701
899.865952	2924.970723
900.173579	2903.949111
900.481165	2899.124727
900.788711	2885.599311
901.096216	2862.906557
901.403681	2848.849300
901.711105	2856.247193
902.018489	2855.503623
902.325832	2853.696369
902.633135	2864.199613
902.940397	2899.112124
903.247619	2978.858137
903.554800	3163.029131
903.861941	3506.644259
904.169041	3930.552366
904.476101	4231.186617
904.783121	4189.065256
905.090100	3948.846713
905.397039	3674.562573
905.703938	3425.635438
906.010796	3243.533837
906.317614	3132.726755
906.624391	3038.409287
906.931129	2970.010912
907.237826	2907.651839
907.544483	2860.900178
907.851099	2831.679130
908.157675	2808.164668
908.464211	2788.199178
908.770707	2774.431787
909.077163	2761.193717
909.383578	2747.995976
909.689954	2737.485170
909.996289	2732.915364
910.302584	2736.953328
910.608839	2735.650190
910.915054	2732.058368
911.221229	2724.867162
911.527363	2727.128120
911.833458	2732.844788
912.139513	2737.507855
912.445527	2740.535068
912.751502	2750.761049
913.057436	2761.420569
913.363331	2770.451796
913.669186	2792.073305
913.975000	2824.888696
914.280775	2885.314486
914.586510	2956.861062
914.892205	3032.818648
915.197859	3158.411434
915.503475	3350.945702
915.809050	3561.552507
916.114585	3710.662276
916.420081	3728.160121
916.725536	3670.567459
917.030952	3555.523287
917.336328	3429.164245
917.641665	3299.273875
917.946961	3199.506920
918.252218	3126.828605
918.557435	3049.217521
918.862612	2992.738954
919.167750	2943.128959
919.472848	2901.834347
919.777906	2877.372148
920.082925	2850.633868
920.387904	2820.001297
920.692843	2805.316416
920.997743	2790.127419
921.302603	2781.257509
921.607423	2769.562032
921.912204	2756.485279
922.216946	2747.365832
922.521647	2736.048441
922.826310	2727.609550
923.130932	2724.542008
923.435516	2715.972046
923.740059	2706.628267
924.044564	2697.803728
924.349028	2696.137626
924.653454	2688.921215
924.957840	2683.207067
925.262186	2676.862775
925.566493	2673.833041
925.870761	2669.699295
926.174989	2666.377175
926.479178	2662.238387
926.783328	2656.521719
927.087438	2653.018117
927.391509	2652.289670
927.695541	2650.278250
927.999533	2644.904380
928.303486	2643.820532
928.607400	2642.565284
928.911275	2641.368010
929.215110	2641.766262
929.518906	2640.752990
929.822663	2640.226189
930.126381	2639.812814
930.430060	2639.376755
930.733699	2640.632002
931.037299	2642.857671
931.340861	2644.223824
931.644383	2645.267343
931.947866	2642.398926
932.251309	2643.444966
932.554714	2640.891621
932.858080	2637.793832
933.161407	2638.030767
933.464694	2637.002371
933.767943	2634.411218
934.071153	2634.368368
934.374323	2633.375261
934.677455	2635.663945
934.980548	2630.912657
935.283602	2631.336114
935.586617	2633.531537
935.889593	2631.686474
936.192530	2632.866104
936.495428	2634.771661
936.798287	2637.549336
937.101108	2640.198463
937.403890	2640.412712
937.706632	2645.582415
938.009336	2653.993580
938.312002	2659.911895
938.614628	2670.415139
938.917216	2678.493588
939.219765	2675.360511
939.522275	2677.666839
939.824747	2672.229954
940.127179	2671.047804
940.429573	2670.979748
940.731929	2663.153357
941.034246	2663.385250
941.336524	2659.120434
941.638763	2659.866524
941.940964	2657.043478
942.243126	2651.233548
942.545250	2651.936789
942.847335	2648.463434
943.149381	2645.652991
943.451389	2642.643422
943.753359	2636.838534
944.055290	2637.592186
944.357182	2639.464975
944.659036	2636.868781
944.960851	2637.471198
945.262628	2634.138996
945.564367	2633.382823
945.866067	2635.174953
946.167729	2634.443986
946.469352	2634.680920
946.770937	2635.482463
947.072484	2631.046248
947.373992	2633.929788
947.675462	2631.547843
947.976893	2629.448202
948.278286	2623.179527
948.579641	2626.476442
948.880958	2623.665999
949.182236	2626.612553
949.483476	2622.009980
949.784678	2623.371091
950.085841	2626.196658
950.386967	2626.390742
950.688054	2626.597430
950.989103	2628.631535
951.290114	2628.134982
951.591087	2631.799900
951.892021	2631.590692
952.192917	2637.897176
952.493776	2635.230406
952.794596	2637.942546
953.095378	2638.623102
953.396122	2637.486322
953.696828	2634.012967
953.997496	2635.807618
954.298126	2633.279479
954.598718	2631.356279
954.899272	2627.764457
955.199788	2627.393932
955.500266	2621.974692
955.800706	2620.704321
956.101108	2617.709875
956.401472	2616.956223
956.701798	2613.387086
957.002087	2612.704010
957.302337	2612.013372
957.602550	2610.773248
957.902724	2606.281580
958.202861	2608.630757
958.502960	2605.217896
958.803022	2603.687906
959.103045	2606.526076
959.403031	2604.718822
959.702979	2604.497011
960.002889	2602.714963
960.302762	2601.978955
960.602596	2602.256218
960.902393	2602.659511
961.202153	2600.983327
961.501875	2600.562391
961.801559	2601.641197
962.101205	2601.290837
962.400814	2597.935949
962.700385	2599.899479
962.999918	2598.077102
963.299414	2594.472677
963.598873	2593.794642
963.898293	2594.472677
964.197677	2597.255394
964.497022	2597.973758
964.796331	2599.244129
965.095601	2596.577358
965.394835	2595.959817
965.694030	2599.221444
965.993189	2595.866556
966.292309	2597.341093
966.591393	2597.247832
966.890439	2596.504262
967.189447	2598.717328
967.488419	2596.360589
967.787353	2594.024014
968.086249	2597.943511
968.385108	2596.471494
968.683930	2597.036103
968.982714	2599.188676
969.281462	2597.976279
969.580172	2597.890579
969.878844	2597.409149
970.177480	2597.147009
970.476078	2597.913264
970.774639	2595.034765
971.073162	2596.597523
971.371649	2598.545929
971.670098	2599.397884
971.968510	2597.850250
972.266885	2599.201279
972.565223	2597.520054
972.863524	2597.948552
973.161788	2600.673296
973.460014	2598.233377
973.758204	2600.131372
974.056356	2597.610795
974.354471	2598.099787
974.652550	2595.712801
974.950591	2596.421083
975.248595	2598.112390
975.546563	2597.333532
975.844493	2599.171032
976.142386	2598.898810
976.440243	2596.441247
976.738062	2596.332862
977.035845	2596.368151
977.333590	2598.679520
977.631299	2595.972420
977.928971	2592.688108
978.226606	2591.659713
978.524204	2592.304981
978.821765	2592.090732
979.119290	2592.224322
979.416777	2595.243973
979.714228	2595.221288
980.011642	2595.339755
980.309020	2595.019642
980.606360	2597.451999
980.903664	2593.378746
981.200931	2595.652307
981.498162	2599.627257
981.795356	2595.173397
982.092513	2598.838316
982.389633	2600.769078
982.686717	2606.654625
982.983764	2610.052363
983.280775	2611.489092
983.577749	2611.373145
983.874686	2612.169647
984.171587	2610.927003
984.468451	2606.301744
984.765279	2604.988524
985.062070	2601.560539
985.358824	2604.469285
985.655543	2601.426948
985.952224	2600.272524
986.248869	2596.678182
986.545478	2596.784046
986.842050	2594.749940
987.138586	2593.676174
987.435086	2593.749271
987.731549	2592.163828
988.027975	2590.812799
988.324366	2593.351020
988.620719	2591.536205
988.917037	2591.392532
989.213318	2593.081318
989.509563	2592.274734
989.805772	2591.740371
990.101944	2591.027048
990.398080	2591.944538
990.694180	2592.068046
990.990244	2594.157605
991.286271	2590.762387
991.582262	2590.729620
991.878217	2590.575865
992.174136	2591.765577
992.470019	2591.130392
992.765865	2590.212902
993.061676	2590.764908
993.357450	2589.028231
993.653188	2588.831626
993.948890	2591.984867
994.244556	2590.976637
994.540186	2592.060485
994.835780	2591.838674
995.131337	2594.593664
995.426859	2593.230032
995.722345	2595.652307
996.017795	2596.862184
996.313208	2595.513675
996.608586	2597.078953
996.903928	2599.528954
997.199234	2596.390836
997.494504	2596.476535
997.789738	2594.603747
998.084936	2595.460743
998.380099	2595.122986
998.675225	2595.952255
998.970316	2592.889754
999.265371	2592.877152
999.560390	2590.343972
999.855373	2594.742378
1000.150320	2592.539394
1000.445232	2590.215422
1000.740108	2588.836667
1001.034948	2589.512181
1001.329752	2592.060485
1001.624521	2592.168869
1001.919254	2590.759867
1002.213951	2590.036461
1002.508613	2589.418920
1002.803239	2590.033941
1003.097829	2588.022520
1003.392384	2588.708117
1003.686903	2589.141657
1003.981386	2592.940166
1004.275834	2589.030751
1004.570246	2589.895309
1004.864623	2587.712489
1005.158964	2588.972778
1005.453270	2587.830957
1005.747540	2588.080494
1006.041775	2589.305494
1006.335974	2593.262800
1006.630138	2589.449167
1006.924266	2590.903540
1007.218359	2590.913622
1007.512416	2586.114444
1007.806438	2584.458425
1008.100425	2583.016655
1008.394376	2583.094792
1008.688292	2588.826584
1008.982172	2588.151070
1009.276017	2589.308015
1009.569827	2587.687284
1009.863602	2588.002356
1010.157341	2588.299784
1010.451045	2588.544280
1010.744714	2589.313056
1011.038347	2591.412696
1011.331945	2588.940010
1011.625508	2587.904053
1011.919036	2588.942531
1012.212528	2588.829105
1012.505986	2585.874989
1012.799408	2590.212902
1013.092795	2586.159814
1013.386147	2586.641244
1013.679464	2587.523446
1013.972745	2589.481934
1014.265992	2591.271544
1014.559204	2587.163004
1014.852380	2589.227356
1015.145521	2587.510843
1015.438628	2588.060329
1015.731699	2586.426995
1016.024736	2590.094435
1016.317737	2586.784917
1016.610703	2584.367684
1016.903635	2588.955134
1017.196531	2586.444639
1017.489393	2589.844897
1017.782219	2586.149732
1018.075011	2589.199630
1018.367768	2588.456060
1018.660490	2587.483117
1018.953177	2587.483117
1019.245829	2587.483117
