Dividing Wavelength (nm)	Counts (n)	Blue Motor Position (mm): 27.400000	Red Motor Position (mm): 0.000000	
326.493990	2203.294262
326.888308	2203.294262
327.282561	2203.294262
327.676750	2167.048366
328.070874	2162.826399
328.464933	2163.822027
328.858929	2165.372182
329.252859	2171.318223
329.646726	2180.283915
330.040528	2190.255317
330.434265	2202.991793
330.827938	2224.018445
331.221547	2243.154665
331.615091	2258.038672
332.008571	2275.614655
332.401986	2295.978396
332.795338	2312.871302
333.188625	2333.179591
333.581847	2352.608198
333.975006	2370.496732
334.368100	2387.054402
334.761129	2408.121384
335.154095	2424.908426
335.546996	2449.108485
335.939833	2484.958651
336.332606	2502.630415
336.725315	2517.123733
337.117960	2529.608150
337.510540	2538.379758
337.903056	2548.976263
338.295508	2560.535629
338.687896	2571.936198
339.080220	2576.019533
339.472480	2581.708475
339.864676	2585.413723
340.256807	2592.778849
340.648875	2595.710280
341.040879	2597.946032
341.432818	2602.132710
341.824694	2602.173039
342.216506	2606.011878
342.608253	2607.204111
342.999937	2607.012547
343.391557	2605.772423
343.783113	2607.231837
344.174605	2606.067331
344.566033	2605.182608
344.957397	2603.748400
345.348697	2604.154213
345.739934	2600.091043
346.131106	2601.389140
346.522215	2595.475866
346.913260	2594.984354
347.304241	2591.437902
347.695159	2590.893457
348.086012	2591.032089
348.476802	2590.318766
348.867528	2582.278126
349.258191	2578.063721
349.648789	2584.700400
350.039324	2577.463824
350.429796	2581.131263
350.820203	2580.329720
351.210548	2578.348546
351.600828	2575.943916
351.991045	2576.148082
352.381198	2572.311764
352.771288	2576.294276
353.161314	2572.218503
353.551276	2573.917372
353.941175	2570.698595
354.331010	2571.306054
354.720782	2571.422001
355.110490	2570.295303
355.500135	2571.553071
355.889717	2571.855540
356.279235	2569.955025
356.668689	2571.900910
357.058080	2572.904100
357.447408	2574.295458
357.836672	2572.160530
358.225873	2573.788823
358.615010	2573.342680
359.004084	2579.495409
359.393095	2575.379307
359.782043	2571.908472
360.170927	2575.525500
360.559748	2575.709502
360.948505	2576.248906
361.337199	2579.359297
361.725830	2578.809812
362.114398	2578.255285
362.502903	2576.322002
362.891344	2581.756366
363.279722	2579.084555
363.668037	2579.255954
364.056289	2579.800398
364.444478	2582.063877
364.832603	2581.673187
365.220665	2583.480441
365.608665	2581.035481
365.996601	2584.518918
366.384474	2581.516911
366.772284	2583.397262
367.160031	2581.710996
367.547715	2585.028075
367.935336	2584.576892
368.322893	2582.404154
368.710388	2580.932137
369.097820	2582.343661
369.485189	2581.201839
369.872495	2585.479258
370.259738	2585.506985
370.646918	2588.819023
371.034035	2587.359609
371.421090	2586.527818
371.808081	2587.299115
372.195010	2589.126533
372.581875	2588.188878
372.968678	2588.874475
373.355418	2588.226687
373.742096	2589.615525
374.128710	2592.262131
374.515262	2589.693663
374.901751	2590.822881
375.288177	2590.091914
375.674540	2590.739702
376.060841	2590.676688
376.447079	2592.337748
376.833254	2592.098293
377.219367	2589.295412
377.605417	2593.855135
377.991404	2591.286667
378.377329	2594.258428
378.763191	2592.113417
379.148991	2591.566452
379.534727	2595.120465
379.920402	2593.066195
380.306013	2593.953438
380.691563	2595.697677
381.077049	2595.097780
381.462474	2593.056112
381.847835	2597.028542
382.233134	2595.690115
382.618371	2594.903695
383.003545	2596.940322
383.388657	2594.855804
383.773706	2595.344796
384.158693	2597.139447
384.543618	2597.020980
384.928480	2597.300764
385.313280	2595.536360
385.698017	2599.007195
386.082692	2597.177256
386.467305	2598.835795
386.851856	2598.581217
387.236344	2598.389653
387.620770	2598.656834
388.005133	2595.730445
388.389435	2598.286310
388.773674	2595.748089
389.157851	2601.081629
389.541965	2599.783532
389.926018	2602.480550
390.310008	2602.097422
390.693936	2600.844695
391.077802	2597.986361
391.461606	2600.854777
391.845348	2605.074223
392.229027	2604.192021
392.612645	2602.674634
392.996200	2600.154057
393.379694	2603.866867
393.763125	2603.897114
394.146494	2603.443410
394.529801	2605.064141
394.913047	2605.215376
395.296230	2603.602206
395.679351	2604.761672
396.062410	2603.894593
396.445408	2606.662187
396.828343	2606.702516
397.211217	2605.898452
397.594028	2606.702516
397.976778	2608.247630
398.359466	2610.291817
398.742092	2607.438524
399.124656	2607.998092
399.507158	2606.848709
399.889598	2610.190994
400.271977	2608.560181
400.654294	2609.946498
401.036549	2609.573453
401.418742	2609.886005
401.800874	2612.257867
402.182944	2609.686879
402.564952	2610.266612
402.946898	2612.656119
403.328783	2608.713936
403.710606	2611.158896
404.092367	2612.940944
404.474067	2618.259361
404.855705	2612.058742
405.237282	2612.235182
405.618797	2612.424226
406.000250	2611.630244
406.381642	2613.437497
406.762972	2611.431118
407.144240	2610.254009
407.525447	2613.780296
407.906593	2608.938268
408.287677	2615.648043
408.668700	2614.143259
409.049661	2615.877416
409.430560	2618.771038
409.811399	2616.051336
410.192176	2615.141407
410.572891	2614.511263
410.953545	2617.374639
411.334138	2617.518312
411.714669	2617.825822
412.095139	2618.249279
412.475547	2619.875051
412.855894	2617.364556
413.236180	2619.885133
413.616405	2619.973353
413.996568	2620.782459
414.376670	2618.803806
414.756711	2617.863631
415.136691	2620.275823
415.516609	2623.824795
415.896466	2623.088787
416.276262	2621.992336
416.655997	2621.082407
417.035670	2623.159363
417.415283	2626.811679
417.794834	2623.393776
418.174324	2623.429064
418.553753	2621.369753
418.933121	2624.278499
419.312428	2627.396452
419.691674	2624.669188
420.070859	2627.154477
420.449983	2629.261679
420.829045	2627.305712
421.208047	2629.574231
421.586988	2627.517440
421.965867	2628.374436
422.344686	2633.523975
422.723444	2630.491721
423.102141	2628.868469
423.480777	2632.896351
423.859352	2627.494755
424.237866	2631.817544
424.616319	2631.857874
424.994712	2633.539098
425.373044	2632.893831
425.751314	2631.552884
426.129524	2632.644294
426.507673	2637.055303
426.885762	2631.686474
427.263789	2636.263842
427.641756	2636.473050
428.019662	2638.789460
428.397508	2637.191414
428.775292	2638.837351
429.153016	2640.752990
429.530679	2641.685603
429.908282	2643.908752
430.285824	2640.692496
430.663305	2643.185346
431.040726	2643.515542
431.418086	2643.162661
431.795385	2646.043681
432.172624	2645.806746
432.549802	2649.665750
432.926920	2649.438898
433.303977	2652.539207
433.680974	2650.863024
434.057910	2655.178251
434.434786	2655.405103
434.811601	2657.008190
435.188355	2660.617656
435.565050	2665.177380
435.941683	2667.433296
436.318257	2673.888494
436.694770	2677.971828
437.071222	2682.987777
437.447614	2690.073118
437.823946	2693.178469
438.200218	2703.439738
438.576429	2709.776468
438.952580	2722.901112
439.328670	2735.461147
439.704700	2744.661253
440.080670	2760.908892
440.456580	2783.188271
440.832429	2796.509520
441.208218	2807.390851
441.583947	2836.508555
441.959616	2863.584592
442.335224	2882.499002
442.710773	2919.869075
443.086261	2955.164714
443.461689	2963.855663
443.837057	3024.886392
444.212365	3080.870926
444.587612	3104.889504
444.962800	3162.633400
445.337927	3204.180070
445.712995	3222.676063
446.088002	3360.138246
446.462949	3398.750964
446.837837	3461.253710
447.212664	3529.805841
447.587431	3653.848472
447.962139	3813.683296
448.336786	4191.117005
448.711374	4404.866969
449.085901	4181.369934
449.460369	4203.019169
449.834776	4214.434862
450.209124	4461.363181
450.583412	4653.287469
450.957640	4959.083862
451.331808	4910.046037
451.705917	4806.515861
452.079965	4755.557357
452.453954	5089.059931
452.827883	5111.183035
453.201752	5302.131860
453.575562	5291.726919
453.949311	5522.095047
454.323001	5630.124453
454.696632	5821.884904
455.070202	6044.025869
455.443713	6255.761892
455.817164	6559.791360
456.190556	6699.701023
456.563888	6979.893395
456.937160	7192.327618
457.310373	7075.269505
457.683526	7237.357725
458.056619	7199.753238
458.429653	7395.042497
458.802628	7312.720454
459.175542	7610.821525
459.548398	8186.531377
459.921194	8514.728136
460.293930	8678.043877
460.666607	9290.148339
461.039224	9971.724942
461.411782	10535.162104
461.784280	10672.856180
462.156719	10904.224977
462.529099	10891.654860
462.901419	10463.711310
463.273680	10512.242498
463.645882	10581.044166
464.018024	10566.523122
464.390106	10863.326096
464.762130	11499.804537
465.134094	12093.523910
465.505999	13499.022808
465.877845	15798.025896
466.249631	18015.949587
466.621358	18154.679620
466.993026	17402.428561
467.364634	17252.620592
467.736184	16441.806448
468.107674	16004.846795
468.479105	16261.643172
468.850477	16033.911567
469.221790	15860.153076
469.593043	15495.092879
469.964238	15242.291617
470.335373	15091.946765
470.706449	15547.409974
471.077467	15285.980777
471.448425	16870.637241
471.819324	20364.098883
472.190164	22371.327549
472.560945	19595.910216
472.931667	17587.295234
473.302330	17126.034698
473.672934	16741.808034
474.043479	17207.008232
474.413965	17136.301008
474.784393	16901.441212
475.154761	17568.209425
475.525070	17695.455710
475.895321	17430.626255
476.265513	18059.452224
476.635645	18663.488319
477.005719	18558.352535
477.375734	18804.136511
477.745691	19334.279373
478.115588	19851.113589
478.485427	20413.184598
478.855207	21465.722069
479.224928	23149.868225
479.594591	25331.178015
479.964194	25501.677400
480.333739	25802.621682
480.703226	25441.932165
481.072653	25162.364896
481.442022	25732.305147
481.811333	26641.683931
482.180584	26651.146176
482.549777	25765.092812
482.918912	25432.142244
483.287988	25573.700365
483.657005	25317.103113
484.025964	25038.604569
484.394864	25031.856985
484.763706	24773.707058
485.132489	24221.509148
485.501213	24393.508276
485.869879	24340.747560
486.238487	24137.435305
486.607036	24315.377953
486.975527	23998.778368
487.343959	24353.894889
487.712333	24333.921838
488.080648	24012.691953
488.448905	24484.014632
488.817104	24227.971907
489.185244	24886.399532
489.553326	24889.898092
489.921350	25831.469684
490.289315	28072.600326
490.657222	29896.804860
491.025070	30392.085623
491.392861	30209.830267
491.760593	29376.328411
492.128267	28499.699483
492.495883	27477.303072
492.863440	26596.900840
493.230939	25730.971762
493.598380	25563.562604
493.965763	25174.907287
494.333088	24737.690534
494.700354	24671.419526
495.067563	24553.244797
495.434713	24308.844618
495.801805	24446.125319
496.168839	24273.901860
496.535815	24103.397434
496.902733	24313.555576
497.269593	23982.613908
497.636395	24174.439895
498.003139	24163.079654
498.369825	23916.105966
498.736453	24102.248051
499.103023	23985.683971
499.469535	24005.467979
499.835989	24207.245203
500.202385	24236.241920
500.568723	23741.152722
500.935003	24016.195555
501.301226	23593.673766
501.667390	24412.662140
502.033497	24668.185626
502.399546	24400.875923
502.765537	23978.893537
503.131470	24359.956877
503.497345	24500.199256
503.863163	23711.460325
504.228923	24341.763352
504.594625	24519.431258
504.960269	24037.131467
505.325856	24538.244844
505.691385	23960.168171
506.056856	24547.306318
506.422270	24512.847511
506.787625	24112.385811
507.152924	24513.016390
507.518164	24539.512694
507.883347	24350.552604
508.248472	24035.866137
508.613540	24821.802186
508.978550	24594.635191
509.343503	24590.514048
509.708398	24868.654670
510.073236	25010.301011
510.438016	25227.211779
510.802738	24903.468879
511.167403	25144.415868
511.532010	24836.557644
511.896561	25630.320084
512.261053	25592.582007
512.625488	25434.022595
512.989866	25341.187226
513.354186	25180.243348
513.718449	25277.225066
514.082655	25661.323180
514.446803	25407.249027
514.810894	25846.772107
515.174927	25349.694173
515.538904	25373.687545
515.902822	25855.208478
516.266684	25615.620080
516.630488	25515.417065
516.994235	25507.628482
517.357925	25791.546267
517.721558	25987.500958
518.085133	26088.336637
518.448651	26003.254563
518.812112	25709.612393
519.175516	25897.909572
519.538863	26081.100061
519.902152	25862.871032
520.265385	26155.661247
520.628560	25939.355418
520.991678	25959.459539
521.354739	26035.102053
521.717743	26070.682517
522.080690	25869.842947
522.443580	26209.964556
522.806413	26206.133279
523.169189	26303.682127
523.531908	26357.544335
523.894569	25955.643386
524.257174	26022.113520
524.619722	26223.258079
524.982213	25907.495326
525.344647	25972.473278
525.707025	26097.952638
526.069345	26096.972134
526.431608	26043.266202
526.793815	26238.691572
527.155964	25682.992580
527.518057	25859.183428
527.880093	25789.149198
528.242072	26023.472111
528.603995	25720.216460
528.965860	25515.457394
529.327669	25567.945888
529.689421	25563.701236
530.051117	25390.346038
530.412755	25564.386833
530.774337	25380.530911
531.135862	25242.511681
531.497331	25447.638751
531.858743	24977.762883
532.220098	25481.091848
532.581396	25150.825695
532.942638	25100.767037
533.303824	25195.964187
533.664953	25206.507760
534.026025	24879.878799
534.387040	25103.282573
534.747999	25164.300699
535.108902	25324.664844
535.469748	24826.432486
535.830537	25020.257290
536.191270	25132.717870
536.551947	25019.324676
536.912567	24679.082080
537.273131	24996.216027
537.633638	24719.179418
537.994089	24921.478401
538.354483	24470.496778
538.714821	24958.515758
539.075103	25009.222204
539.435328	24803.969105
539.795497	24345.264434
540.155609	24754.366671
540.515665	25046.337699
540.875665	24290.225116
541.235609	24576.275309
541.595496	24540.853641
541.955328	24900.804629
542.315102	24814.338758
542.674821	24371.758218
543.034483	24254.407718
543.394090	24405.304576
543.753640	24195.726167
544.113134	24837.941440
544.472571	24440.398569
544.831953	24724.086981
545.191278	24329.195756
545.550548	24262.992803
545.909761	24477.965247
546.268918	24712.041144
546.628019	24663.736808
546.987064	24380.842377
547.346053	24139.121571
547.704986	24262.655046
548.063863	24406.842128
548.422684	24409.599639
548.781449	23958.749086
549.140158	24360.002247
549.498811	23937.800571
549.857408	23669.160003
550.215949	24101.600263
550.574434	23786.286172
550.932864	24000.409182
551.291237	24141.294308
551.649555	24017.080277
552.007817	24070.768566
552.366022	23944.147384
552.724173	23987.128262
553.082267	23917.797273
553.440305	24398.612444
553.798288	23670.584129
554.156215	24184.562532
554.514086	24279.424444
554.871902	23648.471108
555.229661	23936.409213
555.587365	23796.597852
555.945014	23646.033710
556.302606	23912.461212
556.660143	23846.991747
557.017625	24114.614001
557.375050	23651.881449
557.732421	24018.693447
558.089735	23827.716895
558.446994	23901.776486
558.804197	23920.380864
559.161345	23885.092787
559.518437	23622.851964
559.875474	23813.785666
560.232455	23995.824252
560.589381	23827.883253
560.946251	23793.487460
561.303065	24121.759837
561.659825	24216.377253
562.016528	23809.104955
562.373177	23570.655857
562.729770	23903.651795
563.086307	23776.599595
563.442789	23953.203817
563.799216	23771.986939
564.155587	23793.996617
564.511904	23768.206074
564.868164	23696.195712
565.224370	23687.824876
565.580520	23589.686213
565.936615	23723.231420
566.292654	23398.293766
566.648638	23703.586043
567.004567	23531.982646
567.360441	23479.105983
567.716260	23199.117778
568.072023	23535.899622
568.427732	23297.558909
568.783385	23078.177976
569.138982	23319.992044
569.494525	23350.879194
569.850013	23095.794288
570.205445	23202.868396
570.560823	22997.212004
570.916145	22772.358899
571.271412	22935.556172
571.626625	22691.463503
571.981782	22803.593888
572.336884	22607.041820
572.691931	22746.470053
573.046923	22475.021563
573.401860	22358.316331
573.756743	22366.152804
574.111570	22272.541098
574.466342	22223.130228
574.821059	22300.136374
575.175722	22005.551508
575.530330	21986.221203
575.884882	22016.407633
576.239380	21919.042787
576.593823	21808.467598
576.948211	21789.540586
577.302544	21641.532309
577.656823	21510.953822
578.011047	21595.710741
578.365216	21477.704892
578.719330	21350.219152
579.073389	21253.257599
579.427394	21404.041031
579.781344	21179.671876
580.135239	21067.226419
580.489080	21032.664268
580.842866	20796.629883
581.196597	20979.381793
581.550273	20972.498097
581.903895	20854.570385
582.257463	21170.237357
582.610975	20693.495437
582.964434	21013.732215
583.317837	20711.943540
583.671186	20807.223868
584.024481	20771.335894
584.377721	20551.027389
584.730906	20599.021694
585.084037	20624.030858
585.437113	20535.830830
585.790135	20736.294834
586.143103	20207.056859
586.496016	20219.571523
586.848874	20456.420054
587.201679	20391.520240
587.554428	20062.572348
587.907124	20399.323946
588.259765	20180.923517
588.612352	20252.472614
588.964884	19816.788372
589.317362	19991.048458
589.669786	20042.279184
590.022155	20089.388766
590.374470	20271.472723
590.726731	20067.978986
591.078937	19828.680454
591.431090	19933.735580
591.783188	19671.361166
592.135232	19649.704369
592.487222	19751.187837
592.839157	19777.089286
593.191038	19661.107459
593.542866	19543.698986
593.894639	19257.580738
594.246358	19478.884871
594.598022	19387.345079
594.949633	19137.639085
595.301190	19101.206666
595.652692	19263.902345
596.004141	19514.021713
596.355535	18835.681531
596.706876	18856.551908
597.058162	18744.345906
597.409395	18970.020719
597.760573	19057.784687
598.111698	18834.022992
598.462768	18765.675028
598.813785	18713.312563
599.164748	18541.928455
599.515657	18568.475172
599.866511	18375.560296
600.217312	18729.648422
600.568060	18258.565198
600.918753	18572.402230
601.269392	18476.569896
601.619978	18249.165966
601.970510	18458.940981
602.320988	18407.538856
602.671412	18618.032234
603.021783	18516.994908
603.372100	18254.698633
603.722363	18392.609478
604.072572	18323.109611
604.422728	18476.070822
604.772830	18225.457420
605.122878	18183.333538
605.472872	18173.278957
605.822813	18163.927617
606.172701	18140.090521
606.522534	18335.493205
606.872314	18342.843208
607.222041	18177.402621
607.571714	18398.668945
607.921333	18226.697544
608.270899	18300.542886
608.620411	18494.037494
608.969870	18243.504751
609.319276	18258.350949
609.668627	18280.317777
610.017926	18412.020441
610.367171	18529.421353
610.716362	18580.463035
611.065500	18395.450169
611.414585	18531.097536
611.763616	18503.986211
612.112594	18458.855281
612.461518	18427.143903
612.810389	18614.223643
613.159207	18471.407754
613.507971	18379.746974
613.856682	18661.106373
614.205340	18589.179190
614.553945	18732.761334
614.902496	18469.600501
615.250994	18717.063181
615.599439	18652.710332
615.947830	18636.389596
616.296169	18680.625721
616.644454	18659.558739
616.992686	18625.639336
617.340864	18840.823508
617.688990	18593.973328
618.037063	18769.226521
618.385082	18624.255539
618.733048	18897.294513
619.080961	18759.139172
619.428821	18806.888981
619.776628	18691.743986
620.124382	18614.884034
620.472083	18654.368871
620.819731	18685.545887
621.167326	18374.244555
621.514868	18411.231501
621.862357	18173.011776
622.209793	18195.356690
622.557176	18026.967028
622.904506	17853.105194
623.251783	17753.610461
623.599007	17531.996297
623.946179	17469.246534
624.293297	17405.065084
624.640363	17166.472314
624.987376	17182.883790
625.334336	16980.673027
625.681243	16811.275134
626.028097	16831.686766
626.374899	16766.751663
626.721647	16619.091226
627.068343	16451.303982
627.414987	16387.714867
627.761577	16370.035541
628.108115	16402.563586
628.454600	16123.019003
628.801032	16231.633183
629.147412	16154.778272
629.493739	16177.748289
629.840014	15979.204966
630.186236	16084.600369
630.532405	15846.141189
630.878521	16050.736418
631.224585	15943.006960
631.570597	15760.502068
631.916556	15792.049608
632.262462	15771.098573
632.608316	15697.875813
632.954117	15630.825947
633.299866	15628.945596
633.645562	15551.057249
633.991206	15310.710157
634.336797	15171.513817
634.682336	15143.376617
635.027823	15032.602302
635.373257	14914.387244
635.718639	14807.766841
636.063968	14761.380663
636.409245	14513.267674
636.754470	14546.584660
637.099642	14391.811154
637.444762	14169.304706
637.789829	14206.475654
638.134845	14044.236200
638.479808	14068.229571
638.824719	14016.582950
639.169577	13871.001989
639.514383	13924.463425
639.859137	13740.385693
640.203839	13818.851252
640.548489	13659.855781
640.893086	13650.766580
641.237632	13517.344882
641.582125	13665.748889
641.926566	13498.896779
642.270955	13513.808513
642.615292	13469.249754
642.959576	13485.114265
643.303809	13520.430068
643.647990	13454.620325
643.992118	13506.445907
644.336195	13280.526598
644.680219	13477.572699
645.024192	13407.392275
645.368112	13641.702586
645.711981	13705.735322
646.055797	13877.076579
646.399562	13848.989791
646.743274	14120.423158
647.086935	14396.882555
647.430544	14355.338406
647.774101	14385.658426
648.117606	14544.028795
648.461059	14507.389689
648.804460	14499.165046
649.147810	14232.326691
649.491108	14130.490342
649.834354	14151.101099
650.177548	13842.181712
650.520690	13648.188030
650.863781	13574.579622
651.206820	13613.267957
651.549807	13447.285446
651.892742	13248.076690
652.235626	13189.851363
652.578458	13194.327908
652.921238	12880.412738
653.263967	13086.553080
653.606644	12899.052404
653.949269	12878.081204
654.291843	12685.864528
654.634365	12837.905728
654.976836	12692.924664
655.319255	12707.276829
655.661622	12653.114672
656.003938	12574.775142
656.346203	12504.824091
656.688416	12573.623238
657.030577	12533.717464
657.372687	12461.578553
657.714746	12431.833224
658.056753	12616.631842
658.398708	12431.152668
658.740612	12435.281373
659.082465	12536.258206
659.424266	12491.336484
659.766016	12517.371523
660.107715	12430.338522
660.449362	12509.923218
660.790958	12465.190539
661.132503	12411.330852
661.473996	12478.703352
661.815438	12499.165396
662.156829	12510.145029
662.498168	12487.986637
662.839456	12487.580824
663.180693	12498.066424
663.521879	12602.869492
663.863013	12568.382958
664.204097	12541.390100
664.545129	12677.390349
664.886110	12637.882826
665.227040	12732.263308
665.567918	12738.176582
665.908746	12770.565995
666.249522	12756.972524
666.590248	12800.243268
666.930922	12916.068819
667.271545	12890.905899
667.612118	12981.455105
667.952639	12878.459290
668.293109	12892.408163
668.633528	12845.820340
668.973896	12823.908965
669.314213	12905.457190
669.654480	12641.235193
669.994695	12716.141698
670.334859	12738.254720
670.674973	12683.835464
671.015035	12717.500289
671.355047	12659.902586
671.695008	12627.707257
672.034918	12643.947334
672.374777	12680.783045
672.714585	12590.710229
673.054342	12624.289355
673.394049	12579.881830
673.733705	12677.783559
674.073310	12579.806213
674.412864	12601.997372
674.752368	12465.845889
675.091820	12483.941111
675.431223	12472.840490
675.770574	12340.129595
676.109875	12266.344746
676.449125	12223.003426
676.788324	12164.185764
677.127473	12003.153666
677.466571	11992.408446
677.805619	11886.322405
678.144616	11809.596043
678.483562	11786.830193
678.822458	11648.576548
679.161303	11625.465378
679.500098	11618.213679
679.838842	11570.814230
680.177535	11593.963208
680.516179	11650.542598
680.854771	11603.347316
681.193314	11818.670120
681.531805	11967.744601
681.870247	12384.567366
682.208638	12793.977114
682.546978	13108.731636
682.885268	13165.893280
683.223508	12852.608253
683.561697	12692.959952
683.899836	12593.424890
684.237925	12401.830797
684.575963	12311.281592
684.913951	12243.694842
685.251889	12188.879856
685.589776	12277.883947
685.927614	12211.247455
686.265401	12170.378821
686.603137	12225.400495
686.940824	12366.666228
687.278460	12498.005930
687.616046	12542.300028
687.953582	12710.805637
688.291068	12631.803194
688.628504	12864.608720
688.965889	12875.860576
689.303224	12838.324144
689.640510	12744.591450
689.977745	12427.177719
690.314930	12199.347812
690.652065	12113.834719
690.989150	11823.650780
691.326185	11601.051070
691.663170	11395.676983
692.000105	11152.799232
692.336990	11036.507375
692.673825	10787.497060
693.010610	10674.537405
693.347345	10460.346340
693.684030	10261.132543
694.020665	10200.729437
694.357251	10009.004274
694.693786	9953.513773
695.030272	9782.850551
695.366707	9665.237911
695.703093	9601.421945
696.039429	9597.588147
696.375716	9522.616107
696.711952	9391.205829
697.048139	9431.779556
697.384276	9382.207370
697.720363	9403.314681
698.056400	9337.918313
698.392388	9287.544583
698.728326	9249.662832
699.064214	9184.478192
699.400053	9234.708249
699.735842	9045.785968
700.071581	9006.964042
700.407270	8934.318494
700.742910	8854.174231
701.078501	8762.803317
701.414042	8634.039645
701.749533	8573.442455
702.084974	8438.712578
702.420366	8549.638127
702.755709	8429.036083
703.091002	8296.960373
703.426246	8324.149836
703.761440	8272.112525
704.096584	8228.771205
704.431679	8166.623860
704.766725	8148.190881
705.101721	8104.269828
705.436668	8144.246178
705.771565	8038.185343
706.106413	8123.161553
706.441212	8169.126793
706.775961	8114.105120
707.110661	8153.388311
707.445311	8300.935322
707.779913	8194.776184
708.114465	8320.492479
708.448967	8367.133234
708.783421	8504.045931
709.117825	8687.249024
709.452180	8726.645641
709.786485	8811.142941
710.120742	9089.339016
710.454949	9090.319521
710.789107	9195.228453
711.123216	9402.460205
711.457275	9573.435979
711.791286	9736.696267
712.125247	9724.970543
712.459159	9713.678358
712.793023	9967.107245
713.126837	9539.060351
713.460602	9694.448877
713.794318	9517.040591
714.127985	9548.147031
714.461602	9234.723373
714.795171	9177.226493
715.128691	8929.665509
715.462162	8679.571347
715.795584	8624.489179
716.128957	8475.253381
716.462281	8301.492370
716.795556	8358.381791
717.128782	8151.641551
717.461960	7885.793782
717.795088	7953.645193
718.128167	7865.011626
718.461198	7702.479785
718.794180	7640.743294
719.127113	7628.836089
719.459997	7478.171124
719.792833	7249.091011
720.125619	7308.599311
720.458357	7174.996131
720.791046	7163.240161
721.123686	7155.552401
721.456278	6998.530541
721.788821	7012.192068
722.121315	6913.060298
722.453761	6972.306459
722.786158	6919.417193
723.118506	6932.095695
723.450805	6897.752834
723.783056	6965.142979
724.115259	6872.025306
724.447412	6862.507607
724.779518	6918.424086
725.111574	6916.601709
725.443582	6998.134810
725.775542	6970.229503
726.107453	7170.358270
726.439315	7077.848056
726.771129	7140.554968
727.102895	7308.286760
727.434612	7424.220695
727.766281	7455.377547
728.097901	7537.064403
728.429473	7527.105604
728.760996	7505.244640
729.092471	7475.743808
729.423897	7422.380674
729.755276	7432.520955
730.086606	7361.831375
730.417887	7458.482897
730.749120	7649.446846
731.080305	7847.722989
731.411442	7972.882236
731.742530	7965.580124
732.073570	8072.039211
732.404562	8158.202613
732.735506	8003.265270
733.066401	8142.307855
733.397249	8079.043895
733.728048	7841.759304
734.058798	7509.383428
734.389501	7284.253059
734.720156	7106.237313
735.050762	6870.328958
735.381320	6776.389576
735.711831	6729.335446
736.042293	6613.504854
736.372707	6636.981508
736.703073	6503.763976
737.033391	6539.021806
737.363661	6550.326594
737.693883	6578.335244
738.024056	6660.483367
738.354182	6702.309820
738.684260	6744.504278
739.014290	6850.733993
739.344272	6964.112063
739.674207	6993.484346
740.004093	7063.773154
740.333931	7079.196564
740.663722	7084.189827
740.993464	7157.881414
741.323159	7157.911661
741.652806	6900.444811
741.982405	6913.037613
742.311956	6973.844011
742.641460	6811.750750
742.970915	6612.461335
743.300323	6609.509740
743.629683	6553.741975
743.958996	6419.188538
744.288260	6333.433470
744.617477	6278.381549
744.946647	6283.518485
745.275768	6115.504389
745.604842	6069.148459
745.933869	6054.584566
746.262847	6014.482187
746.591778	6001.256720
746.920662	5962.875895
747.249498	5950.865346
747.578286	5999.961143
747.907027	6076.087607
748.235720	6135.981556
748.564365	6104.285301
748.892963	6133.405527
749.221514	6290.482839
749.550017	6122.451099
749.878473	5994.753631
750.206881	6054.887035
750.535242	5996.785216
750.863555	5922.566829
751.191821	5944.044665
751.520039	5948.135561
751.848210	5853.951684
752.176334	5869.569178
752.504411	5925.987252
752.832440	5848.938256
753.160421	5771.823726
753.488356	5823.906407
753.816243	5858.070306
754.144082	5713.230395
754.471875	5680.858625
754.799620	5722.112908
755.127318	5735.101441
755.454969	5687.964132
755.782572	5655.995654
756.110129	5699.992325
756.437638	5682.882648
756.765100	5625.491632
757.092515	5624.929544
757.419882	5668.825391
757.747203	5653.412063
758.074477	5716.877669
758.401703	5703.614394
758.728882	5652.754192
759.056014	5702.422161
759.383099	5836.247151
759.710138	5850.483370
760.037129	5831.185833
760.364073	5836.232028
760.690970	5918.644811
761.017820	5903.123098
761.344623	5859.857395
761.671379	5956.506397
761.998088	6076.639614
762.324751	6313.483104
762.651366	6910.471666
762.977935	8212.621869
763.304456	9848.340181
763.630931	10746.933415
763.957359	10368.015087
764.283740	9424.472403
764.610074	8595.169828
764.936362	7602.178467
765.262602	7004.766448
765.588796	6461.720753
765.914943	6125.034691
766.241044	5966.389579
766.567097	5762.089258
766.893104	5505.494527
767.219064	5324.161702
767.544978	5265.293628
767.870845	5186.767575
768.196665	5082.798818
768.522438	5010.707798
768.848165	4977.562211
769.173846	4910.991254
769.499479	4871.687898
769.825066	4813.825534
770.150607	4754.609620
770.476101	4728.924942
770.801548	4726.240527
771.126949	4653.254702
771.452303	4599.193368
771.777611	4558.531421
772.102872	4576.488011
772.428087	4534.253224
772.753256	4493.530783
773.078378	4451.343887
773.403453	4383.863002
773.728482	4370.186352
774.053465	4322.101306
774.378401	4309.843740
774.703291	4313.286848
775.028135	4238.990323
775.352932	4191.333775
775.677683	4177.389943
776.002388	4196.132953
776.327046	4208.541753
776.651658	4130.182058
776.976224	4071.916402
777.300743	4073.191814
777.625216	4096.751646
777.949643	4091.465997
778.274024	4048.719532
778.598359	4004.085156
778.922647	4026.425030
779.246889	4019.170809
779.571086	4017.204759
779.895236	3998.733972
780.219339	3984.550685
780.543397	3978.002226
780.867409	4030.838560
781.191374	4044.742062
781.515294	3984.139831
781.839167	3977.515755
782.162995	3995.187520
782.486776	3981.863750
782.810511	3991.078979
783.134201	3989.022189
783.457844	3945.285138
783.781441	3890.260944
784.104993	3892.670615
784.428498	3911.819438
784.751958	3909.760127
785.075372	3890.858320
785.398739	3850.672762
785.722061	3863.540308
786.045337	3905.497831
786.368568	3940.637194
786.691752	3852.306096
787.014891	3900.658323
787.337983	4025.797406
787.661030	4180.248278
787.984031	4343.647197
788.306987	4515.795039
788.629897	4596.985343
788.952760	4554.483374
789.275579	4488.048528
789.598351	4427.284981
789.921078	4286.193167
790.243759	4081.887804
790.566395	4064.536153
790.888984	4060.533477
791.211529	3953.469451
791.534027	3892.196747
791.856480	3882.328688
792.178888	3822.270902
792.501249	3772.867594
792.823566	3783.499388
793.145836	3811.581135
793.468062	3761.073815
793.790241	3714.007082
794.112375	3744.085126
794.434464	3807.245743
794.756507	3833.409331
795.078505	3817.617917
795.400457	3843.342925
795.722364	3983.015654
796.044226	4085.431735
796.366042	4158.125174
796.687812	4144.322495
797.009538	4149.015809
797.331218	4104.547791
797.652852	4078.235488
797.974442	4060.052046
798.295986	4059.762180
798.617484	3978.390395
798.938938	3891.669946
799.260346	3929.188734
799.581709	3928.293929
799.903026	3859.111654
800.224299	3818.540448
800.545526	3810.419149
800.866708	3772.229888
801.187845	3709.941391
801.508936	3749.464037
801.829983	3744.364910
802.150984	3671.101821
802.471940	3656.391734
802.792851	3668.180473
803.113717	3668.399763
803.434538	3670.804393
803.755314	3614.744242
804.076045	3586.811208
804.396731	3609.047738
804.717372	3634.533291
805.037967	3616.995117
805.358518	3608.241153
805.679024	3633.870380
805.999485	3647.690703
806.319901	3652.469717
806.640272	3665.213754
806.960598	3678.779499
807.280879	3654.231600
807.601115	3666.458919
807.921306	3682.762010
808.241453	3722.687949
808.561554	3700.285061
808.881611	3632.274854
809.201623	3670.275072
809.521590	3681.350487
809.841513	3653.109943
810.161390	3682.910724
810.481223	3659.827281
810.801011	3607.500104
811.120755	3597.480811
811.440453	3637.447078
811.760107	3636.887510
812.079716	3595.262703
812.399281	3563.455543
812.718801	3586.259202
813.038276	3559.634348
813.357707	3557.902712
813.677093	3574.639342
813.996434	3522.506250
814.315731	3532.051675
814.634983	3536.560987
814.954191	3550.615724
815.273354	3574.891400
815.592473	3573.341245
815.911547	3583.070672
816.230577	3618.998976
816.549562	3670.605268
816.868502	3712.174622
817.187399	3738.129003
817.506250	3737.166143
817.825058	3704.010474
818.143821	3794.594967
818.462539	3896.819485
818.781213	3943.314047
819.099843	4001.713293
819.418429	4244.119697
819.736970	4483.274556
820.055466	4730.086927
820.373919	5091.073872
820.692327	5499.102344
821.010691	5936.140135
821.329011	7300.351983
821.647286	10016.155151
821.965517	14547.590370
822.283704	18576.394824
822.601847	20757.238307
822.919945	18956.099573
823.237999	16393.532359
823.556010	13916.674843
823.873976	11822.821510
824.191897	9745.475436
824.509775	8390.912357
824.827609	7270.057169
825.145398	6722.550053
825.463144	6608.272137
825.780845	6713.904474
826.098502	6898.826600
826.416116	7767.137624
826.733685	9086.737781
827.051210	10197.061998
827.368692	10256.439228
827.686129	9013.633488
828.003522	7500.483271
828.320872	6481.333362
828.638177	5779.665241
828.955439	5224.021702
829.272656	4727.468048
829.589830	4447.091674
829.906960	4271.319242
830.224046	4088.539607
830.541088	3958.838280
830.858086	3910.428080
831.175041	3835.864373
831.491952	3819.069769
831.808819	3832.474197
832.125642	3899.718148
832.442421	4047.363462
832.759157	4317.917148
833.075849	4863.264130
833.392497	5723.211879
833.709101	6497.737277
834.025662	6843.658733
834.342179	6485.988868
834.658653	5825.222148
834.975083	5180.662738
835.291469	4606.074543
835.607811	4193.007438
835.924110	4054.542065
836.240366	3859.630893
836.556578	3653.389727
836.872746	3544.072306
837.188871	3503.705267
837.504952	3438.664300
837.820990	3355.901157
838.136984	3308.879794
838.452935	3336.444823
838.768842	3329.891323
839.084706	3351.598532
839.400526	3509.096781
839.716303	3845.593800
840.032037	4367.106207
840.347727	4633.841218
840.663373	4357.512891
840.978977	3978.440807
841.294537	3667.837674
841.610054	3444.459106
841.925527	3337.213599
842.240957	3268.212806
842.556344	3214.688355
842.871687	3155.371618
843.186987	3103.893876
843.502244	3070.292065
843.817458	3033.405942
844.132629	3004.633557
844.447756	3012.596059
844.762840	2994.984788
845.077881	2965.000005
845.392879	2949.533745
845.707833	2943.396140
846.022745	2942.118208
846.337613	2945.463013
846.652438	2934.085129
846.967221	2927.909716
847.281960	2914.918662
847.596656	2908.982703
847.911309	2911.082344
848.225919	2904.730490
848.540485	2900.165725
848.855009	2900.884090
849.169490	2890.927811
849.483928	2881.634444
849.798323	2879.807026
850.112675	2876.968856
850.426984	2888.497975
850.741251	2885.385062
851.055474	2875.746376
851.369654	2870.649770
851.683792	2875.930378
851.997887	2882.814074
852.311938	2883.653426
852.625947	2873.288814
852.939914	2880.873230
853.253837	2882.115874
853.567718	2866.455530
853.881555	2865.006198
854.195350	2880.621172
854.509103	2876.742004
854.822812	2868.769419
855.136479	2866.576517
855.450103	2868.280427
855.763685	2860.033100
856.077224	2856.469004
856.390720	2868.930736
856.704173	2880.540513
857.017584	2872.172198
857.330953	2868.161960
857.644278	2879.469268
857.957561	2888.044271
858.270802	2888.906308
858.584000	2890.211967
858.897155	2879.970863
859.210268	2875.073382
859.523339	2872.762013
859.836367	2873.981972
860.149352	2871.103473
860.462295	2866.205993
860.775195	2872.194883
861.088054	2875.995913
861.400869	2856.305166
861.713642	2849.943230
862.026373	2867.120962
862.339062	2870.027187
862.651708	2876.058928
862.964312	2880.207797
863.276873	2870.503576
863.589392	2883.373642
863.901869	2893.899571
864.214303	2915.821029
864.526696	2928.686053
864.839045	2925.903336
865.151353	2925.961310
865.463619	2926.828388
865.775842	2926.175559
866.088023	2943.917900
866.400162	2952.203036
866.712258	2922.906370
867.024313	2912.730801
867.336325	2920.887388
867.648296	2941.762806
867.960224	2934.306940
868.272110	2921.610794
868.583954	2924.141453
868.895755	2940.094184
869.207515	2925.240425
869.519233	2930.763009
869.830909	2941.961932
870.142542	2948.870833
870.454134	2951.827470
870.765684	2954.388376
871.077191	2950.700772
871.388657	2958.469190
871.700081	2976.229175
872.011463	2985.152018
872.322803	2985.459528
872.634101	2984.942810
872.945357	3000.913185
873.256571	3026.076104
873.567744	3019.583098
873.878874	3013.337109
874.189963	3035.888710
874.501010	3037.816952
874.812015	3031.760005
875.122979	3029.846888
875.433900	3025.370343
875.744780	3029.315046
876.055618	3036.866694
876.366415	3036.622198
876.677169	3045.615617
876.987882	3044.471275
877.298554	3036.455840
877.609183	3056.028120
877.919771	3082.176585
878.230317	3105.842282
878.540822	3157.740961
878.851285	3198.692774
879.161707	3238.432190
879.472087	3337.538754
879.782425	3563.790779
880.092722	3997.887058
880.402977	4525.400958
880.713191	5145.261235
881.023363	6292.436286
881.333494	7569.514311
881.643583	8125.414948
881.953631	7831.913930
882.263637	7207.100720
882.573602	6621.979034
882.883526	6047.668103
883.193408	5478.055527
883.503248	5019.484446
883.813048	4718.981266
884.122806	4416.000358
884.432522	4095.874486
884.742197	3866.244887
885.051831	3669.309691
885.361424	3539.532747
885.670975	3465.415183
885.980485	3380.176833
886.289954	3304.289823
886.599382	3259.123606
886.908768	3219.810167
887.218113	3177.978673
887.527417	3118.049436
887.836680	3073.059658
888.145901	3067.615212
888.455082	3055.846638
888.764221	3006.403002
889.073319	2977.129021
889.382376	2973.043166
889.691392	2978.585915
890.000366	2975.173053
890.309300	2965.254583
890.618193	2976.579535
890.927044	2993.825323
891.235855	2994.465549
891.544625	2981.832418
891.853353	2990.397338
892.162041	3008.747138
892.470687	3048.378169
892.779293	3099.848350
893.087858	3144.165133
893.396381	3216.934189
893.704864	3338.562108
894.013306	3575.115732
894.321707	3874.109087
894.630068	4081.502156
894.938387	4075.271290
895.246665	4033.260834
895.554903	3913.258687
895.863100	3715.277452
896.171256	3546.933161
896.479371	3410.028025
896.787446	3289.650313
897.095480	3186.951927
897.403473	3120.711165
897.711425	3082.741194
898.019336	3072.873136
898.327207	3045.718960
898.635038	3012.265863
898.942827	2995.579644
899.250576	2986.286277
899.558284	2954.421144
899.865952	2933.782660
900.173579	2914.275915
900.481165	2907.072106
900.788711	2893.826474
901.096216	2868.966024
901.403681	2859.539067
901.711105	2865.580889
902.018489	2864.396218
902.325832	2862.175590
902.633135	2874.324771
902.940397	2903.792836
903.247619	2985.772079
903.554800	3179.110412
903.861941	3517.588604
904.169041	3939.833130
904.476101	4241.853698
904.783121	4203.850960
905.090100	3958.601346
905.397039	3685.748894
905.703938	3434.112138
906.010796	3249.626072
906.317614	3142.249495
906.624391	3048.655433
906.931129	2975.190698
907.237826	2913.471851
907.544483	2865.376723
907.851099	2838.250274
908.157675	2816.946358
908.464211	2797.134623
908.770707	2783.399999
909.077163	2772.679986
909.383578	2752.472521
909.689954	2744.454565
909.996289	2748.268198
910.302584	2744.028588
910.608839	2745.311562
910.915054	2742.097826
911.221229	2730.911506
911.527363	2734.881414
911.833458	2743.431211
912.139513	2743.738722
912.445527	2748.714340
912.751502	2756.026534
913.057436	2765.629932
913.363331	2781.038219
913.669186	2799.534212
913.975000	2834.968483
914.280775	2895.706825
914.586510	2963.671661
914.892205	3042.333826
915.197859	3169.242353
915.503475	3361.020448
915.809050	3571.919640
916.114585	3720.495047
916.420081	3741.128489
916.725536	3680.281762
917.030952	3559.795665
917.336328	3436.302519
917.641665	3307.102787
917.946961	3209.380020
918.252218	3138.395533
918.557435	3061.207906
918.862612	3000.557784
919.167750	2951.051132
919.472848	2913.981008
919.777906	2888.119888
920.082925	2858.404807
920.387904	2827.918429
920.692843	2809.911427
920.997743	2799.284675
921.302603	2787.256482
921.607423	2778.167282
921.912204	2765.771084
922.216946	2753.372367
922.521647	2742.879205
922.826310	2736.245046
923.130932	2733.570714
923.435516	2721.726523
923.740059	2717.552448
924.044564	2705.292362
924.349028	2704.001826
924.653454	2694.557225
924.957840	2689.521112
925.262186	2684.114474
925.566493	2679.315296
925.870761	2677.003927
926.174989	2672.658452
926.479178	2668.418842
926.783328	2662.929025
927.087438	2663.044972
927.391509	2661.401556
927.695541	2657.451812
927.999533	2653.562562
928.303486	2652.408137
928.607400	2651.162972
928.911275	2650.313538
929.215110	2649.156593
929.518906	2648.597025
929.822663	2647.215749
930.126381	2649.045688
930.430060	2647.588794
930.733699	2649.562406
931.037299	2649.040647
931.340861	2653.459218
931.644383	2651.558703
931.947866	2650.003507
932.251309	2647.636685
932.554714	2647.387148
932.858080	2644.450676
933.161407	2643.649132
933.464694	2642.557723
933.767943	2640.178298
934.071153	2644.070069
934.374323	2640.115284
934.677455	2643.828093
934.980548	2640.384985
935.283602	2636.772999
935.586617	2640.377424
935.889593	2639.371713
936.192530	2639.447331
936.495428	2639.611168
936.798287	2642.517393
937.101108	2647.175420
937.403890	2648.493681
937.706632	2655.392500
938.009336	2659.972389
938.312002	2667.642504
938.614628	2675.642815
938.917216	2685.523477
939.219765	2684.951306
939.522275	2682.944927
939.824747	2679.020388
940.127179	2680.568023
940.429573	2679.058197
940.731929	2670.770540
941.034246	2669.510252
941.336524	2664.098573
941.638763	2663.337359
941.940964	2662.349293
942.243126	2660.289981
942.545250	2661.956083
942.847335	2655.294198
943.149381	2652.655154
943.451389	2648.239103
943.753359	2646.636016
944.055290	2646.555358
944.357182	2644.821201
944.659036	2645.090902
944.960851	2644.375059
945.262628	2642.587970
945.564367	2641.325161
945.866067	2642.766931
946.167729	2644.047384
946.469352	2642.744245
946.770937	2642.600572
947.072484	2643.137455
947.373992	2640.095119
947.675462	2640.054790
947.976893	2634.156640
948.278286	2632.528347
948.579641	2633.874335
948.880958	2633.138327
949.182236	2629.848974
949.483476	2635.129582
949.784678	2630.905096
950.085841	2629.788480
950.386967	2631.983902
950.688054	2634.179325
950.989103	2635.797535
951.290114	2636.662093
951.591087	2637.882052
951.892021	2639.633853
952.192917	2641.554533
952.493776	2645.925213
952.794596	2644.470841
953.095378	2644.364976
953.396122	2644.846407
953.696828	2642.741725
953.997496	2641.945222
954.298126	2637.400622
954.598718	2638.028246
954.899272	2634.920375
955.199788	2633.392905
955.500266	2629.138171
955.800706	2627.860239
956.101108	2625.649693
956.401472	2622.987963
956.701798	2622.357819
957.002087	2619.252468
957.302337	2621.200874
957.602550	2620.810185
957.902724	2616.636110
958.202861	2615.453959
958.502960	2610.974894
958.803022	2614.753239
959.103045	2611.567229
959.403031	2609.792743
959.702979	2607.972887
960.002889	2612.749380
960.302762	2610.833742
960.602596	2610.359873
960.902393	2610.138062
961.202153	2608.570263
961.501875	2609.092023
961.801559	2606.326950
962.101205	2608.653442
962.400814	2606.314347
962.700385	2607.844337
962.999918	2602.979624
963.299414	2601.268152
963.598873	2602.959459
963.898293	2603.027515
964.197677	2605.631271
964.497022	2604.799480
964.796331	2607.088164
965.095601	2604.713781
965.394835	2606.642022
965.694030	2604.607917
965.993189	2606.183277
966.292309	2605.338884
966.591393	2604.741507
966.890439	2603.884511
967.189447	2604.565067
967.488419	2603.614809
967.787353	2603.887032
968.086249	2602.583893
968.385108	2604.360900
968.683930	2604.348297
968.982714	2606.568925
969.281462	2604.930550
969.580172	2603.667741
969.878844	2602.127669
970.177480	2602.677155
970.476078	2606.122783
970.774639	2608.441714
971.073162	2603.377875
971.371649	2606.944491
971.670098	2605.076744
971.968510	2604.313009
972.266885	2604.350818
972.565223	2607.025150
972.863524	2606.768051
973.161788	2606.788216
973.460014	2604.411312
973.758204	2604.807042
974.056356	2606.027001
974.354471	2606.551281
974.652550	2604.320571
974.950591	2603.871908
975.248595	2605.270828
975.546563	2603.919799
975.844493	2604.129007
976.142386	2603.594645
976.440243	2602.641867
976.738062	2602.636825
977.035845	2602.656990
977.333590	2606.853751
977.631299	2604.199583
977.928971	2601.517689
978.226606	2598.233377
978.524204	2602.014243
978.821765	2598.984509
979.119290	2602.977103
979.416777	2604.310488
979.714228	2601.323605
980.011642	2603.390478
980.309020	2602.530961
980.606360	2603.468616
980.903664	2601.328646
981.200931	2602.089860
981.498162	2601.318564
981.795356	2606.921806
982.092513	2606.883997
982.389633	2610.591766
982.686717	2613.291304
982.983764	2615.867334
983.280775	2618.728188
983.577749	2620.573251
983.874686	2621.664661
984.171587	2617.351953
984.468451	2615.905142
984.765279	2614.024792
985.062070	2611.673094
985.358824	2610.679986
985.655543	2607.047835
985.952224	2604.544902
986.248869	2606.906683
986.545478	2605.525407
986.842050	2602.162957
987.138586	2603.703029
987.435086	2601.094232
987.731549	2600.607761
988.027975	2599.775971
988.324366	2599.720518
988.620719	2600.469129
988.917037	2599.130703
989.213318	2600.259921
989.509563	2598.765219
989.805772	2599.773450
990.101944	2599.443254
990.398080	2598.624067
990.694180	2600.368306
990.990244	2598.830754
991.286271	2599.508789
991.582262	2599.528954
991.878217	2601.152206
992.174136	2597.429313
992.470019	2598.850919
992.765865	2595.869076
993.061676	2593.774477
993.357450	2595.919488
993.653188	2593.383787
993.948890	2598.644232
994.244556	2600.572473
994.540186	2598.135075
994.835780	2598.692122
995.131337	2602.094901
995.426859	2600.872422
995.722345	2602.949377
996.017795	2603.655138
996.313208	2601.303440
996.608586	2603.569439
996.903928	2605.091867
997.199234	2605.354007
997.494504	2603.486260
997.789738	2603.269490
998.084936	2602.523399
998.380099	2600.990889
998.675225	2600.632967
998.970316	2602.185642
999.265371	2602.031887
999.560390	2601.134562
999.855373	2601.661362
1000.150320	2598.447627
1000.445232	2598.871083
1000.740108	2599.304623
1001.034948	2601.631115
1001.329752	2599.740683
1001.624521	2599.385281
1001.919254	2598.477873
1002.213951	2600.431321
1002.508613	2597.961155
1002.803239	2598.666917
1003.097829	2597.651124
1003.392384	2598.109869
1003.686903	2597.255394
1003.981386	2601.127000
1004.275834	2596.700867
1004.570246	2598.031731
1004.864623	2595.347317
1005.158964	2595.508634
1005.453270	2598.674478
1005.747540	2596.655496
1006.041775	2598.102307
1006.335974	2597.298243
1006.630138	2596.441247
1006.924266	2599.339911
1007.218359	2597.406628
1007.512416	2595.803541
1007.806438	2593.963520
1008.100425	2594.107193
1008.394376	2590.459918
1008.688292	2595.468305
1008.982172	2597.809921
1009.276017	2596.085846
1009.569827	2594.820516
1009.863602	2596.277410
1010.157341	2596.441247
1010.451045	2595.803541
1010.744714	2594.815475
1011.038347	2596.209354
1011.331945	2596.090887
1011.625508	2594.921339
1011.919036	2596.796649
1012.212528	2593.918150
1012.505986	2598.676999
1012.799408	2595.332193
1013.092795	2596.045517
1013.386147	2595.193562
1013.679464	2595.677512
1013.972745	2595.632142
1014.265992	2596.907554
1014.559204	2596.232039
1014.852380	2596.642893
1015.145521	2596.080805
1015.438628	2598.722369
1015.731699	2597.792277
1016.024736	2595.022162
1016.317737	2594.697008
1016.610703	2596.368151
1016.903635	2598.866042
1017.196531	2595.624580
1017.489393	2597.711618
1017.782219	2594.782708
1018.075011	2596.511823
1018.367768	2597.492328
1018.660490	2595.246494
1018.953177	2595.246494
1019.245829	2595.246494
