Dividing Wavelength (nm)	Counts (n)	Blue Motor Position (mm): 41.200000	Red Motor Position (mm): 0.000000	
326.493990	2251.623804
326.888308	2251.623804
327.282561	2251.623804
327.676750	2213.593339
328.070874	2212.282639
328.464933	2208.443800
328.858929	2213.961343
329.252859	2217.182641
329.646726	2226.773436
330.040528	2238.153841
330.434265	2254.615728
330.827938	2270.802873
331.221547	2285.830553
331.615091	2304.306382
332.008571	2322.457056
332.401986	2341.331136
332.795338	2361.810824
333.188625	2381.713299
333.581847	2400.345404
333.975006	2417.707138
334.368100	2440.694799
334.761129	2458.255659
335.154095	2472.643112
335.546996	2499.449447
335.939833	2540.633154
336.332606	2551.111192
336.725315	2566.436300
337.117960	2581.370718
337.510540	2590.850608
337.903056	2602.914089
338.295508	2613.626541
338.687896	2621.324383
339.080220	2628.752523
339.472480	2635.056486
339.864676	2638.532361
340.256807	2643.475213
340.648875	2646.638537
341.040879	2651.336892
341.432818	2653.557520
341.824694	2656.262099
342.216506	2655.828560
342.608253	2659.773263
342.999937	2658.296205
343.391557	2657.759322
343.783113	2655.183292
344.174605	2654.964002
344.566033	2654.878303
344.957397	2653.827222
345.348697	2653.063487
345.739934	2651.026861
346.131106	2653.229845
346.522215	2649.333033
346.913260	2647.752632
347.304241	2646.424288
347.695159	2643.951602
348.086012	2646.020995
348.476802	2642.197280
348.867528	2635.452216
349.258191	2635.351393
349.648789	2633.024901
350.039324	2630.741258
350.429796	2634.360807
350.820203	2631.603295
351.210548	2629.758233
351.600828	2628.308901
351.991045	2628.760085
352.381198	2626.801596
352.771288	2626.219343
353.161314	2625.279168
353.551276	2625.150618
353.941175	2627.217492
354.331010	2626.052985
354.720782	2623.081225
355.110490	2626.279837
355.500135	2624.845629
355.889717	2626.370578
356.279235	2623.807151
356.668689	2625.601802
357.058080	2624.396966
357.447408	2626.269755
357.836672	2627.315794
358.225873	2625.299332
358.615010	2626.620115
359.004084	2626.433592
359.393095	2627.731689
359.782043	2628.497945
360.170927	2629.614560
360.559748	2629.173459
360.948505	2630.799231
361.337199	2632.971969
361.725830	2631.928450
362.114398	2633.445837
362.502903	2635.374078
362.891344	2634.317957
363.279722	2633.062709
363.668037	2635.021198
364.056289	2632.765281
364.444478	2637.292237
364.832603	2635.542957
365.220665	2638.408853
365.608665	2638.103863
365.996601	2637.645118
366.384474	2637.511528
366.772284	2639.391878
367.160031	2641.274749
367.547715	2642.789616
367.935336	2643.018988
368.322893	2638.260139
368.710388	2639.114615
369.097820	2641.806591
369.485189	2639.222999
369.872495	2644.987559
370.259738	2644.173412
370.646918	2643.933958
371.034035	2642.766931
371.421090	2646.908238
371.808081	2644.417908
372.195010	2647.997128
372.581875	2644.861530
372.968678	2645.552168
373.355418	2650.152221
373.742096	2649.421254
374.128710	2647.659370
374.515262	2648.269350
374.901751	2652.282108
375.288177	2651.951913
375.674540	2649.086017
376.060841	2652.650113
376.447079	2652.521563
376.833254	2652.055257
377.219367	2652.554331
377.605417	2654.648930
377.991404	2652.307314
378.377329	2653.970895
378.763191	2656.806544
379.148991	2659.019611
379.534727	2655.616832
379.920402	2655.566420
380.306013	2657.348468
380.691563	2658.465084
381.077049	2655.725217
381.462474	2657.867707
381.847835	2659.019611
382.233134	2661.187307
382.618371	2661.946000
383.003545	2663.773419
383.388657	2666.893893
383.773706	2670.694923
384.158693	2672.507218
384.543618	2673.707012
384.928480	2682.740760
385.313280	2689.526153
385.698017	2697.017308
386.082692	2711.591283
386.467305	2726.578634
386.851856	2746.813825
387.236344	2768.274017
387.620770	2792.035496
388.005133	2827.358861
388.389435	2863.708101
388.773674	2896.916702
389.157851	2950.809157
389.541965	3004.696571
389.926018	3036.876777
390.310008	3102.542847
390.693936	3161.642814
391.077802	3221.524160
391.461606	3267.953187
391.845348	3339.477077
392.229027	3409.672624
392.612645	3466.829226
392.996200	3561.577713
393.379694	3644.585352
393.763125	3750.300869
394.146494	3825.434226
394.529801	3913.775406
394.913047	4016.932537
395.296230	4043.968245
395.679351	4170.042462
396.062410	4265.892440
396.445408	4300.752019
396.828343	4405.918050
397.211217	4496.668902
397.594028	4457.088282
397.976778	4602.389459
398.359466	4678.576418
398.742092	4750.516203
399.124656	4713.060430
399.507158	4853.058314
399.889598	4948.764620
400.271977	5091.199901
400.654294	5117.560094
401.036549	5184.002502
401.418742	5141.676974
401.800874	5355.177402
402.182944	5433.448877
402.564952	5561.221962
402.946898	5637.988653
403.328783	5506.694322
403.710606	5530.291963
404.092367	5860.830338
404.474067	5893.625564
404.855705	5816.006919
405.237282	5761.161685
405.618797	6011.109655
406.000250	6005.617318
406.381642	6206.645930
406.762972	6236.197174
407.144240	6300.073634
407.525447	6293.499970
407.906593	6318.735986
408.287677	6475.578885
408.668700	6386.670575
409.049661	6509.760429
409.430560	6536.559203
409.811399	6400.475775
410.192176	6674.495254
410.572891	6678.843249
410.953545	6882.652058
411.334138	6618.059537
411.714669	6782.441481
412.095139	6574.398103
412.475547	6826.743141
412.855894	6894.743266
413.236180	7070.377066
413.616405	6756.920640
413.996568	6974.542210
414.376670	6999.770665
414.756711	6901.846251
415.136691	6996.299830
415.516609	7201.210131
415.896466	7199.377672
416.276262	7392.842033
416.655997	7372.236317
417.035670	7565.481388
417.415283	7901.338180
417.794834	7951.409441
418.174324	7811.340981
418.553753	7728.991213
418.933121	8040.506794
419.312428	8147.946385
419.691674	7922.505985
420.070859	8403.192608
420.449983	8081.491375
420.829045	8445.208104
421.208047	8224.829023
421.586988	8515.320472
421.965867	8538.845016
422.344686	8644.764700
422.723444	8689.028551
423.102141	8056.623363
423.480777	8803.442579
423.859352	8331.257863
424.237866	8946.991955
424.616319	8812.733425
424.994712	9233.538702
425.373044	8791.414386
425.751314	9252.921938
426.129524	9125.658009
426.507673	9240.452644
426.885762	9391.871262
427.263789	9310.698602
427.641756	9234.297395
428.019662	9325.544800
428.397508	9578.479653
428.775292	9259.513247
429.153016	9640.349735
429.530679	9472.028128
429.908282	9509.246967
430.285824	9227.607784
430.663305	9907.059541
431.040726	9359.703659
431.418086	9345.477523
431.795385	9666.561214
432.172624	9762.295246
432.549802	9668.640690
432.926920	9753.367363
433.303977	9625.977405
433.680974	9832.490793
434.057910	9923.360112
434.434786	9992.242438
434.811601	9823.986366
435.188355	10388.164578
435.565050	10127.804106
435.941683	10055.806347
436.318257	10543.255677
436.694770	10684.241626
437.071222	10746.086502
437.447614	10588.424415
437.823946	10488.334826
438.200218	10606.501993
438.576429	10432.499006
438.952580	10678.822386
439.328670	10721.473068
439.704700	10508.403659
440.080670	10502.124902
440.456580	11042.455936
440.832429	10813.421193
441.208218	10411.220296
441.583947	10734.375901
441.959616	10895.453369
442.335224	10704.839781
442.710773	10823.826135
443.086261	11047.421473
443.461689	10314.785543
443.837057	10980.187604
444.212365	11246.836916
444.587612	10883.215968
444.962800	11109.422624
445.337927	10861.589418
445.712995	10488.155865
446.088002	11548.529809
446.462949	11225.096940
446.837837	11193.642661
447.212664	11156.171764
447.587431	11704.966895
447.962139	12447.007097
448.336786	14710.555750
448.711374	15244.204735
449.085901	13073.125967
449.460369	12704.234493
449.834776	12152.855770
450.209124	13044.482131
450.583412	13466.189773
450.957640	14406.579215
451.331808	13494.062313
451.705917	12523.007533
452.079965	11807.299798
452.453954	12719.625136
452.827883	12355.469826
453.201752	12646.218374
453.575562	12174.641117
453.949311	12595.085950
454.323001	12573.799678
454.696632	12805.579329
455.070202	13081.595105
455.443713	13289.247794
455.817164	13775.726702
456.190556	13750.107558
456.563888	14119.004073
456.937160	14278.070121
457.310373	13629.089619
457.683526	13726.449423
458.056619	13258.474070
458.429653	13431.710802
458.802628	12832.761231
459.175542	13228.653125
459.548398	14174.222352
459.921194	14523.818809
460.293930	14597.195324
460.666607	15456.197857
461.039224	16518.273190
461.411782	17221.131024
461.784280	17052.559881
462.156719	17132.840256
462.529099	16807.648024
462.901419	15751.148207
463.273680	15524.739905
463.645882	15407.775054
464.018024	15137.130627
464.390106	15361.383835
464.762130	16083.022488
465.134094	16867.017693
465.505999	18892.787722
465.877845	22158.910970
466.249631	24978.214067
466.621358	24626.301199
466.993026	23186.895500
467.364634	22622.135035
467.736184	21150.065180
468.107674	20346.689259
468.479105	20487.622276
468.850477	19940.778072
469.221790	19533.384785
469.593043	18850.008490
469.964238	18280.620246
470.335373	17924.886183
470.706449	18407.680008
471.077467	17973.727403
471.448425	19835.480971
471.819324	23931.799078
472.190164	25844.836304
472.560945	22224.473696
472.931667	19887.266223
473.302330	19275.411299
473.672934	18864.365697
474.043479	19136.938364
474.413965	18927.753165
474.784393	18553.792811
475.154761	19280.707031
475.525070	19229.163753
475.895321	18926.964224
476.265513	19524.161994
476.635645	20112.300811
477.005719	19878.902949
477.375734	20061.130578
477.745691	20555.420754
478.115588	21093.216088
478.485427	21644.841827
478.855207	22711.781874
479.224928	24497.358566
479.594591	26722.407927
479.964194	26682.285384
480.333739	26910.286690
480.703226	26486.560065
481.072653	26187.478490
481.442022	26781.865816
481.811333	27705.841261
482.180584	27593.010155
482.549777	26644.161658
482.918912	26315.324672
483.287988	26436.703053
483.657005	26073.986993
484.025964	25851.777973
484.394864	25745.150007
484.763706	25420.282930
485.132489	24858.431210
485.501213	25038.347470
485.869879	24946.217863
486.238487	24777.739981
486.607036	24919.575365
486.975527	24640.134125
487.343959	24954.636590
487.712333	24869.781368
488.080648	24523.126424
488.448905	25044.976588
488.817104	24791.187259
489.185244	25485.868341
489.553326	25443.028616
489.921350	26468.384185
490.289315	28791.791499
490.657222	30530.306499
491.025070	31035.556143
491.392861	30794.047066
491.760593	29945.865369
492.128267	29026.467292
492.495883	27967.991343
492.863440	27113.591383
493.230939	26233.174029
493.598380	26067.945170
493.965763	25677.101992
494.333088	25200.201276
494.700354	25164.691389
495.067563	25018.823082
495.434713	24768.633137
495.801805	24946.469921
496.168839	24725.914399
496.535815	24576.625669
496.902733	24804.420288
497.269593	24484.155784
497.636395	24660.036601
498.003139	24602.050728
498.369825	24343.500030
498.736453	24556.748399
499.103023	24420.309571
499.469535	24423.946763
499.835989	24662.973073
500.202385	24674.363560
500.568723	24185.691750
500.935003	24386.594334
501.301226	24053.452202
501.667390	24910.428192
502.033497	25117.158349
502.399546	24843.441339
502.765537	24395.560026
503.131470	24788.316322
503.497345	24919.406487
503.863163	24155.853160
504.228923	24724.649069
504.594625	24948.705673
504.960269	24492.884542
505.325856	24982.995601
505.691385	24386.385126
506.056856	24983.456867
506.422270	24973.994621
506.787625	24502.976932
507.152924	24929.582056
507.518164	24974.425640
507.883347	24781.220898
508.248472	24467.139369
508.613540	25234.650001
508.978550	25042.322420
509.343503	25041.979622
509.708398	25273.834890
510.073236	25437.591732
510.438016	25648.402703
510.802738	25308.341588
511.167403	25554.407869
511.532010	25295.153930
511.896561	26053.474538
512.261053	26011.181778
512.625488	25842.275398
512.989866	25738.886373
513.354186	25567.459416
513.718449	25696.621340
514.082655	26074.705357
514.446803	25799.488604
514.810894	26275.774299
515.174927	25758.042758
515.538904	25802.553626
515.902822	26289.554293
516.266684	26035.197835
516.630488	25959.991381
516.994235	25902.476857
517.357925	26231.253349
517.721558	26392.638328
518.085133	26512.675762
518.448651	26394.687557
518.812112	26169.693299
519.175516	26375.702571
519.538863	26528.870469
519.902152	26325.147360
520.265385	26590.533863
520.628560	26384.335547
520.991678	26371.878856
521.354739	26435.059637
521.717743	26528.638576
522.080690	26285.269313
522.443580	26618.194674
522.806413	26609.896935
523.169189	26717.316362
523.531908	26765.749247
523.894569	26381.147017
524.257174	26467.073485
524.619722	26606.158919
524.982213	26332.615829
525.344647	26350.161565
525.707025	26515.985280
526.069345	26475.325854
526.431608	26458.697608
526.793815	26626.386549
527.155964	26113.565092
527.518057	26276.134742
527.880093	26197.001229
528.242072	26422.605467
528.603995	26135.554605
528.965860	25934.392402
529.327669	25971.122249
529.689421	25964.719983
530.051117	25812.081407
530.412755	25973.683155
530.774337	25762.816731
531.135862	25655.616594
531.497331	25845.375707
531.858743	25420.096407
532.220098	25897.889407
532.581396	25581.826705
532.942638	25489.389587
533.303824	25603.186074
533.664953	25598.739776
534.026025	25259.220585
534.387040	25499.149261
534.747999	25552.449381
535.108902	25716.334772
535.469748	25219.302208
535.830537	25379.583174
536.191270	25518.696335
536.551947	25360.530133
536.912567	24992.538505
537.273131	25406.782720
537.633638	25091.773619
537.994089	25300.374044
538.354483	24803.807788
538.714821	25319.507744
539.075103	25357.601223
539.435328	25128.800894
539.795497	24718.655138
540.155609	25075.672173
540.515665	25393.428703
540.875665	24608.667243
541.235609	24934.915596
541.595496	24872.947213
541.955328	25239.020682
542.315102	25161.288610
542.674821	24679.828171
543.034483	24553.839654
543.394090	24733.178702
543.753640	24537.176120
544.113134	25164.850185
544.472571	24753.023204
544.831953	25055.159718
545.191278	24699.062693
545.550548	24603.515184
545.909761	24807.132429
546.268918	25024.547312
546.628019	25013.721434
546.987064	24694.989441
547.346053	24434.926396
547.704986	24550.331011
548.063863	24707.141142
548.422684	24728.369441
548.781449	24224.841351
549.140158	24641.969105
549.498811	24221.441092
549.857408	23983.619619
550.215949	24378.289033
550.574434	24070.448453
550.932864	24272.749956
551.291237	24464.371776
551.649555	24299.800788
552.007817	24365.481981
552.366022	24212.321645
552.724173	24227.235899
553.082267	24194.654922
553.440305	24675.800289
553.798288	23922.067130
554.156215	24435.473361
554.514086	24551.797986
554.871902	23943.345841
555.229661	24205.153124
555.587365	24061.828079
555.945014	23954.774136
556.302606	24174.936448
556.660143	24150.038189
557.017625	24395.983483
557.375050	23908.166148
557.732421	24294.068996
558.089735	24120.426452
558.446994	24173.890409
558.804197	24198.425705
559.161345	24108.194092
559.518437	23900.175920
559.875474	24061.437390
560.232455	24252.907975
560.589381	24076.129833
560.946251	24068.673966
561.303065	24364.688000
561.659825	24475.560617
562.016528	24079.300719
562.373177	23811.013032
562.729770	24174.838146
563.086307	24028.216186
563.442789	24190.576628
563.799216	24036.150962
564.155587	24038.837897
564.511904	24019.762171
564.868164	23970.174861
565.224370	23923.559312
565.580520	23867.272308
565.936615	23983.276820
566.292654	23680.235418
566.648638	23926.982255
567.004567	23766.890333
567.360441	23706.509912
567.716260	23432.634106
568.072023	23739.693307
568.427732	23531.639847
568.783385	23290.748311
569.138982	23541.611249
569.494525	23574.230035
569.850013	23340.088604
570.205445	23433.344909
570.560823	23253.000151
570.916145	23014.165405
571.271412	23197.444115
571.626625	22952.403708
571.981782	23044.419890
572.336884	22862.575388
572.691931	23000.231656
573.046923	22738.666347
573.401860	22609.181790
573.756743	22650.302482
574.111570	22542.232746
574.466342	22456.291156
574.821059	22545.905227
575.175722	22254.531576
575.530330	22228.380590
575.884882	22230.994428
576.239380	22139.237867
576.593823	22042.336807
576.948211	22021.665556
577.302544	21865.054550
577.656823	21727.501626
578.011047	21840.519254
578.365216	21710.608720
578.719330	21585.527611
579.073389	21474.196248
579.427394	21638.479891
579.781344	21384.395654
580.135239	21270.977255
580.489080	21219.534800
580.842866	20997.739154
581.196597	21206.637008
581.550273	21178.504849
581.903895	21051.465252
582.257463	21367.820341
582.610975	20900.240718
582.964434	21230.922767
583.317837	20901.274155
583.671186	20983.334057
584.024481	20971.328549
584.377721	20732.718135
584.730906	20822.092752
585.084037	20806.974331
585.437113	20730.500027
585.790135	20940.753951
586.143103	20391.053933
586.496016	20413.572767
586.848874	20649.980197
587.201679	20558.924356
587.554428	20272.339801
587.907124	20602.721901
588.259765	20358.820795
588.612352	20432.199831
588.964884	20005.899697
589.317362	20173.830614
589.669786	20236.852599
590.022155	20244.893239
590.374470	20474.795060
590.726731	20231.771116
591.078937	20025.880310
591.431090	20099.534088
591.783188	19878.020747
592.135232	19834.056845
592.487222	19934.436300
592.839157	19945.872158
593.191038	19823.808179
593.542866	19714.846159
593.894639	19425.683054
594.246358	19647.135901
594.598022	19533.296565
594.949633	19295.026428
595.301190	19270.723026
595.652692	19430.953580
596.004141	19654.798455
596.355535	18982.459767
596.706876	19011.426237
597.058162	18908.017048
597.409395	19148.165014
597.760573	19187.133133
598.111698	18972.203539
598.462768	18911.918901
598.813785	18886.395539
599.164748	18685.114869
599.515657	18734.976921
599.866511	18524.906999
600.217312	18889.788235
600.568060	18401.494512
600.918753	18714.885403
601.269392	18615.778839
601.619978	18403.006858
601.970510	18598.807794
602.320988	18550.914312
602.671412	18744.829857
603.021783	18673.497530
603.372100	18376.455101
603.722363	18543.193785
604.072572	18482.226070
604.422728	18635.817425
604.772830	18377.491058
605.122878	18345.013424
605.472872	18323.785126
605.822813	18315.018559
606.172701	18283.612171
606.522534	18467.458010
606.872314	18490.483480
607.222041	18329.647987
607.571714	18553.157626
607.921333	18371.998721
608.270899	18458.482236
608.620411	18610.243652
608.969870	18402.427126
609.319276	18401.189522
609.668627	18424.499818
610.017926	18564.069203
610.367171	18674.357046
610.716362	18725.975941
611.065500	18540.219504
611.414585	18676.975926
611.763616	18680.968520
612.112594	18612.403786
612.461518	18582.943283
612.810389	18767.900697
613.159207	18630.415829
613.507971	18535.281694
613.856682	18797.146951
614.205340	18717.083346
614.553945	18866.934164
614.902496	18611.859342
615.250994	18823.502103
615.599439	18781.809241
615.947830	18762.869626
616.296169	18848.279375
616.644454	18801.210121
616.992686	18774.290360
617.340864	18986.263317
617.688990	18735.657477
618.037063	18909.617614
618.385082	18777.930073
618.733048	19035.507828
619.080961	18928.017826
619.428821	18956.956569
619.776628	18827.640891
620.124382	18759.277803
620.472083	18821.427669
620.819731	18824.943873
621.167326	18510.781686
621.514868	18563.456703
621.862357	18339.183330
622.209793	18339.858845
622.557176	18172.154780
622.904506	17991.106780
623.251783	17936.637113
623.599007	17683.866098
623.946179	17623.818393
624.293297	17557.736428
624.640363	17283.064120
624.987376	17313.568142
625.334336	17118.122607
625.681243	16967.074514
626.028097	16983.332236
626.374899	16891.552989
626.721647	16761.216477
627.068343	16594.969305
627.414987	16530.382042
627.761577	16495.938358
628.108115	16532.557300
628.454600	16255.871050
628.801032	16353.762696
629.147412	16292.379087
629.493739	16306.549770
629.840014	16115.623630
630.186236	16213.447220
630.532405	15979.938453
630.878521	16176.876170
631.224585	16082.225986
631.570597	15899.501803
631.916556	15925.667912
632.262462	15907.935653
632.608316	15816.849565
632.954117	15760.597850
633.299866	15756.937972
633.645562	15673.244736
633.991206	15438.866370
634.336797	15309.810311
634.682336	15277.824190
635.027823	15148.634540
635.373257	15019.984294
635.718639	14939.663590
636.063968	14873.753024
636.409245	14628.884017
636.754470	14668.378937
637.099642	14507.835831
637.444762	14283.822077
637.789829	14318.855576
638.134845	14162.058047
638.479808	14182.749463
638.824719	14106.166775
639.169577	13967.605620
639.514383	14011.627496
639.859137	13845.047608
640.203839	13938.056897
640.548489	13777.178554
640.893086	13767.870063
641.237632	13645.518739
641.582125	13798.726966
641.926566	13613.472124
642.270955	13629.306388
642.615292	13580.598760
642.959576	13596.899331
643.303809	13623.405718
643.647990	13557.696798
643.992118	13615.649903
644.336195	13389.002146
644.680219	13603.291514
645.024192	13519.068957
645.368112	13763.519548
645.711981	13809.106702
646.055797	13991.906502
646.399562	13970.889932
646.743274	14238.108894
647.086935	14503.318957
647.430544	14465.734634
647.774101	14505.867260
648.117606	14652.763963
648.461059	14626.859994
648.804460	14607.706130
649.147810	14339.231920
649.491108	14251.299073
649.834354	14259.064971
650.177548	13948.492085
650.520690	13761.702212
650.863781	13670.684179
651.206820	13714.791755
651.549807	13562.495976
651.892742	13345.038243
652.235626	13277.262451
652.578458	13285.005663
652.921238	12988.381650
653.263967	13182.440867
653.606644	13011.996935
653.949269	12990.088081
654.291843	12802.962970
654.634365	12954.794963
654.976836	12806.159062
655.319255	12806.373311
655.661622	12764.882094
656.003938	12688.312008
656.346203	12603.103906
656.688416	12692.110518
657.030577	12644.746357
657.372687	12554.837378
657.714746	12544.306408
658.056753	12724.184859
658.398708	12527.905014
658.740612	12532.900797
659.082465	12636.967857
659.424266	12613.085390
659.766016	12638.553299
660.107715	12556.606823
660.449362	12631.987197
660.790958	12581.260586
661.132503	12527.771423
661.473996	12590.208634
661.815438	12604.517949
662.156829	12627.061989
662.498168	12608.810492
662.839456	12604.449894
663.180693	12624.140641
663.521879	12719.415928
663.863013	12683.593488
664.204097	12664.318637
664.545129	12797.014409
664.886110	12769.250254
665.227040	12858.549253
665.567918	12861.762989
665.908746	12886.436916
666.249522	12873.587015
666.590248	12923.749017
666.930922	13047.353068
667.271545	13011.399558
667.612118	13095.430552
667.952639	12996.208041
668.293109	13026.744831
668.633528	12968.206952
668.973896	12944.102675
669.314213	13012.415351
669.654480	12758.620981
669.994695	12846.291688
670.334859	12866.453782
670.674973	12807.154690
671.015035	12840.995956
671.355047	12788.416721
671.695008	12747.641348
672.034918	12766.888473
672.374777	12811.474959
672.714585	12724.996485
673.054342	12756.569232
673.394049	12706.011500
673.733705	12807.474803
674.073310	12707.070142
674.412864	12719.085732
674.752368	12571.999986
675.091820	12611.620935
675.431223	12600.396806
675.770574	12462.574180
676.109875	12379.022097
676.449125	12338.682783
676.788324	12292.079837
677.127473	12111.286416
677.466571	12109.186775
677.805619	12004.736588
678.144616	11932.574991
678.483562	11907.364181
678.822458	11780.087649
679.161303	11753.573701
679.500098	11736.287584
679.838842	11689.891325
680.177535	11723.707385
680.516179	11787.664503
680.854771	11735.112995
681.193314	11946.662496
681.531805	12113.328083
681.870247	12547.389073
682.208638	12964.035397
682.546978	13259.414245
682.885268	13288.385757
683.223508	12986.639931
683.561697	12836.819360
683.899836	12737.022157
684.237925	12534.645036
684.575963	12454.311729
684.913951	12371.896426
685.251889	12329.772544
685.589776	12420.765371
685.927614	12339.958195
686.265401	12309.741519
686.603137	12362.729087
686.940824	12524.293027
687.278460	12650.881441
687.616046	12679.880679
687.953582	12840.149042
688.291068	12781.611163
688.628504	13007.366635
688.965889	13015.835774
689.303224	12973.570740
689.640510	12864.790202
689.977745	12548.636759
690.314930	12328.154334
690.652065	12235.964233
690.989150	11937.507760
691.326185	11713.683050
691.663170	11501.780669
692.000105	11274.117120
692.336990	11154.304017
692.673825	10887.712678
693.010610	10783.070927
693.347345	10574.175594
693.684030	10376.824503
694.020665	10317.530451
694.357251	10127.506678
694.693786	10048.990707
695.030272	9896.140401
695.366707	9776.362586
695.703093	9721.202281
696.039429	9712.299603
696.375716	9617.157906
696.711952	9490.544286
697.048139	9534.210761
697.384276	9494.549483
697.720363	9520.156024
698.056400	9448.148183
698.392388	9391.619204
698.728326	9359.285243
699.064214	9296.643865
699.400053	9338.142644
699.735842	9155.262185
700.071581	9116.573850
700.407270	9043.807315
700.742910	8965.855953
701.078501	8863.152526
701.414042	8732.362310
701.749533	8674.532713
702.084974	8542.736787
702.420366	8658.998398
702.755709	8538.240078
703.091002	8399.815034
703.426246	8434.510776
703.761440	8384.280719
704.096584	8342.484512
704.431679	8274.519676
704.766725	8263.179601
705.101721	8207.759676
705.436668	8258.624918
705.771565	8151.263465
706.106413	8235.846464
706.441212	8269.299561
706.775961	8234.528203
707.110661	8273.503884
707.445311	8413.821880
707.779913	8311.383114
708.114465	8432.534643
708.448967	8473.022671
708.783421	8629.580744
709.117825	8804.828896
709.452180	8832.867794
709.786485	8917.947347
710.120742	9212.542296
710.454949	9218.475734
710.789107	9323.246034
711.123216	9541.147389
711.457275	9716.690448
711.791286	9862.609167
712.125247	9860.912818
712.459159	9852.698258
712.793023	10083.895656
713.126837	9660.002673
713.460602	9818.793978
713.794318	9642.867791
714.127985	9670.354682
714.461602	9335.420421
714.795171	9289.785376
715.128691	9033.377168
715.462162	8793.589644
715.795584	8729.375426
716.128957	8566.795694
716.462281	8405.216631
716.795556	8454.264537
717.128782	8245.787620
717.461960	7986.589133
717.795088	8055.617653
718.128167	7960.511244
718.461198	7807.212276
718.794180	7743.829849
719.127113	7737.248623
719.459997	7566.877787
719.792833	7347.151535
720.125619	7416.374139
720.458357	7271.188908
720.791046	7266.548526
721.123686	7250.749550
721.456278	7092.537978
721.788821	7108.881399
722.121315	7010.384814
722.453761	7081.235711
722.786158	7016.688777
723.118506	7025.467947
723.450805	6990.469736
723.783056	7047.555762
724.115259	6969.385110
724.447412	6972.724874
724.779518	7023.360744
725.111574	7020.031062
725.443582	7094.897238
725.775542	7070.109884
726.107453	7273.792664
726.439315	7183.770260
726.771129	7254.737103
727.102895	7430.968280
727.434612	7534.800925
727.766281	7578.462359
728.097901	7649.840056
728.429473	7656.814492
728.760996	7642.835373
729.092471	7610.680373
729.423897	7545.329375
729.755276	7541.762759
730.086606	7465.137220
730.417887	7576.950013
730.749120	7790.185779
731.080305	7973.774520
731.411442	8084.059843
731.742530	8062.080412
732.073570	8175.942433
732.404562	8269.707895
732.735506	8121.984443
733.066401	8250.853979
733.397249	8181.142383
733.728048	7932.031246
734.058798	7606.602080
734.389501	7372.296811
734.720156	7200.259874
735.050762	6974.368291
735.381320	6884.713890
735.711831	6824.872873
736.042293	6724.190949
736.372707	6738.449852
736.703073	6599.616475
737.033391	6645.110368
737.363661	6650.910216
737.693883	6690.374889
738.024056	6774.015193
738.354182	6802.482588
738.684260	6846.748960
739.014290	6962.458565
739.344272	7071.748259
739.674207	7105.902077
740.004093	7180.392687
740.333931	7188.307298
740.663722	7200.706016
740.993464	7270.707478
741.323159	7250.053871
741.652806	7004.519432
741.982405	7038.274998
742.311956	7078.548776
742.641460	6901.952116
742.970915	6711.754422
743.300323	6698.428132
743.629683	6657.362893
743.958996	6523.295927
744.288260	6427.708088
744.617477	6377.896447
744.946647	6373.750098
745.275768	6218.482559
745.604842	6166.808212
745.933869	6153.290358
746.262847	6112.343586
746.591778	6096.093426
746.920662	6057.533641
747.249498	6052.626077
747.578286	6104.915446
747.907027	6177.218195
748.235720	6236.464355
748.564365	6205.703234
748.892963	6248.363999
749.221514	6392.102418
749.550017	6197.957502
749.878473	6092.345328
750.206881	6156.443600
750.535242	6100.086020
750.863555	6028.909969
751.191821	6040.628131
751.520039	6036.716196
751.848210	5948.616991
752.176334	5978.863914
752.504411	6019.437641
752.832440	5947.018945
753.160421	5877.798862
753.488356	5926.080513
753.816243	5952.254184
754.144082	5803.507378
754.471875	5776.774139
754.799620	5815.117155
755.127318	5828.130894
755.454969	5787.494153
755.782572	5754.436786
756.110129	5801.042253
756.437638	5780.169356
756.765100	5714.296599
757.092515	5727.078444
757.419882	5776.738851
757.747203	5755.341673
758.074477	5817.564635
758.401703	5798.113343
758.728882	5756.783443
759.056014	5823.750131
759.383099	5936.805568
759.710138	5948.120438
760.037129	5934.607625
760.364073	5945.118430
760.690970	6022.863105
761.017820	6001.849055
761.344623	5961.718950
761.671379	6073.065436
761.998088	6191.109094
762.324751	6453.869156
762.651366	7091.212154
762.977935	8446.196170
763.304456	10095.845711
763.630931	10959.458379
763.957359	10512.537406
764.283740	9554.634996
764.610074	8689.837656
764.936362	7684.911363
765.262602	7097.664831
765.588796	6564.414098
765.914943	6231.632409
766.241044	6069.060239
766.567097	5857.936716
766.893104	5597.021716
767.219064	5422.993524
767.544978	5358.943143
767.870845	5273.084732
768.196665	5169.625131
768.522438	5095.744501
768.848165	5063.559254
769.173846	4994.261033
769.499479	4952.053972
769.825066	4901.045057
770.150607	4839.948793
770.476101	4815.204290
770.801548	4812.802180
771.126949	4726.684149
771.452303	4676.171787
771.777611	4638.221981
772.102872	4656.455834
772.428087	4620.441831
772.753256	4573.866611
773.078378	4527.031771
773.403453	4458.288077
773.728482	4446.585038
774.053465	4401.486876
774.378401	4387.238054
774.703291	4381.901993
775.028135	4305.843584
775.352932	4259.386831
775.677683	4248.714708
776.002388	4267.220784
776.327046	4277.739152
776.651658	4206.250549
776.976224	4141.693533
777.300743	4146.936333
777.625216	4170.518851
777.949643	4161.691790
778.274024	4118.567240
778.598359	4078.749686
778.922647	4103.584930
779.246889	4093.754680
779.571086	4091.884412
779.895236	4070.222574
780.219339	4060.047005
780.543397	4058.143970
780.867409	4111.224799
781.191374	4121.692755
781.515294	4056.561047
781.839167	4047.396230
782.162995	4071.369437
782.486776	4058.796799
782.810511	4072.607040
783.134201	4058.101120
783.457844	4012.156044
783.781441	3959.536480
784.104993	3966.160556
784.428498	3985.168227
784.751958	3978.644973
785.075372	3958.273671
785.398739	3923.406530
785.722061	3933.476235
786.045337	3981.581446
786.368568	4008.261752
786.691752	3917.699944
787.014891	3981.125221
787.337983	4108.225313
787.661030	4276.809059
787.984031	4431.282616
788.306987	4596.103141
788.629897	4683.786450
788.952760	4637.420437
789.275579	4571.744285
789.598351	4500.800127
789.921078	4350.414946
790.243759	4151.304493
790.566395	4143.969614
790.888984	4134.686329
791.211529	4025.764638
791.534027	3966.548725
791.856480	3949.912917
792.178888	3888.768762
792.501249	3844.230168
792.823566	3854.188967
793.145836	3880.909603
793.468062	3825.885409
793.790241	3786.473668
794.112375	3814.678924
794.434464	3881.998492
794.756507	3903.680495
795.078505	3880.012278
795.400457	3925.037343
795.722364	4064.626893
796.044226	4171.534643
796.366042	4244.621292
796.687812	4215.284297
797.009538	4221.253023
797.331218	4182.415974
797.652852	4155.657529
797.974442	4135.654231
798.295986	4130.671050
798.617484	4050.715829
798.938938	3963.067808
799.260346	4011.117566
799.581709	3998.749095
799.903026	3924.636572
800.224299	3888.685583
800.545526	3880.740725
800.866708	3844.280579
801.187845	3784.948719
801.508936	3821.270233
801.829983	3809.383192
802.150984	3734.370823
802.471940	3727.250193
802.792851	3734.665730
803.113717	3735.048858
803.434538	3732.964341
803.755314	3676.884025
804.076045	3656.285870
804.396731	3676.868901
804.717372	3700.373281
805.037967	3685.990869
805.358518	3676.107687
805.679024	3701.502500
805.999485	3715.872309
806.319901	3724.709451
806.640272	3732.145153
806.960598	3748.806167
807.280879	3720.283318
807.601115	3737.592120
807.921306	3752.337495
808.241453	3792.550779
808.561554	3764.400976
808.881611	3698.450081
809.201623	3742.855085
809.521590	3749.769027
809.841513	3721.906570
810.161390	3750.837752
810.481223	3726.715831
810.801011	3672.863705
811.120755	3669.324815
811.440453	3703.481153
811.760107	3706.097511
812.079716	3656.996673
812.399281	3629.635810
812.718801	3658.133453
813.038276	3628.882158
813.357707	3624.277064
813.677093	3640.244919
813.996434	3583.030343
814.315731	3600.936522
814.634983	3602.335442
814.954191	3622.066518
815.273354	3646.944612
815.592473	3636.869866
815.911547	3649.223214
816.230577	3697.157025
816.549562	3743.679313
816.868502	3784.293369
817.187399	3807.938901
817.506250	3806.529899
817.825058	3784.190026
818.143821	3878.777195
818.462539	3978.287052
818.781213	4024.960574
819.099843	4086.508022
819.418429	4349.056355
819.736970	4592.407975
820.055466	4842.663455
820.373919	5212.356472
820.692327	5626.751921
821.010691	6108.035920
821.329011	7568.450627
821.647286	10439.796076
821.965517	15129.861283
822.283704	19156.946704
822.601847	21170.761637
822.919945	19244.549355
823.237999	16603.496417
823.556010	14095.759313
823.873976	11960.044239
824.191897	9849.575263
824.509775	8516.759721
824.827609	7387.919346
825.145398	6858.525096
825.463144	6740.022692
825.780845	6853.972934
826.098502	7073.681542
826.416116	8008.626537
826.733685	9364.462508
827.051210	10460.537904
827.368692	10426.474827
827.686129	9107.318292
828.003522	7594.178156
828.320872	6578.786428
828.638177	5865.687490
828.955439	5302.215039
829.272656	4794.790137
829.589830	4528.077811
829.906960	4347.755738
830.224046	4157.963857
830.541088	4036.950959
830.858086	3986.582270
831.175041	3910.523862
831.491952	3895.178589
831.808819	3906.450609
832.125642	3987.509842
832.442421	4145.005571
832.759157	4430.188685
833.075849	5007.776367
833.392497	5897.043467
833.709101	6684.847263
834.025662	6995.218503
834.342179	6582.658034
834.658653	5911.257000
834.975083	5248.723356
835.291469	4673.691539
835.607811	4271.977113
835.924110	4125.551758
836.240366	3921.218669
836.556578	3720.643761
836.872746	3611.429683
837.188871	3570.682037
837.504952	3499.339628
837.820990	3418.633275
838.136984	3374.997047
838.452935	3397.495717
838.768842	3396.978999
839.084706	3419.669232
839.400526	3589.440170
839.716303	3944.917134
840.032037	4492.830063
840.347727	4729.625662
840.663373	4423.070576
840.978977	4036.625804
841.294537	3727.295563
841.610054	3502.800380
841.925527	3396.767270
842.240957	3325.182886
842.556344	3272.265894
842.871687	3209.155689
843.186987	3156.200888
843.502244	3125.815333
843.817458	3090.983481
844.132629	3059.803944
844.447756	3069.485480
844.762840	3049.194836
845.077881	3020.298942
845.392879	3005.891324
845.707833	2997.381857
846.022745	2998.995026
846.337613	2998.001919
846.652438	2986.233345
846.967221	2984.539517
847.281960	2967.266004
847.596656	2965.327680
847.911309	2965.826754
848.225919	2958.600260
848.540485	2953.286884
848.855009	2954.171607
849.169490	2943.338167
849.483928	2936.877928
849.798323	2935.423555
850.112675	2931.917433
850.426984	2943.151644
850.741251	2940.810028
851.055474	2928.038265
851.369654	2923.536515
851.683792	2930.500869
851.997887	2935.778957
852.311938	2937.117383
852.625947	2926.223450
852.939914	2931.476332
853.253837	2937.434976
853.567718	2918.961668
853.881555	2921.446956
854.195350	2933.961621
854.509103	2931.703184
854.822812	2920.773962
855.136479	2917.986204
855.450103	2922.556010
855.763685	2917.189702
856.077224	2912.569484
856.390720	2926.052050
856.704173	2931.052875
857.017584	2926.830909
857.330953	2925.278233
857.644278	2935.733586
857.957561	2942.408074
858.270802	2944.558126
858.584000	2944.018723
858.897155	2930.672268
859.210268	2930.473142
859.523339	2927.098090
859.836367	2928.257555
860.149352	2923.077770
860.462295	2915.705082
860.775195	2925.404262
861.088054	2922.533325
861.400869	2908.949936
861.713642	2906.338618
862.026373	2925.421906
862.339062	2924.779159
862.651708	2927.135898
862.964312	2932.083791
863.276873	2924.259920
863.589392	2935.887342
863.901869	2950.990638
864.214303	2971.596355
864.526696	2985.358705
864.839045	2980.935092
865.151353	2981.361070
865.463619	2978.946357
865.775842	2983.354846
866.088023	3002.123062
866.400162	3006.955008
866.712258	2973.630460
867.024313	2968.231385
867.336325	2978.308651
867.648296	2998.684995
867.960224	2987.604539
868.272110	2975.117601
868.583954	2981.595483
868.895755	2993.240549
869.207515	2980.476347
869.519233	2988.867348
869.830909	3001.656755
870.142542	3005.682117
870.454134	3009.916686
870.765684	3010.695544
871.077191	3008.752179
871.388657	3019.406658
871.700081	3032.516178
872.011463	3044.262067
872.322803	3045.335833
872.634101	3042.638815
872.945357	3059.861917
873.256571	3086.703541
873.567744	3080.180288
873.878874	3072.442117
874.189963	3095.003801
874.501010	3096.992536
874.812015	3091.104468
875.122979	3086.370825
875.433900	3085.292018
875.744780	3089.239242
876.055618	3098.197372
876.366415	3094.333327
876.677169	3104.773557
876.987882	3102.840275
877.298554	3098.749378
877.609183	3119.561782
877.919771	3142.065493
878.230317	3171.745286
878.540822	3222.272771
878.851285	3262.286930
879.161707	3308.960452
879.472087	3419.772576
879.782425	3664.543280
880.092722	4122.539669
880.402977	4661.504550
880.713191	5314.679292
881.023363	6520.407346
881.333494	7825.090728
881.643583	8354.512705
881.953631	8029.713684
882.263637	7358.602516
882.573602	6740.441108
882.883526	6152.511500
883.193408	5585.031332
883.503248	5134.301766
883.813048	4816.152027
884.122806	4496.729395
884.432522	4169.787883
884.742197	3933.657717
885.051831	3745.068151
885.361424	3614.439252
885.670975	3539.283210
885.980485	3448.159313
886.289954	3369.923126
886.599382	3325.308914
886.908768	3289.738533
887.218113	3241.804722
887.527417	3183.886905
887.836680	3133.669451
888.145901	3128.812299
888.455082	3112.582304
888.764221	3063.912485
889.073319	3036.070192
889.382376	3031.946528
889.691392	3038.532796
890.000366	3040.599669
890.309300	3023.706762
890.618193	3036.236550
890.927044	3052.416133
891.235855	3051.738098
891.544625	3037.597662
891.853353	3049.630896
892.162041	3069.614030
892.470687	3110.114660
892.779293	3161.352947
893.087858	3208.013867
893.396381	3285.135959
893.704864	3416.962133
894.013306	3664.850791
894.321707	3972.502327
894.630068	4179.388761
894.938387	4164.230011
895.246665	4120.414822
895.554903	3993.619721
895.863100	3785.004172
896.171256	3617.857154
896.479371	3477.269456
896.787446	3350.847400
897.095480	3246.112387
897.403473	3178.550844
897.711425	3148.210659
898.019336	3135.459061
898.327207	3104.574432
898.635038	3069.540933
898.942827	3054.425033
899.250576	3043.394988
899.558284	3010.597242
899.865952	2989.903305
900.173579	2970.552836
900.481165	2964.558904
900.788711	2945.533589
901.096216	2923.637338
901.403681	2914.671646
901.711105	2922.888726
902.018489	2919.337233
902.325832	2919.178437
902.633135	2929.333842
902.940397	2965.030252
903.247619	3052.595094
903.554800	3258.690066
903.861941	3626.530460
904.169041	4069.209302
904.476101	4359.491544
904.783121	4291.831697
905.090100	4034.019528
905.397039	3751.115015
905.703938	3495.972137
906.010796	3311.896925
906.317614	3200.676468
906.624391	3101.690892
906.931129	3029.786394
907.237826	2966.323308
907.544483	2920.630289
907.851099	2891.946124
908.157675	2870.100284
908.464211	2847.541120
908.770707	2837.247084
909.077163	2819.754280
909.383578	2806.488484
909.689954	2795.612195
909.996289	2795.115641
910.302584	2796.159160
910.608839	2797.159829
910.915054	2789.179682
911.221229	2782.353960
911.527363	2785.388735
911.833458	2793.124385
912.139513	2798.001702
912.445527	2801.855664
912.751502	2809.291366
913.057436	2819.653457
913.363331	2832.732731
913.669186	2857.762060
913.975000	2893.340003
914.280775	2958.322997
914.586510	3027.933770
914.892205	3108.866974
915.197859	3245.693972
915.503475	3452.663584
915.809050	3673.458561
916.114585	3815.278821
916.420081	3828.191737
916.725536	3763.264196
917.030952	3640.101246
917.336328	3509.338756
917.641665	3376.965618
917.946961	3276.021553
918.252218	3197.543391
918.557435	3120.154117
918.862612	3056.522153
919.167750	3007.938033
919.472848	2969.284986
919.777906	2942.929833
920.082925	2913.620565
920.387904	2885.551420
920.692843	2865.890920
920.997743	2857.809951
921.302603	2840.294462
921.607423	2830.257524
921.912204	2816.190185
922.216946	2805.828093
922.521647	2793.557924
922.826310	2787.657254
923.130932	2779.306582
923.435516	2771.951539
923.740059	2764.011722
924.044564	2755.590474
924.349028	2752.021337
924.653454	2744.371386
924.957840	2737.281003
925.262186	2734.009295
925.566493	2729.273131
925.870761	2724.196689
926.174989	2719.276522
926.479178	2715.750235
926.783328	2709.804194
927.087438	2710.527600
927.391509	2709.514328
927.695541	2704.407639
927.999533	2700.493183
928.303486	2698.345652
928.607400	2698.948070
928.911275	2697.103007
929.215110	2697.087884
929.518906	2695.636032
929.822663	2694.622760
930.126381	2696.361958
930.430060	2696.218285
930.733699	2695.729293
931.037299	2697.649972
931.340861	2696.830785
931.644383	2697.914633
931.947866	2698.993440
932.251309	2696.472863
932.554714	2696.994622
932.858080	2695.210054
933.161407	2692.019004
933.464694	2689.072449
933.767943	2686.992973
934.071153	2688.654033
934.374323	2690.920032
934.677455	2686.947603
934.980548	2687.184537
935.283602	2686.955165
935.586617	2686.100689
935.889593	2686.020031
936.192530	2687.802078
936.495428	2687.272757
936.798287	2689.894157
937.101108	2692.069415
937.403890	2694.645445
937.706632	2700.261290
938.009336	2708.427959
938.312002	2716.307283
938.614628	2725.053685
938.917216	2733.747155
939.219765	2731.259345
939.522275	2732.060889
939.824747	2728.547204
940.127179	2728.234653
940.429573	2724.214333
940.731929	2721.313149
941.034246	2718.444732
941.336524	2714.852910
941.638763	2710.832590
941.940964	2711.966849
942.243126	2708.939637
942.545250	2707.265973
942.847335	2702.668441
943.149381	2698.118800
943.451389	2694.166535
943.753359	2692.739889
944.055290	2691.207378
944.357182	2692.785259
944.659036	2689.596729
944.960851	2688.795186
945.262628	2687.943231
945.564367	2688.016327
945.866067	2690.635207
946.167729	2691.109075
946.469352	2690.335258
946.770937	2691.058664
947.072484	2688.056657
947.373992	2686.990453
947.675462	2686.945082
947.976893	2683.118847
948.278286	2681.087262
948.579641	2682.085410
948.880958	2679.070800
949.182236	2681.669515
949.483476	2678.851510
949.784678	2681.987107
950.085841	2680.837724
950.386967	2681.402334
950.688054	2681.364525
950.989103	2681.546007
951.290114	2682.813857
951.591087	2685.959537
951.892021	2687.008097
952.192917	2690.299970
952.493776	2692.984385
952.794596	2691.860207
953.095378	2692.641586
953.396122	2693.236442
953.696828	2691.363654
953.997496	2688.616225
954.298126	2687.091276
954.598718	2684.810154
954.899272	2680.603311
955.199788	2679.070800
955.500266	2675.592404
955.800706	2673.709533
956.101108	2671.652742
956.401472	2671.052845
956.701798	2667.294665
957.002087	2666.281393
957.302337	2665.744510
957.602550	2664.348110
957.902724	2664.138902
958.202861	2661.202430
958.502960	2662.024138
958.803022	2662.238387
959.103045	2656.529281
959.403031	2656.620021
959.702979	2658.162614
960.002889	2657.247645
960.302762	2660.048006
960.602596	2655.878972
960.902393	2657.287974
961.202153	2656.980464
961.501875	2654.916111
961.801559	2653.008035
962.101205	2654.538025
962.400814	2655.999959
962.700385	2655.319404
962.999918	2651.231028
963.299414	2649.900163
963.598873	2652.375370
963.898293	2650.341264
964.197677	2652.471152
964.497022	2652.120792
964.796331	2656.657830
965.095601	2654.691780
965.394835	2653.149187
965.694030	2653.250010
965.993189	2653.169352
966.292309	2651.649444
966.591393	2652.662716
966.890439	2649.469145
967.189447	2651.919145
967.488419	2651.777993
967.787353	2652.395534
968.086249	2650.789927
968.385108	2650.875627
968.683930	2650.444608
968.982714	2651.888898
969.281462	2650.772283
969.580172	2652.478713
969.878844	2652.816471
970.177480	2653.471821
970.476078	2652.088024
970.774639	2650.815133
971.073162	2654.487613
971.371649	2653.466780
971.670098	2651.145328
971.968510	2652.836635
972.266885	2651.818322
972.565223	2651.969557
972.863524	2655.163128
973.161788	2652.970226
973.460014	2651.783034
973.758204	2652.950061
974.056356	2652.390493
974.354471	2651.644402
974.652550	2650.522746
974.950591	2652.135915
975.248595	2650.477375
975.546563	2650.588281
975.844493	2649.330513
976.142386	2651.321769
976.440243	2653.043323
976.738062	2650.797489
977.035845	2652.128353
977.333590	2651.253713
977.631299	2649.295225
977.928971	2646.381438
978.226606	2647.243475
978.524204	2648.765904
978.821765	2647.271202
979.119290	2650.202632
979.416777	2647.656850
979.714228	2650.127015
980.011642	2650.689104
980.309020	2651.339413
980.606360	2649.403610
980.903664	2650.026192
981.200931	2651.402427
981.498162	2652.970226
981.795356	2650.469814
982.092513	2653.250010
982.389633	2655.747902
982.686717	2660.778973
982.983764	2661.250321
983.280775	2666.427586
983.577749	2668.010508
983.874686	2666.533450
984.171587	2663.710404
984.468451	2660.973058
984.765279	2658.439878
985.062070	2658.664209
985.358824	2656.156235
985.655543	2654.142294
985.952224	2653.113899
986.248869	2652.939979
986.545478	2648.034936
986.842050	2648.292035
987.138586	2648.589463
987.435086	2647.898825
987.731549	2648.791109
988.027975	2649.365801
988.324366	2647.553506
988.620719	2646.275574
988.917037	2646.444452
989.213318	2646.177271
989.509563	2646.353712
989.805772	2647.288846
990.101944	2645.700882
990.398080	2647.528300
990.694180	2647.815646
990.990244	2645.617703
991.286271	2647.455204
991.582262	2645.637868
991.878217	2644.198618
992.174136	2647.036788
992.470019	2647.150214
992.765865	2643.046715
993.061676	2642.807260
993.357450	2642.424132
993.653188	2641.579739
993.948890	2645.763897
994.244556	2646.782210
994.540186	2647.210708
994.835780	2647.460245
995.131337	2646.293218
995.426859	2648.846562
995.722345	2650.250523
996.017795	2648.841521
996.313208	2649.683394
996.608586	2653.560041
996.903928	2652.498878
997.199234	2651.684732
997.494504	2651.483086
997.789738	2650.933600
998.084936	2652.070380
998.380099	2650.489978
998.675225	2650.184988
998.970316	2648.612148
999.265371	2648.065183
999.560390	2646.394041
999.855373	2647.293887
1000.150320	2646.857827
1000.445232	2644.002013
1000.740108	2644.974956
1001.034948	2648.803712
1001.329752	2645.206849
1001.624521	2643.933958
1001.919254	2645.327837
1002.213951	2645.877322
1002.508613	2644.879174
1002.803239	2644.710295
1003.097829	2645.106026
1003.392384	2643.734832
1003.686903	2642.114101
1003.981386	2645.375728
1004.275834	2645.761376
1004.570246	2645.312713
1004.864623	2643.712147
1005.158964	2645.438742
1005.453270	2645.138793
1005.747540	2645.199287
1006.041775	2645.068217
1006.335974	2643.684421
1006.630138	2645.569812
1006.924266	2645.776499
1007.218359	2644.453197
1007.512416	2642.421612
1007.806438	2640.258957
1008.100425	2641.410860
1008.394376	2640.241312
1008.688292	2643.767600
1008.982172	2644.788433
1009.276017	2645.771458
1009.569827	2646.877992
1009.863602	2644.150727
1010.157341	2642.789616
1010.451045	2643.865902
1010.744714	2642.512352
1011.038347	2642.071251
1011.331945	2644.140645
1011.625508	2641.110912
1011.919036	2642.333391
1012.212528	2642.794657
1012.505986	2641.466313
1012.799408	2644.753145
1013.092795	2642.398926
1013.386147	2643.145017
1013.679464	2642.313227
1013.972745	2642.650984
1014.265992	2642.918165
1014.559204	2645.348001
1014.852380	2643.402116
1015.145521	2645.632827
1015.438628	2644.619555
1015.731699	2643.102167
1016.024736	2643.318937
1016.317737	2642.358597
1016.610703	2642.852630
1016.903635	2644.460758
1017.196531	2642.189718
1017.489393	2640.931951
1017.782219	2645.448824
1018.075011	2645.279946
1018.367768	2641.700727
1018.660490	2642.345994
1018.953177	2642.345994
1019.245829	2642.345994
