Dividing Wavelength (nm)	Counts (n)	Blue Motor Position (mm): 8.300000	Red Motor Position (mm): 0.000000	
326.493990	2158.874135
326.888308	2158.874135
327.282561	2158.874135
327.676750	2117.246807
328.070874	2114.418719
328.464933	2115.144646
328.858929	2121.327621
329.252859	2124.609412
329.646726	2132.418159
330.040528	2145.210087
330.434265	2157.326500
330.827938	2177.339881
331.221547	2191.782787
331.615091	2207.914479
332.008571	2227.569938
332.401986	2248.026940
332.795338	2264.912285
333.188625	2283.259565
333.581847	2306.279994
333.975006	2318.998825
334.368100	2338.659325
334.761129	2355.945441
335.154095	2373.723070
335.546996	2387.624052
335.939833	2410.899059
336.332606	2425.049578
336.725315	2439.578184
337.117960	2453.007817
337.510540	2464.869653
337.903056	2474.967084
338.295508	2483.199288
338.687896	2493.190855
339.080220	2500.266114
339.472480	2506.527227
339.864676	2513.688186
340.256807	2519.916532
340.648875	2522.235463
341.040879	2521.650689
341.432818	2525.776873
341.824694	2530.876000
342.216506	2530.747451
342.608253	2529.761905
342.999937	2533.973789
343.391557	2531.526309
343.783113	2531.312060
344.174605	2532.524458
344.566033	2528.577234
344.957397	2530.666792
345.348697	2525.920546
345.739934	2525.295443
346.131106	2523.364681
346.522215	2521.131450
346.913260	2518.474762
347.304241	2517.728671
347.695159	2517.156500
348.086012	2518.804957
348.476802	2514.628362
348.867528	2508.614265
349.258191	2507.948833
349.648789	2504.805673
350.039324	2499.295692
350.429796	2505.231651
350.820203	2501.120590
351.210548	2502.401043
351.600828	2503.051352
351.991045	2499.572956
352.381198	2499.472132
352.771288	2498.877276
353.161314	2496.858294
353.551276	2498.733603
353.941175	2498.335352
354.331010	2496.439878
354.720782	2493.674806
355.110490	2495.159425
355.500135	2494.257059
355.889717	2500.503048
356.279235	2495.540033
356.668689	2498.317708
357.058080	2495.915598
357.447408	2495.172028
357.836672	2498.035404
358.225873	2499.719149
358.615010	2498.489108
359.004084	2497.599344
359.393095	2498.844509
359.782043	2498.476505
360.170927	2502.668224
360.559748	2499.570435
360.948505	2499.923316
361.337199	2500.976917
361.725830	2499.275527
362.114398	2501.912051
362.502903	2499.976248
362.891344	2506.098729
363.279722	2503.752072
363.668037	2506.007988
364.056289	2504.984634
364.444478	2504.225941
364.832603	2505.183760
365.220665	2505.476147
365.608665	2506.688544
365.996601	2507.646363
366.384474	2508.790705
366.772284	2507.749707
367.160031	2508.765500
367.547715	2508.868843
367.935336	2509.413288
368.322893	2506.958246
368.710388	2506.847341
369.097820	2506.804491
369.485189	2505.574449
369.872495	2509.493946
370.259738	2508.914214
370.646918	2511.283556
371.034035	2511.974194
371.421090	2509.937568
371.808081	2513.534431
372.195010	2512.745491
372.581875	2513.065604
372.968678	2512.415295
373.355418	2511.691889
373.742096	2514.671211
374.128710	2512.125429
374.515262	2512.690038
374.901751	2515.210615
375.288177	2515.366891
375.674540	2514.456962
376.060841	2514.434277
376.447079	2514.280522
376.833254	2515.119874
377.219367	2516.181037
377.605417	2516.405368
377.991404	2513.471417
378.377329	2516.034843
378.763191	2515.871006
379.148991	2515.487878
379.534727	2519.558610
379.920402	2514.709020
380.306013	2517.171624
380.691563	2515.213135
381.077049	2516.712879
381.462474	2517.683301
381.847835	2516.160872
382.233134	2518.295801
382.618371	2515.765142
383.003545	2516.039885
383.388657	2516.705317
383.773706	2519.044412
384.158693	2517.343023
384.543618	2520.380318
384.928480	2519.999711
385.313280	2519.314114
385.698017	2518.830163
386.082692	2519.349402
386.467305	2519.472910
386.851856	2522.427027
387.236344	2520.697911
387.620770	2519.503157
388.005133	2517.516943
388.389435	2515.553413
388.773674	2517.012827
389.157851	2520.334948
389.541965	2522.288395
389.926018	2520.433250
390.310008	2522.719413
390.693936	2523.868797
391.077802	2522.318642
391.461606	2521.171779
391.845348	2521.103724
392.229027	2521.809485
392.612645	2524.072963
392.996200	2521.549866
393.379694	2520.942407
393.763125	2522.190092
394.146494	2521.280164
394.529801	2526.671678
394.913047	2526.054137
395.296230	2522.237983
395.679351	2524.713190
396.062410	2522.784948
396.445408	2524.161183
396.828343	2527.621936
397.211217	2523.500792
397.594028	2523.773015
397.976778	2525.335772
398.359466	2524.637572
398.742092	2524.256965
399.124656	2524.446009
399.507158	2524.564476
399.889598	2524.897192
400.271977	2525.121523
400.654294	2526.596061
401.036549	2530.051772
401.418742	2528.105886
401.800874	2527.327028
402.182944	2526.961544
402.564952	2527.687471
402.946898	2528.549508
403.328783	2526.986750
403.710606	2529.419107
404.092367	2526.911133
404.474067	2527.884076
404.855705	2525.807120
405.237282	2528.138654
405.618797	2527.412728
406.000250	2529.887934
406.381642	2528.020187
406.762972	2528.519261
407.144240	2525.295443
407.525447	2526.346524
407.906593	2525.156811
408.287677	2530.326515
408.668700	2529.212420
409.049661	2530.109745
409.430560	2530.439941
409.811399	2531.813655
410.192176	2530.341638
410.572891	2529.519930
410.953545	2531.541433
411.334138	2531.957328
411.714669	2528.925074
412.095139	2532.456402
412.475547	2532.090918
412.855894	2532.887421
413.236180	2532.244674
413.616405	2532.259797
413.996568	2533.484798
414.376670	2534.160312
414.756711	2532.416073
415.136691	2530.671834
415.516609	2533.260466
415.896466	2535.231557
416.276262	2531.748120
416.655997	2530.775177
417.035670	2533.066382
417.415283	2534.704757
417.794834	2532.804242
418.174324	2533.300795
418.553753	2531.475898
418.933121	2534.861033
419.312428	2533.688964
419.691674	2532.295085
420.070859	2533.326001
420.449983	2536.191897
420.829045	2535.879346
421.208047	2532.978162
421.586988	2534.737524
421.965867	2534.331711
422.344686	2534.533358
422.723444	2535.297092
423.102141	2536.093595
423.480777	2534.853471
423.859352	2535.899510
424.237866	2537.769778
424.616319	2534.503111
424.994712	2537.671476
425.373044	2536.847247
425.751314	2530.359282
426.129524	2531.831299
426.507673	2534.866074
426.885762	2530.560928
427.263789	2538.447813
427.641756	2535.518903
428.019662	2537.114428
428.397508	2537.754655
428.775292	2538.198276
429.153016	2537.177443
429.530679	2537.278266
429.908282	2538.238606
430.285824	2537.031249
430.663305	2536.494366
431.040726	2535.765920
431.418086	2538.258770
431.795385	2537.699202
432.172624	2538.329346
432.549802	2536.655683
432.926920	2537.154758
433.303977	2539.725746
433.680974	2539.526620
434.057910	2537.177443
434.434786	2539.594676
434.811601	2541.885880
435.188355	2537.651311
435.565050	2537.951260
435.941683	2537.704243
436.318257	2538.286497
436.694770	2537.961342
437.071222	2538.137783
437.447614	2538.979655
437.823946	2541.142310
438.200218	2538.321785
438.576429	2538.936805
438.952580	2541.182639
439.328670	2537.371527
439.704700	2536.973276
440.080670	2541.664070
440.456580	2542.165664
440.832429	2539.501415
441.208218	2540.484440
441.583947	2541.432177
441.959616	2541.500232
442.335224	2539.786240
442.710773	2541.185160
443.086261	2541.175078
443.461689	2539.834131
443.837057	2543.620037
444.212365	2539.453524
444.587612	2541.180119
444.962800	2536.154088
445.337927	2539.345139
445.712995	2535.995292
446.088002	2541.311189
446.462949	2541.580891
446.837837	2540.567619
447.212664	2542.284132
447.587431	2541.827907
447.962139	2540.668442
448.336786	2541.626261
448.711374	2541.845551
449.085901	2539.357742
449.460369	2543.166333
449.834776	2541.696837
450.209124	2540.653318
450.583412	2541.112063
450.957640	2541.129707
451.331808	2541.137269
451.705917	2541.505273
452.079965	2540.192053
452.453954	2540.542413
452.827883	2543.100798
453.201752	2543.488967
453.575562	2541.449821
453.949311	2543.310006
454.323001	2544.073741
454.696632	2542.931920
455.070202	2542.873947
455.443713	2544.224976
455.817164	2541.084337
456.190556	2544.633309
456.563888	2542.694986
456.937160	2541.706919
457.310373	2542.833617
457.683526	2542.957126
458.056619	2541.641384
458.429653	2541.159954
458.802628	2543.925027
459.175542	2540.401261
459.548398	2544.673638
459.921194	2546.433001
460.293930	2543.983000
460.666607	2542.909235
461.039224	2546.077600
461.411782	2545.505429
461.784280	2545.223124
462.156719	2545.457538
462.529099	2549.538352
462.901419	2544.048535
463.273680	2543.335212
463.645882	2538.548637
464.018024	2542.629451
464.390106	2540.353370
464.762130	2544.479554
465.134094	2543.420912
465.505999	2545.278577
465.877845	2543.811601
466.249631	2545.696993
466.621358	2545.646581
466.993026	2543.579708
467.364634	2552.870555
467.736184	2547.012734
468.107674	2547.095913
468.479105	2546.763197
468.850477	2547.123639
469.221790	2545.613814
469.593043	2547.153886
469.964238	2543.846889
470.335373	2546.795964
470.706449	2547.627755
471.077467	2544.325799
471.448425	2548.862837
471.819324	2546.322096
472.190164	2547.594987
472.560945	2545.588608
472.931667	2545.497867
473.302330	2545.777651
473.672934	2544.371169
474.043479	2546.566592
474.413965	2545.029040
474.784393	2548.746891
475.154761	2548.439380
475.525070	2547.189174
475.895321	2545.686910
476.265513	2546.269164
476.635645	2545.462579
477.005719	2547.975594
477.375734	2547.562220
477.745691	2547.947868
478.115588	2547.204298
478.485427	2544.378731
478.855207	2549.392158
479.224928	2549.054401
479.594591	2546.347302
479.964194	2547.703372
480.333739	2548.426777
480.703226	2547.468958
481.072653	2550.418033
481.442022	2548.880481
481.811333	2544.333361
482.180584	2545.399565
482.549777	2546.768238
482.918912	2544.613145
483.287988	2547.751263
483.657005	2549.984494
484.025964	2549.387117
484.394864	2547.796633
484.763706	2549.102292
485.132489	2548.600697
485.501213	2550.105482
485.869879	2547.753783
486.238487	2550.133208
486.607036	2550.095399
486.975527	2552.918446
487.343959	2549.150183
487.712333	2550.866696
488.080648	2548.404092
488.448905	2552.595812
488.817104	2548.018444
489.185244	2549.102292
489.553326	2551.131357
489.921350	2549.951727
490.289315	2552.338713
490.657222	2549.598846
491.025070	2549.026675
491.392861	2550.241593
491.760593	2550.672612
492.128267	2551.529608
492.495883	2551.610266
492.863440	2551.559855
493.230939	2553.183106
493.598380	2551.010369
493.965763	2551.370811
494.333088	2550.682694
494.700354	2550.188661
495.067563	2552.041285
495.434713	2551.685883
495.801805	2549.472817
496.168839	2550.085317
496.535815	2551.643034
496.902733	2549.427447
497.269593	2549.545914
497.636395	2550.967519
498.003139	2551.743857
498.369825	2550.536500
498.736453	2552.628579
499.103023	2554.148487
499.469535	2549.251006
499.835989	2554.640000
500.202385	2546.818649
500.568723	2549.954247
500.935003	2550.400389
501.301226	2548.641027
501.667390	2549.019113
502.033497	2554.249310
502.399546	2553.500699
502.765537	2552.986501
503.131470	2551.524567
503.497345	2549.619010
503.863163	2553.208312
504.228923	2552.164793
504.594625	2553.518343
504.960269	2553.258723
505.325856	2550.869217
505.691385	2551.010369
506.056856	2552.439536
506.422270	2553.014228
506.787625	2552.610935
507.152924	2552.013558
507.518164	2554.856769
507.883347	2549.245965
508.248472	2553.803168
508.613540	2548.008362
508.978550	2552.537838
509.343503	2552.021120
509.708398	2553.220915
510.073236	2552.258054
510.438016	2553.349464
510.802738	2557.881462
511.167403	2556.023796
511.532010	2552.316028
511.896561	2553.798127
512.261053	2551.796789
512.625488	2553.377191
512.989866	2555.053374
513.354186	2553.737633
513.718449	2553.503219
514.082655	2552.963816
514.446803	2553.130174
514.810894	2553.745195
515.174927	2556.144784
515.538904	2556.255689
515.902822	2555.141594
516.266684	2553.173024
516.630488	2553.069680
516.994235	2551.065822
517.357925	2554.985319
517.721558	2553.838456
518.085133	2557.153015
518.448651	2553.634289
518.812112	2549.692107
519.175516	2553.041954
519.538863	2550.470965
519.902152	2555.577654
520.265385	2555.202088
520.628560	2556.512788
520.991678	2553.162942
521.354739	2555.426420
521.717743	2556.096893
522.080690	2552.898281
522.443580	2554.824002
522.806413	2556.313663
523.169189	2553.147818
523.531908	2557.301729
523.894569	2553.389793
524.257174	2554.445915
524.619722	2555.910370
524.982213	2558.488921
525.344647	2554.571944
525.707025	2555.272664
526.069345	2553.634289
526.431608	2556.449774
526.793815	2554.345092
527.155964	2559.441699
527.518057	2556.013714
527.880093	2556.739640
528.242072	2558.619991
528.603995	2556.543035
528.965860	2559.086297
529.327669	2556.497665
529.689421	2555.902809
530.051117	2559.471946
530.412755	2556.452294
530.774337	2555.184444
531.135862	2556.149825
531.497331	2556.996739
531.858743	2558.617470
532.220098	2560.404559
532.581396	2554.952551
532.942638	2559.421534
533.303824	2559.892882
533.664953	2558.912378
534.026025	2559.605536
534.387040	2563.832544
534.747999	2561.440516
535.108902	2562.620146
535.469748	2563.731721
535.830537	2561.974878
536.191270	2564.157698
536.551947	2559.630742
536.912567	2560.384394
537.273131	2562.655434
537.633638	2559.660989
537.994089	2564.765157
538.354483	2563.366237
538.714821	2568.399829
539.075103	2567.283213
539.435328	2565.186093
539.795497	2567.439489
540.155609	2568.553584
540.515665	2568.556105
540.875665	2565.339849
541.235609	2566.564849
541.595496	2571.439645
541.955328	2569.866805
542.315102	2572.034501
542.674821	2570.345714
543.034483	2573.498956
543.394090	2573.342680
543.753640	2575.752352
544.113134	2572.883935
544.472571	2574.297979
544.831953	2574.212279
545.191278	2572.994841
545.550548	2573.509038
545.909761	2575.046590
546.268918	2576.206056
546.628019	2576.425346
546.987064	2579.076993
547.346053	2575.525500
547.704986	2576.223700
548.063863	2577.698237
548.422684	2578.527507
548.781449	2576.042218
549.140158	2577.141190
549.498811	2581.141345
549.857408	2579.956674
550.215949	2580.022209
550.574434	2580.491037
550.932864	2582.867941
551.291237	2581.854669
551.649555	2581.461459
552.007817	2582.930955
552.366022	2580.725450
552.724173	2584.460945
553.082267	2580.511201
553.440305	2582.283167
553.798288	2582.716706
554.156215	2583.878692
554.514086	2581.315265
554.871902	2577.413412
555.229661	2579.084555
555.587365	2580.244020
555.945014	2583.377097
556.302606	2584.370204
556.660143	2584.755853
557.017625	2587.520926
557.375050	2585.746439
557.732421	2583.346850
558.089735	2586.129567
558.446994	2585.335585
558.804197	2587.621749
559.161345	2585.842221
559.518437	2585.373394
559.875474	2584.350040
560.232455	2585.567478
560.589381	2587.846080
560.946251	2585.723754
561.303065	2586.323652
561.659825	2587.891450
562.016528	2586.616038
562.373177	2587.447829
562.729770	2585.885071
563.086307	2588.415730
563.442789	2588.987901
563.799216	2586.747108
564.155587	2586.532859
564.511904	2588.748447
564.868164	2584.014803
565.224370	2584.750812
565.580520	2587.374732
565.936615	2589.146698
566.292654	2585.086048
566.648638	2585.799372
567.004567	2586.706779
567.360441	2587.047057
567.716260	2584.413054
568.072023	2589.920515
568.427732	2587.147880
568.783385	2586.976481
569.138982	2583.424988
569.494525	2585.592684
569.850013	2587.044537
570.205445	2587.538570
570.560823	2585.441450
570.916145	2585.108733
571.271412	2584.581933
571.626625	2586.177458
571.981782	2583.034299
572.336884	2582.358784
572.691931	2580.274267
573.046923	2577.796540
573.401860	2580.901891
573.756743	2582.734350
574.111570	2582.736871
574.466342	2582.671336
574.821059	2581.892477
575.175722	2585.653178
575.530330	2584.196285
575.884882	2581.713516
576.239380	2582.608321
576.593823	2583.553537
576.948211	2580.014647
577.302544	2583.523291
577.656823	2579.999524
578.011047	2582.633527
578.365216	2580.773341
578.719330	2579.790316
579.073389	2581.043043
579.427394	2581.721078
579.781344	2578.063721
580.135239	2581.322827
580.489080	2578.484657
580.842866	2577.834348
581.196597	2581.569843
581.550273	2578.111612
581.903895	2581.610173
582.257463	2580.652353
582.610975	2579.301324
582.964434	2579.444997
583.317837	2576.077506
583.671186	2577.504153
584.024481	2582.280646
584.377721	2578.260326
584.730906	2578.701427
585.084037	2578.310737
585.437113	2579.639082
585.790135	2578.976170
586.143103	2576.001889
586.496016	2578.461972
586.848874	2580.428022
587.201679	2579.961715
587.554428	2579.092116
587.907124	2576.818556
588.259765	2576.402661
588.612352	2576.480799
588.964884	2579.064390
589.317362	2575.959039
589.669786	2575.520459
590.022155	2570.297823
590.374470	2569.944943
590.726731	2573.204049
591.078937	2572.074830
591.431090	2573.627506
591.783188	2575.613720
592.135232	2575.520459
592.487222	2575.432239
592.839157	2576.228741
593.191038	2577.065572
593.542866	2574.555078
593.894639	2573.796384
594.246358	2576.727815
594.598022	2573.337639
594.949633	2574.913000
595.301190	2574.325705
595.652692	2575.182702
596.004141	2573.998030
596.355535	2576.695048
596.706876	2574.035839
597.058162	2573.488874
597.409395	2571.545509
597.760573	2572.924265
598.111698	2572.495767
598.462768	2572.881415
598.813785	2575.502815
599.164748	2574.847465
599.515657	2574.789492
599.866511	2573.718246
600.217312	2573.262022
600.568060	2573.771178
600.918753	2577.257136
601.269392	2574.608010
601.619978	2572.765468
601.970510	2574.330747
602.320988	2574.887794
602.671412	2575.860737
603.021783	2574.721436
603.372100	2577.471385
603.722363	2574.202197
604.072572	2576.619430
604.422728	2574.308061
604.772830	2576.453072
605.122878	2576.203535
605.472872	2576.763103
605.822813	2576.039698
606.172701	2575.596076
606.522534	2573.874522
606.872314	2578.769482
607.222041	2577.302507
607.571714	2577.173957
607.921333	2573.042732
608.270899	2574.764286
608.620411	2573.902248
608.969870	2578.469534
609.319276	2582.005903
609.668627	2586.603436
610.017926	2592.738520
610.367171	2592.836822
610.716362	2592.178952
611.065500	2592.063005
611.414585	2591.712645
611.763616	2588.645103
612.112594	2587.147880
612.461518	2586.048909
612.810389	2585.721234
613.159207	2583.661922
613.507971	2584.498754
613.856682	2586.729464
614.205340	2582.855338
614.553945	2587.586461
614.902496	2582.318455
615.250994	2583.845924
615.599439	2585.350709
615.947830	2586.553024
616.296169	2587.286512
616.644454	2585.852304
616.992686	2587.062181
617.340864	2585.252406
617.688990	2586.618559
618.037063	2587.092427
618.385082	2589.439085
618.733048	2590.190217
619.080961	2587.074783
619.428821	2591.546287
619.776628	2592.342789
620.124382	2591.392532
620.472083	2592.383118
620.819731	2594.180290
621.167326	2589.809609
621.514868	2593.814806
621.862357	2589.948241
622.209793	2591.508478
622.557176	2591.647110
622.904506	2591.190886
623.251783	2592.693149
623.599007	2593.754312
623.946179	2590.984198
624.293297	2593.076277
624.640363	2590.623756
624.987376	2589.713827
625.334336	2585.436408
625.681243	2588.899681
626.028097	2589.159301
626.374899	2593.560228
626.721647	2591.821030
627.068343	2593.678695
627.414987	2593.401432
627.761577	2593.877821
628.108115	2596.869745
628.454600	2595.133068
628.801032	2596.405959
629.147412	2593.532502
629.493739	2596.731114
629.840014	2599.067688
630.186236	2597.338573
630.532405	2599.579366
630.878521	2596.925198
631.224585	2599.697833
631.570597	2599.183635
631.916556	2599.264293
632.262462	2598.689602
632.608316	2601.547936
632.954117	2601.283276
633.299866	2605.787547
633.645562	2603.972731
633.991206	2604.686054
634.336797	2600.466609
634.682336	2603.718153
635.027823	2601.595827
635.373257	2606.619337
635.718639	2602.183122
636.063968	2603.395519
636.409245	2604.449120
636.754470	2603.861826
637.099642	2604.280242
637.444762	2602.294027
637.789829	2606.689913
638.134845	2606.054728
638.479808	2605.212855
638.824719	2610.546396
639.169577	2607.801487
639.514383	2605.626230
639.859137	2608.908021
640.203839	2607.753597
640.548489	2608.189656
640.893086	2611.675614
641.237632	2609.402054
641.582125	2614.876747
641.926566	2611.405912
642.270955	2610.800974
642.615292	2609.875922
642.959576	2610.937085
643.303809	2612.968670
643.647990	2619.605349
643.992118	2621.432767
644.336195	2617.140225
644.680219	2621.967130
645.024192	2624.386884
645.368112	2625.614405
645.711981	2623.905453
646.055797	2629.939715
646.399562	2633.347535
646.743274	2636.435241
647.086935	2641.514204
647.430544	2640.289203
647.774101	2644.823721
648.117606	2648.544093
648.461059	2649.963178
648.804460	2658.144970
649.147810	2656.937614
649.491108	2651.019299
649.834354	2655.924342
650.177548	2654.162459
650.520690	2655.629435
650.863781	2658.306287
651.206820	2658.880979
651.549807	2657.308139
651.892742	2658.651606
652.235626	2659.448109
652.578458	2663.347441
652.921238	2660.942811
653.263967	2667.292144
653.606644	2665.210147
653.949269	2665.550425
654.291843	2669.485046
654.634365	2672.643329
654.976836	2674.700120
655.319255	2673.661642
655.661622	2677.268587
656.003938	2680.023578
656.346203	2680.600790
656.688416	2682.387879
657.030577	2685.112623
657.372687	2687.875175
657.714746	2689.644620
658.056753	2688.807789
658.398708	2693.591844
658.740612	2696.130065
659.082465	2701.801363
659.424266	2696.258614
659.766016	2701.884542
660.107715	2706.918134
660.449362	2706.093905
660.790958	2718.477500
661.132503	2721.272819
661.473996	2722.696945
661.815438	2727.949828
662.156829	2731.879407
662.498168	2731.821434
662.839456	2739.128586
663.180693	2739.950294
663.521879	2745.150245
663.863013	2751.287849
664.204097	2755.199785
664.545129	2756.576020
664.886110	2758.660537
665.227040	2769.899789
665.567918	2772.962290
665.908746	2783.987294
666.249522	2780.158537
666.590248	2789.136832
666.930922	2799.594706
667.271545	2801.724594
667.612118	2811.285142
667.952639	2811.799340
668.293109	2817.911739
668.633528	2820.331492
668.973896	2820.795279
669.314213	2835.759944
669.654480	2825.702842
669.994695	2830.572597
670.334859	2837.053000
670.674973	2845.010461
671.015035	2848.181347
671.355047	2854.749970
671.695008	2852.133612
672.034918	2858.306504
672.374777	2871.151364
672.714585	2871.824358
673.054342	2883.487068
673.394049	2883.484547
673.733705	2891.081566
674.073310	2899.971641
674.412864	2915.556368
674.752368	2907.636715
675.091820	2905.088412
675.431223	2924.529622
675.770574	2913.539907
676.109875	2919.818664
676.449125	2921.431833
676.788324	2916.995618
677.127473	2916.546955
677.466571	2923.423089
677.805619	2930.309305
678.144616	2930.402566
678.483562	2940.449586
678.822458	2934.397681
679.161303	2936.401539
679.500098	2950.025258
679.838842	2954.743778
680.177535	2953.279322
680.516179	2962.146712
680.854771	2972.660038
681.193314	2990.956906
681.531805	2993.376660
681.870247	3041.922972
682.208638	3067.385840
682.546978	3096.281733
682.885268	3114.228241
683.223508	3092.097576
683.561697	3089.652616
683.899836	3101.960593
684.237925	3095.094542
684.575963	3096.427927
684.913951	3121.537914
685.251889	3109.877725
685.589776	3137.631798
685.927614	3141.019453
686.265401	3131.625263
686.603137	3160.697597
686.940824	3179.821214
687.278460	3204.853064
687.616046	3227.024058
687.953582	3254.153028
688.291068	3243.977459
688.628504	3268.109462
688.965889	3293.169038
689.303224	3313.310968
689.640510	3307.596820
689.977745	3277.047428
690.314930	3275.036008
690.652065	3277.647325
690.989150	3246.054414
691.326185	3237.013105
691.663170	3227.989439
692.000105	3209.359855
692.336990	3223.936352
692.673825	3196.517516
693.010610	3194.067515
693.347345	3175.848785
693.684030	3159.321362
694.020665	3164.193637
694.357251	3160.727844
694.693786	3178.608817
695.030272	3141.435348
695.366707	3149.400372
695.703093	3149.637306
696.039429	3158.126609
696.375716	3173.146727
696.711952	3148.434991
697.048139	3168.884431
697.384276	3179.617048
697.720363	3178.157634
698.056400	3179.314578
698.392388	3188.948223
698.728326	3188.376052
699.064214	3183.118129
699.400053	3213.347408
699.735842	3191.710776
700.071581	3185.363963
700.407270	3181.333561
700.742910	3180.030422
701.078501	3188.965867
701.414042	3173.149247
701.749533	3173.766789
702.084974	3156.977226
702.420366	3171.624298
702.755709	3170.013650
703.091002	3157.234325
703.426246	3168.224040
703.761440	3171.231088
704.096584	3171.316788
704.431679	3165.118689
704.766725	3174.089422
705.101721	3171.969617
705.436668	3180.171575
705.771565	3175.644618
706.106413	3193.263451
706.441212	3214.590052
706.775961	3202.302240
707.110661	3208.580997
707.445311	3251.582039
707.779913	3230.923391
708.114465	3257.276023
708.448967	3275.487191
708.783421	3282.559930
709.117825	3330.597085
709.452180	3344.843386
709.786485	3346.350691
710.120742	3406.491656
710.454949	3414.479364
710.789107	3431.702466
711.123216	3461.662044
711.457275	3512.602903
711.791286	3551.366856
712.125247	3539.142058
712.459159	3569.845205
712.793023	3609.047738
713.126837	3548.581618
713.460602	3574.379723
713.794318	3527.459184
714.127985	3576.784353
714.461602	3542.295299
714.795171	3513.175074
715.128691	3498.845594
715.462162	3456.933441
715.795584	3473.576811
716.128957	3449.258285
716.462281	3395.290212
716.795556	3449.903552
717.128782	3405.773292
717.461960	3353.118440
717.795088	3386.700086
718.128167	3381.737070
718.461198	3353.587267
718.794180	3345.312213
719.127113	3373.830020
719.459997	3349.420753
719.792833	3301.139102
720.125619	3324.298163
720.458357	3293.176600
720.791046	3301.454174
721.123686	3333.248732
721.456278	3295.036786
721.788821	3297.743885
722.121315	3281.904580
722.453761	3307.800987
722.786158	3315.415650
723.118506	3317.366577
723.450805	3319.123419
723.783056	3328.164728
724.115259	3308.116059
724.447412	3325.281188
724.779518	3328.938545
725.111574	3331.317970
725.443582	3365.620501
725.775542	3355.916280
726.107453	3403.293044
726.439315	3391.095972
726.771129	3398.083011
727.102895	3433.063578
727.434612	3466.824185
727.766281	3471.802325
728.097901	3498.437261
728.429473	3489.252279
728.760996	3498.228053
729.092471	3503.753158
729.423897	3507.831451
729.755276	3531.882796
730.086606	3517.694469
730.417887	3521.545910
730.749120	3555.792989
731.080305	3641.558139
731.411442	3665.276768
731.742530	3643.834220
732.073570	3710.508521
732.404562	3736.062130
732.735506	3667.555370
733.066401	3724.170048
733.397249	3716.653688
733.728048	3672.276410
734.058798	3607.769806
734.389501	3581.853234
734.720156	3546.643295
735.050762	3475.822645
735.381320	3457.460242
735.711831	3469.488435
736.042293	3446.147893
736.372707	3472.676965
736.703073	3433.703804
737.033391	3434.775050
737.363661	3435.654731
737.693883	3457.412351
738.024056	3494.946262
738.354182	3508.035618
738.684260	3505.883045
739.014290	3542.663304
739.344272	3569.376378
739.674207	3567.490986
740.004093	3589.152824
740.333931	3601.995164
740.663722	3606.592696
740.993464	3645.074344
741.323159	3671.996626
741.652806	3564.741037
741.982405	3563.584092
742.311956	3647.607524
742.641460	3598.766305
742.970915	3527.073535
743.300323	3556.198802
743.629683	3538.121224
743.958996	3500.045389
744.288260	3488.533914
744.617477	3494.487517
744.946647	3508.038138
745.275768	3445.658901
745.604842	3455.136270
745.933869	3456.426805
746.262847	3429.222219
746.591778	3444.191925
746.920662	3437.961059
747.249498	3438.056841
747.578286	3456.595684
747.907027	3488.803616
748.235720	3508.466637
748.564365	3476.077223
748.892963	3486.900580
749.221514	3576.991041
749.550017	3526.312321
749.878473	3465.326963
750.206881	3510.601565
750.535242	3493.885099
750.863555	3465.510965
751.191821	3495.866273
751.520039	3507.304651
751.848210	3467.590441
752.176334	3466.451140
752.504411	3517.439890
752.832440	3492.314780
753.160421	3432.824123
753.488356	3477.839106
753.816243	3522.153369
754.144082	3457.051908
754.471875	3429.247424
754.799620	3464.439719
755.127318	3475.247953
755.454969	3455.761373
755.782572	3445.142183
756.110129	3476.583859
756.437638	3491.553565
756.765100	3450.246351
757.092515	3449.593521
757.419882	3476.871205
757.747203	3471.265442
758.074477	3508.514527
758.401703	3514.067358
758.728882	3465.657158
759.056014	3483.132318
759.383099	3570.477870
759.710138	3563.326993
760.037129	3533.342210
760.364073	3533.644679
760.690970	3596.885954
761.017820	3603.895679
761.344623	3554.411713
761.671379	3594.735902
761.998088	3645.457472
762.324751	3717.248544
762.651366	3906.614447
762.977935	4289.129639
763.304456	4768.044295
763.630931	5033.793762
763.957359	4944.275472
764.283740	4744.885235
764.610074	4559.307759
764.936362	4224.368456
765.262602	4015.636960
765.588796	3828.249710
765.914943	3708.920558
766.241044	3690.694266
766.567097	3639.899600
766.893104	3535.968651
767.219064	3460.747074
767.544978	3458.037454
767.870845	3449.691824
768.196665	3400.840523
768.522438	3368.345245
768.848165	3370.931357
769.173846	3358.656147
769.499479	3346.784230
769.825066	3322.500992
770.150607	3304.115904
770.476101	3298.222795
770.801548	3312.585042
771.126949	3289.657874
771.452303	3267.131478
771.777611	3254.737802
772.102872	3264.131992
772.428087	3253.464910
772.753256	3252.123963
773.078378	3238.638877
773.403453	3210.433621
773.728482	3210.294989
774.053465	3194.397711
774.378401	3190.415199
774.703291	3207.416491
775.028135	3176.862057
775.352932	3146.297541
775.677683	3138.224133
776.002388	3165.695901
776.327046	3178.039167
776.651658	3131.262300
776.976224	3092.949531
777.300743	3110.548199
777.625216	3135.007877
777.949643	3140.311171
778.274024	3108.047787
778.598359	3087.542893
778.922647	3098.051178
779.246889	3108.282200
779.571086	3109.318157
779.895236	3104.854216
780.219339	3085.765887
780.543397	3081.773293
780.867409	3110.364197
781.191374	3125.580920
781.515294	3099.049327
781.839167	3092.485745
782.162995	3100.846498
782.486776	3100.377671
782.810511	3109.088785
783.134201	3122.682256
783.457844	3102.126951
783.781441	3066.392732
784.104993	3070.801221
784.428498	3090.328131
784.751958	3104.463526
785.075372	3085.362594
785.398739	3058.583985
785.722061	3065.578586
786.045337	3102.537805
786.368568	3127.408338
786.691752	3074.491346
787.014891	3088.687235
787.337983	3140.107004
787.661030	3197.810572
787.984031	3261.389604
788.306987	3330.070284
788.629897	3359.026672
788.952760	3344.571163
789.275579	3329.079698
789.598351	3336.762416
789.921078	3286.214766
790.243759	3182.976977
790.566395	3179.884229
790.888984	3194.309491
791.211529	3142.919968
791.534027	3121.580764
791.856480	3132.386477
792.178888	3090.325610
792.501249	3058.568862
792.823566	3071.869946
793.145836	3099.573607
793.468062	3076.527972
793.790241	3044.211655
794.112375	3060.335786
794.434464	3093.478852
794.756507	3115.163375
795.078505	3100.433124
795.400457	3094.686208
795.722364	3156.735250
796.044226	3199.275027
796.366042	3228.891806
796.687812	3234.482446
797.009538	3240.146182
797.331218	3214.027964
797.652852	3209.679969
797.974442	3212.384548
798.295986	3221.524160
798.617484	3187.004859
798.938938	3136.028711
799.260346	3166.701612
799.581709	3177.693847
799.903026	3139.174391
800.224299	3123.133439
800.545526	3123.471197
800.866708	3105.348249
801.187845	3067.947928
801.508936	3095.659151
801.829983	3106.653908
802.150984	3055.256823
802.471940	3050.258519
802.792851	3058.425189
803.113717	3062.642114
803.434538	3070.884400
803.755314	3034.338556
804.076045	3011.683610
804.396731	3029.110879
804.717372	3050.301369
805.037967	3043.087478
805.358518	3033.564738
805.679024	3043.999927
805.999485	3045.585370
806.319901	3050.225752
806.640272	3064.824933
806.960598	3070.244174
807.280879	3048.292469
807.601115	3052.222049
807.921306	3069.256108
808.241453	3096.337186
808.561554	3087.621031
808.881611	3044.458672
809.201623	3063.204203
809.521590	3081.874116
809.841513	3067.315263
810.161390	3084.072059
810.481223	3089.634972
810.801011	3049.262892
811.120755	3037.907693
811.440453	3071.658217
811.760107	3082.804209
812.079716	3059.771177
812.399281	3034.590613
812.718801	3051.712892
813.038276	3038.961294
813.357707	3043.052190
813.677093	3058.014335
813.996434	3031.984337
814.315731	3025.975281
814.634983	3033.932743
814.954191	3044.272149
815.273354	3066.642269
815.592473	3069.089750
815.911547	3056.381001
816.230577	3074.254412
816.549562	3111.727829
816.868502	3143.678662
817.187399	3156.894047
817.506250	3148.984476
817.825058	3133.056951
818.143821	3189.706917
818.462539	3259.796600
818.781213	3284.893984
819.099843	3308.428611
819.418429	3427.344389
819.736970	3546.731515
820.055466	3660.548166
820.373919	3876.362482
820.692327	4111.504583
821.010691	4302.080363
821.329011	4936.154173
821.647286	6079.369398
821.965517	7725.006181
822.283704	9039.802118
822.601847	9904.128110
822.919945	9589.237476
823.237999	8969.669586
823.556010	8143.056466
823.873976	7363.477312
824.191897	6349.378640
824.509775	5656.368700
824.827609	5079.264969
825.145398	4785.078354
825.463144	4746.763064
825.780845	4806.767919
826.098502	4819.774096
826.416116	5162.564995
826.733685	5760.476088
827.051210	6345.602815
827.368692	6510.098186
827.686129	5968.940403
828.003522	5202.667374
828.320872	4710.776788
828.638177	4364.807440
828.955439	4066.479517
829.272656	3779.894963
829.589830	3606.602778
829.906960	3514.276566
830.224046	3407.759506
830.541088	3335.182014
830.858086	3313.515135
831.175041	3275.645987
831.491952	3261.296343
831.808819	3273.488373
832.125642	3313.661328
832.442421	3395.595202
832.759157	3547.129766
833.075849	3822.880881
833.392497	4243.534923
833.709101	4589.519394
834.025662	4803.597033
834.342179	4709.826530
834.658653	4400.284561
834.975083	4068.891710
835.291469	3749.194336
835.607811	3498.911129
835.924110	3430.815223
836.240366	3308.068168
836.556578	3176.214269
836.872746	3111.793364
837.188871	3103.442692
837.504952	3064.673699
837.820990	3010.322499
838.136984	2975.041983
838.452935	2995.587206
838.768842	2997.384377
839.084706	3013.778210
839.400526	3091.459870
839.716303	3246.722367
840.032037	3509.986544
840.347727	3694.356664
840.663373	3597.861418
840.978977	3394.254255
841.294537	3216.856051
841.610054	3072.840368
841.925527	3005.402333
842.240957	2962.338276
842.556344	2934.616971
842.871687	2898.020714
843.186987	2869.439893
843.502244	2846.243023
843.817458	2818.158755
844.132629	2797.023718
844.447756	2804.439255
844.762840	2800.106383
845.077881	2779.982097
845.392879	2765.977772
845.707833	2764.813265
846.022745	2759.290681
846.337613	2764.977103
846.652438	2759.131885
846.967221	2758.179107
847.281960	2747.887591
847.596656	2745.132601
847.911309	2741.024060
848.225919	2739.340315
848.540485	2735.188925
848.855009	2738.952146
849.169490	2733.878225
849.483928	2728.206927
849.798323	2721.960937
850.112675	2721.008159
850.426984	2731.148440
850.741251	2728.534602
851.055474	2722.152501
851.369654	2719.362222
851.683792	2724.824312
851.997887	2731.319839
852.311938	2728.905126
852.625947	2724.325238
852.939914	2726.576113
853.253837	2729.172307
853.567718	2715.800647
853.881555	2714.613455
854.195350	2725.998901
854.509103	2727.163408
854.822812	2721.310628
855.136479	2721.988663
855.450103	2720.526729
855.763685	2714.434494
856.077224	2709.037939
856.390720	2720.821636
856.704173	2728.547204
857.017584	2724.330279
857.330953	2718.595967
857.644278	2729.079046
857.957561	2732.123903
858.270802	2734.281517
858.584000	2735.375447
858.897155	2729.081567
859.210268	2728.640466
859.523339	2729.205075
859.836367	2725.383880
860.149352	2724.098386
860.462295	2721.315669
860.775195	2729.815055
861.088054	2732.323029
861.400869	2714.464741
861.713642	2711.810574
862.026373	2721.998746
862.339062	2727.594426
862.651708	2732.093656
862.964312	2732.612895
863.276873	2726.601319
863.589392	2732.252452
863.901869	2735.796384
864.214303	2750.773652
864.526696	2763.452154
864.839045	2763.747061
865.151353	2760.740013
865.463619	2757.934611
865.775842	2760.271186
866.088023	2775.437497
866.400162	2783.689866
866.712258	2764.152874
867.024313	2753.700042
867.336325	2760.989550
867.648296	2774.152003
867.960224	2770.908020
868.272110	2764.936773
868.583954	2767.873246
868.895755	2778.563012
869.207515	2766.365941
869.519233	2767.454830
869.830909	2774.608227
870.142542	2786.442336
870.454134	2784.640123
870.765684	2790.886113
871.077191	2787.984929
871.388657	2791.851494
871.700081	2800.071095
872.011463	2807.524441
872.322803	2806.669966
872.634101	2806.463278
872.945357	2814.972746
873.256571	2833.057885
873.567744	2827.366423
873.878874	2817.354691
874.189963	2838.214986
874.501010	2842.099195
874.812015	2839.442507
875.122979	2840.352435
875.433900	2836.972341
875.744780	2839.155161
876.055618	2843.666994
876.366415	2846.981552
876.677169	2860.196937
876.987882	2859.047554
877.298554	2850.843076
877.609183	2866.233719
877.919771	2882.879609
878.230317	2905.305182
878.540822	2948.212963
878.851285	2973.519555
879.161707	3002.029801
879.472087	3066.518761
879.782425	3216.445197
880.092722	3511.019981
880.402977	3841.311340
880.713191	4128.006800
881.023363	4617.712047
881.333494	5184.304971
881.643583	5452.217092
881.953631	5413.720321
882.263637	5251.979941
882.573602	5058.641609
882.883526	4770.063277
883.193408	4422.183333
883.503248	4127.807675
883.813048	3960.784165
884.122806	3796.876089
884.432522	3587.963112
884.742197	3436.788991
885.051831	3293.937814
885.361424	3192.406455
885.670975	3148.578663
885.980485	3093.151177
886.289954	3034.996426
886.599382	3006.476098
886.908768	2983.657315
887.218113	2953.599436
887.527417	2911.387334
887.836680	2878.385420
888.145901	2876.744525
888.455082	2876.084133
888.764221	2837.771364
889.073319	2815.204639
889.382376	2817.372335
889.691392	2817.624393
890.000366	2819.161945
890.309300	2808.462096
890.618193	2818.068014
890.927044	2831.104438
891.235855	2832.384891
891.544625	2813.228507
891.853353	2822.292501
892.162041	2836.271621
892.470687	2862.596526
892.779293	2898.439130
893.087858	2933.366765
893.396381	2977.701192
893.704864	3051.455793
894.013306	3204.326263
894.321707	3396.666447
894.630068	3540.989641
894.938387	3551.329047
895.246665	3537.065102
895.554903	3471.729228
895.863100	3336.117148
896.171256	3224.349726
896.479371	3133.714821
896.787446	3050.558468
897.095480	2974.807570
897.403473	2921.197419
897.711425	2890.204405
898.019336	2882.246944
898.327207	2867.398225
898.635038	2843.422498
898.942827	2829.997905
899.250576	2824.578665
899.558284	2796.610343
899.865952	2781.771707
900.173579	2770.290479
900.481165	2766.991044
900.788711	2758.910074
901.096216	2738.954667
901.403681	2731.087946
901.711105	2736.655900
902.018489	2734.647001
902.325832	2734.694892
902.633135	2741.213103
902.940397	2765.826537
903.247619	2818.342757
903.554800	2941.858588
903.861941	3155.348933
904.169041	3429.166766
904.476101	3643.408243
904.783121	3650.969973
905.090100	3506.445134
905.397039	3328.295798
905.703938	3152.261226
906.010796	3014.942716
906.317614	2938.458330
906.624391	2874.135728
906.931129	2817.989877
907.237826	2776.861623
907.544483	2743.133783
907.851099	2715.906511
908.157675	2704.942002
908.464211	2685.969619
908.770707	2679.567354
909.077163	2671.314985
909.383578	2659.889210
909.689954	2647.311531
909.996289	2647.936634
910.302584	2648.902015
910.608839	2649.980822
910.915054	2645.741211
911.221229	2639.429687
911.527363	2641.988072
911.833458	2646.174751
912.139513	2649.358239
912.445527	2651.417551
912.751502	2659.601864
913.057436	2664.829540
913.363331	2675.123577
913.669186	2687.605473
913.975000	2713.020451
914.280775	2754.841863
914.586510	2806.450675
914.892205	2856.370701
915.197859	2940.815069
915.503475	3067.136303
915.809050	3201.709904
916.114585	3307.871563
916.420081	3337.296778
916.725536	3307.185966
917.030952	3235.888927
917.336328	3146.282418
917.641665	3051.720454
917.946961	2979.710092
918.252218	2935.607558
918.557435	2881.342057
918.862612	2837.612568
919.167750	2800.706281
919.472848	2771.603699
919.777906	2753.024527
920.082925	2734.399984
920.387904	2710.688917
920.692843	2699.091742
920.997743	2691.580423
921.302603	2684.525328
921.607423	2674.412774
921.912204	2665.283244
922.216946	2659.105310
922.521647	2651.485606
922.826310	2646.424288
923.130932	2641.776344
923.435516	2634.280148
923.740059	2628.785290
924.044564	2622.932511
924.349028	2617.276336
924.653454	2613.155193
924.957840	2609.018926
925.262186	2603.138420
925.566493	2598.621546
925.870761	2596.975610
926.174989	2593.101483
926.479178	2592.451174
926.783328	2587.220977
927.087438	2587.107551
927.391509	2583.608990
927.695541	2583.656881
927.999533	2582.094123
928.303486	2576.526169
928.607400	2576.324523
928.911275	2579.510532
929.215110	2577.662949
929.518906	2573.004923
929.822663	2574.076168
930.126381	2574.542475
930.430060	2574.552557
930.733699	2577.799060
931.037299	2575.712023
931.340861	2577.660429
931.644383	2577.138669
931.947866	2576.596745
932.251309	2576.080027
932.554714	2573.650191
932.858080	2572.021898
933.161407	2570.837227
933.464694	2571.028791
933.767943	2566.587534
934.071153	2570.650704
934.374323	2567.691547
934.677455	2571.031311
934.980548	2567.343707
935.283602	2570.244891
935.586617	2569.594582
935.889593	2568.021742
936.192530	2568.046948
936.495428	2569.955025
936.798287	2570.383523
937.101108	2574.431570
937.403890	2575.850654
937.706632	2581.902560
938.009336	2584.647468
938.312002	2594.162646
938.614628	2598.460229
938.917216	2602.044490
939.219765	2606.321909
939.522275	2605.054059
939.824747	2600.499376
940.127179	2600.232195
940.429573	2598.366968
940.731929	2597.565425
941.034246	2594.263469
941.336524	2592.073087
941.638763	2590.860690
941.940964	2589.764239
942.243126	2584.922211
942.545250	2587.480596
942.847335	2581.736202
943.149381	2580.478434
943.451389	2576.697568
943.753359	2577.589852
944.055290	2574.928123
944.357182	2573.872002
944.659036	2570.557443
944.960851	2573.476271
945.262628	2570.628019
945.564367	2574.401323
945.866067	2571.679100
946.167729	2570.716239
946.469352	2570.123904
946.770937	2570.948132
947.072484	2573.173802
947.373992	2569.254305
947.675462	2569.340004
947.976893	2564.225754
948.278286	2562.015208
948.579641	2566.065775
948.880958	2564.618964
949.182236	2566.680796
949.483476	2561.069991
949.784678	2564.684499
950.085841	2566.723645
950.386967	2566.443861
950.688054	2568.452761
950.989103	2566.398491
951.290114	2568.805642
951.591087	2568.034345
951.892021	2571.742114
952.192917	2570.587690
952.493776	2574.292938
952.794596	2575.654049
953.095378	2574.691189
953.396122	2576.120356
953.696828	2573.199007
953.997496	2572.548699
954.298126	2569.521486
954.598718	2570.101218
954.899272	2565.942267
955.199788	2561.604354
955.500266	2562.741134
955.800706	2561.674930
956.101108	2558.188972
956.401472	2559.615618
956.701798	2556.038920
957.002087	2556.727037
957.302337	2556.064126
957.602550	2553.725030
957.902724	2553.311656
958.202861	2552.976419
958.502960	2551.776624
958.803022	2551.471634
959.103045	2549.732436
959.403031	2549.679504
959.702979	2548.560368
960.002889	2544.897970
960.302762	2546.730429
960.602596	2547.385779
960.902393	2545.732281
961.202153	2550.584391
961.501875	2544.943340
961.801559	2546.067517
962.101205	2545.944009
962.400814	2547.484082
962.700385	2545.835624
962.999918	2542.132897
963.299414	2540.993596
963.598873	2539.955118
963.898293	2541.046528
964.197677	2541.301107
964.497022	2545.260933
964.796331	2545.523073
965.095601	2541.575849
965.394835	2544.235058
965.694030	2545.870913
965.993189	2544.698844
966.292309	2543.602393
966.591393	2544.376210
966.890439	2545.732281
967.189447	2542.929399
967.488419	2543.325130
967.787353	2543.667928
968.086249	2543.133566
968.385108	2541.792619
968.683930	2543.965356
968.982714	2540.640715
969.281462	2544.003165
969.580172	2546.075079
969.878844	2542.458051
970.177480	2543.546941
970.476078	2542.659698
970.774639	2544.159441
971.073162	2545.255892
971.371649	2544.587939
971.670098	2547.297559
971.968510	2547.267312
972.266885	2543.176416
972.565223	2544.419060
972.863524	2545.946530
973.161788	2545.628937
973.460014	2544.351005
973.758204	2543.355377
974.056356	2543.209183
974.354471	2543.793957
974.652550	2541.989224
974.950591	2544.935778
975.248595	2545.555840
975.546563	2546.667415
975.844493	2545.018957
976.142386	2545.230686
976.440243	2544.782023
976.738062	2544.731612
977.035845	2543.320089
977.333590	2545.704554
977.631299	2542.647095
977.928971	2540.562577
978.226606	2539.332536
978.524204	2540.676003
978.821765	2538.241126
979.119290	2542.384955
979.416777	2544.315717
979.714228	2544.746735
980.011642	2542.195911
980.309020	2543.352856
980.606360	2544.794626
980.903664	2543.536858
981.200931	2543.433515
981.498162	2547.479041
981.795356	2547.857127
982.092513	2548.797302
982.389633	2548.976263
982.686717	2552.288301
982.983764	2554.549259
983.280775	2556.832902
983.577749	2559.837429
983.874686	2561.062430
984.171587	2555.408776
984.468451	2552.588250
984.765279	2554.589588
985.062070	2548.141952
985.358824	2550.866696
985.655543	2549.263609
985.952224	2543.378062
986.248869	2546.410316
986.545478	2545.230686
986.842050	2544.900490
987.138586	2541.923689
987.435086	2544.900490
987.731549	2543.362938
988.027975	2543.814122
988.324366	2542.687424
988.620719	2541.013761
988.917037	2541.527958
989.213318	2542.969728
989.509563	2542.445448
989.805772	2542.503422
990.101944	2543.607434
990.398080	2542.248843
990.694180	2541.177598
990.990244	2541.124666
991.286271	2539.405633
991.582262	2540.905376
991.878217	2539.544264
992.174136	2541.636343
992.470019	2540.973432
992.765865	2537.404295
993.061676	2534.233409
993.357450	2537.671476
993.653188	2540.060983
993.948890	2541.510314
994.244556	2543.085675
994.540186	2543.236910
994.835780	2540.852444
995.131337	2542.334543
995.426859	2540.234903
995.722345	2543.609955
996.017795	2543.983000
996.313208	2543.935109
996.608586	2542.735315
996.903928	2546.271684
997.199234	2543.524255
997.494504	2544.519883
997.789738	2543.700696
998.084936	2543.766231
998.380099	2545.351674
998.675225	2543.446117
998.970316	2541.127187
999.265371	2543.204142
999.560390	2542.841179
999.855373	2541.517876
1000.150320	2540.126518
1000.445232	2543.415871
1000.740108	2539.793802
1001.034948	2540.444110
1001.329752	2539.448483
1001.624521	2540.968390
1001.919254	2539.897145
1002.213951	2541.250695
1002.508613	2539.118287
1002.803239	2541.149872
1003.097829	2539.922351
1003.392384	2540.590304
1003.686903	2541.404450
1003.981386	2544.920655
1004.275834	2540.983514
1004.570246	2542.687424
1004.864623	2540.313040
1005.158964	2542.458051
1005.453270	2539.045190
1005.747540	2539.682896
1006.041775	2540.746580
1006.335974	2541.974101
1006.630138	2538.309182
1006.924266	2540.978473
1007.218359	2537.883204
1007.512416	2535.065199
1007.806438	2537.001002
1008.100425	2538.931764
1008.394376	2536.343132
1008.688292	2541.318751
1008.982172	2536.895138
1009.276017	2541.202804
1009.569827	2537.573173
1009.863602	2539.970242
1010.157341	2541.621220
1010.451045	2542.977290
1010.744714	2540.126518
1011.038347	2540.406302
1011.331945	2539.163657
1011.625508	2537.855478
1011.919036	2540.653318
1012.212528	2540.590304
1012.505986	2539.715664
1012.799408	2539.879501
1013.092795	2538.657021
1013.386147	2540.302958
1013.679464	2542.629451
1013.972745	2540.844882
1014.265992	2539.198945
1014.559204	2541.270860
1014.852380	2540.860006
1015.145521	2537.583256
1015.438628	2541.573329
1015.731699	2541.074255
1016.024736	2542.470654
1016.317737	2539.934954
1016.610703	2540.171888
1016.903635	2540.096271
1017.196531	2539.229192
1017.489393	2537.308513
1017.782219	2539.009902
1018.075011	2540.401261
1018.367768	2540.363452
1018.660490	2542.662218
1018.953177	2542.662218
1019.245829	2542.662218
