Dividing Wavelength (nm)	Counts (n)	Blue Motor Position (mm): 31.000000	Red Motor Position (mm): 0.000000	
326.493990	2213.434543
326.888308	2213.434543
327.282561	2213.434543
327.676750	2177.135714
328.070874	2173.022133
328.464933	2173.954746
328.858929	2178.438853
329.252859	2181.592094
329.646726	2192.115503
330.040528	2204.161340
330.434265	2214.475541
330.827938	2235.260218
331.221547	2253.564648
331.615091	2269.141813
332.008571	2286.153187
332.401986	2304.414767
332.795338	2324.828919
333.188625	2344.156703
333.581847	2365.571525
333.975006	2382.615666
334.368100	2400.637791
334.761129	2418.501119
335.154095	2434.663059
335.546996	2462.623818
335.939833	2500.233347
336.332606	2515.865965
336.725315	2527.949611
337.117960	2538.024357
337.510540	2550.564227
337.903056	2563.688871
338.295508	2569.150961
338.687896	2577.897363
339.080220	2586.807602
339.472480	2593.857656
339.864676	2601.401743
340.256807	2604.058431
340.648875	2607.751076
341.040879	2610.082610
341.432818	2616.704165
341.824694	2617.871192
342.216506	2618.352622
342.608253	2618.506378
342.999937	2618.042592
343.391557	2621.493261
343.783113	2620.696759
344.174605	2617.336830
344.566033	2618.617283
344.957397	2617.881275
345.348697	2616.764659
345.739934	2612.252826
346.131106	2610.158227
346.522215	2610.740480
346.913260	2607.735952
347.304241	2604.174377
347.695159	2603.261928
348.086012	2604.199583
348.476802	2600.638008
348.867528	2595.624580
349.258191	2592.589806
349.648789	2594.727255
350.039324	2587.641913
350.429796	2591.029569
350.820203	2592.229363
351.210548	2590.480083
351.600828	2589.560072
351.991045	2586.505133
352.381198	2586.653847
352.771288	2586.842890
353.161314	2586.316090
353.551276	2584.753332
353.941175	2586.442119
354.331010	2582.217632
354.720782	2584.140832
355.110490	2585.285174
355.500135	2585.118816
355.889717	2584.856676
356.279235	2582.378949
356.668689	2584.385328
357.058080	2584.788620
357.447408	2584.045050
357.836672	2586.873137
358.225873	2589.804568
358.615010	2588.267016
359.004084	2584.919690
359.393095	2587.752819
359.782043	2586.162335
360.170927	2589.522264
360.559748	2590.893457
360.948505	2587.972109
361.337199	2592.599888
361.725830	2589.733992
362.114398	2590.028900
362.502903	2591.715166
362.891344	2591.657192
363.279722	2592.577203
363.668037	2593.645928
364.056289	2593.373705
364.444478	2594.691967
364.832603	2594.659199
365.220665	2595.228850
365.608665	2598.586258
365.996601	2597.336052
366.384474	2596.075764
366.772284	2598.261104
367.160031	2597.199941
367.547715	2597.396546
367.935336	2595.306988
368.322893	2596.942842
368.710388	2594.898654
369.097820	2599.057606
369.485189	2596.007708
369.872495	2599.947370
370.259738	2599.707915
370.646918	2598.578697
371.034035	2600.698502
371.421090	2601.464757
371.808081	2602.472988
372.195010	2600.595158
372.581875	2603.103132
372.968678	2601.106835
373.355418	2600.327977
373.742096	2604.814604
374.128710	2604.600355
374.515262	2602.162957
374.901751	2601.089191
375.288177	2604.837289
375.674540	2606.926847
376.060841	2606.916765
376.447079	2604.129007
376.833254	2605.691765
377.219367	2605.759820
377.605417	2606.236209
377.991404	2605.417022
378.377329	2606.480705
378.763191	2604.713781
379.148991	2608.298041
379.534727	2607.768720
379.920402	2608.371138
380.306013	2607.080602
380.691563	2607.998092
381.077049	2608.540017
381.462474	2607.592280
381.847835	2609.523042
382.233134	2607.867022
382.618371	2610.183433
383.003545	2608.802157
383.388657	2610.445573
383.773706	2611.262240
384.158693	2611.973042
384.543618	2611.433639
384.928480	2611.405912
385.313280	2610.395161
385.698017	2613.503033
386.082692	2613.908845
386.467305	2610.357352
386.851856	2613.671911
387.236344	2615.285080
387.620770	2611.617641
388.005133	2610.538834
388.389435	2612.842641
388.773674	2609.570932
389.157851	2615.096037
389.541965	2614.632251
389.926018	2617.021758
390.310008	2613.825666
390.693936	2617.475462
391.077802	2618.511419
391.461606	2615.879937
391.845348	2615.408589
392.229027	2617.745163
392.612645	2619.565020
392.996200	2619.887654
393.379694	2618.236676
393.763125	2621.440329
394.146494	2618.695421
394.529801	2619.451594
394.913047	2621.115175
395.296230	2619.764146
395.679351	2621.647017
396.062410	2621.949486
396.445408	2621.115175
396.828343	2622.390587
397.211217	2621.510905
397.594028	2622.267078
397.976778	2624.540639
398.359466	2625.271606
398.742092	2625.916874
399.124656	2624.525515
399.507158	2626.423510
399.889598	2625.264044
400.271977	2624.853190
400.654294	2625.785804
401.036549	2629.884262
401.418742	2626.438633
401.800874	2628.833181
402.182944	2631.396608
402.564952	2629.670013
402.946898	2630.862246
403.328783	2629.246556
403.710606	2631.154633
404.092367	2631.731845
404.474067	2630.098511
404.855705	2633.594551
405.237282	2633.738224
405.618797	2635.091774
406.000250	2636.783081
406.381642	2636.213431
406.762972	2633.705457
407.144240	2632.248563
407.525447	2637.279635
407.906593	2632.997174
408.287677	2634.116311
408.668700	2640.752990
409.049661	2640.689975
409.430560	2641.425984
409.811399	2638.683596
410.192176	2645.337919
410.572891	2642.628299
410.953545	2646.217600
411.334138	2643.513021
411.714669	2645.040491
412.095139	2644.027219
412.475547	2645.534524
412.855894	2645.627785
413.236180	2646.020995
413.616405	2648.924700
413.996568	2649.789258
414.376670	2649.678352
414.756711	2649.277581
415.136691	2648.597025
415.516609	2650.742036
415.896466	2655.521050
416.276262	2655.238745
416.655997	2657.744199
417.035670	2657.121616
417.415283	2660.131185
417.794834	2662.969355
418.174324	2661.550270
418.553753	2665.116886
418.933121	2674.984945
419.312428	2679.602642
419.691674	2687.066070
420.070859	2695.930939
420.449983	2701.945036
420.829045	2714.187478
421.208047	2724.478993
421.586988	2743.443814
421.965867	2760.583737
422.344686	2784.423354
422.723444	2804.698874
423.102141	2809.556026
423.480777	2858.815661
423.859352	2875.887528
424.237866	2935.446241
424.616319	2972.387816
424.994712	3035.671941
425.373044	3061.056671
425.751314	3145.324599
426.129524	3185.149714
426.507673	3258.080087
426.885762	3336.911130
427.263789	3402.327663
427.641756	3464.825368
428.019662	3553.564799
428.397508	3662.776356
428.775292	3700.373281
429.153016	3847.408615
429.530679	3907.741145
429.908282	4004.001977
430.285824	4033.550701
430.663305	4268.108027
431.040726	4249.667487
431.418086	4336.912216
431.795385	4513.592055
432.172624	4643.394205
432.549802	4720.967480
432.926920	4856.728274
433.303977	4916.234054
433.680974	5085.364765
434.057910	5232.334565
434.434786	5357.589594
434.811601	5428.223721
435.188355	5755.538278
435.565050	5767.790803
435.941683	5855.993351
436.318257	6194.721081
436.694770	6375.040633
437.071222	6542.293515
437.447614	6590.648263
437.823946	6662.862792
438.200218	6874.324072
438.576429	6885.447378
438.952580	7135.244113
439.328670	7300.185625
439.704700	7295.693957
440.080670	7399.768578
440.456580	7879.845221
440.832429	7840.103285
441.208218	7697.458795
441.583947	8029.426338
441.959616	8239.057679
442.335224	8223.825833
442.710773	8440.713916
443.086261	8700.446765
443.461689	8279.018906
443.837057	8846.042849
444.212365	9177.649949
444.587612	9006.341459
444.962800	9300.487745
445.337927	9215.251916
445.712995	8948.970608
446.088002	9934.932080
446.462949	9728.932890
446.837837	9790.624010
447.212664	9891.948682
447.587431	10382.301717
447.962139	11054.900024
448.336786	13062.053072
448.711374	13702.458572
449.085901	11901.992832
449.460369	11623.801798
449.834776	11207.921729
450.209124	12024.727284
450.583412	12431.566043
450.957640	13405.915217
451.331808	12709.638610
451.705917	11799.569188
452.079965	11217.782226
452.453954	12097.355187
452.827883	11794.006275
453.201752	12098.083634
453.575562	11663.863847
453.949311	12092.808066
454.323001	12081.568814
454.696632	12309.738999
455.070202	12610.282509
455.443713	12899.191036
455.817164	13359.612219
456.190556	13397.567067
456.563888	13760.827572
456.937160	13964.996823
457.310373	13322.900016
457.683526	13413.587853
458.056619	12990.309891
458.429653	13123.966003
458.802628	12607.149432
459.175542	12959.541209
459.548398	13910.343153
459.921194	14238.716353
460.293930	14300.956959
460.666607	15198.357961
461.039224	16226.105558
461.411782	16908.423210
461.784280	16844.776122
462.156719	16883.502266
462.529099	16589.035867
462.901419	15504.948335
463.273680	15314.491022
463.645882	15175.574466
464.018024	14906.623867
464.390106	15133.858918
464.762130	15861.408324
465.134094	16601.333762
465.505999	18555.108552
465.877845	21802.445940
466.249631	24646.307018
466.621358	24383.395722
466.993026	22923.598555
467.364634	22380.895659
467.736184	20942.699837
468.107674	20131.870570
468.479105	20257.226422
468.850477	19720.661130
469.221790	19302.270567
469.593043	18638.774062
469.964238	18080.877128
470.335373	17765.479858
470.706449	18165.450045
471.077467	17711.544553
471.448425	19520.086221
471.819324	23488.532941
472.190164	25601.842606
472.560945	22115.584773
472.931667	19712.343226
473.302330	19063.582014
473.672934	18531.755407
474.043479	18917.708666
474.413965	18728.080623
474.784393	18358.972379
475.154761	19029.634884
475.525070	19044.060146
475.895321	18694.703143
476.265513	19270.609600
476.635645	19858.130875
477.005719	19641.981321
477.375734	19839.902062
477.745691	20317.659774
478.115588	20831.058444
478.485427	21334.783139
478.855207	22379.451368
479.224928	24125.144972
479.594591	26335.958114
479.964194	26428.286847
480.333739	26625.766487
480.703226	26191.854211
481.072653	25854.411976
481.442022	26404.212817
481.811333	27316.144945
482.180584	27258.746367
482.549777	26315.259137
482.918912	25945.198115
483.287988	26070.495994
483.657005	25762.131134
484.025964	25476.862320
484.394864	25411.566775
484.763706	25119.429389
485.132489	24531.645974
485.501213	24715.451484
485.869879	24622.122082
486.238487	24420.604478
486.607036	24581.475259
486.975527	24259.610189
487.343959	24588.056485
487.712333	24549.085846
488.080648	24211.827612
488.448905	24688.483832
488.817104	24422.346197
489.185244	25095.065492
489.553326	25072.929786
489.921350	26047.357098
490.289315	28301.405697
490.657222	30109.589443
491.025070	30613.026793
491.392861	30402.130122
491.760593	29558.258612
492.128267	28661.356684
492.495883	27621.893446
492.863440	26756.876817
493.230939	25871.262032
493.598380	25722.752161
493.965763	25317.221581
494.333088	24881.365940
494.700354	24798.023064
495.067563	24682.852863
495.434713	24426.341311
495.801805	24581.331586
496.168839	24404.520677
496.535815	24224.677513
496.902733	24443.753457
497.269593	24117.396718
497.636395	24304.811695
498.003139	24289.181597
498.369825	24028.629561
498.736453	24213.143353
499.103023	24104.929945
499.469535	24122.233705
499.835989	24317.981709
500.202385	24353.705846
500.568723	23849.910575
500.935003	24115.334886
501.301226	23718.071799
501.667390	24544.493354
502.033497	24785.924294
502.399546	24522.002247
502.765537	24101.408699
503.131470	24472.588857
503.497345	24614.527584
503.863163	23835.379449
504.228923	24446.193375
504.594625	24646.617049
504.960269	24155.293592
505.325856	24648.540249
505.691385	24048.900040
506.056856	24668.110008
506.422270	24622.071671
506.787625	24216.835998
507.152924	24631.443176
507.518164	24642.848787
507.883347	24459.403719
508.248472	24146.708507
508.613540	24936.611945
508.978550	24703.657705
509.343503	24704.124012
509.708398	24967.345339
510.073236	25115.648523
510.438016	25323.800286
510.802738	25010.104406
511.167403	25250.759008
511.532010	24945.509581
511.896561	25741.913586
512.261053	25702.529572
512.625488	25547.808999
512.989866	25430.445896
513.354186	25270.648881
513.718449	25377.932196
514.082655	25751.514464
514.446803	25501.697564
514.810894	25952.202798
515.174927	25441.591887
515.538904	25474.072041
515.902822	25969.466230
516.266684	25715.694545
516.630488	25621.835822
516.994235	25610.084893
517.357925	25899.971403
517.721558	26087.958551
518.085133	26167.845716
518.448651	26100.475736
518.812112	25823.229918
519.175516	26009.563568
519.538863	26175.659504
519.902152	25963.515148
520.265385	26244.385555
520.628560	26028.649376
520.991678	26047.188219
521.354739	26129.742155
521.717743	26190.205754
522.080690	25980.062735
522.443580	26311.886605
522.806413	26311.533724
523.169189	26396.381384
523.531908	26448.237213
523.894569	26053.174589
524.257174	26126.530940
524.619722	26317.754508
524.982213	26006.312023
525.344647	26065.308647
525.707025	26209.314247
526.069345	26182.253334
526.431608	26136.151982
526.793815	26318.440105
527.155964	25783.384638
527.518057	25960.102287
527.880093	25888.366667
528.242072	26113.912932
528.603995	25820.245555
528.965860	25620.131912
529.327669	25673.550499
529.689421	25664.083212
530.051117	25492.290771
530.412755	25670.117473
530.774337	25462.154754
531.135862	25336.193963
531.497331	25542.682145
531.858743	25082.961682
532.220098	25575.021147
532.581396	25254.434009
532.942638	25196.185997
533.303824	25283.738237
533.664953	25307.025847
534.026025	24956.388391
534.387040	25205.396185
534.747999	25263.399702
535.108902	25437.967298
535.469748	24919.187196
535.830537	25102.891884
536.191270	25227.340328
536.551947	25096.971048
536.912567	24746.948613
537.273131	25092.416366
537.633638	24801.985411
537.994089	25014.046588
538.354483	24551.059457
538.714821	25045.258892
539.075103	25093.172539
539.435328	24882.384253
539.795497	24436.007724
540.155609	24845.782955
540.515665	25125.851819
540.875665	24373.484813
541.235609	24658.597351
541.595496	24620.725683
541.955328	24982.884696
542.315102	24893.613423
542.674821	24449.192862
543.034483	24326.770961
543.394090	24488.954963
543.753640	24280.987202
544.113134	24914.201495
544.472571	24521.530899
544.831953	24807.313910
545.191278	24417.693212
545.550548	24356.105435
545.909761	24549.952924
546.268918	24778.816267
546.628019	24742.262861
546.987064	24453.356855
547.346053	24203.613052
547.704986	24329.004192
548.063863	24487.495548
548.422684	24490.308512
548.781449	24032.876733
549.140158	24432.176447
549.498811	24004.303473
549.857408	23746.758485
550.215949	24180.945504
550.574434	23861.109498
550.932864	24088.989816
551.291237	24233.784358
551.649555	24103.820891
552.007817	24155.454909
552.366022	24031.437483
552.724173	24064.658687
553.082267	24004.371528
553.440305	24473.607170
553.798288	23739.625252
554.156215	24254.105249
554.514086	24361.103739
554.871902	23713.302867
555.229661	24014.375698
555.587365	23861.076730
555.945014	23719.964752
556.302606	23985.810000
556.660143	23930.221197
557.017625	24180.849722
557.375050	23707.697104
557.732421	24104.476241
558.089735	23912.763681
558.446994	23979.478311
558.804197	23988.307892
559.161345	23945.659730
559.518437	23710.411765
559.875474	23906.152207
560.232455	24086.774229
560.589381	23893.745928
560.946251	23882.486511
561.303065	24209.879206
561.659825	24299.016888
562.016528	23891.948757
562.373177	23638.242607
562.729770	23997.734849
563.086307	23856.814435
563.442789	24019.258056
563.799216	23858.407439
564.155587	23864.910528
564.511904	23838.860365
564.868164	23772.294449
565.224370	23754.468929
565.580520	23668.754191
565.936615	23802.516167
566.292654	23483.234688
566.648638	23785.625781
567.004567	23609.182876
567.360441	23557.170771
567.716260	23283.345376
568.072023	23615.958186
568.427732	23368.039281
568.783385	23156.799812
569.138982	23389.880080
569.494525	23435.873048
569.850013	23163.295338
570.205445	23268.060598
570.560823	23074.170259
570.916145	22824.804543
571.271412	23014.203213
571.626625	22755.904573
571.981782	22886.621692
572.336884	22685.903110
572.691931	22824.938133
573.046923	22549.625598
573.401860	22440.426644
573.756743	22447.854785
574.111570	22349.466585
574.466342	22287.281432
574.821059	22366.233463
575.175722	22076.989699
575.530330	22059.741391
575.884882	22092.861772
576.239380	21988.366214
576.593823	21876.326570
576.948211	21862.009693
577.302544	21710.011343
577.656823	21572.193759
578.011047	21665.729848
578.365216	21543.149151
578.719330	21419.537538
579.073389	21314.063997
579.427394	21482.486426
579.781344	21236.372254
580.135239	21122.570727
580.489080	21093.599215
580.842866	20866.434741
581.196597	21058.288453
581.550273	21026.808968
581.903895	20913.418295
582.257463	21230.915205
582.610975	20764.855491
582.964434	21073.386709
583.317837	20768.512848
583.671186	20872.252232
584.024481	20830.450985
584.377721	20610.568457
584.730906	20678.291317
585.084037	20688.121567
585.437113	20606.981676
585.790135	20806.024074
586.143103	20260.034345
586.496016	20282.764907
586.848874	20519.381545
587.201679	20451.293201
587.554428	20134.650766
587.907124	20462.804676
588.259765	20232.204655
588.612352	20314.113323
588.964884	19884.491068
589.317362	20060.450023
589.669786	20107.625140
590.022155	20140.218721
590.374470	20322.605146
590.726731	20133.287134
591.078937	19896.085722
591.431090	19993.226236
591.783188	19742.441435
592.135232	19708.693431
592.487222	19808.016764
592.839157	19835.526341
593.191038	19714.352126
593.542866	19603.066134
593.894639	19307.273912
594.246358	19537.606752
594.598022	19434.260577
594.949633	19192.592703
595.301190	19158.930398
595.652692	19322.445264
596.004141	19560.826306
596.355535	18888.989212
596.706876	18908.029651
597.058162	18797.209966
597.409395	19028.140182
597.760573	19107.303942
598.111698	18870.157982
598.462768	18822.108224
598.813785	18778.141801
599.164748	18596.110777
599.515657	18625.959449
599.866511	18427.481660
600.217312	18792.955232
600.568060	18316.856060
600.918753	18616.802193
601.269392	18518.887862
601.619978	18301.692269
601.970510	18520.511113
602.320988	18454.335887
602.671412	18659.906579
603.021783	18584.954703
603.372100	18303.807033
603.722363	18433.031971
604.072572	18383.709321
604.422728	18528.617289
604.772830	18282.119989
605.122878	18237.266323
605.472872	18223.511534
605.822813	18210.132312
606.172701	18188.094908
606.522534	18383.399290
606.872314	18402.071724
607.222041	18229.949088
607.571714	18452.238767
607.921333	18284.953117
608.270899	18351.826544
608.620411	18535.349750
608.969870	18311.905647
609.319276	18308.724678
609.668627	18338.326334
610.017926	18468.524214
610.367171	18582.671061
610.716362	18631.729049
611.065500	18442.920194
611.414585	18586.162060
611.763616	18561.036949
612.112594	18505.586777
612.461518	18470.081931
612.810389	18669.452004
613.159207	18523.281227
613.507971	18440.702086
613.856682	18713.045382
614.205340	18639.552920
614.553945	18786.563049
614.902496	18523.132513
615.250994	18764.326519
615.599439	18705.713023
615.947830	18686.879272
616.296169	18732.547085
616.644454	18705.556748
616.992686	18686.730558
617.340864	18886.753461
617.688990	18652.380136
618.037063	18819.081012
618.385082	18672.320420
618.733048	18959.890521
619.080961	18815.549683
619.428821	18862.903762
619.776628	18742.495802
620.124382	18680.149332
620.472083	18711.719558
620.819731	18733.361232
621.167326	18424.358665
621.514868	18466.273339
621.862357	18238.327486
622.209793	18254.005474
622.557176	18071.767762
622.904506	17899.292245
623.251783	17814.424420
623.599007	17578.069922
623.946179	17517.414759
624.293297	17467.719065
624.640363	17212.563583
624.987376	17236.801451
625.334336	17028.037188
625.681243	16874.193775
626.028097	16881.067389
626.374899	16807.121223
626.721647	16668.991088
627.068343	16499.502454
627.414987	16436.092300
627.761577	16416.769558
628.108115	16447.132427
628.454600	16176.119997
628.801032	16271.833864
629.147412	16208.234667
629.493739	16219.128601
629.840014	16028.477203
630.186236	16136.143647
630.532405	15897.261010
630.878521	16084.539875
631.224585	15980.944164
631.570597	15803.281299
631.916556	15846.438617
632.262462	15816.738659
632.608316	15733.484004
632.954117	15685.058680
633.299866	15676.463512
633.645562	15595.837818
633.991206	15352.841600
634.336797	15217.899994
634.682336	15188.996538
635.027823	15071.099073
635.373257	14960.070181
635.718639	14856.177041
636.063968	14806.478826
636.409245	14555.305856
636.754470	14582.896091
637.099642	14428.999746
637.444762	14202.745200
637.789829	14249.025513
638.134845	14087.101131
638.479808	14115.003917
638.824719	14059.957038
639.169577	13906.801743
639.514383	13954.596923
639.859137	13775.920786
640.203839	13871.029715
640.548489	13690.692519
640.893086	13684.917877
641.237632	13558.568917
641.582125	13704.059138
641.926566	13540.347667
642.270955	13551.488617
642.615292	13515.729192
642.959576	13520.031817
643.303809	13554.203278
643.647990	13477.348367
643.992118	13541.527297
644.336195	13315.547493
644.680219	13531.089588
645.024192	13451.106641
645.368112	13689.061705
645.711981	13744.965581
646.055797	13923.223302
646.399562	13895.023087
646.743274	14167.918389
647.086935	14446.341316
647.430544	14403.330191
647.774101	14433.161219
648.117606	14584.763838
648.461059	14552.782758
648.804460	14545.009299
649.147810	14271.307413
649.491108	14162.254652
649.834354	14190.603581
650.177548	13876.196898
650.520690	13683.234132
650.863781	13611.228811
651.206820	13660.375019
651.549807	13486.568638
651.892742	13277.368315
652.235626	13219.889079
652.578458	13225.711611
652.921238	12916.545208
653.263967	13117.248666
653.606644	12942.222325
653.949269	12923.794387
654.291843	12720.257800
654.634365	12874.076007
654.976836	12731.371024
655.319255	12738.544586
655.661622	12688.062471
656.003938	12615.096811
656.346203	12540.167620
656.688416	12618.353396
657.030577	12569.365983
657.372687	12483.376502
657.714746	12465.225827
658.056753	12659.809325
658.398708	12467.459058
658.740612	12471.789410
659.082465	12571.508474
659.424266	12546.191799
659.766016	12562.328533
660.107715	12471.232362
660.449362	12549.329917
660.790958	12515.055113
661.132503	12450.767798
661.473996	12513.625945
661.815438	12531.920293
662.156829	12551.772357
662.498168	12521.512831
662.839456	12529.346784
663.180693	12544.618959
663.521879	12643.097900
663.863013	12615.807613
664.204097	12575.319586
664.545129	12714.110113
664.886110	12682.300432
665.227040	12778.168055
665.567918	12780.272737
665.908746	12808.515801
666.249522	12791.176753
666.590248	12837.691479
666.930922	12958.603554
667.271545	12942.446656
667.612118	13015.399714
667.952639	12918.649889
668.293109	12943.664095
668.633528	12882.560269
668.973896	12864.492774
669.314213	12950.540229
669.654480	12685.040300
669.994695	12748.692429
670.334859	12780.779373
670.674973	12724.295765
671.015035	12757.307761
671.355047	12694.517669
671.695008	12671.444308
672.034918	12679.149711
672.374777	12714.278992
672.714585	12635.750418
673.054342	12671.557734
673.394049	12619.686781
673.733705	12716.166904
674.073310	12619.338942
674.412864	12635.054739
674.752368	12502.283349
675.091820	12532.936085
675.431223	12505.779389
675.770574	12381.797252
676.109875	12300.768265
676.449125	12262.944488
676.788324	12207.577495
677.127473	12029.531503
677.466571	12034.005527
677.805619	11926.210535
678.144616	11847.558452
678.483562	11821.788074
678.822458	11688.794874
679.161303	11666.283601
679.500098	11649.920016
679.838842	11603.107861
680.177535	11626.531583
680.516179	11700.714682
680.854771	11639.504992
681.193314	11855.972138
681.531805	12014.730676
681.870247	12433.338009
682.208638	12848.345958
682.546978	13156.189059
682.885268	13202.161861
683.223508	12892.692988
683.561697	12732.928741
683.899836	12646.513281
684.237925	12435.188112
684.575963	12356.778005
684.913951	12278.970316
685.251889	12229.567008
685.589776	12320.411121
685.927614	12242.442115
686.265401	12212.893392
686.603137	12262.773089
686.940824	12411.734144
687.278460	12541.294318
687.616046	12593.964294
687.953582	12757.814397
688.291068	12675.401613
688.628504	12917.374477
688.965889	12920.237853
689.303224	12891.578893
689.640510	12784.872790
689.977745	12473.221097
690.314930	12247.435378
690.652065	12153.460709
690.989150	11863.977490
691.326185	11636.467697
691.663170	11436.442274
692.000105	11188.815756
692.336990	11072.533981
692.673825	10816.140896
693.010610	10703.277023
693.347345	10493.635599
693.684030	10301.237442
694.020665	10240.057999
694.357251	10041.923009
694.693786	9979.846240
695.030272	9821.889246
695.366707	9699.699239
695.703093	9635.880752
696.039429	9631.512592
696.375716	9553.513339
696.711952	9420.568030
697.048139	9465.845153
697.384276	9419.625334
697.720363	9437.831461
698.056400	9369.622129
698.392388	9322.878030
698.728326	9286.238924
699.064214	9221.016475
699.400053	9262.106920
699.735842	9078.714785
700.071581	9034.818938
700.407270	8962.082649
700.742910	8882.046770
701.078501	8792.846073
701.414042	8667.979213
701.749533	8602.487063
702.084974	8466.302813
702.420366	8576.646108
702.755709	8460.119837
703.091002	8324.893406
703.426246	8355.115123
703.761440	8310.092578
704.096584	8261.286647
704.431679	8194.808952
704.766725	8182.332096
705.101721	8133.561453
705.436668	8175.161054
705.771565	8065.783139
706.106413	8149.937641
706.441212	8195.355917
706.775961	8154.439392
707.110661	8182.478289
707.445311	8324.606060
707.779913	8228.201555
708.114465	8356.052778
708.448967	8396.986947
708.783421	8538.698823
709.117825	8725.105569
709.452180	8759.345086
709.786485	8843.063527
710.120742	9130.885686
710.454949	9128.697825
710.789107	9224.784738
711.123216	9438.978324
711.457275	9607.206669
711.791286	9768.836143
712.125247	9764.808261
712.459159	9753.309389
712.793023	10001.167801
713.126837	9567.971368
713.460602	9726.923990
713.794318	9549.296414
714.127985	9581.401002
714.461602	9256.828832
714.795171	9211.271925
715.128691	8957.359088
715.462162	8709.674597
715.795584	8657.481010
716.128957	8505.770006
716.462281	8337.140889
716.795556	8383.186788
717.128782	8174.800612
717.461960	7917.270747
717.795088	7989.666757
718.128167	7895.319043
718.461198	7726.266469
718.794180	7669.276225
719.127113	7660.129051
719.459997	7509.559868
719.792833	7272.953312
720.125619	7335.730801
720.458357	7196.196704
720.791046	7182.636000
721.123686	7186.565579
721.456278	7026.778647
721.788821	7042.504526
722.121315	6939.188598
722.453761	6999.251426
722.786158	6942.961902
723.118506	6958.491177
723.450805	6922.323418
723.783056	6990.338666
724.115259	6896.016157
724.447412	6896.195118
724.779518	6942.558610
725.111574	6945.114475
725.443582	7026.728235
725.775542	7009.840370
726.107453	7199.725512
726.439315	7108.284022
726.771129	7171.709299
727.102895	7342.901842
727.434612	7452.408307
727.766281	7485.135478
728.097901	7562.134062
728.429473	7555.381436
728.760996	7534.473250
729.092471	7506.280598
729.423897	7453.172042
729.755276	7463.491284
730.086606	7388.945221
730.417887	7491.542784
730.749120	7688.712393
731.080305	7888.558855
731.411442	8004.313830
731.742530	7999.842327
732.073570	8105.610775
732.404562	8191.222171
732.735506	8035.813480
733.066401	8180.792023
733.397249	8111.561858
733.728048	7874.388172
734.058798	7536.371245
734.389501	7311.923952
734.720156	7131.211190
735.050762	6904.039153
735.381320	6804.032743
735.711831	6757.407111
736.042293	6646.781511
736.372707	6664.009654
736.703073	6528.657194
737.033391	6566.372586
737.363661	6575.486993
737.693883	6610.134843
738.024056	6690.848757
738.354182	6730.414253
738.684260	6766.186281
739.014290	6883.519137
739.344272	6997.590366
739.674207	7021.099787
740.004093	7093.863801
740.333931	7101.460820
740.663722	7113.052953
740.993464	7187.563728
741.323159	7182.232708
741.652806	6925.058244
741.982405	6945.847963
742.311956	7002.056828
742.641460	6837.125398
742.970915	6643.547611
743.300323	6634.997814
743.629683	6580.364309
743.958996	6444.558145
744.288260	6359.397933
744.617477	6307.143853
744.946647	6311.945552
745.275768	6144.128061
745.604842	6096.264826
745.933869	6082.472229
746.262847	6040.676022
746.591778	6030.147572
746.920662	5986.458412
747.249498	5979.662937
747.578286	6022.684144
747.907027	6102.893943
748.235720	6165.810063
748.564365	6132.404858
748.892963	6161.943498
749.221514	6313.346992
749.550017	6145.463967
749.878473	6027.198497
750.206881	6079.225726
750.535242	6022.013671
750.863555	5950.008350
751.191821	5970.994673
751.520039	5966.729857
751.848210	5876.367174
752.176334	5901.819960
752.504411	5947.812927
752.832440	5876.132761
753.160421	5803.204908
753.488356	5854.687692
753.816243	5882.474532
754.144082	5733.924331
754.471875	5705.265372
754.799620	5749.463688
755.127318	5761.660760
755.454969	5711.211412
755.782572	5683.190159
756.110129	5723.622733
756.437638	5706.291246
756.765100	5646.719931
757.092515	5645.815044
757.419882	5699.442839
757.747203	5677.788562
758.074477	5743.976392
758.401703	5729.621706
758.728882	5679.406773
759.056014	5737.448098
759.383099	5865.503488
759.710138	5878.774325
760.037129	5863.887798
760.364073	5864.444845
760.690970	5953.194359
761.017820	5930.383138
761.344623	5885.254728
761.671379	5990.622406
761.998088	6106.415189
762.324751	6354.374423
762.651366	6957.813141
762.977935	8271.880632
763.304456	9913.093802
763.630931	10813.471605
763.957359	10402.478935
764.283740	9458.381725
764.610074	8623.974981
764.936362	7620.273689
765.262602	7028.679162
765.588796	6496.441700
765.914943	6157.310678
766.241044	5990.019988
766.567097	5787.206807
766.893104	5532.046284
767.219064	5352.336711
767.544978	5288.301455
767.870845	5212.817737
768.196665	5104.316983
768.522438	5037.488927
768.848165	4999.455942
769.173846	4930.077062
769.499479	4889.717585
769.825066	4839.411910
770.150607	4777.892189
770.476101	4755.423767
770.801548	4749.056789
771.126949	4674.067105
771.452303	4620.136842
771.777611	4574.668154
772.102872	4594.595836
772.428087	4559.756421
772.753256	4518.154299
773.078378	4474.639059
773.403453	4404.430910
773.728482	4387.190163
774.053465	4343.049820
774.378401	4334.749561
774.703291	4327.500381
775.028135	4255.926079
775.352932	4212.131055
775.677683	4199.563458
776.002388	4217.535172
776.327046	4227.241914
776.651658	4150.875995
776.976224	4093.016151
777.300743	4098.561421
777.625216	4117.531282
777.949643	4110.256898
778.274024	4067.386925
778.598359	4023.231459
778.922647	4044.391702
779.246889	4041.404818
779.571086	4027.818909
779.895236	4019.304400
780.219339	4002.703880
780.543397	3996.014269
780.867409	4047.900345
781.191374	4064.021955
781.515294	4001.236904
781.839167	3996.019310
782.162995	4015.402547
782.486776	3999.275896
782.810511	4008.092874
783.134201	4006.842667
783.457844	3962.102427
783.781441	3904.731576
784.104993	3912.573091
784.428498	3929.675205
784.751958	3928.422478
785.075372	3907.388264
785.398739	3870.471894
785.722061	3883.936816
786.045337	3922.136159
786.368568	3956.736119
786.691752	3870.910475
787.014891	3920.744801
787.337983	4045.783060
787.661030	4205.683419
787.984031	4373.374881
788.306987	4541.522568
788.629897	4622.793530
788.952760	4578.721242
789.275579	4509.158360
789.598351	4443.963638
789.921078	4306.834171
790.243759	4102.682564
790.566395	4086.026592
790.888984	4081.497115
791.211529	3968.834888
791.534027	3913.697268
791.856480	3900.272675
792.178888	3839.425948
792.501249	3791.905512
792.823566	3800.180566
793.145836	3828.189216
793.468062	3778.712812
793.790241	3733.876790
794.112375	3765.313425
794.434464	3826.155111
794.756507	3854.022609
795.078505	3834.140298
795.400457	3861.798589
795.722364	4002.590454
796.044226	4110.597175
796.366042	4181.737938
796.687812	4160.706245
797.009538	4167.983150
797.331218	4126.433960
797.652852	4098.881534
797.974442	4077.917896
798.295986	4080.662804
798.617484	3997.844208
798.938938	3907.332811
799.260346	3952.458700
799.581709	3946.484932
799.903026	3873.794015
800.224299	3838.667255
800.545526	3830.339268
800.866708	3790.299904
801.187845	3733.823858
801.508936	3768.191924
801.829983	3764.688322
802.150984	3686.621013
802.471940	3674.066020
802.792851	3688.098072
803.113717	3683.555992
803.434538	3686.537834
803.755314	3629.625728
804.076045	3605.440792
804.396731	3623.810757
804.717372	3651.040550
805.037967	3637.484887
805.358518	3626.185141
805.679024	3653.684635
805.999485	3665.909433
806.319901	3670.103673
806.640272	3682.053728
806.960598	3697.056202
807.280879	3670.481759
807.601115	3683.130014
807.921306	3696.589895
808.241453	3741.073037
808.561554	3716.600755
808.881611	3650.775889
809.201623	3688.347609
809.521590	3699.055019
809.841513	3672.425124
810.161390	3701.063919
810.481223	3675.485105
810.801011	3622.714306
811.120755	3615.472689
811.440453	3651.045591
811.760107	3651.932834
812.079716	3612.755507
812.399281	3579.047832
812.718801	3601.191100
813.038276	3577.522882
813.357707	3575.408118
813.677093	3591.648196
813.996434	3539.769681
814.315731	3547.631361
814.634983	3552.755694
814.954191	3566.462591
815.273354	3596.404524
815.592473	3587.771548
815.911547	3599.333435
816.230577	3639.113180
816.549562	3688.352650
816.868502	3730.894947
817.187399	3755.168103
817.506250	3751.261209
817.825058	3724.404462
818.143821	3819.866271
818.462539	3919.925613
818.781213	3966.052171
819.099843	4022.170296
819.418429	4271.213378
819.736970	4511.754554
820.055466	4757.165485
820.373919	5127.836487
820.692327	5532.167272
821.010691	5983.411035
821.329011	7372.339660
821.647286	10136.868100
821.965517	14710.172623
822.283704	18742.601667
822.601847	20888.615818
822.919945	19053.910561
823.237999	16472.832230
823.556010	13972.873626
823.873976	11875.347813
824.191897	9777.244788
824.509775	8431.012215
824.827609	7297.546581
825.145398	6758.649756
825.463144	6641.944524
825.780845	6753.195227
826.098502	6949.434744
826.416116	7835.505752
826.733685	9164.759719
827.051210	10275.071333
827.368692	10309.971241
827.686129	9041.185915
828.003522	7530.031994
828.320872	6514.355440
828.638177	5807.994005
828.955439	5246.051544
829.272656	4747.975462
829.589830	4466.275785
829.906960	4290.226090
830.224046	4105.888738
830.541088	3979.401147
830.858086	3933.360288
831.175041	3853.934389
831.491952	3840.320753
831.808819	3851.411292
832.125642	3923.688835
832.442421	4070.280547
832.759157	4352.126418
833.075849	4902.575048
833.392497	5773.762049
833.709101	6550.719804
834.025662	6885.820423
834.342179	6520.435072
834.658653	5843.972720
834.975083	5201.200398
835.291469	4619.274804
835.607811	4214.482753
835.924110	4075.082247
836.240366	3877.378275
836.556578	3672.530988
836.872746	3557.680901
837.188871	3524.507588
837.504952	3453.850776
837.820990	3370.709546
838.136984	3329.049451
838.452935	3352.533666
838.768842	3348.883870
839.084706	3368.378012
839.400526	3529.268958
839.716303	3869.047768
840.032037	4402.565683
840.347727	4656.705372
840.663373	4376.916292
840.978977	3993.677694
841.294537	3687.455324
841.610054	3458.884368
841.925527	3351.099458
842.240957	3280.636730
842.556344	3226.698904
842.871687	3171.183197
843.186987	3117.373921
843.502244	3082.305134
843.817458	3045.958415
844.132629	3019.525125
844.447756	3025.146012
844.762840	3012.240658
845.077881	2980.544403
845.392879	2960.357102
845.707833	2957.123202
846.022745	2954.940383
846.337613	2956.598922
846.652438	2945.286573
846.967221	2940.802467
847.281960	2927.309818
847.596656	2924.189344
847.911309	2926.616660
848.225919	2919.596853
848.540485	2912.589649
848.855009	2913.144176
849.169490	2901.579769
849.483928	2895.351423
849.798323	2891.875548
850.112675	2887.688870
850.426984	2901.743607
850.741251	2898.882752
851.055474	2888.586195
851.369654	2882.015051
851.683792	2885.614435
851.997887	2896.044582
852.311938	2897.992988
852.625947	2887.262892
852.939914	2890.910167
853.253837	2896.538615
853.567718	2879.905328
853.881555	2880.840462
854.195350	2897.246897
854.509103	2889.967471
854.822812	2880.590925
855.136479	2876.714278
855.450103	2881.699979
855.763685	2875.012888
856.077224	2868.477032
856.390720	2885.286760
856.704173	2892.447719
857.017584	2887.020917
857.330953	2884.538148
857.644278	2894.691032
857.957561	2901.254615
858.270802	2901.095818
858.584000	2903.518093
858.897155	2888.074518
859.210268	2893.957544
859.523339	2886.468910
859.836367	2887.434291
860.149352	2884.006307
860.462295	2877.341901
860.775195	2885.301883
861.088054	2883.693755
861.400869	2867.635160
861.713642	2864.295395
862.026373	2882.294835
862.339062	2883.061090
862.651708	2889.465876
862.964312	2893.733213
863.276873	2885.553941
863.589392	2893.725651
863.901869	2907.271232
864.214303	2929.401897
864.526696	2944.739608
864.839045	2942.524021
865.151353	2940.043773
865.463619	2937.813062
865.775842	2940.714246
866.088023	2958.708645
866.400162	2967.732310
866.712258	2938.352466
867.024313	2926.551125
867.336325	2934.528751
867.648296	2954.590022
867.960224	2949.256482
868.272110	2935.189142
868.583954	2937.601334
868.895755	2954.814354
869.207515	2941.064607
869.519233	2946.468723
869.830909	2956.097327
870.142542	2962.789459
870.454134	2964.667289
870.765684	2965.158801
871.077191	2965.640232
871.388657	2974.883187
871.700081	2988.658140
872.011463	2999.426045
872.322803	3000.615757
872.634101	2999.163905
872.945357	3015.494723
873.256571	3040.970193
873.567744	3035.442568
873.878874	3027.424613
874.189963	3052.002759
874.501010	3052.272460
874.812015	3042.820297
875.122979	3042.578322
875.433900	3039.488094
875.744780	3044.007489
876.055618	3056.146587
876.366415	3050.235834
876.677169	3060.355951
876.987882	3056.312945
877.298554	3050.855896
877.609183	3075.575194
877.919771	3096.929522
878.230317	3123.587143
878.540822	3176.413394
878.851285	3215.555433
879.161707	3257.092021
879.472087	3361.189327
879.782425	3590.070314
880.092722	4031.793858
880.402977	4561.777924
880.713191	5190.298903
881.023363	6361.404312
881.333494	7639.810681
881.643583	8189.878703
881.953631	7883.525263
882.263637	7253.489417
882.573602	6660.914386
882.883526	6079.382001
883.193408	5510.379405
883.503248	5046.704157
883.813048	4740.746447
884.122806	4440.853246
884.432522	4121.566726
884.742197	3884.859347
885.051831	3692.541849
885.361424	3554.890622
885.670975	3484.664829
885.980485	3396.366498
886.289954	3320.141732
886.599382	3275.593055
886.908768	3239.069896
887.218113	3190.810930
887.527417	3135.844709
887.836680	3088.556165
888.145901	3078.451172
888.455082	3072.152251
888.764221	3019.192409
889.073319	2989.931031
889.382376	2988.464056
889.691392	2991.380363
890.000366	2990.730054
890.309300	2980.715802
890.618193	2992.814571
890.927044	3008.404340
891.235855	3007.290245
891.544625	2996.209788
891.853353	3004.671365
892.162041	3027.641383
892.470687	3063.274779
892.779293	3117.663787
893.087858	3162.252793
893.396381	3235.881366
893.704864	3358.736806
894.013306	3602.569855
894.321707	3900.902819
894.630068	4108.878142
894.938387	4101.278603
895.246665	4059.568096
895.554903	3936.483283
895.863100	3733.496183
896.171256	3568.022828
896.479371	3427.591405
896.787446	3302.729586
897.095480	3199.186807
897.403473	3134.667599
897.711425	3100.102928
898.019336	3088.440219
898.327207	3064.247721
898.635038	3024.205836
898.942827	3013.314423
899.250576	2998.758092
899.558284	2967.818010
899.865952	2951.068776
900.173579	2927.728234
900.481165	2918.621390
900.788711	2906.257960
901.096216	2882.509084
901.403681	2871.327805
901.711105	2879.141593
902.018489	2878.145965
902.325832	2874.468444
902.633135	2885.879095
902.940397	2918.094589
903.247619	3002.675068
903.554800	3197.603885
903.861941	3539.631050
904.169041	3975.930312
904.476101	4271.004170
904.783121	4226.405082
905.090100	3984.467506
905.397039	3703.980227
905.703938	3454.266671
906.010796	3270.836727
906.317614	3155.497647
906.624391	3061.338976
906.931129	2988.879951
907.237826	2929.167483
907.544483	2879.759135
907.851099	2849.739063
908.157675	2829.723162
908.464211	2807.680717
908.770707	2795.166052
909.077163	2780.534103
909.383578	2765.624891
909.689954	2756.697007
909.996289	2757.763212
910.302584	2755.378746
910.608839	2758.310177
910.915054	2748.719382
911.221229	2743.176633
911.527363	2745.641757
911.833458	2753.364805
912.139513	2758.489138
912.445527	2760.102307
912.751502	2771.787702
913.057436	2777.378341
913.363331	2794.462812
913.669186	2812.943682
913.975000	2846.333764
914.280775	2909.736356
914.586510	2979.311841
914.892205	3060.890313
915.197859	3190.828574
915.503475	3384.426526
915.809050	3599.764453
916.114585	3748.720467
916.420081	3767.128240
916.725536	3708.116493
917.030952	3584.837597
917.336328	3455.383287
917.641665	3321.510405
917.946961	3226.759398
918.252218	3151.850372
918.557435	3073.442786
918.862612	3016.785258
919.167750	2965.194089
919.472848	2923.155908
919.777906	2897.735889
920.082925	2874.823845
920.387904	2841.199349
920.692843	2826.718634
920.997743	2813.783034
921.302603	2799.705612
921.607423	2790.651699
921.912204	2778.358846
922.216946	2764.828389
922.521647	2757.007038
922.826310	2750.763569
923.130932	2739.854512
923.435516	2733.961404
923.740059	2725.358675
924.044564	2718.608570
924.349028	2713.098588
924.653454	2707.316385
924.957840	2701.529140
925.262186	2695.915816
925.566493	2690.715865
925.870761	2687.335772
926.174989	2684.101872
926.479178	2679.441325
926.783328	2674.163237
927.087438	2673.260870
927.391509	2672.509738
927.695541	2667.014881
927.999533	2663.907009
928.303486	2662.124961
928.607400	2662.470280
928.911275	2663.032369
929.215110	2659.117913
929.518906	2659.435506
929.822663	2659.743016
930.126381	2656.241935
930.430060	2658.586071
930.733699	2659.367450
931.037299	2662.593789
931.340861	2661.542708
931.644383	2662.944149
931.947866	2659.594302
932.251309	2659.052378
932.554714	2659.750578
932.858080	2659.306956
933.161407	2655.137922
933.464694	2654.908550
933.767943	2650.928559
934.071153	2651.974598
934.374323	2652.992911
934.677455	2650.726912
934.980548	2651.243631
935.283602	2648.786068
935.586617	2648.987714
935.889593	2652.209012
936.192530	2650.235400
936.495428	2650.283291
936.798287	2651.629279
937.101108	2657.053561
937.403890	2658.787717
937.706632	2665.600837
938.009336	2672.192146
938.312002	2681.135152
938.614628	2689.884075
938.917216	2696.493028
939.219765	2694.418593
939.522275	2692.616380
939.824747	2692.513037
940.127179	2692.124868
940.429573	2683.517098
940.731929	2685.314269
941.034246	2681.969463
941.336524	2678.571726
941.638763	2676.797240
941.940964	2673.381858
942.243126	2670.001764
942.545250	2671.743483
942.847335	2669.893379
943.149381	2666.719973
943.451389	2659.546411
943.753359	2656.609939
944.055290	2657.061122
944.357182	2656.453663
944.659036	2653.466780
944.960851	2656.299908
945.262628	2652.186327
945.564367	2654.669095
945.866067	2651.162972
946.167729	2651.142808
946.469352	2652.183806
946.770937	2654.147335
947.072484	2649.877478
947.373992	2651.435195
947.675462	2649.517036
947.976893	2647.432518
948.278286	2645.680717
948.579641	2644.344812
948.880958	2643.601242
949.182236	2644.712816
949.483476	2644.412867
949.784678	2642.688793
950.085841	2644.475882
950.386967	2645.264822
950.688054	2645.295069
950.989103	2645.433701
951.290114	2644.944709
951.591087	2649.146511
951.892021	2652.748415
952.192917	2653.318066
952.493776	2654.560710
952.794596	2656.420896
953.095378	2654.248158
953.396122	2654.112047
953.696828	2652.367808
953.997496	2651.261275
954.298126	2651.664567
954.598718	2648.355050
954.899272	2644.985038
955.199788	2642.033443
955.500266	2640.092598
955.800706	2638.010602
956.101108	2636.460447
956.401472	2636.790643
956.701798	2631.724283
957.002087	2626.753705
957.302337	2630.635394
957.602550	2626.995681
957.902724	2628.616412
958.202861	2625.175824
958.502960	2622.594753
958.803022	2623.955865
959.103045	2623.819754
959.403031	2620.419496
959.702979	2620.162397
960.002889	2620.013683
960.302762	2621.273971
960.602596	2620.711882
960.902393	2620.883282
961.202153	2618.350102
961.501875	2619.121398
961.801559	2619.386059
962.101205	2616.510081
962.400814	2618.725668
962.700385	2617.213322
962.999918	2614.735595
963.299414	2614.715430
963.598873	2613.477827
963.898293	2612.446911
964.197677	2617.160390
964.497022	2617.888836
964.796331	2614.125615
965.095601	2613.923969
965.394835	2615.670729
965.694030	2618.919752
965.993189	2615.070831
966.292309	2613.497991
966.591393	2617.659464
966.890439	2614.556634
967.189447	2615.839607
967.488419	2615.040584
967.787353	2615.522015
968.086249	2614.360029
968.385108	2614.624689
968.683930	2614.307097
968.982714	2612.968670
969.281462	2614.685183
969.580172	2612.739298
969.878844	2614.707868
970.177480	2613.646705
970.476078	2616.520163
970.774639	2615.829525
971.073162	2614.130656
971.371649	2617.437653
971.670098	2614.281891
971.968510	2615.471603
972.266885	2616.570575
972.565223	2618.458487
972.863524	2620.573251
973.161788	2615.068311
973.460014	2614.624689
973.758204	2616.245420
974.056356	2613.588732
974.354471	2615.277519
974.652550	2614.042436
974.950591	2615.736264
975.248595	2619.686008
975.546563	2615.113681
975.844493	2616.898250
976.142386	2613.545882
976.440243	2612.346088
976.738062	2613.258537
977.035845	2613.984463
977.333590	2616.482354
977.631299	2612.986314
977.928971	2610.193515
978.226606	2612.028495
978.524204	2610.470778
978.821765	2608.333329
979.119290	2613.961777
979.416777	2614.009668
979.714228	2615.602673
980.011642	2613.971860
980.309020	2613.518156
980.606360	2613.780296
980.903664	2612.751901
981.200931	2616.721809
981.498162	2616.358846
981.795356	2616.628548
982.092513	2619.885133
982.389633	2620.238014
982.686717	2622.856893
982.983764	2627.252780
983.280775	2631.683954
983.577749	2629.959879
983.874686	2631.328552
984.171587	2628.311422
984.468451	2626.431072
984.765279	2623.837398
985.062070	2621.722634
985.358824	2618.839094
985.655543	2618.347581
985.952224	2617.961933
986.248869	2613.843310
986.545478	2613.934051
986.842050	2614.193671
987.138586	2611.935234
987.435086	2612.865327
987.731549	2612.978753
988.027975	2612.424226
988.324366	2611.458845
988.620719	2608.446755
988.917037	2610.690069
989.213318	2608.295521
989.509563	2610.558999
989.805772	2613.745008
990.101944	2608.963473
990.398080	2608.658484
990.694180	2610.979935
990.990244	2609.049173
991.286271	2607.672938
991.582262	2608.817280
991.878217	2611.968001
992.174136	2609.744852
992.470019	2611.005141
992.765865	2607.274687
993.061676	2607.025150
993.357450	2607.085644
993.653188	2606.934409
993.948890	2609.250819
994.244556	2610.233844
994.540186	2611.237034
994.835780	2612.653598
995.131337	2610.203597
995.426859	2609.618823
995.722345	2612.640995
996.017795	2612.154524
996.313208	2614.604525
996.608586	2611.799123
996.903928	2614.140738
997.199234	2616.048815
997.494504	2615.491768
997.789738	2615.862292
998.084936	2612.885491
998.380099	2611.932713
998.675225	2611.423557
998.970316	2612.613269
999.265371	2613.006479
999.560390	2611.032867
999.855373	2611.214349
1000.150320	2611.053032
1000.445232	2609.812908
1000.740108	2608.396344
1001.034948	2609.409616
1001.329752	2611.796602
1001.624521	2608.116560
1001.919254	2606.261415
1002.213951	2609.127311
1002.508613	2607.012547
1002.803239	2608.676128
1003.097829	2606.397526
1003.392384	2609.815428
1003.686903	2607.378031
1003.981386	2611.128649
1004.275834	2608.582866
1004.570246	2608.350973
1004.864623	2608.479523
1005.158964	2605.225458
1005.453270	2607.345263
1005.747540	2606.710078
1006.041775	2607.811570
1006.335974	2607.015067
1006.630138	2606.657146
1006.924266	2605.696806
1007.218359	2606.886518
1007.512416	2606.664707
1007.806438	2603.597165
1008.100425	2605.089347
1008.394376	2602.659511
1008.688292	2606.465582
1008.982172	2607.572115
1009.276017	2611.060593
1009.569827	2607.806529
1009.863602	2609.064297
1010.157341	2605.694285
1010.451045	2607.831734
1010.744714	2607.942640
1011.038347	2607.672938
1011.331945	2611.421036
1011.625508	2609.417177
1011.919036	2606.919286
1012.212528	2606.392485
1012.505986	2608.449276
1012.799408	2607.947681
1013.092795	2607.090685
1013.386147	2606.379882
1013.679464	2605.104470
1013.972745	2609.520521
1014.265992	2606.747886
1014.559204	2606.475664
1014.852380	2607.514142
1015.145521	2605.343925
1015.438628	2608.411467
1015.731699	2605.971549
1016.024736	2607.612444
1016.317737	2606.185798
1016.610703	2606.339553
1016.903635	2608.030860
1017.196531	2607.478854
1017.489393	2606.642022
1017.782219	2610.904318
1018.075011	2606.057248
1018.367768	2606.571446
1018.660490	2608.567743
1018.953177	2608.567743
1019.245829	2608.567743
