Dividing Wavelength (nm)	Counts (n)	Blue Motor Position (mm): 14.200000	Red Motor Position (mm): 0.000000	
326.493990	2171.182112
326.888308	2171.182112
327.282561	2171.182112
327.676750	2133.265073
328.070874	2129.000257
328.464933	2127.266100
328.858929	2131.135186
329.252859	2136.193983
329.646726	2143.710344
330.040528	2157.404638
330.434265	2166.834117
330.827938	2188.311953
331.221547	2205.265353
331.615091	2217.830429
332.008571	2239.802298
332.401986	2259.162849
332.795338	2277.341250
333.188625	2295.020577
333.581847	2316.906746
333.975006	2333.403922
334.368100	2352.958558
334.761129	2370.431197
335.154095	2388.959958
335.546996	2408.265057
335.939833	2435.210024
336.332606	2448.299380
336.725315	2463.354786
337.117960	2475.239306
337.510540	2485.931593
337.903056	2497.105311
338.295508	2505.967659
338.687896	2515.555934
339.080220	2522.260668
339.472480	2527.677388
339.864676	2535.599562
340.256807	2538.049562
340.648875	2542.213555
341.040879	2543.723381
341.432818	2550.047508
341.824694	2553.392314
342.216506	2550.866696
342.608253	2554.004814
342.999937	2552.119423
343.391557	2552.545400
343.783113	2553.719989
344.174605	2551.963147
344.566033	2552.618497
344.957397	2549.891233
345.348697	2547.844524
345.739934	2547.569781
346.131106	2546.790923
346.522215	2545.218083
346.913260	2540.345808
347.304241	2543.047866
347.695159	2539.788760
348.086012	2538.314223
348.476802	2531.697708
348.867528	2529.550177
349.258191	2526.361647
349.648789	2524.345186
350.039324	2523.525998
350.429796	2529.582944
350.820203	2524.917357
351.210548	2523.047088
351.600828	2519.858559
351.991045	2522.079187
352.381198	2521.103724
352.771288	2521.449043
353.161314	2521.224711
353.551276	2519.984588
353.941175	2519.603980
354.331010	2518.991480
354.720782	2521.630524
355.110490	2519.054495
355.500135	2516.564165
355.889717	2515.815553
356.279235	2517.053157
356.668689	2519.548528
357.058080	2517.680780
357.447408	2517.602642
357.836672	2519.256141
358.225873	2521.663292
358.615010	2520.440812
359.004084	2523.006759
359.393095	2522.686646
359.782043	2523.490710
360.170927	2522.094310
360.559748	2521.963240
360.948505	2522.863086
361.337199	2527.183355
361.725830	2523.276461
362.114398	2526.207892
362.502903	2524.418282
362.891344	2523.188241
363.279722	2529.537574
363.668037	2526.686802
364.056289	2528.060516
364.444478	2528.831813
364.832603	2527.599250
365.220665	2529.056144
365.608665	2530.008922
365.996601	2529.419107
366.384474	2530.714683
366.772284	2528.305012
367.160031	2530.190403
367.547715	2532.348017
367.935336	2528.486493
368.322893	2528.204189
368.710388	2526.621267
369.097820	2529.623274
369.485189	2528.796524
369.872495	2534.654345
370.259738	2534.477905
370.646918	2533.222657
371.034035	2533.696526
371.421090	2535.113090
371.808081	2535.350024
372.195010	2537.011085
372.581875	2532.451361
372.968678	2537.404295
373.355418	2535.372710
373.742096	2534.689633
374.128710	2537.366486
374.515262	2535.786084
374.901751	2535.367668
375.288177	2536.204500
375.674540	2532.968079
376.060841	2536.668286
376.447079	2534.934129
376.833254	2536.743903
377.219367	2536.264994
377.605417	2536.549819
377.991404	2537.558050
378.377329	2537.976466
378.763191	2539.057793
379.148991	2538.251208
379.534727	2536.890097
379.920402	2539.072917
380.306013	2537.888245
380.691563	2542.090047
381.077049	2539.839172
381.462474	2539.640046
381.847835	2538.956970
382.233134	2539.647608
382.618371	2537.205169
383.003545	2541.709440
383.388657	2536.852288
383.773706	2540.809594
384.158693	2541.815304
384.543618	2541.255736
384.928480	2539.128369
385.313280	2542.808412
385.698017	2542.571477
386.082692	2543.446117
386.467305	2544.156920
386.851856	2544.741694
387.236344	2544.761859
387.620770	2539.614841
388.005133	2540.078627
388.389435	2541.895963
388.773674	2540.383617
389.157851	2542.216076
389.541965	2546.352343
389.926018	2543.289842
390.310008	2544.393854
390.693936	2544.345963
391.077802	2548.298228
391.461606	2545.833104
391.845348	2543.773792
392.229027	2545.293700
392.612645	2543.176416
392.996200	2546.722867
393.379694	2547.741181
393.763125	2545.313865
394.146494	2544.703885
394.529801	2547.842004
394.913047	2548.527601
395.296230	2547.806716
395.679351	2546.251520
396.062410	2548.847714
396.445408	2548.429298
396.828343	2543.965356
397.211217	2546.788403
397.594028	2548.872920
397.976778	2548.691438
398.359466	2547.171530
398.742092	2548.323434
399.124656	2548.918290
399.507158	2549.772766
399.889598	2550.775955
400.271977	2550.544062
400.654294	2549.245965
401.036549	2552.210163
401.418742	2549.603887
401.800874	2551.537169
402.182944	2551.116233
402.564952	2549.142621
402.946898	2547.340409
403.328783	2551.325441
403.710606	2550.685214
404.092367	2549.687066
404.474067	2550.881819
404.855705	2550.962478
405.237282	2552.207643
405.618797	2549.228321
406.000250	2552.684032
406.381642	2552.101779
406.762972	2549.654298
407.144240	2549.301418
407.525447	2552.678991
407.906593	2546.977446
408.287677	2552.076573
408.668700	2552.520194
409.049661	2556.028838
409.430560	2554.536656
409.811399	2553.084804
410.192176	2552.187478
410.572891	2554.745864
410.953545	2554.002294
411.334138	2556.558159
411.714669	2554.561862
412.095139	2555.255020
412.475547	2555.116389
412.855894	2556.520350
413.236180	2555.093703
413.616405	2554.604712
413.996568	2555.839794
414.376670	2557.006821
414.756711	2556.096893
415.136691	2557.505896
415.516609	2555.164280
415.896466	2558.781307
416.276262	2556.595967
416.655997	2556.492624
417.035670	2556.598488
417.415283	2557.647048
417.794834	2556.096893
418.174324	2557.926832
418.553753	2556.621173
418.933121	2558.841801
419.312428	2556.046482
419.691674	2558.113355
420.070859	2555.600339
420.449983	2560.454971
420.829045	2557.941955
421.208047	2557.858776
421.586988	2557.795762
421.965867	2560.893551
422.344686	2562.126113
422.723444	2560.419682
423.102141	2557.568910
423.480777	2562.083263
423.859352	2559.688715
424.237866	2559.522357
424.616319	2559.008159
424.994712	2564.119889
425.373044	2559.071174
425.751314	2557.153015
426.129524	2556.905998
426.507673	2557.833571
426.885762	2557.132850
427.263789	2559.562686
427.641756	2557.886503
428.019662	2560.296174
428.397508	2560.018911
428.775292	2561.856411
429.153016	2558.748540
429.530679	2562.342883
429.908282	2563.802297
430.285824	2560.152501
430.663305	2558.120916
431.040726	2560.061761
431.418086	2560.777604
431.795385	2560.001267
432.172624	2563.154508
432.549802	2562.380691
432.926920	2559.620660
433.303977	2561.778273
433.680974	2562.158881
434.057910	2565.125600
434.434786	2562.181566
434.811601	2564.951680
435.188355	2563.487225
435.565050	2561.753068
435.941683	2562.194169
436.318257	2562.410938
436.694770	2562.224416
437.071222	2564.140054
437.447614	2562.852039
437.823946	2563.220043
438.200218	2562.826833
438.576429	2564.114848
438.952580	2563.535116
439.328670	2562.620146
439.704700	2561.516133
440.080670	2562.957903
440.456580	2562.456309
440.832429	2565.796073
441.208218	2565.339849
441.583947	2565.508727
441.959616	2562.957903
442.335224	2563.477142
442.710773	2563.507389
443.086261	2566.864798
443.461689	2566.214489
443.837057	2567.676423
444.212365	2564.964283
444.587612	2565.188614
444.962800	2560.666699
445.337927	2564.808007
445.712995	2560.036555
446.088002	2564.422359
446.462949	2565.118038
446.837837	2564.528223
447.212664	2565.813717
447.587431	2566.960580
447.962139	2564.240877
448.336786	2568.470405
448.711374	2569.539130
449.085901	2566.824468
449.460369	2569.463512
449.834776	2567.295816
450.209124	2567.222720
450.583412	2566.423697
450.957640	2568.775395
451.331808	2566.446382
451.705917	2564.611402
452.079965	2568.598955
452.453954	2566.406053
452.827883	2569.372772
453.201752	2569.418142
453.575562	2570.186918
453.949311	2569.733214
454.323001	2570.111301
454.696632	2567.502504
455.070202	2567.812535
455.443713	2569.208934
455.817164	2568.959397
456.190556	2569.138358
456.563888	2568.669531
456.937160	2570.713719
457.310373	2568.006619
457.683526	2569.849161
458.056619	2567.182390
458.429653	2570.030642
458.802628	2567.273131
459.175542	2568.188101
459.548398	2568.972000
459.921194	2572.568863
460.293930	2569.899572
460.666607	2572.037022
461.039224	2570.849830
461.411782	2571.868143
461.784280	2572.672207
462.156719	2574.010633
462.529099	2573.783781
462.901419	2571.979048
463.273680	2571.064079
463.645882	2567.842782
464.018024	2569.904613
464.390106	2566.693398
464.762130	2574.461817
465.134094	2574.678586
465.505999	2573.476271
465.877845	2575.999368
466.249631	2578.446849
466.621358	2578.245202
466.993026	2576.432908
467.364634	2580.725450
467.736184	2576.548854
468.107674	2576.294276
468.479105	2574.645819
468.850477	2578.076324
469.221790	2576.261508
469.593043	2576.763103
469.964238	2577.703278
470.335373	2576.004410
470.706449	2574.461817
471.077467	2577.710840
471.448425	2577.126066
471.819324	2582.651171
472.190164	2579.157651
472.560945	2577.204204
472.931667	2576.553895
473.302330	2575.923751
473.672934	2579.278639
474.043479	2578.560275
474.413965	2577.297466
474.784393	2575.812846
475.154761	2576.382496
475.525070	2577.274780
475.895321	2577.105902
476.265513	2577.327712
476.635645	2579.598752
477.005719	2576.725295
477.375734	2577.756211
477.745691	2578.570357
478.115588	2580.148238
478.485427	2579.351736
478.855207	2582.913311
479.224928	2581.799216
479.594591	2581.431212
479.964194	2580.024730
480.333739	2582.235276
480.703226	2583.099834
481.072653	2584.677715
481.442022	2585.176789
481.811333	2583.195616
482.180584	2580.380131
482.549777	2581.481623
482.918912	2579.006417
483.287988	2583.440112
483.657005	2583.598908
484.025964	2584.713003
484.394864	2581.461459
484.763706	2583.304000
485.132489	2581.642940
485.501213	2585.804413
485.869879	2584.176120
486.238487	2584.357602
486.607036	2582.479772
486.975527	2584.768456
487.343959	2584.375246
487.712333	2584.188723
488.080648	2584.937334
488.448905	2587.334403
488.817104	2587.997315
489.185244	2586.333734
489.553326	2585.897674
489.921350	2586.106882
490.289315	2588.317428
490.657222	2590.628797
491.025070	2589.963365
491.392861	2591.258941
491.760593	2588.924887
492.128267	2589.449167
492.495883	2586.981522
492.863440	2587.152921
493.230939	2586.132088
493.598380	2589.381111
493.965763	2586.560586
494.333088	2587.626790
494.700354	2585.620411
495.067563	2586.704259
495.434713	2589.381111
495.801805	2587.871286
496.168839	2587.339444
496.535815	2585.431367
496.902733	2589.764239
497.269593	2590.144846
497.636395	2588.420772
498.003139	2586.979002
498.369825	2588.196440
498.736453	2586.623600
499.103023	2587.205853
499.469535	2588.942531
499.835989	2590.074270
500.202385	2584.886923
500.568723	2585.055801
500.935003	2588.438416
501.301226	2586.197623
501.667390	2587.674681
502.033497	2594.553335
502.399546	2589.522264
502.765537	2589.363467
503.131470	2591.503437
503.497345	2591.314394
503.863163	2589.698704
504.228923	2591.803386
504.594625	2593.978644
504.960269	2593.908067
505.325856	2595.405290
505.691385	2592.579723
506.056856	2593.903026
506.422270	2595.697677
506.787625	2595.294385
507.152924	2592.620053
507.518164	2597.963676
507.883347	2595.037286
508.248472	2598.346803
508.613540	2598.830754
508.978550	2598.687081
509.343503	2597.232708
509.708398	2599.347472
510.073236	2597.061309
510.438016	2599.624736
510.802738	2602.117587
511.167403	2602.283945
511.532010	2602.180601
511.896561	2606.289141
512.261053	2603.113214
512.625488	2604.862495
512.989866	2604.517176
513.354186	2605.769902
513.718449	2604.736466
514.082655	2609.124790
514.446803	2607.622527
514.810894	2609.223093
515.174927	2610.790892
515.538904	2609.389451
515.902822	2614.130656
516.266684	2611.766355
516.630488	2614.705348
516.994235	2612.830038
517.357925	2612.613269
517.721558	2617.924124
518.085133	2614.854062
518.448651	2618.473610
518.812112	2613.830707
519.175516	2618.536625
519.538863	2613.808022
519.902152	2621.694907
520.265385	2620.903446
520.628560	2624.762450
520.991678	2622.022582
521.354739	2625.654734
521.717743	2623.850001
522.080690	2625.468211
522.443580	2628.283696
522.806413	2630.504324
523.169189	2630.148922
523.531908	2632.235960
523.894569	2629.538943
524.257174	2632.321660
524.619722	2633.481125
524.982213	2635.505148
525.344647	2632.656897
525.707025	2638.925571
526.069345	2638.093781
526.431608	2638.799542
526.793815	2641.262146
527.155964	2643.008906
527.518057	2638.376086
527.880093	2642.290542
528.242072	2644.813639
528.603995	2648.420585
528.965860	2645.703403
529.327669	2645.993269
529.689421	2647.634165
530.051117	2648.614669
530.412755	2650.585760
530.774337	2652.030051
531.135862	2651.740184
531.497331	2656.486431
531.858743	2655.732778
532.220098	2658.518016
532.581396	2659.319559
532.942638	2660.733603
533.303824	2662.871052
533.664953	2662.077070
534.026025	2664.227122
534.387040	2667.831547
534.747999	2668.592762
535.108902	2669.089315
535.469748	2671.176353
535.830537	2672.688699
536.191270	2677.563495
536.551947	2672.857578
536.912567	2674.458144
537.273131	2679.892508
537.633638	2679.146417
537.994089	2683.847293
538.354483	2685.427695
538.714821	2693.327183
539.075103	2692.172759
539.435328	2690.118489
539.795497	2696.687112
540.155609	2697.382791
540.515665	2697.803728
540.875665	2702.033256
541.235609	2701.420756
541.595496	2706.434183
541.955328	2710.618341
542.315102	2717.897767
542.674821	2715.777962
543.034483	2714.825184
543.394090	2722.437326
543.753640	2724.630228
544.113134	2733.968965
544.472571	2734.132803
544.831953	2740.008268
545.191278	2742.740573
545.550548	2745.591346
545.909761	2748.651326
546.268918	2755.247676
546.628019	2757.148191
546.987064	2762.595157
547.346053	2766.376023
547.704986	2770.111518
548.063863	2778.973866
548.422684	2781.096192
548.781449	2782.764814
549.140158	2791.483490
549.498811	2800.113945
549.857408	2796.388532
550.215949	2810.405461
550.574434	2810.052580
550.932864	2823.608242
551.291237	2826.516988
551.649555	2836.616940
552.007817	2842.668845
552.366022	2849.572705
552.724173	2855.649816
553.082267	2865.447299
553.440305	2874.314688
553.798288	2877.760317
554.156215	2892.402348
554.514086	2903.686971
554.871902	2897.942577
555.229661	2913.739032
555.587365	2925.444591
555.945014	2936.144440
556.302606	2953.823767
556.660143	2963.018832
557.017625	2981.416523
557.375050	2985.414158
557.732421	3000.099039
558.089735	3012.898528
558.446994	3023.641227
558.804197	3041.905328
559.161345	3062.354768
559.518437	3061.575910
559.875474	3083.109198
560.232455	3096.027155
560.589381	3115.465844
560.946251	3124.660909
561.303065	3153.035043
561.659825	3175.947088
562.016528	3183.004703
562.373177	3195.373174
562.729770	3215.865464
563.086307	3242.583580
563.442789	3263.456477
563.799216	3287.648975
564.155587	3300.839154
564.511904	3330.899554
564.868164	3339.323322
565.224370	3373.845144
565.580520	3384.063563
565.936615	3423.346754
566.292654	3426.588216
566.648638	3476.561174
567.004567	3487.926455
567.360441	3515.287318
567.716260	3527.413813
568.072023	3577.961463
568.427732	3598.839402
568.783385	3616.178450
569.138982	3653.125067
569.494525	3695.818599
569.850013	3725.410172
570.205445	3752.289604
570.560823	3763.032303
570.916145	3804.127789
571.271412	3827.755677
571.626625	3872.894169
571.981782	3902.342069
572.336884	3921.294287
572.691931	3967.809013
573.046923	3973.019046
573.401860	4020.652908
573.756743	4075.160384
574.111570	4098.505968
574.466342	4127.522849
574.821059	4175.045807
575.175722	4186.083413
575.530330	4241.563832
575.884882	4275.619347
576.239380	4321.004855
576.593823	4351.322354
576.948211	4382.824524
577.302544	4406.026435
577.656823	4440.399542
578.011047	4502.718286
578.365216	4530.217780
578.719330	4578.340635
579.073389	4601.580354
579.427394	4684.880380
579.781344	4680.275286
580.135239	4735.206219
580.489080	4773.433289
580.842866	4783.218168
581.196597	4886.735742
581.550273	4901.700407
581.903895	4979.135051
582.257463	5051.359662
582.610975	5061.721754
582.964434	5145.649404
583.317837	5168.841232
583.671186	5235.870934
584.024481	5305.244773
584.377721	5309.330628
584.730906	5377.373602
585.084037	5438.575730
585.437113	5480.097194
585.790135	5551.797525
586.143103	5540.785124
586.496016	5579.024797
586.848874	5697.562488
587.201679	5736.102110
587.554428	5737.450618
587.907124	5855.012847
588.259765	5875.157297
588.612352	5974.314273
588.964884	5960.698116
589.317362	6039.327513
589.669786	6102.909066
590.022155	6172.413975
590.374470	6279.982116
590.726731	6311.121323
591.078937	6317.334545
591.431090	6391.878087
591.783188	6388.853395
592.135232	6429.263284
592.487222	6542.094389
592.839157	6593.196566
593.191038	6652.278889
593.542866	6662.535117
593.894639	6689.908582
594.246358	6793.509335
594.598022	6819.965310
594.949633	6835.096333
595.301190	6871.070007
595.652692	6980.682336
596.004141	7097.969821
596.355535	6994.127093
596.706876	7060.773667
597.058162	7106.701100
597.409395	7193.993720
597.760573	7306.776934
598.111698	7313.075856
598.462768	7360.313988
598.813785	7395.385295
599.164748	7414.158552
599.515657	7483.474418
599.866511	7490.615212
600.217312	7652.148905
600.568060	7573.854744
600.918753	7742.904797
601.269392	7800.159702
601.619978	7778.502905
601.970510	7933.951925
602.320988	7959.896223
602.671412	8091.351872
603.021783	8123.625339
603.372100	8103.090198
603.722363	8225.139054
604.072572	8284.513764
604.422728	8357.670988
604.772830	8380.066314
605.122878	8389.301708
605.472872	8478.106674
605.822813	8551.571409
606.172701	8596.994726
606.522534	8740.811283
606.872314	8813.976070
607.222041	8795.296074
607.571714	8951.216442
607.921333	8969.601530
608.270899	9055.890961
608.620411	9217.830466
608.969870	9147.075351
609.319276	9228.963854
609.668627	9330.432199
610.017926	9442.844889
610.367171	9551.635509
610.716362	9670.783180
611.065500	9624.117219
611.414585	9749.314275
611.763616	9818.030243
612.112594	9876.575683
612.461518	9900.858921
612.810389	10063.980578
613.159207	10033.753819
613.507971	10074.937525
613.856682	10317.374176
614.205340	10333.251290
614.553945	10494.631227
614.902496	10396.122040
615.250994	10623.876329
615.599439	10648.656121
615.947830	10696.539521
616.296169	10752.108160
616.644454	10838.500934
616.992686	10848.850423
617.340864	11043.930474
617.688990	10999.575882
618.037063	11157.275777
618.385082	11140.498817
618.733048	11329.728609
619.080961	11328.783392
619.428821	11425.376941
619.776628	11453.156219
620.124382	11447.454674
620.472083	11551.544419
620.819731	11640.140177
621.167326	11512.178049
621.514868	11597.275246
621.862357	11538.230732
622.209793	11607.738161
622.557176	11591.608989
622.904506	11526.867971
623.251783	11536.481451
623.599007	11501.069866
623.946179	11522.414112
624.293297	11547.342617
624.640363	11462.124432
624.987376	11503.459373
625.334336	11436.079311
625.681243	11400.708055
626.028097	11444.402256
626.374899	11511.840291
626.721647	11429.407344
627.068343	11385.710622
627.414987	11392.740511
627.761577	11447.152205
628.108115	11539.067563
628.454600	11388.311857
628.801032	11472.496606
629.147412	11486.397588
629.493739	11552.598020
629.840014	11483.546815
630.186236	11584.838720
630.532405	11467.536111
630.878521	11653.237095
631.224585	11618.337187
631.570597	11569.632079
631.916556	11601.729106
632.262462	11632.011317
632.608316	11646.567648
632.954117	11631.882767
633.299866	11681.422186
633.645562	11673.447081
633.991206	11534.782583
634.336797	11471.669857
634.682336	11529.111284
635.027823	11477.923408
635.373257	11460.110491
635.718639	11398.568085
636.063968	11403.405072
636.409245	11280.103490
636.754470	11336.057777
637.099642	11260.611869
637.444762	11130.126643
637.789829	11218.606454
638.134845	11128.072372
638.479808	11178.002481
638.824719	11189.687875
639.169577	11100.542631
639.514383	11174.365288
639.859137	11063.933772
640.203839	11164.257775
640.548489	11064.422764
640.893086	11101.787796
641.237632	11009.859835
641.582125	11188.818276
641.926566	11089.913358
642.270955	11115.439241
642.615292	11119.721701
642.959576	11165.853300
643.303809	11229.707075
643.647990	11192.374810
643.992118	11271.856163
644.336195	11106.397932
644.680219	11294.037239
645.024192	11272.486307
645.368112	11478.871145
645.711981	11569.969836
646.055797	11718.106663
646.399562	11728.226779
646.743274	11941.974223
647.086935	12213.205944
647.430544	12195.365300
647.774101	12224.858571
648.117606	12397.266032
648.461059	12374.389276
648.804460	12436.387907
649.147810	12243.994791
649.491108	12161.060248
649.834354	12232.241341
650.177548	12008.797237
650.520690	11884.711756
650.863781	11838.711227
651.206820	11899.966288
651.549807	11782.792228
651.892742	11651.797846
652.235626	11620.431786
652.578458	11640.649334
652.921238	11405.492110
653.263967	11588.317116
653.606644	11473.043571
653.949269	11452.911723
654.291843	11330.978815
654.634365	11464.705503
654.976836	11364.278157
655.319255	11398.250492
655.661622	11378.184179
656.003938	11325.685603
656.346203	11293.729729
656.688416	11368.094310
657.030577	11352.065961
657.372687	11311.890486
657.714746	11302.445884
658.056753	11468.753549
658.398708	11345.819972
658.740612	11360.509894
659.082465	11461.675769
659.424266	11429.482961
659.766016	11472.665485
660.107715	11416.018039
660.449362	11479.115641
660.790958	11473.779580
661.132503	11445.796135
661.473996	11498.763538
661.815438	11536.486493
662.156829	11554.425438
662.498168	11563.126470
662.839456	11573.538973
663.180693	11606.298912
663.521879	11699.643437
663.863013	11699.628313
664.204097	11695.938189
664.545129	11808.146712
664.886110	11789.325564
665.227040	11878.085159
665.567918	11895.217521
665.908746	11945.313987
666.249522	11928.695823
666.590248	11977.771456
666.930922	12093.677665
667.271545	12099.515322
667.612118	12183.218640
667.952639	12105.325251
668.293109	12123.183539
668.633528	12105.786517
668.973896	12087.721542
669.314213	12195.594673
669.654480	11967.515229
669.994695	12024.777695
670.334859	12055.057386
670.674973	12029.660053
671.015035	12070.551372
671.355047	12032.699868
671.695008	12003.937565
672.034918	12017.851150
672.374777	12070.221177
672.714585	11998.848520
673.054342	12044.647403
673.394049	11995.717964
673.733705	12078.743247
674.073310	12022.839372
674.412864	12050.290975
674.752368	11947.973196
675.091820	11946.773401
675.431223	11959.509876
675.770574	11851.016684
676.109875	11781.741148
676.449125	11754.362641
676.788324	11699.686287
677.127473	11554.599358
677.466571	11549.122145
677.805619	11469.260185
678.144616	11397.804350
678.483562	11362.186078
678.822458	11242.927501
679.161303	11226.349667
679.500098	11237.170503
679.838842	11190.736435
680.177535	11212.945239
680.516179	11275.006884
680.854771	11227.950233
681.193314	11437.957141
681.531805	11576.677092
681.870247	11964.732512
682.208638	12346.534381
682.546978	12671.590501
682.885268	12757.431269
683.223508	12453.646297
683.561697	12306.217753
683.899836	12210.463556
684.237925	12022.884742
684.575963	11951.907816
684.913951	11886.955070
685.251889	11835.515136
685.589776	11932.466607
685.927614	11865.595701
686.265401	11822.367807
686.603137	11877.003832
686.940824	12018.952642
687.278460	12131.990435
687.616046	12188.980679
687.953582	12355.432017
688.291068	12279.882765
688.628504	12488.289106
688.965889	12502.084224
689.303224	12491.855723
689.640510	12396.620765
689.977745	12119.811007
690.314930	11893.707695
690.652065	11823.897797
690.989150	11539.579240
691.326185	11326.633340
691.663170	11123.835283
692.000105	10887.216124
692.336990	10790.032760
692.673825	10547.248270
693.010610	10428.960116
693.347345	10233.975847
693.684030	10035.737513
694.020665	9977.981013
694.357251	9791.831367
694.693786	9750.942568
695.030272	9583.414943
695.366707	9465.373805
695.703093	9398.207992
696.039429	9389.738853
696.375716	9335.188528
696.711952	9204.050472
697.048139	9236.608764
697.384276	9189.592443
697.720363	9208.343015
698.056400	9143.254157
698.392388	9104.066747
698.728326	9066.520233
699.064214	8998.754523
699.400053	9057.499089
699.735842	8868.075212
700.071581	8830.206065
700.407270	8762.770550
700.742910	8680.899691
701.078501	8600.546219
701.414042	8474.484605
701.749533	8411.492867
702.084974	8278.184595
702.420366	8378.271663
702.755709	8268.230837
703.091002	8149.534349
703.426246	8166.149992
703.761440	8125.929146
704.096584	8074.423677
704.431679	8008.518152
704.766725	7997.283941
705.101721	7946.302752
705.436668	7986.566448
705.771565	7884.699852
706.106413	7968.889642
706.441212	8016.916715
706.775961	7966.159857
707.110661	7994.181111
707.445311	8148.967219
707.779913	8049.222949
708.114465	8168.582349
708.448967	8220.100420
708.783421	8344.579112
709.117825	8525.284312
709.452180	8560.811844
709.786485	8645.566243
710.120742	8923.202750
710.454949	8920.180578
710.789107	9028.323411
711.123216	9224.757012
711.457275	9385.521928
711.791286	9554.403103
712.125247	9539.451040
712.459159	9534.752685
712.793023	9797.782449
713.126837	9373.793684
713.460602	9515.835755
713.794318	9339.007202
714.127985	9375.875680
714.461602	9072.161285
714.795171	9021.389304
715.128691	8783.802243
715.462162	8526.847070
715.795584	8481.466603
716.128957	8352.082869
716.462281	8165.565218
716.795556	8217.453815
717.128782	8026.273096
717.461960	7746.549552
717.795088	7815.683935
718.128167	7726.266469
718.461198	7563.754793
718.794180	7502.116604
719.127113	7497.330029
719.459997	7359.686364
719.792833	7122.064016
720.125619	7182.653644
720.458357	7045.012500
720.791046	7028.706888
721.123686	7037.475975
721.456278	6878.563682
721.788821	6890.377626
722.121315	6786.003057
722.453761	6850.192068
722.786158	6802.454862
723.118506	6817.540515
723.450805	6785.685464
723.783056	6852.211051
724.115259	6749.920998
724.447412	6749.560555
724.779518	6793.635363
725.111574	6796.307175
725.443582	6879.534104
725.775542	6855.240784
726.107453	7036.535800
726.439315	6966.408309
726.771129	7004.837024
727.102895	7166.751324
727.434612	7285.387318
727.766281	7309.920093
728.097901	7400.151706
728.429473	7377.993314
728.760996	7352.074222
729.092471	7335.004875
729.423897	7290.748585
729.755276	7306.940772
730.086606	7243.386945
730.417887	7335.045204
730.749120	7511.152873
731.080305	7694.776902
731.411442	7827.024011
731.742530	7831.069537
732.073570	7931.809435
732.404562	8016.863782
732.735506	7863.945422
733.066401	8010.154007
733.397249	7944.477854
733.728048	7710.142338
734.058798	7378.520115
734.389501	7169.783578
734.720156	6988.092832
735.050762	6756.655979
735.381320	6649.836450
735.711831	6607.500840
736.042293	6497.270970
736.372707	6523.621081
736.703073	6388.036728
737.033391	6420.100987
737.363661	6432.406443
737.693883	6454.073323
738.024056	6535.180447
738.354182	6588.409990
738.684260	6626.044724
739.014290	6727.354273
739.344272	6834.808988
739.674207	6863.132710
740.004093	6924.864160
740.333931	6943.927283
740.663722	6952.744261
740.993464	7024.764706
741.323159	7030.325098
741.652806	6778.910153
741.982405	6772.079390
742.311956	6838.005079
742.641460	6695.471495
742.970915	6502.760787
743.300323	6490.241081
743.629683	6429.124652
743.958996	6306.672505
744.288260	6218.369133
744.617477	6162.336708
744.946647	6181.354461
745.275768	6010.431620
745.604842	5963.316996
745.933869	5948.775788
746.262847	5906.775414
746.591778	5893.353342
746.920662	5851.340366
747.249498	5834.931410
747.578286	5885.595006
747.907027	5958.069155
748.235720	6020.634915
748.564365	5990.819011
748.892963	6009.352813
749.221514	6167.002296
749.550017	6020.297158
749.878473	5886.275562
750.206881	5934.411020
750.535242	5873.720568
750.863555	5813.753523
751.191821	5836.156411
751.520039	5836.605073
751.848210	5748.029480
752.176334	5756.256643
752.504411	5813.715714
752.832440	5738.879785
753.160421	5663.917828
753.488356	5717.933791
753.816243	5756.067599
754.144082	5604.759887
754.471875	5571.500875
754.799620	5618.587772
755.127318	5628.239061
755.454969	5572.922480
755.782572	5539.849990
756.110129	5586.279017
756.437638	5581.542853
756.765100	5521.371641
757.092515	5513.018449
757.419882	5554.492022
757.747203	5540.253283
758.074477	5604.623776
758.401703	5599.958188
758.728882	5546.385846
759.056014	5584.875056
759.383099	5728.361418
759.710138	5737.667388
760.037129	5719.249532
760.364073	5728.706737
760.690970	5805.962420
761.017820	5795.872550
761.344623	5742.620322
761.671379	5838.077090
761.998088	5948.806034
762.324751	6176.424213
762.651366	6737.814667
762.977935	7984.703742
763.304456	9580.876722
763.630931	10516.144351
763.957359	10175.717753
764.283740	9260.798741
764.610074	8460.533212
764.936362	7491.066395
765.262602	6887.862091
765.588796	6351.198496
765.914943	6003.724364
766.241044	5849.092011
766.567097	5667.250030
766.893104	5408.119599
767.219064	5225.481116
767.544978	5166.061036
767.870845	5097.471096
768.196665	4982.134538
768.522438	4912.493518
768.848165	4882.042428
769.173846	4822.070341
769.499479	4778.366058
769.825066	4722.353797
770.150607	4661.960774
770.476101	4638.970592
770.801548	4631.302997
771.126949	4568.144901
771.452303	4512.402343
771.777611	4469.245025
772.102872	4483.209021
772.428087	4449.861788
772.753256	4407.122886
773.078378	4373.604254
773.403453	4299.655568
773.728482	4288.504536
774.053465	4240.721959
774.378401	4231.494127
774.703291	4234.057554
775.028135	4163.264630
775.352932	4114.206642
775.677683	4099.030248
776.002388	4117.185963
776.327046	4134.005773
776.651658	4055.686407
776.976224	3991.898167
777.300743	3999.800176
777.625216	4018.301210
777.949643	4021.008310
778.274024	3977.324191
778.598359	3922.456273
778.922647	3945.610292
779.246889	3941.257256
779.571086	3939.989406
779.895236	3926.887447
780.219339	3909.369437
780.543397	3901.283427
780.867409	3947.500725
781.191374	3964.784321
781.515294	3907.539498
781.839167	3899.839136
782.162995	3919.018206
782.486776	3905.840630
782.810511	3912.958739
783.134201	3914.251795
783.457844	3875.928943
783.781441	3816.279490
784.104993	3819.067248
784.428498	3836.857480
784.751958	3839.423428
785.075372	3819.094975
785.398739	3779.441259
785.722061	3790.970378
786.045337	3824.609997
786.368568	3866.436451
786.691752	3779.952936
787.014891	3822.747291
787.337983	3937.683078
787.661030	4096.668467
787.984031	4259.951440
788.306987	4430.642389
788.629897	4508.369420
788.952760	4464.715548
789.275579	4394.809867
789.598351	4337.161753
789.921078	4206.185014
790.243759	4012.690406
790.566395	3981.546157
790.888984	3982.390551
791.211529	3877.315261
791.534027	3818.873164
791.856480	3815.795540
792.178888	3752.839090
792.501249	3694.235676
792.823566	3706.006771
793.145836	3740.999940
793.468062	3692.539328
793.790241	3644.333294
794.112375	3671.258097
794.434464	3729.516192
794.756507	3755.921755
795.078505	3746.036053
795.400457	3770.097480
795.722364	3899.297212
796.044226	4004.483407
796.366042	4072.203748
796.687812	4064.384918
797.009538	4072.385229
797.331218	4025.628527
797.652852	3996.926718
797.974442	3976.782267
798.295986	3981.276456
798.617484	3904.141761
798.938938	3812.543995
799.260346	3850.967670
799.581709	3851.098740
799.903026	3784.169861
800.224299	3742.963469
800.545526	3741.199066
800.866708	3703.312274
801.187845	3638.702326
801.508936	3675.464940
801.829983	3680.054911
802.150984	3601.075153
802.471940	3586.060077
802.792851	3598.189093
803.113717	3595.101386
803.434538	3599.237653
803.755314	3548.241340
804.076045	3518.576671
804.396731	3537.176008
804.717372	3559.757856
805.037967	3552.453224
805.358518	3539.636091
805.679024	3564.118454
805.999485	3574.528437
806.319901	3581.568408
806.640272	3595.305553
806.960598	3611.253243
807.280879	3581.434818
807.601115	3594.244390
807.921306	3610.870115
808.241453	3649.593738
808.561554	3629.764360
808.881611	3563.165676
809.201623	3595.073660
809.521590	3610.560084
809.841513	3583.239551
810.161390	3611.991772
810.481223	3598.108434
810.801011	3539.711708
811.120755	3526.639996
811.440453	3564.100810
811.760107	3568.731110
812.079716	3528.797610
812.399281	3496.110768
812.718801	3516.265302
813.038276	3492.571878
813.357707	3487.480313
813.677093	3503.866584
813.996434	3455.569809
814.315731	3459.585088
814.634983	3461.218422
814.954191	3473.647387
815.273354	3507.718025
815.592473	3505.880525
815.911547	3505.608302
816.230577	3545.468706
816.549562	3592.812702
816.868502	3638.861122
817.187399	3662.690656
817.506250	3661.072446
817.825058	3629.053557
818.143821	3713.676886
818.462539	3817.771672
818.781213	3861.465873
819.099843	3912.318512
819.418429	4141.564983
819.736970	4373.788256
820.055466	4607.710397
820.373919	4957.813491
820.692327	5361.763669
821.010691	5759.422487
821.329011	7026.508945
821.647286	9596.567313
821.965517	13949.971664
822.283704	17932.115198
822.601847	20240.446941
822.919945	18525.262401
823.237999	16059.611369
823.556010	13625.752375
823.873976	11610.775456
824.191897	9570.827182
824.509775	8221.307777
824.827609	7105.886953
825.145398	6552.587551
825.463144	6437.266116
825.780845	6553.424383
826.098502	6710.158897
826.416116	7504.286821
826.733685	8777.510883
827.051210	9895.689218
827.368692	10018.668166
827.686129	8847.310700
828.003522	7352.689243
828.320872	6349.224884
828.638177	5670.020144
828.955439	5126.762721
829.272656	4637.556549
829.589830	4347.937219
829.906960	4181.974873
830.224046	4002.280423
830.541088	3876.117987
830.858086	3831.463446
831.175041	3760.668002
831.491952	3734.839650
831.808819	3750.000920
832.125642	3812.886794
832.442421	3947.825879
832.759157	4202.862894
833.075849	4718.968663
833.392497	5547.734355
833.709101	6301.749818
834.025662	6666.230282
834.342179	6351.279155
834.658653	5704.247058
834.975083	5077.505607
835.291469	4519.699413
835.607811	4110.004840
835.924110	3975.711022
836.240366	3782.902011
836.556578	3577.807708
836.872746	3468.817962
837.188871	3434.563321
837.504952	3375.448231
837.820990	3292.458235
838.136984	3243.417891
838.452935	3268.648866
838.768842	3262.334821
839.084706	3285.261988
839.400526	3428.002259
839.716303	3741.771237
840.032037	4232.023448
840.347727	4523.404661
840.663373	4276.065489
840.978977	3909.293820
841.294537	3609.919858
841.610054	3379.660115
841.925527	3269.919237
842.240957	3202.546736
842.556344	3152.483037
842.871687	3096.533791
843.186987	3048.499157
843.502244	3010.312416
843.817458	2979.458034
844.132629	2944.537962
844.447756	2956.603963
844.762840	2945.465534
845.077881	2916.005031
845.392879	2891.668861
845.707833	2891.986453
846.022745	2889.274313
846.337613	2890.751371
846.652438	2878.173692
846.967221	2876.132024
847.281960	2862.790611
847.596656	2856.068232
847.911309	2857.441947
848.225919	2851.264012
848.540485	2845.799402
848.855009	2847.410050
849.169490	2837.289934
849.483928	2829.289623
849.798323	2827.925991
850.112675	2823.146977
850.426984	2837.569718
850.741251	2831.943790
851.055474	2823.784683
851.369654	2818.831749
851.683792	2821.710248
851.997887	2831.888338
852.311938	2831.026300
852.625947	2822.821822
852.939914	2823.351144
853.253837	2830.053358
853.567718	2814.556851
853.881555	2812.212714
854.195350	2827.041268
854.509103	2823.787203
854.822812	2816.369146
855.136479	2815.728919
855.450103	2816.064156
855.763685	2810.498722
856.077224	2805.492856
856.390720	2818.151193
856.704173	2829.483707
857.017584	2823.789724
857.330953	2815.290339
857.644278	2825.959941
857.957561	2836.427897
858.270802	2837.514265
858.584000	2839.813032
858.897155	2827.736947
859.210268	2822.158911
859.523339	2824.172852
859.836367	2825.624704
860.149352	2816.906028
860.462295	2811.408650
860.775195	2818.557006
861.088054	2821.248982
861.400869	2804.696354
861.713642	2798.054634
862.026373	2814.582057
862.339062	2818.206646
862.651708	2823.310814
862.964312	2827.011021
863.276873	2820.011379
863.589392	2828.243583
863.901869	2838.116683
864.214303	2859.697863
864.526696	2876.799977
864.839045	2873.356869
865.151353	2872.225130
865.463619	2868.214892
865.775842	2872.787219
866.088023	2885.188457
866.400162	2897.163718
866.712258	2869.359234
867.024313	2857.094107
867.336325	2864.630632
867.648296	2885.480844
867.960224	2879.076058
868.272110	2864.023173
868.583954	2869.122300
868.895755	2883.724002
869.207515	2871.693288
869.519233	2872.424256
869.830909	2883.255175
870.142542	2893.592061
870.454134	2894.007956
870.765684	2896.546177
871.077191	2897.471229
871.388657	2903.296282
871.700081	2916.284815
872.011463	2926.238573
872.322803	2927.856783
872.634101	2928.754109
872.945357	2942.196346
873.256571	2969.867239
873.567744	2962.605457
873.878874	2951.343519
874.189963	2976.571974
874.501010	2979.957108
874.812015	2970.300778
875.122979	2968.672486
875.433900	2963.971610
875.744780	2969.652990
876.055618	2977.761686
876.366415	2972.723053
876.677169	2984.247130
876.987882	2984.368118
877.298554	2974.575677
877.609183	2993.162411
877.919771	3015.111595
878.230317	3037.403577
878.540822	3089.166145
878.851285	3127.685601
879.161707	3165.748833
879.472087	3256.673605
879.782425	3460.396714
880.092722	3867.984085
880.402977	4372.555694
880.713191	4965.942351
881.023363	6050.256735
881.333494	7297.297044
881.643583	7870.912296
881.953631	7591.024914
882.263637	7010.183168
882.573602	6456.732531
882.883526	5894.989197
883.193408	5334.604453
883.503248	4873.530440
883.813048	4580.606634
884.122806	4306.599758
884.432522	4005.385774
884.742197	3776.708953
885.051831	3587.476641
885.361424	3450.624437
885.670975	3384.086248
885.980485	3305.073723
886.289954	3231.314080
886.599382	3187.975281
886.908768	3155.432112
887.218113	3107.188270
887.527417	3056.668347
887.836680	3006.017353
888.145901	2999.073164
888.455082	2993.023779
888.764221	2946.751028
889.073319	2916.705751
889.382376	2914.820360
889.691392	2916.176430
890.000366	2915.001841
890.309300	2901.947773
890.618193	2914.026378
890.927044	2932.108997
891.235855	2934.760644
891.544625	2916.342788
891.853353	2927.587082
892.162041	2947.701286
892.470687	2982.369301
892.779293	3031.873431
893.087858	3076.873291
893.396381	3141.279073
893.704864	3251.312338
894.013306	3470.105976
894.321707	3762.026593
894.630068	3967.398159
894.938387	3970.132985
895.246665	3921.261519
895.554903	3814.336126
895.863100	3624.120788
896.171256	3461.205819
896.479371	3332.933660
896.787446	3215.656257
897.095480	3117.961216
897.403473	3055.420661
897.711425	3018.589991
898.019336	3007.804442
898.327207	2980.972901
898.635038	2950.173972
898.942827	2935.080757
899.250576	2922.939138
899.558284	2893.849160
899.865952	2875.396016
900.173579	2856.355578
900.481165	2850.896008
900.788711	2838.726663
901.096216	2817.324444
901.403681	2801.575880
901.711105	2808.996458
902.018489	2806.521252
902.325832	2805.132414
902.633135	2815.774289
902.940397	2843.235975
903.247619	2916.743560
903.554800	3094.290478
903.861941	3408.432500
904.169041	3812.057524
904.476101	4114.446096
904.783121	4095.264506
905.090100	3865.486193
905.397039	3607.416925
905.703938	3358.285622
906.010796	3181.956143
906.317614	3073.420101
906.624391	2987.385249
906.931129	2919.095258
907.237826	2859.647451
907.544483	2815.050884
907.851099	2781.565019
908.157675	2764.556166
908.464211	2744.250399
908.770707	2733.308574
909.077163	2720.965309
909.383578	2705.352856
909.689954	2696.225847
909.996289	2695.283151
910.302584	2694.237111
910.608839	2695.250383
910.915054	2691.225022
911.221229	2682.728157
911.527363	2686.078004
911.833458	2692.351720
912.139513	2697.682740
912.445527	2698.164170
912.751502	2708.622044
913.057436	2715.359546
913.363331	2727.715414
913.669186	2746.042529
913.975000	2776.906993
914.280775	2830.605364
914.586510	2899.306209
914.892205	2971.941674
915.197859	3090.249993
915.503475	3268.671551
915.809050	3465.359730
916.114585	3610.444138
916.420081	3638.029332
916.725536	3586.042432
917.030952	3475.255515
917.336328	3353.418388
917.641665	3227.951631
917.946961	3131.201806
918.252218	3064.550191
918.557435	2993.485045
918.862612	2937.109821
919.167750	2889.395300
919.472848	2853.310721
919.777906	2827.696618
920.082925	2804.318267
920.387904	2774.792229
920.692843	2756.402100
920.997743	2747.564957
921.302603	2735.468709
921.607423	2728.743809
921.912204	2715.422560
922.216946	2707.830583
922.521647	2695.686443
922.826310	2688.646472
923.130932	2683.948116
923.435516	2674.132990
923.740059	2666.417504
924.044564	2659.100269
924.349028	2653.565082
924.653454	2648.501243
924.957840	2643.480254
925.262186	2639.021353
925.566493	2635.860550
925.870761	2629.541463
926.174989	2625.926956
926.479178	2624.228087
926.783328	2618.816409
927.087438	2615.590070
927.391509	2615.327930
927.695541	2610.087651
927.999533	2608.250150
928.303486	2605.260746
928.607400	2609.870881
928.911275	2602.543564
929.215110	2607.211673
929.518906	2601.757144
929.822663	2603.501383
930.126381	2602.634305
930.430060	2603.148502
930.733699	2605.817793
931.037299	2606.271497
931.340861	2606.246292
931.644383	2604.197063
931.947866	2604.607917
932.251309	2604.640684
932.554714	2604.925509
932.858080	2601.056424
933.161407	2599.246649
933.464694	2596.176587
933.767943	2596.726072
934.071153	2596.957966
934.374323	2596.791607
934.677455	2596.395877
934.980548	2593.976123
935.283602	2596.380753
935.586617	2593.366143
935.889593	2594.732296
936.192530	2595.853953
936.495428	2597.978799
936.798287	2599.914602
937.101108	2600.519541
937.403890	2603.884511
937.706632	2611.113526
938.009336	2615.000255
938.312002	2621.619290
938.614628	2633.650004
938.917216	2638.723925
939.219765	2639.570839
939.522275	2636.425159
939.824747	2636.069758
940.127179	2633.738224
940.429573	2630.756382
940.731929	2630.433748
941.034246	2623.119033
941.336524	2622.173817
941.638763	2620.958899
941.940964	2615.277519
942.243126	2615.844648
942.545250	2618.934876
942.847335	2612.041098
943.149381	2608.454317
943.451389	2602.904007
943.753359	2601.983996
944.055290	2599.957452
944.357182	2598.445106
944.659036	2598.107349
944.960851	2598.976948
945.262628	2596.816813
945.564367	2598.392174
945.866067	2598.966865
946.167729	2598.576176
946.469352	2598.979468
946.770937	2597.641042
947.072484	2595.949735
947.373992	2596.683223
947.675462	2596.514344
947.976893	2589.431523
948.278286	2589.713827
948.579641	2589.875144
948.880958	2586.825246
949.182236	2588.952613
949.483476	2590.321287
949.784678	2589.439085
950.085841	2588.098138
950.386967	2591.400093
950.688054	2589.285329
950.989103	2590.737182
951.290114	2590.931266
951.591087	2592.254569
951.892021	2596.894951
952.192917	2597.240270
952.493776	2598.976948
952.794596	2602.092381
953.095378	2601.938626
953.396122	2600.635487
953.696828	2597.817482
953.997496	2598.707246
954.298126	2594.855804
954.598718	2594.076946
954.899272	2591.221132
955.199788	2586.958837
955.500266	2586.051429
955.800706	2582.694021
956.101108	2582.827611
956.401472	2581.804257
956.701798	2579.455079
957.002087	2577.728484
957.302337	2576.132959
957.602550	2574.645819
957.902724	2573.388051
958.202861	2572.818400
958.502960	2571.268246
958.803022	2572.770509
959.103045	2568.732545
959.403031	2571.492577
959.702979	2566.668193
960.002889	2568.145251
960.302762	2566.476629
960.602596	2567.666341
960.902393	2566.862277
961.202153	2568.946794
961.501875	2566.093501
961.801559	2567.129458
962.101205	2565.014694
962.400814	2567.663821
962.700385	2563.973696
962.999918	2562.531926
963.299414	2560.086966
963.598873	2562.950342
963.898293	2558.521688
964.197677	2566.879921
964.497022	2562.988150
964.796331	2565.662483
965.095601	2564.460167
965.394835	2563.151988
965.694030	2562.466391
965.993189	2562.123592
966.292309	2561.417831
966.591393	2566.272462
966.890439	2562.690722
967.189447	2566.068295
967.488419	2562.768860
967.787353	2563.346072
968.086249	2562.831875
968.385108	2561.879097
968.683930	2565.881773
968.982714	2561.700136
969.281462	2561.435475
969.580172	2562.340362
969.878844	2563.467060
970.177480	2562.413459
970.476078	2564.412276
970.774639	2564.644169
971.073162	2564.427400
971.371649	2565.193655
971.670098	2563.144426
971.968510	2563.746844
972.266885	2565.055023
972.565223	2563.232646
972.863524	2562.801628
973.161788	2561.445557
973.460014	2564.664334
973.758204	2567.104252
974.056356	2564.923953
974.354471	2564.863460
974.652550	2562.292471
974.950591	2565.980075
975.248595	2566.718604
975.546563	2562.698284
975.844493	2563.593089
976.142386	2562.138716
976.440243	2560.883469
976.738062	2564.303892
977.035845	2563.270455
977.333590	2565.228943
977.631299	2562.743654
977.928971	2560.598643
978.226606	2556.865669
978.524204	2559.837429
978.821765	2555.524722
979.119290	2562.113510
979.416777	2562.678119
979.714228	2564.586196
980.011642	2559.111503
980.309020	2560.021431
980.606360	2560.376833
980.903664	2563.802297
981.200931	2562.768860
981.498162	2563.373799
981.795356	2563.265414
982.092513	2563.882955
982.389633	2564.891186
982.686717	2571.419480
982.983764	2574.653380
983.280775	2579.245872
983.577749	2576.823597
983.874686	2577.804102
984.171587	2573.088102
984.468451	2574.824780
984.765279	2570.121383
985.062070	2569.105591
985.358824	2567.225240
985.655543	2566.068295
985.952224	2564.618964
986.248869	2563.146947
986.545478	2564.714746
986.842050	2562.978068
987.138586	2560.462532
987.435086	2561.014539
987.731549	2560.013870
988.027975	2559.713921
988.324366	2559.759291
988.620719	2559.590413
988.917037	2558.768705
989.213318	2559.350958
989.509563	2557.193344
989.805772	2560.540670
990.101944	2561.001936
990.398080	2558.123437
990.694180	2558.297357
990.990244	2557.682336
991.286271	2559.323232
991.582262	2559.227450
991.878217	2557.762994
992.174136	2559.101421
992.470019	2558.320042
992.765865	2557.967161
993.061676	2554.249310
993.357450	2556.946327
993.653188	2555.257541
993.948890	2558.990515
994.244556	2558.415824
994.540186	2559.703839
994.835780	2559.126627
995.131337	2560.225598
995.426859	2558.539332
995.722345	2560.719631
996.017795	2563.136864
996.313208	2561.669889
996.608586	2563.041082
996.903928	2565.138202
997.199234	2564.676937
997.494504	2561.160732
997.789738	2561.863973
998.084936	2564.366906
998.380099	2561.667368
998.675225	2560.195351
998.970316	2560.301215
999.265371	2560.863304
999.560390	2559.648386
999.855373	2558.861966
1000.150320	2559.068653
1000.445232	2559.431616
1000.740108	2558.614949
1001.034948	2561.843808
1001.329752	2558.390618
1001.624521	2558.355330
1001.919254	2559.429096
1002.213951	2559.166956
1002.508613	2558.625032
1002.803239	2555.819630
1003.097829	2557.203426
1003.392384	2557.372305
1003.686903	2560.606205
1003.981386	2558.945145
1004.275834	2557.858776
1004.570246	2555.595298
1004.864623	2555.292829
1005.158964	2557.311811
1005.453270	2557.843653
1005.747540	2556.159907
1006.041775	2556.442212
1006.335974	2555.554969
1006.630138	2558.062943
1006.924266	2557.972202
1007.218359	2556.177552
1007.512416	2555.917932
1007.806438	2555.086142
1008.100425	2555.862479
1008.394376	2552.936090
1008.688292	2557.841132
1008.982172	2554.738302
1009.276017	2555.663354
1009.569827	2555.393652
1009.863602	2555.176882
1010.157341	2556.744681
1010.451045	2554.153528
1010.744714	2554.345092
1011.038347	2557.291647
1011.331945	2555.464228
1011.625508	2557.238714
1011.919036	2557.452963
1012.212528	2556.318704
1012.505986	2557.889023
1012.799408	2559.091338
1013.092795	2558.378015
1013.386147	2554.642520
1013.679464	2554.607232
1013.972745	2557.032027
1014.265992	2558.004970
1014.559204	2557.258879
1014.852380	2557.037068
1015.145521	2556.306101
1015.438628	2556.691749
1015.731699	2556.217881
1016.024736	2555.307952
1016.317737	2556.716955
1016.610703	2556.094372
1016.903635	2558.093190
1017.196531	2555.678477
1017.489393	2557.455484
1017.782219	2555.779300
1018.075011	2555.557490
1018.367768	2556.469938
1018.660490	2557.258879
1018.953177	2557.258879
1019.245829	2557.258879
