Dividing Wavelength (nm)	Counts (n)	Blue Motor Position (mm): 46.200000	Red Motor Position (mm): 0.000000	
326.493990	2269.771958
326.888308	2269.771958
327.282561	2269.771958
327.676750	2230.287120
328.070874	2229.654455
328.464933	2228.079095
328.858929	2232.240567
329.252859	2237.075034
329.646726	2245.612228
330.040528	2257.554721
330.434265	2270.752462
330.827938	2291.459001
331.221547	2306.768986
331.615091	2321.027889
332.008571	2344.002948
332.401986	2362.120855
332.795338	2381.322610
333.188625	2398.263407
333.581847	2422.095462
333.975006	2443.356528
334.368100	2457.234825
334.761129	2477.822897
335.154095	2494.524240
335.546996	2519.878723
335.939833	2561.553942
336.332606	2577.005079
336.725315	2587.936821
337.117960	2601.797473
337.510540	2613.810543
337.903056	2628.608850
338.295508	2634.572535
338.687896	2639.197794
339.080220	2647.379586
339.472480	2654.583395
339.864676	2660.325269
340.256807	2664.542195
340.648875	2668.943122
341.040879	2672.381189
341.432818	2673.759944
341.824694	2677.107271
342.216506	2678.233968
342.608253	2679.537107
342.999937	2679.106088
343.391557	2678.791016
343.783113	2678.264215
344.174605	2675.489060
344.566033	2677.480316
344.957397	2675.398319
345.348697	2672.620644
345.739934	2674.145593
346.131106	2671.322547
346.522215	2670.712567
346.913260	2669.767351
347.304241	2667.934891
347.695159	2664.317863
348.086012	2664.660662
348.476802	2661.704025
348.867528	2656.050371
349.258191	2655.662202
349.648789	2653.363436
350.039324	2649.522077
350.429796	2656.559527
350.820203	2653.179434
351.210548	2651.641882
351.600828	2651.155411
351.991045	2650.313538
352.381198	2647.016623
352.771288	2651.634320
353.161314	2648.370173
353.551276	2649.698517
353.941175	2646.434370
354.331010	2648.332364
354.720782	2646.739360
355.110490	2648.160965
355.500135	2647.520739
355.889717	2648.460914
356.279235	2646.885553
356.668689	2649.448980
357.058080	2649.595173
357.447408	2646.646098
357.836672	2646.489823
358.225873	2647.661891
358.615010	2651.097437
359.004084	2648.718013
359.393095	2652.450987
359.782043	2653.620535
360.170927	2653.381080
360.559748	2652.682880
360.948505	2653.307983
361.337199	2656.355361
361.725830	2655.374856
362.114398	2655.074908
362.502903	2656.478869
362.891344	2654.457366
363.279722	2655.266472
363.668037	2657.764363
364.056289	2659.576658
364.444478	2658.903664
364.832603	2661.053716
365.220665	2659.836277
365.608665	2661.497338
365.996601	2662.412307
366.384474	2660.791576
366.772284	2662.618994
367.160031	2664.017915
367.547715	2663.307112
367.935336	2663.241577
368.322893	2660.622697
368.710388	2665.222750
369.097820	2662.964313
369.485189	2662.571103
369.872495	2666.679644
370.259738	2668.025632
370.646918	2668.784326
371.034035	2669.545540
371.421090	2667.798780
371.808081	2672.411436
372.195010	2670.319357
372.581875	2672.514779
372.968678	2677.303876
373.355418	2682.723116
373.742096	2686.272088
374.128710	2691.928263
374.515262	2700.341949
374.901751	2709.063145
375.288177	2720.330124
375.674540	2734.495766
376.060841	2749.263826
376.447079	2766.572628
376.833254	2788.471400
377.219367	2804.106539
377.605417	2832.412618
377.991404	2855.120495
378.377329	2889.811195
378.763191	2911.639392
379.148991	2954.148921
379.534727	2992.537308
379.920402	3026.774304
380.306013	3055.692883
380.691563	3114.830659
381.077049	3141.332005
381.462474	3182.543438
381.847835	3242.089547
382.233134	3287.890950
382.618371	3317.396823
383.003545	3392.394069
383.388657	3421.617638
383.773706	3486.890498
384.158693	3521.029192
384.543618	3555.286353
384.928480	3617.869757
385.313280	3680.254036
385.698017	3710.137996
386.082692	3799.227788
386.467305	3810.698933
386.851856	3848.689068
387.236344	3932.372222
387.620770	3962.614104
388.005133	4016.355325
388.389435	4066.965989
388.773674	4078.842947
389.157851	4154.334226
389.541965	4220.461562
389.926018	4190.272612
390.310008	4291.690545
390.693936	4348.627857
391.077802	4383.542889
391.461606	4377.483422
391.845348	4449.902117
392.229027	4509.670037
392.612645	4512.120038
392.996200	4615.809011
393.379694	4674.263710
393.763125	4779.729690
394.146494	4804.645593
394.529801	4862.734809
394.913047	4947.519455
395.296230	4894.909973
395.679351	5003.816540
396.062410	5055.732863
396.445408	5029.002145
396.828343	5087.703861
397.211217	5147.774250
397.594028	5025.669942
397.976778	5143.053209
398.359466	5186.449982
398.742092	5211.580134
399.124656	5133.608608
399.507158	5255.576804
399.889598	5314.346576
400.271977	5435.843425
400.654294	5435.747643
401.036549	5474.085618
401.418742	5396.774482
401.800874	5605.601760
402.182944	5660.353732
402.564952	5765.875164
402.946898	5825.131407
403.328783	5663.237272
403.710606	5684.397515
404.092367	6006.756618
404.474067	6027.692530
404.855705	5925.999854
405.237282	5861.911666
405.618797	6122.254494
406.000250	6097.341112
406.381642	6303.728471
406.762972	6324.082130
407.144240	6385.153188
407.525447	6365.059149
407.906593	6378.019955
408.287677	6547.352313
408.668700	6457.650021
409.049661	6569.893832
409.430560	6596.990034
409.811399	6458.212110
410.192176	6724.942081
410.572891	6739.853814
410.953545	6925.544716
411.334138	6658.776936
411.714669	6834.564492
412.095139	6628.595548
412.475547	6879.105606
412.855894	6947.693025
413.236180	7133.978783
413.616405	6789.983048
413.996568	7011.811461
414.376670	7061.509676
414.756711	6958.733152
415.136691	7053.970630
415.516609	7262.041735
415.896466	7237.584577
416.276262	7451.170704
416.655997	7431.603465
417.035670	7603.920186
417.415283	7949.604708
417.794834	8015.744646
418.174324	7874.920014
418.553753	7797.014022
418.933121	8093.731296
419.312428	8195.991102
419.691674	7966.505176
420.070859	8453.266389
420.449983	8135.227554
420.829045	8496.582503
421.208047	8266.065661
421.586988	8578.589473
421.965867	8601.443544
422.344686	8697.578348
422.723444	8767.506714
423.102141	8102.271011
423.480777	8863.104635
423.859352	8391.655927
424.237866	9006.737190
424.616319	8869.111169
424.994712	9303.537643
425.373044	8847.683745
425.751314	9330.490172
426.129524	9202.623826
426.507673	9292.038771
426.885762	9449.174057
427.263789	9367.013332
427.641756	9308.672058
428.019662	9387.861024
428.397508	9653.199636
428.775292	9321.181682
429.153016	9703.560763
429.530679	9538.752841
429.908282	9548.623420
430.285824	9283.506618
430.663305	9968.100352
431.040726	9416.961084
431.418086	9398.991891
431.795385	9729.910874
432.172624	9830.025669
432.549802	9732.328107
432.926920	9802.264034
433.303977	9678.907000
433.680974	9885.622034
434.057910	9983.196087
434.434786	10057.893384
434.811601	9875.501917
435.188355	10436.927660
435.565050	10184.635554
435.941683	10109.915571
436.318257	10580.149361
436.694770	10764.108627
437.071222	10803.089349
437.447614	10629.900508
437.823946	10566.104706
438.200218	10653.818263
438.576429	10500.073153
438.952580	10743.956614
439.328670	10761.656105
439.704700	10564.068080
440.080670	10557.043232
440.456580	11077.499517
440.832429	10868.873886
441.208218	10469.334717
441.583947	10764.774059
441.959616	10944.312233
442.335224	10755.634447
442.710773	10869.486386
443.086261	11094.735222
443.461689	10359.089724
443.837057	11052.752493
444.212365	11280.579879
444.587612	10916.424569
444.962800	11130.497167
445.337927	10874.630883
445.712995	10549.148785
446.088002	11588.778381
446.462949	11283.531475
446.837837	11244.094528
447.212664	11175.754126
447.587431	11765.112902
447.962139	12520.408818
448.336786	14809.707685
448.711374	15293.151818
449.085901	13116.671454
449.460369	12763.861261
449.834776	12208.729399
450.209124	13142.567861
450.583412	13560.676120
450.957640	14485.435464
451.331808	13531.061862
451.705917	12606.012651
452.079965	11849.590037
452.453954	12764.970314
452.827883	12422.134044
453.201752	12709.777242
453.575562	12256.965680
453.949311	12674.658043
454.323001	12653.412100
454.696632	12897.189697
455.070202	13164.794308
455.443713	13362.478115
455.817164	13857.174104
456.190556	13818.332013
456.563888	14191.667264
456.937160	14329.895703
457.310373	13692.247715
457.683526	13800.521617
458.056619	13319.250221
458.429653	13537.701061
458.802628	12895.498390
459.175542	13305.258498
459.548398	14256.259569
459.921194	14617.848931
460.293930	14693.035220
460.666607	15535.265834
461.039224	16605.296109
461.411782	17320.280438
461.784280	17096.803568
462.156719	17208.318932
462.529099	16879.945732
462.901419	15838.859242
463.273680	15592.737509
463.645882	15507.569735
464.018024	15209.284662
464.390106	15444.862823
464.762130	16159.121226
465.134094	16959.336343
465.505999	19026.277476
465.877845	22294.812916
466.249631	25104.018582
466.621358	24707.093251
466.993026	23295.398775
467.364634	22700.898022
467.736184	21220.724513
468.107674	20432.053637
468.479105	20565.576159
468.850477	20017.242293
469.221790	19631.425145
469.593043	18930.946736
469.964238	18347.385287
470.335373	17995.346391
470.706449	18507.477210
471.077467	18097.470085
471.448425	19971.662701
471.819324	24105.141673
472.190164	25930.813183
472.560945	22249.508066
472.931667	19961.751792
473.302330	19344.737247
473.672934	18993.532661
474.043479	19210.680363
474.413965	19025.120531
474.784393	18610.886399
475.154761	19392.398836
475.525070	19296.294279
475.895321	19034.648312
476.265513	19630.701740
476.635645	20208.402847
477.005719	19973.749738
477.375734	20162.934160
477.745691	20644.452572
478.115588	21196.867252
478.485427	21761.403386
478.855207	22856.629347
479.224928	24649.760208
479.594591	26868.757664
479.964194	26779.715764
480.333739	27010.739242
480.703226	26597.778001
481.072653	26310.477602
481.442022	26932.187983
481.811333	27873.930974
482.180584	27745.613444
482.549777	26791.527188
482.918912	26460.787166
483.287988	26603.661028
483.657005	26222.665743
484.025964	26022.352975
484.394864	25881.503136
484.763706	25535.160744
485.132489	25016.005077
485.501213	25183.797362
485.869879	25092.151705
486.238487	24956.305212
486.607036	25063.724639
486.975527	24810.651154
487.343959	25113.208605
487.712333	25024.721232
488.080648	24684.342524
488.448905	25194.895462
488.817104	24967.012623
489.185244	25680.567785
489.553326	25617.636541
489.921350	26662.536663
490.289315	29025.733805
490.657222	30729.424514
491.025070	31249.333834
491.392861	30987.029997
491.760593	30124.203748
492.128267	29205.849190
492.495883	28136.290264
492.863440	27276.123224
493.230939	26413.763283
493.598380	26248.768838
493.965763	25874.995007
494.333088	25367.486926
494.700354	25338.076834
495.067563	25176.487689
495.434713	24934.139259
495.801805	25119.137002
496.168839	24881.232349
496.535815	24765.227837
496.902733	24984.979295
497.269593	24666.595142
497.636395	24833.495143
498.003139	24754.190231
498.369825	24507.455997
498.736453	24729.085285
499.103023	24594.259625
499.469535	24593.843730
499.835989	24809.206863
500.202385	24840.167110
500.568723	24378.830957
500.935003	24551.704725
501.301226	24249.011163
501.667390	25093.434679
502.033497	25282.672033
502.399546	25034.985021
502.765537	24554.066506
503.131470	24935.835607
503.497345	25105.218376
503.863163	24338.526932
504.228923	24865.259453
504.594625	25119.653720
504.960269	24686.482494
505.325856	25167.325392
505.691385	24548.221288
506.056856	25153.805017
506.422270	25147.705221
506.787625	24661.448124
507.152924	25107.033192
507.518164	25146.583564
507.883347	24968.177129
508.248472	24640.968436
508.613540	25426.105462
508.978550	25202.119435
509.343503	25233.803087
509.708398	25424.086480
510.073236	25604.010302
510.438016	25811.108464
510.802738	25466.976617
511.167403	25734.334212
511.532010	25467.344622
511.896561	26206.100512
512.261053	26185.991349
512.625488	26008.978794
512.989866	25908.153196
513.354186	25735.140796
513.718449	25860.012698
514.082655	26247.440494
514.446803	25969.010005
514.810894	26457.853214
515.174927	25946.103002
515.538904	25973.625182
515.902822	26474.753683
516.266684	26228.180766
516.630488	26128.572607
516.994235	26069.800315
517.357925	26413.710351
517.721558	26571.712715
518.085133	26689.804265
518.448651	26579.602121
518.812112	26340.578332
519.175516	26568.196510
519.538863	26708.489301
519.902152	26505.827355
520.265385	26755.586281
520.628560	26563.898927
520.991678	26540.001337
521.354739	26606.806708
521.717743	26709.787398
522.080690	26470.108259
522.443580	26803.961193
522.806413	26772.257377
523.169189	26909.086895
523.531908	26929.705214
523.894569	26557.390797
524.257174	26653.492833
524.619722	26787.862269
524.982213	26510.351791
525.344647	26528.930963
525.707025	26710.379734
526.069345	26645.747101
526.431608	26622.986291
526.793815	26808.551164
527.155964	26299.109800
527.518057	26471.129093
527.880093	26380.655505
528.242072	26596.487466
528.603995	26321.003532
528.965860	26109.078465
529.327669	26165.907392
529.689421	26147.912994
530.051117	25985.849980
530.412755	26166.598030
530.774337	25935.088081
531.135862	25835.545457
531.497331	26008.782189
531.858743	25612.653361
532.220098	26065.898462
532.581396	25759.393787
532.942638	25649.975543
533.303824	25771.835355
533.664953	25756.409424
534.026025	25428.613437
534.387040	25674.352043
534.747999	25719.785442
535.108902	25889.095114
535.469748	25384.823454
535.830537	25539.808687
536.191270	25688.464753
536.551947	25496.981565
536.912567	25129.904907
537.273131	25579.827887
537.633638	25241.851289
537.994089	25450.565141
538.354483	24949.754233
538.714821	25452.551356
539.075103	25511.522773
539.435328	25273.958398
539.795497	24873.776482
540.155609	25215.138215
540.515665	25532.206627
540.875665	24734.499484
541.235609	25089.195069
541.595496	25018.525653
541.955328	25385.314966
542.315102	25305.082482
542.674821	24812.221473
543.034483	24698.787950
543.394090	24867.608631
543.753640	24688.060375
544.113134	25305.642050
544.472571	24883.253852
544.831953	25199.949219
545.191278	24853.019532
545.550548	24740.916873
545.909761	24932.858806
546.268918	25172.840414
546.628019	25153.724358
546.987064	24834.412633
547.346053	24566.649226
547.704986	24657.241281
548.063863	24830.878784
548.422684	24853.937022
548.781449	24344.397355
549.140158	24767.531645
549.498811	24332.270860
549.857408	24101.779224
550.215949	24493.378575
550.574434	24192.215003
550.932864	24392.749582
551.291237	24578.717748
551.649555	24418.600619
552.007817	24467.189781
552.366022	24326.191228
552.724173	24345.990360
553.082267	24316.875176
553.440305	24805.940196
553.798288	24036.256827
554.156215	24521.029304
554.514086	24662.501725
554.871902	24042.313773
555.229661	24317.701925
555.587365	24174.238248
555.945014	24070.924842
556.302606	24289.103459
556.660143	24281.246821
557.017625	24505.527756
557.375050	24026.892883
557.732421	24412.344547
558.089735	24240.932714
558.446994	24284.687409
558.804197	24328.452186
559.161345	24209.317118
559.518437	24015.641028
559.875474	24185.664024
560.232455	24361.139027
560.589381	24173.681201
560.946251	24178.319063
561.303065	24481.297450
561.659825	24574.495782
562.016528	24179.564228
562.373177	23917.363734
562.729770	24274.983188
563.086307	24111.896819
563.442789	24282.902840
563.799216	24137.959585
564.155587	24131.761486
564.511904	24114.077118
564.868164	24083.774743
565.224370	24029.118553
565.580520	23987.007274
565.936615	24086.532254
566.292654	23799.186485
566.648638	24021.892059
567.004567	23858.795608
567.360441	23803.264778
567.716260	23533.363922
568.072023	23834.265354
568.427732	23620.921202
568.783385	23377.715776
569.138982	23623.333394
569.494525	23657.683817
569.850013	23431.489764
570.205445	23519.765409
570.560823	23353.359441
570.916145	23120.178350
571.271412	23296.260812
571.626625	23045.090363
571.981782	23154.052383
572.336884	22953.202731
572.691931	23099.668415
573.046923	22849.614582
573.401860	22709.841029
573.756743	22755.556733
574.111570	22643.960710
574.466342	22566.805851
574.821059	22634.848825
575.175722	22350.873067
575.530330	22292.441053
575.884882	22311.294968
576.239380	22235.007187
576.593823	22127.643213
576.948211	22094.157348
577.302544	21960.483592
577.656823	21809.528761
578.011047	21933.508378
578.365216	21794.213736
578.719330	21659.383035
579.073389	21545.523534
579.427394	21716.683310
579.781344	21457.578085
580.135239	21356.518074
580.489080	21293.317128
580.842866	21072.438972
581.196597	21280.454624
581.550273	21240.657235
581.903895	21123.412599
582.257463	21430.648241
582.610975	20974.983386
582.964434	21311.150210
583.317837	20964.157508
583.671186	21064.751212
584.024481	21053.017927
584.377721	20807.178498
584.730906	20900.139895
585.084037	20873.262984
585.437113	20807.899383
585.790135	21014.949654
586.143103	20472.239195
586.496016	20488.393573
586.848874	20726.525077
587.201679	20629.745006
587.554428	20334.076292
587.907124	20671.803352
588.259765	20422.888820
588.612352	20501.883700
588.964884	20075.984338
589.317362	20230.422607
589.669786	20308.260543
590.022155	20292.043151
590.374470	20535.548526
590.726731	20303.816766
591.078937	20098.004098
591.431090	20169.611168
591.783188	19951.742581
592.135232	19888.665144
592.487222	19995.653552
592.839157	19998.123717
593.191038	19880.763135
593.542866	19777.311096
593.894639	19475.852617
594.246358	19697.746565
594.598022	19583.718186
594.949633	19339.358335
595.301190	19329.021449
595.652692	19492.145626
596.004141	19708.423729
596.355535	19037.541934
596.706876	19065.991686
597.058162	18958.927660
597.409395	19204.988900
597.760573	19245.774355
598.111698	19014.072842
598.462768	18967.747159
598.813785	18936.701213
599.164748	18744.255165
599.515657	18795.211148
599.866511	18595.299151
600.217312	18946.821329
600.568060	18457.264797
600.918753	18773.763559
601.269392	18663.324481
601.619978	18460.652452
601.970510	18637.496129
602.320988	18593.204552
602.671412	18798.387075
603.021783	18735.332323
603.372100	18433.876364
603.722363	18591.157843
604.072572	18541.288229
604.422728	18687.728707
604.772830	18424.678779
605.122878	18389.554539
605.472872	18374.869658
605.822813	18359.962966
606.172701	18352.759157
606.522534	18517.781328
606.872314	18551.204178
607.222041	18387.379281
607.571714	18597.144213
607.921333	18419.541843
608.270899	18508.044340
608.620411	18657.756527
608.969870	18447.953786
609.319276	18442.194268
609.668627	18467.551272
610.017926	18607.874309
610.367171	18722.495024
610.716362	18776.924363
611.065500	18583.218026
611.414585	18734.513135
611.763616	18728.637670
612.112594	18657.149068
612.461518	18628.651425
612.810389	18815.441298
613.159207	18674.883847
613.507971	18593.043235
613.856682	18838.580195
614.205340	18755.365868
614.553945	18916.017359
614.902496	18655.089756
615.250994	18859.818576
615.599439	18822.098142
615.947830	18800.403537
616.296169	18888.238081
616.644454	18848.521350
616.992686	18819.401125
617.340864	19043.384631
617.688990	18781.650444
618.037063	18951.418862
618.385082	18816.830136
618.733048	19084.724613
619.080961	18981.108737
619.428821	19000.181943
619.776628	18881.074601
620.124382	18814.914498
620.472083	18876.807264
620.819731	18869.759731
621.167326	18566.304955
621.514868	18607.095451
621.862357	18388.949601
622.209793	18377.644813
622.557176	18231.123677
622.904506	18050.975523
623.251783	17989.657449
623.599007	17731.222697
623.946179	17666.554775
624.293297	17596.966688
624.640363	17330.052715
624.987376	17355.618927
625.334336	17152.198287
625.681243	17008.812748
626.028097	17022.817073
626.374899	16940.096780
626.721647	16803.665512
627.068343	16643.994526
627.414987	16578.209989
627.761577	16533.348761
628.108115	16570.633135
628.454600	16296.863193
628.801032	16405.376550
629.147412	16337.270562
629.493739	16341.999164
629.840014	16156.323385
630.186236	16251.094557
630.532405	16018.291552
630.878521	16217.074330
631.224585	16128.319776
631.570597	15942.177691
631.916556	15972.008718
632.262462	15943.500993
632.608316	15861.352871
632.954117	15810.689275
633.299866	15795.086904
633.645562	15707.983327
633.991206	15481.479243
634.336797	15356.022568
634.682336	15315.963039
635.027823	15184.013358
635.373257	15049.971598
635.718639	14975.112984
636.063968	14914.853551
636.409245	14657.263192
636.754470	14700.007136
637.099642	14543.504515
637.444762	14327.639787
637.789829	14364.503224
638.134845	14191.190875
638.479808	14222.415782
638.824719	14134.727432
639.169577	14010.049615
639.514383	14038.806877
639.859137	13872.468965
640.203839	13969.586793
640.548489	13823.239577
640.893086	13800.635043
641.237632	13682.137681
641.582125	13842.189274
641.926566	13650.058298
642.270955	13663.553467
642.615292	13624.008136
642.959576	13631.232109
643.303809	13656.609277
643.647990	13588.629318
643.992118	13659.926357
644.336195	13425.021190
644.680219	13660.037262
645.024192	13564.930854
645.368112	13806.248368
645.711981	13841.670035
646.055797	14019.625287
646.399562	14013.732178
646.743274	14275.773875
647.086935	14541.989648
647.430544	14511.740204
647.774101	14554.867276
648.117606	14689.541701
648.461059	14668.237784
648.804460	14639.200738
649.147810	14373.262229
649.491108	14286.940031
649.834354	14299.673986
650.177548	13964.147388
650.520690	13784.689873
650.863781	13707.287997
651.206820	13761.654321
651.549807	13585.627311
651.892742	13368.159496
652.235626	13311.993480
652.578458	13310.581957
652.921238	13019.198223
653.263967	13212.909601
653.606644	13049.130074
653.949269	13034.730018
654.291843	12827.367196
654.634365	12987.781753
654.976836	12831.584121
655.319255	12830.396930
655.661622	12799.512301
656.003938	12722.485990
656.346203	12637.361067
656.688416	12726.481105
657.030577	12675.799865
657.372687	12569.728947
657.714746	12567.173082
658.056753	12758.595775
658.398708	12567.455386
658.740612	12565.620406
659.082465	12683.066688
659.424266	12649.747182
659.766016	12685.998119
660.107715	12594.148296
660.449362	12668.023885
660.790958	12617.125875
661.132503	12556.165722
661.473996	12635.934420
661.815438	12641.540183
662.156829	12675.106706
662.498168	12643.377684
662.839456	12641.267961
663.180693	12657.412256
663.521879	12758.442020
663.863013	12727.804408
664.204097	12697.839789
664.545129	12835.024709
664.886110	12807.101758
665.227040	12902.624061
665.567918	12898.659194
665.908746	12918.274323
666.249522	12914.705187
666.590248	12970.639309
666.930922	13080.246597
667.271545	13047.201833
667.612118	13132.152837
667.952639	13033.799926
668.293109	13061.876632
668.633528	13009.824198
668.973896	12989.725117
669.314213	13047.247203
669.654480	12788.716670
669.994695	12876.732695
670.334859	12907.234197
670.674973	12842.520905
671.015035	12870.705996
671.355047	12821.912668
671.695008	12792.142134
672.034918	12804.629072
672.374777	12846.715145
672.714585	12759.606527
673.054342	12794.907207
673.394049	12750.529929
673.733705	12839.861696
674.073310	12747.699321
674.412864	12753.569745
674.752368	12607.431736
675.091820	12664.517762
675.431223	12639.838794
675.770574	12493.063079
676.109875	12418.353179
676.449125	12369.408616
676.788324	12328.197183
677.127473	12155.015905
677.466571	12153.561532
677.805619	12030.713654
678.144616	11970.789458
678.483562	11951.459154
678.822458	11809.800210
679.161303	11787.868670
679.500098	11777.393153
679.838842	11731.485885
680.177535	11772.067173
680.516179	11835.830208
680.854771	11774.678491
681.193314	11995.133190
681.531805	12166.706341
681.870247	12604.139863
682.208638	13013.529446
682.546978	13317.218636
682.885268	13322.743741
683.223508	13040.497098
683.561697	12888.733162
683.899836	12795.439048
684.237925	12585.411976
684.575963	12497.985766
684.913951	12406.909760
685.251889	12384.406049
685.589776	12477.049854
685.927614	12386.167932
686.265401	12365.138759
686.603137	12424.425249
686.940824	12569.255078
687.278460	12714.021893
687.616046	12744.382242
687.953582	12890.336249
688.291068	12834.369359
688.628504	13064.588773
688.965889	13071.459865
689.303224	13028.836910
689.640510	12908.426429
689.977745	12587.151174
690.314930	12369.764018
690.652065	12285.541460
690.989150	11979.064512
691.326185	11750.349883
691.663170	11555.332846
692.000105	11320.891466
692.336990	11189.413132
692.673825	10928.893863
693.010610	10822.686834
693.347345	10614.701429
693.684030	10418.224979
694.020665	10360.413027
694.357251	10159.535649
694.693786	10087.953785
695.030272	9937.404766
695.366707	9825.304628
695.703093	9757.208722
696.039429	9753.258978
696.375716	9651.893977
696.711952	9527.755563
697.048139	9581.133821
697.384276	9539.748468
697.720363	9561.906860
698.056400	9489.770469
698.392388	9433.609495
698.728326	9398.538188
699.064214	9339.576852
699.400053	9375.265701
699.735842	9191.583699
700.071581	9155.284870
700.407270	9083.551772
700.742910	8997.285027
701.078501	8903.746417
701.414042	8770.599462
701.749533	8712.555616
702.084974	8579.443949
702.420366	8696.791928
702.755709	8576.220131
703.091002	8437.449768
703.426246	8467.805076
703.761440	8425.517357
704.096584	8383.312817
704.431679	8316.008372
704.766725	8304.010426
705.101721	8257.029393
705.436668	8306.528483
705.771565	8197.891617
706.106413	8282.993856
706.441212	8314.770769
706.775961	8280.223742
707.110661	8325.989857
707.445311	8455.519784
707.779913	8353.633024
708.114465	8471.742218
708.448967	8516.994135
708.783421	8681.388682
709.117825	8850.693314
709.452180	8882.054332
709.786485	8971.812076
710.120742	9260.632383
710.454949	9273.832644
710.789107	9374.723777
711.123216	9602.967058
711.457275	9769.836812
711.791286	9910.729501
712.125247	9915.531200
712.459159	9908.350076
712.793023	10126.667326
713.126837	9705.468839
713.460602	9870.732986
713.794318	9697.929794
714.127985	9721.245130
714.461602	9381.158810
714.795171	9335.848919
715.128691	9081.714271
715.462162	8842.448507
715.795584	8778.698075
716.128957	8608.536448
716.462281	8450.342519
716.795556	8492.710897
717.128782	8289.106255
717.461960	8033.363479
717.795088	8100.549457
718.128167	8006.841969
718.461198	7844.035385
718.794180	7788.940614
719.127113	7784.494317
719.459997	7602.254084
719.792833	7389.618215
720.125619	7463.453475
720.458357	7310.512429
720.791046	7304.586553
721.123686	7291.124151
721.456278	7132.383258
721.788821	7149.906309
722.121315	7053.048099
722.453761	7127.964687
722.786158	7056.347534
723.118506	7064.509163
723.450805	7030.867022
723.783056	7088.875580
724.115259	7017.071905
724.447412	7016.330855
724.779518	7072.461583
725.111574	7067.274235
725.443582	7141.913559
725.775542	7117.143850
726.107453	7313.237173
726.439315	7226.511682
726.771129	7306.625699
727.102895	7480.348902
727.434612	7583.916887
727.766281	7627.432127
728.097901	7692.011829
728.429473	7704.050104
728.760996	7697.594907
729.092471	7668.585587
729.423897	7601.765092
729.755276	7591.980213
730.086606	7513.270157
730.417887	7620.417362
730.749120	7848.416147
731.080305	8035.359776
731.411442	8131.345866
731.742530	8120.822457
732.073570	8227.057213
732.404562	8313.737333
732.735506	8179.229266
733.066401	8307.652660
733.397249	8220.055050
733.728048	7983.007393
734.058798	7646.235631
734.389501	7410.634786
734.720156	7240.198415
735.050762	7020.459560
735.381320	6935.382527
735.711831	6871.957250
736.042293	6765.934223
736.372707	6778.632890
736.703073	6646.801675
737.033391	6688.045876
737.363661	6699.312854
737.693883	6737.940696
738.024056	6820.567728
738.354182	6853.904878
738.684260	6891.108594
739.014290	7016.411514
739.344272	7126.832947
739.674207	7153.535939
740.004093	7228.616364
740.333931	7241.897284
740.663722	7245.037923
740.993464	7330.876170
741.323159	7300.672097
741.652806	7056.307205
741.982405	7094.108297
742.311956	7126.681713
742.641460	6941.938548
742.970915	6759.688233
743.300323	6748.993426
743.629683	6706.756118
743.958996	6565.681948
744.288260	6474.522763
744.617477	6424.282624
744.946647	6417.318270
745.275768	6261.894456
745.604842	6215.354523
745.933869	6197.218972
746.262847	6152.486294
746.591778	6138.940713
746.920662	6098.359425
747.249498	6101.946206
747.578286	6143.548328
747.907027	6221.787036
748.235720	6281.423886
748.564365	6253.107725
748.892963	6299.874509
749.221514	6432.169509
749.550017	6241.664305
749.878473	6141.476414
750.206881	6205.907401
750.535242	6149.915305
750.863555	6077.063071
751.191821	6085.098670
751.520039	6078.058698
751.848210	5990.370348
752.176334	6024.030132
752.504411	6060.472633
752.832440	5984.673844
753.160421	5920.389050
753.488356	5971.322348
753.816243	5996.598693
754.144082	5848.799624
754.471875	5824.213917
754.799620	5863.517273
755.127318	5879.674171
755.454969	5832.693138
755.782572	5801.808509
756.110129	5848.499676
756.437638	5820.773330
756.765100	5763.011789
757.092515	5778.775477
757.419882	5832.241955
757.747203	5800.467562
758.074477	5862.057859
758.401703	5835.828736
758.728882	5803.492254
759.056014	5877.430858
759.383099	5985.372044
759.710138	5999.530124
760.037129	5985.437579
760.364073	5989.788095
760.690970	6069.062759
761.017820	6050.486107
761.344623	6016.637280
761.671379	6115.587568
761.998088	6251.182004
762.324751	6509.170614
762.651366	7156.774881
762.977935	8542.845172
763.304456	10208.790242
763.630931	11055.918338
763.957359	10592.598490
764.283740	9615.743863
764.610074	8744.829083
764.936362	7732.635967
765.262602	7143.751060
765.588796	6616.789166
765.914943	6286.747344
766.241044	6109.059274
766.567097	5900.869703
766.893104	5638.926307
767.219064	5467.292663
767.544978	5407.060957
767.870845	5318.588707
768.196665	5216.230599
768.522438	5142.531450
768.848165	5105.766315
769.173846	5033.024986
769.499479	4990.104602
769.825066	4944.461995
770.150607	4882.196183
770.476101	4862.427298
770.801548	4852.798694
771.126949	4757.241103
771.452303	4708.341910
771.777611	4679.740924
772.102872	4702.998287
772.428087	4658.729395
772.753256	4612.537302
773.078378	4563.711207
773.403453	4496.477338
773.728482	4482.578877
774.053465	4438.486424
774.378401	4425.676852
774.703291	4419.561933
775.028135	4344.826827
775.352932	4298.735558
775.677683	4283.917086
776.002388	4298.208757
776.327046	4310.509172
776.651658	4236.200044
776.976224	4176.215354
777.300743	4181.538813
777.625216	4201.025393
777.949643	4195.212943
778.274024	4154.167868
778.598359	4118.574801
778.922647	4140.949963
779.246889	4126.542345
779.571086	4119.971201
779.895236	4104.492338
780.219339	4094.223508
780.543397	4092.759052
780.867409	4144.259480
781.191374	4155.612159
781.515294	4085.136828
781.839167	4086.795368
782.162995	4112.265797
782.486776	4093.179989
782.810511	4106.208851
783.134201	4094.750308
783.457844	4044.152247
783.781441	3995.056450
784.104993	4003.666741
784.428498	4019.914379
784.751958	4013.053369
785.075372	3991.310872
785.398739	3957.751911
785.722061	3970.415290
786.045337	4012.541692
786.368568	4041.931619
786.691752	3950.389306
787.014891	4009.819469
787.337983	4145.461795
787.661030	4313.579235
787.984031	4470.820385
788.306987	4638.700891
788.629897	4725.053335
788.952760	4678.951983
789.275579	4613.989154
789.598351	4542.117424
789.921078	4383.903331
790.243759	4188.626675
790.566395	4178.524203
790.888984	4169.251000
791.211529	4060.906522
791.534027	3997.393025
791.856480	3981.009275
792.178888	3923.746808
792.501249	3879.142679
792.823566	3892.577354
793.145836	3914.105601
793.468062	3858.693238
793.790241	3822.381807
794.112375	3850.655118
794.434464	3920.782610
794.756507	3939.480249
795.078505	3913.253646
795.400457	3957.827529
795.722364	4106.876804
796.044226	4208.413204
796.366042	4281.865336
796.687812	4251.131942
797.009538	4254.486830
797.331218	4221.341243
797.652852	4196.876523
797.974442	4172.623532
798.295986	4167.690763
798.617484	4081.219851
798.938938	4002.882841
799.260346	4046.352711
799.581709	4034.324518
799.903026	3956.771407
800.224299	3924.671860
800.545526	3918.642640
800.866708	3874.003222
801.187845	3824.156293
801.508936	3853.969677
801.829983	3837.066688
802.150984	3767.443313
802.471940	3760.582302
802.792851	3770.137809
803.113717	3772.794497
803.434538	3768.315432
803.755314	3705.966441
804.076045	3689.421374
804.396731	3712.814849
804.717372	3734.595154
805.037967	3718.919686
805.358518	3707.135989
805.679024	3734.065833
805.999485	3752.403030
806.319901	3757.547527
806.640272	3767.604629
806.960598	3777.951598
807.280879	3757.587857
807.601115	3771.819034
807.921306	3786.312351
808.241453	3828.957992
808.561554	3795.449443
808.881611	3731.804875
809.201623	3774.155609
809.521590	3779.136269
809.841513	3754.749687
810.161390	3786.907208
810.481223	3757.222373
810.801011	3705.331256
811.120755	3703.118189
811.440453	3739.091863
811.760107	3733.397880
812.079716	3688.282074
812.399281	3662.007580
812.718801	3688.239224
813.038276	3665.009587
813.357707	3658.319976
813.677093	3670.776667
813.996434	3619.729943
814.315731	3633.940956
814.634983	3638.457830
814.954191	3655.524656
815.273354	3677.856967
815.592473	3670.461595
815.911547	3683.225796
816.230577	3730.448805
816.549562	3779.665590
816.868502	3819.256292
817.187399	3841.195393
817.506250	3842.332173
817.825058	3820.675377
818.143821	3918.141045
818.462539	4016.304913
818.781213	4059.613466
819.099843	4131.260865
819.418429	4400.100558
819.736970	4639.086539
820.055466	4899.353750
820.373919	5273.669506
820.692327	5692.445717
821.010691	6194.635381
821.329011	7705.040691
821.647286	10631.622062
821.965517	15418.008596
822.283704	19441.958419
822.601847	21406.042369
822.919945	19462.241502
823.237999	16773.363137
823.556010	14241.620058
823.873976	12054.391953
824.191897	9937.155229
824.509775	8608.153320
824.827609	7465.795091
825.145398	6946.344516
825.463144	6815.713097
825.780845	6931.669717
826.098502	7171.444638
826.416116	8133.208572
826.733685	9512.432976
827.051210	10609.221695
827.368692	10531.451815
827.686129	9186.827370
828.003522	7671.630444
828.320872	6639.413864
828.638177	5919.947949
828.955439	5346.110886
829.272656	4840.054657
829.589830	4569.601795
829.906960	4392.480854
830.224046	4195.152449
830.541088	4073.963110
830.858086	4022.795399
831.175041	3945.796815
831.491952	3938.126699
831.808819	3947.306641
832.125642	4028.159187
832.442421	4189.765976
832.759157	4485.371676
833.075849	5074.795986
833.392497	5982.327187
833.709101	6777.251613
834.025662	7079.244455
834.342179	6647.623383
834.658653	5961.781964
834.975083	5297.642713
835.291469	4711.316191
835.607811	4314.627795
835.924110	4164.925690
836.240366	3956.529432
836.556578	3754.048967
836.872746	3646.841268
837.188871	3598.433589
837.504952	3533.528733
837.820990	3447.934982
838.136984	3407.245308
838.452935	3434.313784
838.768842	3427.246086
839.084706	3453.674335
839.400526	3624.937455
839.716303	3998.822192
840.032037	4554.231317
840.347727	4783.266059
840.663373	4465.010455
840.978977	4071.175352
841.294537	3759.143053
841.610054	3534.138713
841.925527	3427.795572
842.240957	3353.486444
842.556344	3298.716828
842.871687	3238.739700
843.186987	3185.984025
843.502244	3150.723674
843.817458	3116.693365
844.132629	3089.186309
844.447756	3094.754264
844.762840	3074.647622
845.077881	3043.518497
845.392879	3026.083666
845.707833	3026.512164
846.022745	3024.329345
846.337613	3024.629293
846.652438	3009.089937
846.967221	3007.191942
847.281960	2994.216012
847.596656	2991.513954
847.911309	2990.283912
848.225919	2985.071359
848.540485	2978.568271
848.855009	2978.820328
849.169490	2968.579224
849.483928	2959.187555
849.798323	2961.191413
850.112675	2954.025413
850.426984	2970.782208
850.741251	2962.020683
851.055474	2952.082048
851.369654	2946.486368
851.683792	2954.058181
851.997887	2962.025724
852.311938	2966.779532
852.625947	2952.097172
852.939914	2955.031123
853.253837	2957.879375
853.567718	2946.619958
853.881555	2946.163734
854.195350	2961.950107
854.509103	2953.649847
854.822812	2947.688683
855.136479	2946.045267
855.450103	2948.338992
855.763685	2941.049483
856.077224	2937.240891
856.390720	2952.031637
856.704173	2958.829633
857.017584	2950.758745
857.330953	2953.193623
857.644278	2960.319294
857.957561	2971.072075
858.270802	2972.554174
858.584000	2969.292548
858.897155	2951.714044
859.210268	2955.701597
859.523339	2952.351750
859.836367	2954.602625
860.149352	2948.165072
860.462295	2941.183074
860.775195	2951.459466
861.088054	2946.133487
861.400869	2932.527413
861.713642	2934.190993
862.026373	2946.493929
862.339062	2947.645833
862.651708	2955.215125
862.964312	2958.181844
863.276873	2950.277315
863.589392	2961.219140
863.901869	2977.418888
864.214303	3000.270438
864.526696	3013.745442
864.839045	3010.433404
865.151353	3011.033301
865.463619	3007.033146
865.775842	3008.555574
866.088023	3026.920498
866.400162	3029.801517
866.712258	3001.034173
867.024313	2992.373470
867.336325	3006.007271
867.648296	3025.577030
867.960224	3015.542613
868.272110	3002.601972
868.583954	3008.719412
868.895755	3020.430012
869.207515	3010.067920
869.519233	3017.727954
869.830909	3026.620549
870.142542	3033.645397
870.454134	3035.132537
870.765684	3037.910213
871.077191	3037.501880
871.388657	3047.168292
871.700081	3060.988615
872.011463	3069.346848
872.322803	3071.441448
872.634101	3067.620253
872.945357	3092.160590
873.256571	3115.884260
873.567744	3105.083588
873.878874	3101.529575
874.189963	3123.756022
874.501010	3123.476238
874.812015	3114.979373
875.122979	3113.706482
875.433900	3113.073817
875.744780	3120.118829
876.055618	3125.470014
876.366415	3121.598408
876.677169	3131.917650
876.987882	3125.898512
877.298554	3127.690642
877.609183	3151.202584
877.919771	3175.609330
878.230317	3204.815255
878.540822	3253.878285
878.851285	3292.901857
879.161707	3341.775843
879.472087	3461.904019
879.782425	3715.156465
880.092722	4181.899255
880.402977	4730.933841
880.713191	5401.558538
881.023363	6643.734133
881.333494	7962.313457
881.643583	8477.763876
881.953631	8137.962380
882.263637	7448.110723
882.573602	6819.161246
882.883526	6228.343056
883.193408	5653.754862
883.503248	5198.344585
883.813048	4880.225092
884.122806	4544.643042
884.432522	4215.874112
884.742197	3975.307730
885.051831	3784.121970
885.361424	3652.832680
885.670975	3576.602872
885.980485	3481.756083
886.289954	3404.570976
886.599382	3358.328472
886.908768	3319.599808
887.218113	3278.307717
887.527417	3214.874878
887.836680	3167.178001
888.145901	3161.347906
888.455082	3145.606903
888.764221	3093.665375
889.073319	3064.204872
889.382376	3060.078687
889.691392	3066.942218
890.000366	3065.533216
890.309300	3050.084600
890.618193	3066.077660
890.927044	3081.049887
891.235855	3079.010740
891.544625	3068.373906
891.853353	3080.313879
892.162041	3098.877928
892.470687	3144.051707
892.779293	3193.250848
893.087858	3245.026019
893.396381	3321.361691
893.704864	3455.935293
894.013306	3714.793502
894.321707	4025.999052
894.630068	4226.460535
894.938387	4207.941856
895.246665	4171.148995
895.554903	4037.805434
895.863100	3828.927745
896.171256	3654.564316
896.479371	3507.574352
896.787446	3383.146073
897.095480	3276.077006
897.403473	3211.772047
897.711425	3178.870957
898.019336	3168.551715
898.327207	3133.815644
898.635038	3094.345930
898.942827	3083.416709
899.250576	3072.336253
899.558284	3040.214020
899.865952	3017.911956
900.173579	2999.423524
900.481165	2991.919767
900.788711	2976.758496
901.096216	2950.859568
901.403681	2939.970676
901.711105	2948.931327
902.018489	2946.972839
902.325832	2944.149793
902.633135	2959.147225
902.940397	2994.815909
903.247619	3086.282605
903.554800	3298.389153
903.861941	3674.665917
904.169041	4129.937562
904.476101	4419.536727
904.783121	4343.415304
905.090100	4076.977720
905.397039	3787.565078
905.703938	3533.758105
906.010796	3341.697706
906.317614	3232.120665
906.624391	3130.884213
906.931129	3056.413768
907.237826	2992.277688
907.544483	2946.415791
907.851099	2916.879671
908.157675	2892.830847
908.464211	2872.671272
908.770707	2857.245342
909.077163	2845.000379
909.383578	2829.173676
909.689954	2816.797644
909.996289	2819.429126
910.302584	2817.342088
910.608839	2818.131029
910.915054	2812.515183
911.221229	2804.630819
911.527363	2808.628454
911.833458	2815.461738
912.139513	2821.354847
912.445527	2825.811227
912.751502	2831.396825
913.057436	2841.683300
913.363331	2859.851618
913.669186	2883.681152
913.975000	2921.414189
914.280775	2983.674959
914.586510	3056.617935
914.892205	3143.063641
915.197859	3279.651184
915.503475	3494.827795
915.809050	3724.283474
916.114585	3868.745299
916.420081	3875.293758
916.725536	3810.338491
917.030952	3681.887370
917.336328	3547.528017
917.641665	3408.936616
917.946961	3308.264773
918.252218	3230.925912
918.557435	3151.570588
918.862612	3087.699169
919.167750	3036.314688
919.472848	2993.346413
919.777906	2968.435551
920.082925	2940.789864
920.387904	2907.765265
920.692843	2889.080228
920.997743	2879.312993
921.302603	2865.336393
921.607423	2854.694518
921.912204	2840.876715
922.216946	2828.488079
922.521647	2817.934424
922.826310	2812.132056
923.130932	2803.889769
923.435516	2792.257307
923.740059	2786.475103
924.044564	2778.366407
924.349028	2772.538833
924.653454	2766.567587
924.957840	2760.245980
925.262186	2755.177100
925.566493	2749.808271
925.870761	2744.658732
926.174989	2741.064389
926.479178	2734.805797
926.783328	2733.283368
927.087438	2732.358317
927.391509	2726.848336
927.695541	2726.629045
927.999533	2722.391956
928.303486	2717.353322
928.607400	2717.875082
928.911275	2719.684856
929.215110	2719.142932
929.518906	2715.266285
929.822663	2715.808209
930.126381	2717.123950
930.430060	2715.732591
930.733699	2718.023796
931.037299	2719.105123
931.340861	2719.662171
931.644383	2718.227962
931.947866	2720.156204
932.251309	2718.394321
932.554714	2716.587067
932.858080	2714.381562
933.161407	2712.075234
933.464694	2712.425594
933.767943	2708.057435
934.071153	2710.812425
934.374323	2711.006510
934.677455	2710.769575
934.980548	2710.192363
935.283602	2709.355532
935.586617	2705.970397
935.889593	2709.816797
936.192530	2708.730429
936.495428	2709.186653
936.798287	2711.800491
937.101108	2716.750904
937.403890	2717.381049
937.706632	2722.767522
938.009336	2729.898234
938.312002	2739.385685
938.614628	2748.066552
938.917216	2753.536204
939.219765	2754.272212
939.522275	2755.230032
939.824747	2752.079311
940.127179	2750.511512
940.429573	2745.616551
940.731929	2742.400295
941.034246	2739.113463
941.336524	2737.971642
941.638763	2733.439644
941.940964	2730.427555
942.243126	2728.141392
942.545250	2728.779098
942.847335	2726.054354
943.149381	2722.742316
943.451389	2717.456666
943.753359	2715.377190
944.055290	2712.506253
944.357182	2712.410471
944.659036	2711.334185
944.960851	2712.181098
945.262628	2708.488453
945.564367	2709.826880
945.866067	2713.022971
946.167729	2712.044987
946.469352	2715.094885
946.770937	2712.261757
947.072484	2709.771427
947.373992	2709.897456
947.675462	2706.197249
947.976893	2701.501414
948.278286	2704.884028
948.579641	2701.251877
948.880958	2700.490663
949.182236	2702.071064
949.483476	2700.004191
949.784678	2702.779347
950.085841	2700.783050
950.386967	2701.967721
950.688054	2701.829089
950.989103	2704.326981
951.290114	2703.656507
951.591087	2703.971579
951.892021	2708.511138
952.192917	2711.581201
952.493776	2713.073383
952.794596	2713.217056
953.095378	2711.324102
953.396122	2712.690255
953.696828	2711.934082
953.997496	2710.517518
954.298126	2708.062476
954.598718	2704.934440
954.899272	2703.865715
955.199788	2702.199614
955.500266	2697.231557
955.800706	2695.368850
956.101108	2692.976823
956.401472	2692.918850
956.701798	2687.986081
957.002087	2686.282171
957.302337	2687.890299
957.602550	2684.792510
957.902724	2684.858045
958.202861	2680.341171
958.502960	2682.947447
958.803022	2681.455266
959.103045	2681.256140
959.403031	2677.187929
959.702979	2676.968639
960.002889	2678.168433
960.302762	2676.351097
960.602596	2675.904955
960.902393	2673.570901
961.202153	2677.515604
961.501875	2676.749349
961.801559	2674.528720
962.101205	2674.201045
962.400814	2673.714574
962.700385	2676.335974
962.999918	2672.686179
963.299414	2671.446055
963.598873	2670.238698
963.898293	2668.653256
964.197677	2673.694409
964.497022	2673.371776
964.796331	2671.375479
965.095601	2672.517300
965.394835	2673.828000
965.694030	2675.156344
965.993189	2673.815397
966.292309	2672.678617
966.591393	2674.143072
966.890439	2672.078720
967.189447	2671.115859
967.488419	2671.539316
967.787353	2672.229954
968.086249	2671.965294
968.385108	2672.396312
968.683930	2673.422187
968.982714	2671.377999
969.281462	2673.381858
969.580172	2672.539985
969.878844	2674.780778
970.177480	2670.901610
970.476078	2673.984276
970.774639	2672.078720
971.073162	2673.598627
971.371649	2674.054852
971.670098	2672.121569
971.968510	2671.501507
972.266885	2673.218020
972.565223	2673.790191
972.863524	2672.693740
973.161788	2672.678617
973.460014	2674.279183
973.758204	2670.889007
974.056356	2669.202741
974.354471	2670.707526
974.652550	2673.114677
974.950591	2672.381189
975.248595	2671.879594
975.546563	2670.271466
975.844493	2672.514779
976.142386	2673.097033
976.440243	2670.329439
976.738062	2671.262053
977.035845	2668.663338
977.333590	2672.078720
977.631299	2670.798267
977.928971	2668.030673
978.226606	2665.346259
978.524204	2670.263904
978.821765	2667.521517
979.119290	2670.158040
979.416777	2668.612926
979.714228	2670.823472
980.011642	2670.147958
980.309020	2671.433452
980.606360	2670.563853
980.903664	2671.224244
981.200931	2670.538647
981.498162	2673.064265
981.795356	2671.783812
982.092513	2676.439318
982.389633	2675.771365
982.686717	2679.955522
982.983764	2683.479289
983.280775	2687.799558
983.577749	2690.325176
983.874686	2689.753005
984.171587	2686.748477
984.468451	2679.703465
984.765279	2680.333609
985.062070	2679.287570
985.358824	2676.071313
985.655543	2675.423525
985.952224	2673.654080
986.248869	2674.034687
986.545478	2668.907834
986.842050	2668.058399
987.138586	2669.626198
987.435086	2671.758606
987.731549	2668.300375
988.027975	2667.909685
988.324366	2668.166784
988.620719	2668.113852
988.917037	2665.983965
989.213318	2667.052689
989.509563	2668.617967
989.805772	2665.757113
990.101944	2665.631084
990.398080	2663.501196
990.694180	2667.413132
990.990244	2666.447751
991.286271	2666.389777
991.582262	2665.575631
991.878217	2665.835251
992.174136	2668.832217
992.470019	2667.851712
992.765865	2663.811227
993.061676	2664.262411
993.357450	2665.661331
993.653188	2660.048006
993.948890	2667.307267
994.244556	2667.466064
994.540186	2666.898934
994.835780	2669.464881
995.131337	2668.549912
995.426859	2668.171825
995.722345	2669.033863
996.017795	2670.279028
996.313208	2673.202897
996.608586	2669.779953
996.903928	2671.282217
997.199234	2670.513441
997.494504	2671.020077
997.789738	2670.652073
998.084936	2669.812721
998.380099	2669.490087
998.675225	2668.355827
998.970316	2667.952535
999.265371	2668.219716
999.560390	2665.961279
999.855373	2665.487411
1000.150320	2668.315498
1000.445232	2667.536640
1000.740108	2668.479336
1001.034948	2665.908347
1001.329752	2667.259377
1001.624521	2662.913902
1001.919254	2666.198214
1002.213951	2666.152843
1002.508613	2666.614109
1002.803239	2665.570590
1003.097829	2665.661331
1003.392384	2665.726866
1003.686903	2666.752741
1003.981386	2667.405570
1004.275834	2663.609581
1004.570246	2664.753923
1004.864623	2661.998933
1005.158964	2665.502534
1005.453270	2666.165446
1005.747540	2661.825013
1006.041775	2665.026145
1006.335974	2667.829027
1006.630138	2664.179232
1006.924266	2664.605209
1007.218359	2665.623522
1007.512416	2660.970537
1007.806438	2660.811741
1008.100425	2662.893737
1008.394376	2659.654796
1008.688292	2663.254180
1008.982172	2665.242915
1009.276017	2662.785352
1009.569827	2662.256031
1009.863602	2665.464726
1010.157341	2661.666216
1010.451045	2666.039417
1010.744714	2664.375837
1011.038347	2661.308294
1011.331945	2662.891217
1011.625508	2661.635969
1011.919036	2662.021618
1012.212528	2664.953049
1012.505986	2664.025476
1012.799408	2663.120589
1013.092795	2663.599499
1013.386147	2662.780311
1013.679464	2663.738131
1013.972745	2664.191834
1014.265992	2663.536484
1014.559204	2664.549756
1014.852380	2663.407935
1015.145521	2661.933397
1015.438628	2663.523882
1015.731699	2663.574293
1016.024736	2663.150836
1016.317737	2660.927687
1016.610703	2663.982627
1016.903635	2664.096052
1017.196531	2662.772750
1017.489393	2664.088491
1017.782219	2661.393994
1018.075011	2664.937925
1018.367768	2661.882986
1018.660490	2662.893737
1018.953177	2662.893737
1019.245829	2662.893737
