Dividing Wavelength (nm)	Counts (n)	Blue Motor Position (mm): 26.000000	Red Motor Position (mm): 0.000000	
326.493990	2201.091278
326.888308	2201.091278
327.282561	2201.091278
327.676750	2159.249701
328.070874	2156.736685
328.464933	2156.290543
328.858929	2160.784732
329.252859	2167.355876
329.646726	2175.295693
330.040528	2186.729030
330.434265	2201.723942
330.827938	2219.768753
331.221547	2235.023284
331.615091	2252.246386
332.008571	2271.589293
332.401986	2288.330965
332.795338	2309.115643
333.188625	2328.443427
333.581847	2345.628720
333.975006	2367.078830
334.368100	2386.527601
334.761129	2401.474622
335.154095	2419.849628
335.546996	2442.040787
335.939833	2479.793988
336.332606	2493.117758
336.725315	2508.407578
337.117960	2520.783610
337.510540	2533.136958
337.903056	2544.540048
338.295508	2552.936090
338.687896	2562.163922
339.080220	2567.331104
339.472480	2575.293607
339.864676	2580.657395
340.256807	2585.869948
340.648875	2591.397573
341.040879	2591.326997
341.432818	2594.742378
341.824694	2599.501228
342.216506	2601.003492
342.608253	2599.118100
342.999937	2602.949377
343.391557	2599.571804
343.783113	2598.639190
344.174605	2597.973758
344.566033	2596.279930
344.957397	2598.089705
345.348697	2597.913264
345.739934	2593.194744
346.131106	2589.875144
346.522215	2588.075452
346.913260	2589.126533
347.304241	2587.004207
347.695159	2586.419433
348.086012	2579.744946
348.476802	2581.441294
348.867528	2576.304358
349.258191	2574.928123
349.648789	2573.138514
350.039324	2573.151117
350.429796	2575.815366
350.820203	2572.155489
351.210548	2568.840930
351.600828	2568.765313
351.991045	2572.233627
352.381198	2567.147102
352.771288	2568.795560
353.161314	2567.278172
353.551276	2566.925292
353.941175	2566.128789
354.331010	2564.016546
354.720782	2566.716084
355.110490	2563.872873
355.500135	2566.653069
355.889717	2565.869170
356.279235	2564.770198
356.668689	2565.014694
357.058080	2563.530074
357.447408	2567.492421
357.836672	2564.482852
358.225873	2566.083419
358.615010	2568.430076
359.004084	2566.254818
359.393095	2568.341856
359.782043	2571.739593
360.170927	2569.241702
360.559748	2568.843451
360.948505	2570.358317
361.337199	2572.102557
361.725830	2568.387226
362.114398	2572.803277
362.502903	2572.152968
362.891344	2571.371589
363.279722	2571.409398
363.668037	2574.111456
364.056289	2575.636405
364.444478	2574.260170
364.832603	2576.952147
365.220665	2573.302351
365.608665	2576.604307
365.996601	2578.172106
366.384474	2576.385017
366.772284	2576.561457
367.160031	2577.214287
367.547715	2575.275963
367.935336	2577.173957
368.322893	2575.936354
368.710388	2575.885942
369.097820	2576.667321
369.485189	2575.596076
369.872495	2582.257961
370.259738	2579.228227
370.646918	2582.326017
371.034035	2580.062538
371.421090	2581.554720
371.808081	2582.575554
372.195010	2582.313414
372.581875	2582.941037
372.968678	2580.992631
373.355418	2582.247879
373.742096	2584.614700
374.128710	2582.038671
374.515262	2582.729309
374.901751	2583.674525
375.288177	2583.266192
375.674540	2584.992787
376.060841	2586.298446
376.447079	2583.215780
376.833254	2586.926069
377.219367	2584.670153
377.605417	2583.498085
377.991404	2584.939855
378.377329	2590.543097
378.763191	2583.354412
379.148991	2584.937334
379.534727	2588.463621
379.920402	2587.641913
380.306013	2585.459094
380.691563	2589.996132
381.077049	2586.273240
381.462474	2587.977150
381.847835	2588.859352
382.233134	2590.855649
382.618371	2589.270206
383.003545	2588.312387
383.388657	2588.725761
383.773706	2591.916812
384.158693	2589.872624
384.543618	2590.832964
384.928480	2588.627459
385.313280	2591.251379
385.698017	2590.321287
386.082692	2591.682398
386.467305	2589.449167
386.851856	2593.023345
387.236344	2592.183993
387.620770	2587.737695
388.005133	2590.117120
388.389435	2591.483272
388.773674	2588.398086
389.157851	2591.258941
389.541965	2594.790269
389.926018	2594.331524
390.310008	2593.787080
390.693936	2595.569128
391.077802	2597.325970
391.461606	2596.126175
391.845348	2594.613829
392.229027	2594.641555
392.612645	2597.083994
392.996200	2597.222626
393.379694	2597.840167
393.763125	2597.073912
394.146494	2600.587596
394.529801	2598.971907
394.913047	2598.440065
395.296230	2597.605754
395.679351	2599.055086
396.062410	2601.046341
396.445408	2598.460229
396.828343	2596.683223
397.211217	2600.958121
397.594028	2598.707246
397.976778	2599.622215
398.359466	2601.714294
398.742092	2601.177411
399.124656	2598.500559
399.507158	2600.252360
399.889598	2603.145982
400.271977	2599.781012
400.654294	2602.543564
401.036549	2602.198245
401.418742	2602.699840
401.800874	2602.583893
402.182944	2601.568101
402.564952	2602.593976
402.946898	2604.020622
403.328783	2604.456682
403.710606	2603.950046
404.092367	2604.005499
404.474067	2604.522217
404.855705	2603.410643
405.237282	2603.844182
405.618797	2604.524737
406.000250	2606.069851
406.381642	2608.091354
406.762972	2606.518514
407.144240	2604.542382
407.525447	2603.582042
407.906593	2601.043821
408.287677	2606.465582
408.668700	2609.160078
409.049661	2606.102619
409.430560	2607.355345
409.811399	2604.008019
410.192176	2610.682507
410.572891	2608.111518
410.953545	2607.390633
411.334138	2608.413988
411.714669	2612.129318
412.095139	2610.062445
412.475547	2610.329626
412.855894	2611.211828
413.236180	2607.733432
413.616405	2613.530759
413.996568	2611.390789
414.376670	2612.368773
414.756711	2608.537496
415.136691	2614.077724
415.516609	2611.534462
415.896466	2614.899432
416.276262	2613.969339
416.655997	2613.835749
417.035670	2612.525049
417.415283	2615.695934
417.794834	2616.184926
418.174324	2612.905656
418.553753	2617.803137
418.933121	2616.812550
419.312428	2616.041253
419.691674	2617.770369
420.070859	2617.457818
420.449983	2615.728702
420.829045	2618.486213
421.208047	2617.437653
421.586988	2618.244238
421.965867	2619.484362
422.344686	2617.394803
422.723444	2618.145935
423.102141	2618.735750
423.480777	2620.159876
423.859352	2618.438322
424.237866	2620.497633
424.616319	2620.016203
424.994712	2619.996039
425.373044	2620.210288
425.751314	2617.939248
426.129524	2618.077880
426.507673	2622.047788
426.885762	2618.924793
427.263789	2625.455608
427.641756	2621.783128
428.019662	2622.521657
428.397508	2625.231277
428.775292	2625.856380
429.153016	2624.757408
429.530679	2629.027266
429.908282	2626.778911
430.285824	2629.208747
430.663305	2627.593057
431.040726	2629.528861
431.418086	2627.073819
431.795385	2627.577934
432.172624	2627.630866
432.549802	2630.935342
432.926920	2630.920219
433.303977	2629.264200
433.680974	2632.697226
434.057910	2634.567494
434.434786	2631.772174
434.811601	2633.672689
435.188355	2634.227216
435.565050	2634.262504
435.941683	2634.171763
436.318257	2633.707977
436.694770	2638.335756
437.071222	2637.284676
437.447614	2640.856333
437.823946	2643.329019
438.200218	2640.843730
438.576429	2643.681900
438.952580	2645.761376
439.328670	2644.813639
439.704700	2643.487816
440.080670	2645.612662
440.456580	2647.646767
440.832429	2652.856800
441.208218	2649.917807
441.583947	2655.745381
441.959616	2657.774446
442.335224	2657.421565
442.710773	2662.079591
443.086261	2664.524551
443.461689	2667.922288
443.837057	2671.776250
444.212365	2678.375121
444.587612	2679.519463
444.962800	2685.331913
445.337927	2694.463963
445.712995	2694.108562
446.088002	2713.791747
446.462949	2722.379353
446.837837	2732.413769
447.212664	2745.490522
447.587431	2763.033738
447.962139	2788.300001
448.336786	2852.105885
448.711374	2889.523850
449.085901	2865.248173
449.460369	2881.674773
449.834776	2891.714231
450.209124	2944.868157
450.583412	2996.933194
450.957640	3073.236099
451.331808	3075.547468
451.705917	3073.873805
452.079965	3083.041143
452.453954	3170.797549
452.827883	3200.172352
453.201752	3271.018208
453.575562	3291.699542
453.949311	3372.073178
454.323001	3432.645162
454.696632	3514.836134
455.070202	3613.143676
455.443713	3709.467523
455.817164	3836.522244
456.190556	3917.475613
456.563888	4053.324627
456.937160	4166.949714
457.310373	4160.358405
457.683526	4249.609513
458.056619	4276.499028
458.429653	4390.668560
458.802628	4407.246394
459.175542	4562.894540
459.548398	4828.197864
459.921194	5022.680538
460.293930	5155.935878
460.666607	5480.195496
461.039224	5853.256004
461.411782	6180.860428
461.784280	6296.078520
462.156719	6454.791687
462.529099	6480.017621
462.901419	6342.900757
463.273680	6417.693836
463.645882	6506.377814
464.018024	6555.571914
464.390106	6772.555779
464.762130	7173.687952
465.134094	7556.125006
465.505999	8415.137622
465.877845	9804.875352
466.249631	11115.401432
466.621358	11253.312278
466.993026	10924.034191
467.364634	10902.752960
467.736184	10557.675897
468.107674	10402.854501
468.479105	10642.994905
468.850477	10618.121852
469.221790	10615.187901
469.593043	10477.824020
469.964238	10439.481004
470.335373	10436.640314
470.706449	10820.917389
471.077467	10741.710780
471.448425	11860.529341
471.819324	14243.921345
472.190164	15681.925603
472.560945	14030.327656
472.931667	12811.636276
473.302330	12613.612191
473.672934	12437.396137
474.043479	12896.660376
474.413965	12956.153553
474.784393	12901.043660
475.154761	13510.899767
475.525070	13706.138614
475.895321	13617.157207
476.265513	14191.120299
476.635645	14731.090891
477.005719	14778.865906
477.375734	15075.273149
477.745691	15613.262567
478.115588	16117.478774
478.485427	16689.566557
478.855207	17639.075446
479.224928	19109.514488
479.594591	20990.381590
479.964194	21260.678177
480.333739	21748.999627
480.703226	21578.548133
481.072653	21523.365143
481.442022	22128.593470
481.811333	23012.496783
482.180584	23181.907278
482.549777	22565.096900
482.918912	22452.001134
483.287988	22693.041384
483.657005	22585.329571
484.025964	22461.090334
484.394864	22592.099840
484.763706	22474.310760
485.132489	22108.756530
485.501213	22366.213298
485.869879	22444.683899
486.238487	22320.837872
486.607036	22615.740331
486.975527	22406.729052
487.343959	22830.553979
487.712333	22902.652561
488.080648	22675.798118
488.448905	23192.067724
488.817104	23028.378938
489.185244	23718.964083
489.553326	23806.526405
489.921350	24750.051444
490.289315	26912.247699
490.657222	28729.944103
491.025070	29294.815473
491.392861	29179.015128
491.760593	28441.718652
492.128267	27671.231219
492.495883	26741.090443
492.863440	25945.223321
493.230939	25133.794157
493.598380	25035.037953
493.965763	24668.009185
494.333088	24288.163284
494.700354	24235.044646
495.067563	24174.460059
495.434713	23955.467295
495.801805	24105.744091
496.168839	23963.495333
496.535815	23807.769049
496.902733	24037.602815
497.269593	23726.150248
497.636395	23942.408186
498.003139	23947.928249
498.369825	23700.838614
498.736453	23903.034254
499.103023	23817.816069
499.469535	23837.905067
499.835989	24035.578791
500.202385	24089.935033
500.568723	23592.607562
500.935003	23879.552559
501.301226	23467.037461
501.667390	24297.071003
502.033497	24553.098604
502.399546	24285.312512
502.765537	23895.177616
503.131470	24271.598053
503.497345	24408.959413
503.863163	23621.294248
504.228923	24264.250571
504.594625	24443.090545
504.960269	23945.833650
505.325856	24462.660304
505.691385	23880.570872
506.056856	24481.010104
506.422270	24455.060765
506.787625	24051.453385
507.152924	24443.924856
507.518164	24475.248065
507.883347	24283.467449
508.248472	23974.071673
508.613540	24748.965075
508.978550	24532.686972
509.343503	24523.229767
509.708398	24798.859895
510.073236	24962.127745
510.438016	25161.331460
510.802738	24848.399314
511.167403	25098.743014
511.532010	24783.025631
511.896561	25578.126498
512.261053	25557.563631
512.625488	25385.665326
512.989866	25283.629852
513.354186	25138.121987
513.718449	25220.507044
514.082655	25617.865914
514.446803	25353.104514
514.810894	25801.172350
515.174927	25288.174452
515.538904	25325.443703
515.902822	25814.402858
516.266684	25558.324846
516.630488	25467.957122
516.994235	25468.161288
517.357925	25738.972073
517.721558	25943.358094
518.085133	26024.891196
518.448651	25944.567971
518.812112	25667.271742
519.175516	25859.112852
519.538863	26040.112960
519.902152	25799.390302
520.265385	26114.432170
520.628560	25882.750822
520.991678	25905.549440
521.354739	25978.172303
521.717743	26036.672372
522.080690	25828.994478
522.443580	26163.580900
522.806413	26173.171695
523.169189	26250.785300
523.531908	26302.215151
523.894569	25920.274651
524.257174	25977.711037
524.619722	26190.689705
524.982213	25873.359152
525.344647	25928.577431
525.707025	26052.672995
526.069345	26056.186679
526.431608	26006.962332
526.793815	26202.629678
527.155964	25643.880788
527.518057	25826.017677
527.880093	25733.240281
528.242072	25973.678114
528.603995	25682.407806
528.965860	25490.985113
529.327669	25533.265270
529.689421	25521.703383
530.051117	25344.295097
530.412755	25532.990527
530.774337	25336.612379
531.135862	25203.276380
531.497331	25415.216570
531.858743	24950.225581
532.220098	25443.293277
532.581396	25107.784323
532.942638	25064.659773
533.303824	25147.516177
533.664953	25184.646796
534.026025	24836.892880
534.387040	25070.842748
534.747999	25132.332222
535.108902	25292.618229
535.469748	24786.902278
535.830537	24989.360058
536.191270	25092.630615
536.551947	24986.834440
536.912567	24654.239274
537.273131	24957.953669
537.633638	24686.401835
537.994089	24887.987495
538.354483	24455.819458
538.714821	24943.104951
539.075103	24983.371167
539.435328	24763.289514
539.795497	24319.683099
540.155609	24728.631581
540.515665	25002.063766
540.875665	24256.761937
541.235609	24532.848289
541.595496	24510.059753
541.955328	24853.773184
542.315102	24768.744042
542.674821	24344.783004
543.034483	24220.667275
543.394090	24389.528285
543.753640	24181.966337
544.113134	24809.821884
544.472571	24409.881944
544.831953	24697.772158
545.191278	24311.193796
545.550548	24247.813889
545.909761	24454.586896
546.268918	24680.980074
546.628019	24632.416119
546.987064	24347.865669
547.346053	24110.528146
547.704986	24233.348298
548.063863	24385.865887
548.422684	24378.566296
548.781449	23932.971146
549.140158	24329.072248
549.498811	23911.137909
549.857408	23654.659124
550.215949	24092.858902
550.574434	23752.729731
550.932864	23988.106246
551.291237	24124.915599
551.649555	23991.161185
552.007817	24045.729155
552.366022	23928.469396
552.724173	23964.506084
553.082267	23910.739657
553.440305	24376.363312
553.798288	23646.394153
554.156215	24171.715151
554.514086	24258.039869
554.871902	23617.518423
555.229661	23915.173352
555.587365	23782.701912
555.945014	23613.329225
556.302606	23893.173757
556.660143	23817.884124
557.017625	24075.673608
557.375050	23612.565490
557.732421	23999.542103
558.089735	23801.510457
558.446994	23875.559965
558.804197	23895.694334
559.161345	23861.091854
559.518437	23592.105967
559.875474	23796.108860
560.232455	23973.557476
560.589381	23814.146109
560.946251	23769.854531
561.303065	24102.217804
561.659825	24191.337842
562.016528	23794.790598
562.373177	23530.621534
562.729770	23889.292068
563.086307	23756.929012
563.442789	23937.523308
563.799216	23745.372167
564.155587	23758.428756
564.511904	23745.856118
564.868164	23678.914636
565.224370	23675.721065
565.580520	23567.963881
565.936615	23707.986970
566.292654	23371.951217
566.648638	23690.347973
567.004567	23516.564277
567.360441	23458.681748
567.716260	23191.114946
568.072023	23510.860211
568.427732	23263.591615
568.783385	23067.286563
569.138982	23291.819556
569.494525	23330.155010
569.850013	23074.462646
570.205445	23177.249252
570.560823	22975.225012
570.916145	22738.908322
571.271412	22913.062544
571.626625	22676.546729
571.981782	22798.918218
572.336884	22592.039346
572.691931	22723.807546
573.046923	22465.370274
573.401860	22351.392306
573.756743	22340.226150
574.111570	22247.242067
574.466342	22203.192465
574.821059	22288.403088
575.175722	21990.957368
575.530330	21967.919294
575.884882	21994.677739
576.239380	21897.086042
576.593823	21787.708127
576.948211	21770.013677
577.302544	21605.972010
577.656823	21494.076039
578.011047	21583.589287
578.365216	21464.711317
578.719330	21333.805155
579.073389	21244.249057
579.427394	21383.919265
579.781344	21155.529790
580.135239	21045.741021
580.489080	21016.116681
580.842866	20785.675456
581.196597	20961.125254
581.550273	20952.386414
581.903895	20840.107315
582.257463	21169.720638
582.610975	20699.219668
582.964434	20983.946558
583.317837	20705.972293
583.671186	20791.364398
584.024481	20755.483986
584.377721	20541.673528
584.730906	20588.515929
585.084037	20615.065166
585.437113	20516.543376
585.790135	20726.535160
586.143103	20195.071516
586.496016	20200.873884
586.848874	20445.831111
587.201679	20386.045547
587.554428	20050.317303
587.907124	20371.365707
588.259765	20169.903555
588.612352	20234.642053
588.964884	19805.428132
589.317362	19988.069136
589.669786	20029.520023
590.022155	20081.544731
590.374470	20262.171794
590.726731	20062.516896
591.078937	19810.733946
591.431090	19919.910215
591.783188	19666.929992
592.135232	19642.359408
592.487222	19741.221476
592.839157	19769.633419
593.191038	19650.866355
593.542866	19537.503408
593.894639	19260.539895
594.246358	19466.150916
594.598022	19384.378360
594.949633	19131.229258
595.301190	19098.892776
595.652692	19253.212578
596.004141	19494.880452
596.355535	18820.442123
596.706876	18839.429629
597.058162	18728.017608
597.409395	18953.924315
597.760573	19040.420433
598.111698	18820.623605
598.462768	18752.313449
598.813785	18714.840032
599.164748	18532.070479
599.515657	18564.953926
599.866511	18367.686014
600.217312	18733.149503
600.568060	18247.701511
600.918753	18558.052586
601.269392	18461.063307
601.619978	18242.204133
601.970510	18460.420559
602.320988	18399.394872
602.671412	18606.727447
603.021783	18503.272888
603.372100	18244.999453
603.722363	18377.352426
604.072572	18327.213110
604.422728	18456.102811
604.772830	18219.292089
605.122878	18166.793512
605.472872	18160.388727
605.822813	18148.093352
606.172701	18114.650338
606.522534	18315.099218
606.872314	18333.091096
607.222041	18159.677924
607.571714	18388.576555
607.921333	18206.089307
608.270899	18289.288510
608.620411	18479.420668
608.969870	18237.508298
609.319276	18236.860510
609.668627	18257.365403
610.017926	18405.817302
610.367171	18519.976751
610.716362	18563.023164
611.065500	18380.238487
611.414585	18511.573147
611.763616	18502.095778
612.112594	18440.999514
612.461518	18419.065454
612.810389	18600.431046
613.159207	18461.915262
613.507971	18372.291108
613.856682	18649.478952
614.205340	18575.187468
614.553945	18726.129696
614.902496	18468.025140
615.250994	18712.216112
615.599439	18645.342685
615.947830	18626.703019
616.296169	18675.939969
616.644454	18645.042737
616.992686	18611.072922
617.340864	18824.860694
617.688990	18588.176001
618.037063	18758.355272
618.385082	18605.096634
618.733048	18886.193893
619.080961	18760.669162
619.428821	18794.545716
619.776628	18683.574796
620.124382	18614.291698
620.472083	18646.292943
620.819731	18673.784875
621.167326	18367.234831
621.514868	18402.684224
621.862357	18170.327361
622.209793	18175.068567
622.557176	18015.901696
622.904506	17828.590063
623.251783	17744.879183
623.599007	17516.025921
623.946179	17456.920913
624.293297	17387.592445
624.640363	17146.766443
624.987376	17175.543870
625.334336	16965.224411
625.681243	16807.630380
626.028097	16812.923592
626.374899	16753.740445
626.721647	16618.093078
627.068343	16440.697394
627.414987	16376.526027
627.761577	16355.506936
628.108115	16399.859007
628.454600	16112.641787
628.801032	16205.308277
629.147412	16141.174718
629.493739	16166.509037
629.840014	15974.259594
630.186236	16071.747947
630.532405	15828.141749
630.878521	16040.036569
631.224585	15924.097592
631.570597	15750.187867
631.916556	15781.553926
632.262462	15764.963489
632.608316	15681.366035
632.954117	15616.829183
633.299866	15614.144769
633.645562	15539.613830
633.991206	15296.612570
634.336797	15160.267003
634.682336	15130.340193
635.027823	15023.727351
635.373257	14907.334670
635.718639	14799.038083
636.063968	14756.344551
636.409245	14505.559750
636.754470	14541.341860
637.099642	14381.189443
637.444762	14152.784845
637.789829	14190.525443
638.134845	14028.588458
638.479808	14058.870669
638.824719	14004.794212
639.169577	13857.857180
639.514383	13909.831476
639.859137	13723.064288
640.203839	13807.175940
640.548489	13646.766425
640.893086	13631.700936
641.237632	13505.321730
641.582125	13659.336542
641.926566	13486.692146
642.270955	13495.761182
642.615292	13462.660966
642.959576	13466.557777
643.303809	13508.510260
643.647990	13439.937965
643.992118	13496.645904
644.336195	13264.921706
644.680219	13466.940905
645.024192	13394.592786
645.368112	13634.145896
645.711981	13695.698384
646.055797	13869.431669
646.399562	13828.056399
646.743274	14106.481847
647.086935	14381.875040
647.430544	14341.230737
647.774101	14380.226583
648.117606	14527.750909
648.461059	14497.554398
648.804460	14493.070291
649.147810	14218.576944
649.491108	14114.721613
649.834354	14137.217762
650.177548	13836.989324
650.520690	13632.136996
650.863781	13566.712902
651.206820	13611.798461
651.549807	13433.896142
651.892742	13237.681831
652.235626	13184.469932
652.578458	13177.636648
652.921238	12862.428421
653.263967	13063.157085
653.606644	12889.214592
653.949269	12866.821787
654.291843	12667.280315
654.634365	12832.625120
654.976836	12680.231039
655.319255	12682.620546
655.661622	12642.518167
656.003938	12567.281466
656.346203	12487.767347
656.688416	12557.176473
657.030577	12516.451512
657.372687	12446.802931
657.714746	12416.666913
658.056753	12600.600973
658.398708	12417.851584
658.740612	12419.500041
659.082465	12522.142975
659.424266	12487.532933
659.766016	12509.043537
660.107715	12416.258579
660.449362	12493.955363
660.790958	12453.371554
661.132503	12392.721432
661.473996	12459.022687
661.815438	12484.770381
662.156829	12497.582473
662.498168	12474.766211
662.839456	12466.546610
663.180693	12488.606699
663.521879	12582.626739
663.863013	12558.852657
664.204097	12526.485929
664.545129	12656.310764
664.886110	12622.212399
665.227040	12712.214639
665.567918	12715.793859
665.908746	12756.362544
666.249522	12737.785892
666.590248	12787.529478
666.930922	12893.580231
667.271545	12875.321172
667.612118	12962.444913
667.952639	12866.910007
668.293109	12872.024257
668.633528	12827.513390
668.973896	12806.348105
669.314213	12889.769119
669.654480	12627.117442
669.994695	12694.673945
670.334859	12716.517264
670.674973	12667.116477
671.015035	12712.292777
671.355047	12642.324083
671.695008	12603.262702
672.034918	12619.865742
672.374777	12661.021722
672.714585	12576.274885
673.054342	12608.820574
673.394049	12561.688306
673.733705	12646.543528
674.073310	12554.948283
674.412864	12578.482910
674.752368	12446.686984
675.091820	12461.618882
675.431223	12457.096967
675.770574	12320.443889
676.109875	12243.243659
676.449125	12204.167155
676.788324	12147.028197
677.127473	11978.774646
677.466571	11972.702576
677.805619	11867.665094
678.144616	11787.717436
678.483562	11763.169537
678.822458	11635.464507
679.161303	11603.483427
679.500098	11599.354722
679.838842	11553.422249
680.177535	11572.515619
680.516179	11628.177519
680.854771	11576.356978
681.193314	11797.474589
681.531805	11952.865636
681.870247	12360.069879
682.208638	12773.124381
682.546978	13090.432248
682.885268	13145.554745
683.223508	12829.461796
683.561697	12672.540759
683.899836	12566.895818
684.237925	12381.099052
684.575963	12291.033797
684.913951	12218.920092
685.251889	12155.827531
685.589776	12256.595155
685.927614	12184.294926
686.265401	12145.808237
686.603137	12192.201976
686.940824	12342.345182
687.278460	12470.687918
687.616046	12514.286337
687.953582	12693.839634
688.291068	12606.985594
688.628504	12842.830936
688.965889	12846.354702
689.303224	12824.579438
689.640510	12718.483314
689.977745	12406.002352
690.314930	12175.654389
690.652065	12093.055083
690.989150	11800.534569
691.326185	11579.822772
691.663170	11375.824919
692.000105	11130.265274
692.336990	11019.886690
692.673825	10763.465879
693.010610	10648.467078
693.347345	10440.877404
693.684030	10239.548842
694.020665	10180.133803
694.357251	9987.286983
694.693786	9936.298233
695.030272	9763.797510
695.366707	9643.631526
695.703093	9577.789015
696.039429	9576.143079
696.375716	9507.868212
696.711952	9366.617601
697.048139	9407.662676
697.384276	9364.898568
697.720363	9377.143531
698.056400	9322.225201
698.392388	9269.310729
698.728326	9227.723731
699.064214	9164.747116
699.400053	9216.683604
699.735842	9024.683698
700.071581	8982.821956
700.407270	8904.653825
700.742910	8830.944594
701.078501	8744.481243
701.414042	8618.522973
701.749533	8551.412613
702.084974	8409.491529
702.420366	8532.316722
702.755709	8413.776510
703.091002	8274.486909
703.426246	8300.448851
703.761440	8257.435206
704.096584	8215.616314
704.431679	8140.979511
704.766725	8132.028942
705.101721	8082.426509
705.436668	8129.329404
705.771565	8017.211622
706.106413	8096.324970
706.441212	8145.776169
706.775961	8100.299920
707.110661	8128.258159
707.445311	8280.604349
707.779913	8171.939757
708.114465	8300.171588
708.448967	8341.279677
708.783421	8472.969738
709.117825	8668.183380
709.452180	8701.213020
709.786485	8784.334085
710.120742	9069.658352
710.454949	9066.386643
710.789107	9169.879011
711.123216	9376.556236
711.457275	9545.137462
711.791286	9709.794149
712.125247	9698.683446
712.459159	9691.908136
712.793023	9942.929871
713.126837	9517.930355
713.460602	9674.206124
713.794318	9488.321137
714.127985	9523.455459
714.461602	9201.066109
714.795171	9150.165579
715.128691	8908.117097
715.462162	8658.978233
715.795584	8599.225437
716.128957	8456.764949
716.462281	8284.523846
716.795556	8334.796753
717.128782	8131.585321
717.461960	7863.471553
717.795088	7937.657173
718.128167	7841.164447
718.461198	7677.246289
718.794180	7619.252855
719.127113	7617.216229
719.459997	7463.466078
719.792833	7229.279276
720.125619	7291.845036
720.458357	7152.129458
720.791046	7139.990359
721.123686	7142.314331
721.456278	6980.203426
721.788821	6999.175809
722.121315	6887.713377
722.453761	6953.082018
722.786158	6902.123515
723.118506	6915.699342
723.450805	6878.777931
723.783056	6944.675894
724.115259	6854.033428
724.447412	6848.367171
724.779518	6897.009264
725.111574	6898.014974
725.443582	6976.936758
725.775542	6957.286341
726.107453	7151.763974
726.439315	7061.945736
726.771129	7121.123841
727.102895	7287.456712
727.434612	7404.366111
727.766281	7428.966942
728.097901	7514.837956
728.429473	7507.593818
728.760996	7481.266392
729.092471	7457.005839
729.423897	7404.827376
729.755276	7411.348109
730.086606	7340.918148
730.417887	7437.060514
730.749120	7626.542364
731.080305	7826.093918
731.411442	7947.053884
731.742530	7941.508615
732.073570	8047.423257
732.404562	8133.556412
732.735506	7981.830284
733.066401	8124.474773
733.397249	8054.289309
733.728048	7820.977147
734.058798	7491.230233
734.389501	7267.937364
734.720156	7083.597492
735.050762	6856.417893
735.381320	6758.095229
735.711831	6707.683690
736.042293	6604.760973
736.372707	6619.549198
736.703073	6482.447457
737.033391	6513.344689
737.363661	6529.977976
737.693883	6556.534775
738.024056	6642.438557
738.354182	6683.753333
738.684260	6722.771864
739.014290	6828.792370
739.344272	6942.407375
739.674207	6970.156407
740.004093	7037.775924
740.333931	7055.445168
740.663722	7064.274749
740.993464	7138.818291
741.323159	7134.946685
741.652806	6877.759618
741.982405	6890.717904
742.311956	6952.472039
742.641460	6791.714684
742.970915	6592.084992
743.300323	6585.614671
743.629683	6539.818308
743.958996	6401.244551
744.288260	6316.817827
744.617477	6258.617706
744.946647	6268.263954
745.275768	6100.517039
745.604842	6053.140275
745.933869	6039.302308
746.262847	5996.354198
746.591778	5985.757692
746.920662	5945.370488
747.249498	5936.414878
747.578286	5983.229553
747.907027	6058.443569
748.235720	6118.874401
748.564365	6086.767292
748.892963	6115.028000
749.221514	6265.947543
749.550017	6103.768583
749.878473	5982.173432
750.206881	6033.631010
750.535242	5974.510878
750.863555	5906.941772
751.191821	5923.902734
751.520039	5925.606644
751.848210	5836.269837
752.176334	5851.983113
752.504411	5908.070991
752.832440	5832.544424
753.160421	5758.139514
753.488356	5807.063912
753.816243	5844.570096
754.144082	5691.351787
754.471875	5665.314227
754.799620	5702.681780
755.127318	5715.156115
755.454969	5673.642213
755.782572	5638.396986
756.110129	5677.617163
756.437638	5663.174257
756.765100	5606.063026
757.092515	5601.518425
757.419882	5652.711343
757.747203	5632.362725
758.074477	5698.159865
758.401703	5685.435993
758.728882	5637.834898
759.056014	5685.458678
759.383099	5820.357434
759.710138	5828.493857
760.037129	5818.484646
760.364073	5819.954142
760.690970	5900.738633
761.017820	5887.097270
761.344623	5837.870403
761.671379	5939.469818
761.998088	6055.907868
762.324751	6295.095495
762.651366	6883.388067
762.977935	8177.613576
763.304456	9807.774016
763.630931	10712.464526
763.957359	10336.270941
764.283740	9397.681191
764.610074	8571.567146
764.936362	7578.210301
765.262602	6982.913046
765.588796	6445.692404
765.914943	6103.861844
766.241044	5948.241425
766.567097	5750.156847
766.893104	5489.899717
767.219064	5312.347758
767.544978	5251.259056
767.870845	5170.414072
768.196665	5066.614194
768.522438	4994.523173
768.848165	4964.861024
769.173846	4896.964243
769.499479	4851.719887
769.825066	4796.882216
770.150607	4738.997167
770.476101	4715.462540
770.801548	4713.461202
771.126949	4641.375223
771.452303	4585.509156
771.777611	4542.936612
772.102872	4559.476637
772.428087	4523.770145
772.753256	4482.972087
773.078378	4435.068522
773.403453	4368.502606
773.728482	4358.201008
774.053465	4311.814831
774.378401	4300.242863
774.703291	4298.531391
775.028135	4229.570927
775.352932	4180.298689
775.677683	4165.001308
776.002388	4182.443700
776.327046	4197.158828
776.651658	4123.898260
776.976224	4060.399886
777.300743	4065.279723
777.625216	4087.221345
777.949643	4079.190787
778.274024	4036.351062
778.598359	3992.193074
778.922647	4016.042773
779.246889	4006.724200
779.571086	4006.210003
779.895236	3989.720388
780.219339	3974.417966
780.543397	3964.570072
780.867409	4014.802649
781.191374	4030.465514
781.515294	3971.731031
781.839167	3963.892037
782.162995	3982.846775
782.486776	3971.163901
782.810511	3979.562463
783.134201	3978.844099
783.457844	3932.944393
783.781441	3877.945405
784.104993	3882.270715
784.428498	3902.238725
784.751958	3896.638003
785.075372	3877.925240
785.398739	3839.798994
785.722061	3852.356508
786.045337	3892.262282
786.368568	3927.210081
786.691752	3839.925023
787.014891	3886.530490
787.337983	4013.653266
787.661030	4170.919622
787.984031	4333.574972
788.306987	4496.628572
788.629897	4586.046039
788.952760	4539.826220
789.275579	4476.272393
789.598351	4408.990633
789.921078	4272.536681
790.243759	4072.254159
790.566395	4051.819842
790.888984	4050.902352
791.211529	3942.020991
791.534027	3882.217783
791.856480	3872.690002
792.178888	3810.779592
792.501249	3763.659927
792.823566	3773.016308
793.145836	3800.661996
793.468062	3748.402874
793.790241	3703.559290
794.112375	3733.685226
794.434464	3795.593116
794.756507	3818.479954
795.078505	3803.863128
795.400457	3835.564424
795.722364	3969.396977
796.044226	4077.494439
796.366042	4147.009430
796.687812	4129.199033
797.009538	4135.361844
797.331218	4093.744598
797.652852	4064.132860
797.974442	4045.914130
798.295986	4047.733987
798.617484	3966.019404
798.938938	3876.780898
799.260346	3922.385697
799.581709	3918.322527
799.903026	3843.975590
800.224299	3806.625681
800.545526	3801.153508
800.866708	3761.779576
801.187845	3701.169783
801.508936	3736.059609
801.829983	3737.055237
802.150984	3657.926766
802.471940	3648.217503
802.792851	3656.822753
803.113717	3654.405520
803.434538	3662.753671
803.755314	3604.266204
804.076045	3578.810897
804.396731	3597.634566
804.717372	3625.461735
805.037967	3608.384826
805.358518	3596.782611
805.679024	3625.973412
805.999485	3638.924136
806.319901	3641.301040
806.640272	3654.607166
806.960598	3671.943694
807.280879	3642.813387
807.601115	3653.830828
807.921306	3671.124507
808.241453	3712.209910
808.561554	3688.841642
808.881611	3624.163638
809.201623	3660.018845
809.521590	3672.359589
809.841513	3640.910351
810.161390	3673.939991
810.481223	3653.931651
810.801011	3597.349741
811.120755	3588.068976
811.440453	3625.963330
811.760107	3627.389976
812.079716	3585.180395
812.399281	3554.436918
812.718801	3578.747883
813.038276	3550.202349
813.357707	3548.730332
813.677093	3563.768094
813.996434	3515.514170
814.315731	3520.726723
814.634983	3524.452135
814.954191	3537.813714
815.273354	3565.613157
815.592473	3561.691139
815.911547	3568.342941
816.230577	3610.313068
816.549562	3661.417765
816.868502	3700.307746
817.187399	3723.040829
817.506250	3722.602249
817.825058	3693.315666
818.143821	3783.532155
818.462539	3889.754308
818.781213	3933.844239
819.099843	3988.787775
819.418429	4229.767532
819.736970	4472.582268
820.055466	4713.798959
820.373919	5077.979475
820.692327	5478.284899
821.010691	5918.672537
821.329011	7267.014833
821.647286	9974.129572
821.965517	14494.096166
822.283704	18517.700670
822.601847	20711.141997
822.919945	18919.238656
823.237999	16351.249681
823.556010	13872.113563
823.873976	11796.922582
824.191897	9711.815652
824.509775	8360.768777
824.827609	7242.948365
825.145398	6695.058121
825.463144	6582.831954
825.780845	6688.219795
826.098502	6872.922631
826.416116	7742.539314
826.733685	9053.201505
827.051210	10161.330299
827.368692	10220.432787
827.686129	8992.241352
828.003522	7477.228428
828.320872	6461.972811
828.638177	5764.778713
828.955439	5211.990988
829.272656	4714.688723
829.589830	4431.753963
829.906960	4256.657046
830.224046	4073.867328
830.541088	3949.126497
830.858086	3900.323087
831.175041	3824.126046
831.491952	3811.543326
831.808819	3823.016992
832.125642	3892.219432
832.442421	4037.462636
832.759157	4308.689316
833.075849	4848.664948
833.392497	5703.919383
833.709101	6476.304811
834.025662	6816.217212
834.342179	6469.781558
834.658653	5808.238501
834.975083	5165.861910
835.291469	4590.991411
835.607811	4179.267773
835.924110	4046.181312
836.240366	3847.287628
836.556578	3643.062924
836.872746	3536.152653
837.188871	3492.874348
837.504952	3427.941766
837.820990	3345.390351
838.136984	3301.781849
838.452935	3326.980057
838.768842	3321.550734
839.084706	3342.620237
839.400526	3494.295953
839.716303	3832.696008
840.032037	4349.313454
840.347727	4614.926809
840.663373	4345.489739
840.978977	3963.264413
841.294537	3660.699400
841.610054	3436.083229
841.925527	3328.883092
842.240957	3256.754263
842.556344	3204.154864
842.871687	3151.386586
843.186987	3098.492279
843.502244	3060.522309
843.817458	3028.639531
844.132629	2995.645179
844.447756	3002.264214
844.762840	2987.281905
845.077881	2959.437092
845.392879	2941.258691
845.707833	2935.705860
846.022745	2938.236519
846.337613	2936.799790
846.652438	2925.893254
846.967221	2922.810588
847.281960	2909.469175
847.596656	2906.081519
847.911309	2906.661252
848.225919	2896.306722
848.540485	2893.967627
848.855009	2891.931001
849.169490	2885.120402
849.483928	2873.261087
849.798323	2873.354349
850.112675	2871.380737
850.426984	2881.881460
850.741251	2879.189484
851.055474	2869.195397
851.369654	2864.597864
851.683792	2867.846888
851.997887	2877.014226
852.311938	2881.218549
852.625947	2869.767568
852.939914	2868.897969
853.253837	2875.194370
853.567718	2860.212061
853.881555	2859.972606
854.195350	2873.641694
854.509103	2870.851416
854.822812	2861.305991
855.136479	2856.811802
855.450103	2861.978985
855.763685	2854.865917
856.077224	2851.125381
856.390720	2865.969058
856.704173	2873.583721
857.017584	2868.005684
857.330953	2863.551825
857.644278	2874.029863
857.957561	2882.120915
858.270802	2884.092006
858.584000	2884.573437
858.897155	2872.792260
859.210268	2870.801004
859.523339	2866.107690
859.836367	2868.542567
860.149352	2865.754809
860.462295	2857.313397
860.775195	2867.441075
861.088054	2864.988554
861.400869	2850.618745
861.713642	2847.195801
862.026373	2861.774818
862.339062	2864.776825
862.651708	2868.499717
862.964312	2875.237220
863.276873	2866.180787
863.589392	2873.447610
863.901869	2890.348078
864.214303	2908.077816
864.526696	2925.782349
864.839045	2921.041143
865.151353	2920.811771
865.463619	2917.776996
865.775842	2920.620207
866.088023	2936.706529
866.400162	2946.872016
866.712258	2919.327151
867.024313	2907.092271
867.336325	2912.115781
867.648296	2934.503545
867.960224	2926.238573
868.272110	2913.413878
868.583954	2920.133736
868.895755	2931.393153
869.207515	2920.216915
869.519233	2925.799993
869.830909	2937.825665
870.142542	2944.893363
870.454134	2942.125769
870.765684	2944.716923
871.077191	2946.796398
871.388657	2953.972481
871.700081	2964.453040
872.011463	2978.177581
872.322803	2978.172540
872.634101	2977.590287
872.945357	2994.762977
873.256571	3019.174765
873.567744	3015.207377
873.878874	3006.365193
874.189963	3030.048534
874.501010	3032.443082
874.812015	3020.735002
875.122979	3022.587626
875.433900	3017.662419
875.744780	3020.979498
876.055618	3029.614994
876.366415	3028.125333
876.677169	3038.313505
876.987882	3037.063299
877.298554	3028.314377
877.609183	3050.220711
877.919771	3074.582087
878.230317	3099.533278
878.540822	3152.621669
878.851285	3191.433512
879.161707	3230.620922
879.472087	3331.587672
879.782425	3552.596897
880.092722	3986.163854
880.402977	4508.717259
880.713191	5132.234893
881.023363	6276.584378
881.333494	7557.087867
881.643583	8115.614945
881.953631	7823.054102
882.263637	7194.618823
882.573602	6612.231963
882.883526	6033.565475
883.193408	5464.966171
883.503248	5002.278988
883.813048	4705.355027
884.122806	4401.388573
884.432522	4093.427005
884.742197	3855.058566
885.051831	3664.694515
885.361424	3529.316849
885.670975	3456.676343
885.980485	3370.457488
886.289954	3293.128709
886.599382	3251.876947
886.908768	3215.137018
887.218113	3168.339987
887.527417	3115.309569
887.836680	3063.824264
888.145901	3059.325035
888.455082	3048.980587
888.764221	2998.029645
889.073319	2970.903196
889.382376	2967.197948
889.691392	2973.191880
890.000366	2969.131231
890.309300	2959.762246
890.618193	2971.112404
890.927044	2985.164620
891.235855	2986.452635
891.544625	2971.971921
891.853353	2983.228817
892.162041	3001.941580
892.470687	3040.960111
892.779293	3089.335023
893.087858	3137.094915
893.396381	3208.575956
893.704864	3327.874862
894.013306	3561.247517
894.321707	3864.591388
894.630068	4067.729724
894.938387	4067.742327
895.246665	4025.535266
895.554903	3904.214857
895.863100	3706.049620
896.171256	3540.160371
896.479371	3400.167528
896.787446	3278.491719
897.095480	3176.103363
897.403473	3110.822942
897.711425	3078.483940
898.019336	3067.771488
898.327207	3041.305430
898.635038	3002.571725
898.942827	2986.603870
899.250576	2975.530975
899.558284	2947.028292
899.865952	2926.883841
900.173579	2909.176788
900.481165	2900.400139
900.788711	2888.520660
901.096216	2862.422607
901.403681	2854.200485
901.711105	2859.448326
902.018489	2858.409848
902.325832	2853.782069
902.633135	2865.038965
902.940397	2898.786970
903.247619	2978.205308
903.554800	3168.040038
903.861941	3507.866739
904.169041	3934.481945
904.476101	4230.722830
904.783121	4193.778734
905.090100	3949.204635
905.397039	3675.991741
905.703938	3427.903957
906.010796	3247.397882
906.317614	3135.542240
906.624391	3039.848537
906.931129	2969.463947
907.237826	2908.420615
907.544483	2861.489993
907.851099	2830.907833
908.157675	2808.746921
908.464211	2790.681946
908.770707	2778.144597
909.077163	2763.197575
909.383578	2752.414547
909.689954	2740.701426
909.996289	2737.167577
910.302584	2740.262846
910.608839	2741.775192
910.915054	2733.313615
911.221229	2725.406566
911.527363	2727.347410
911.833458	2734.067268
912.139513	2739.516755
912.445527	2741.684451
912.751502	2752.885895
913.057436	2760.155239
913.363331	2774.487239
913.669186	2792.007770
913.975000	2829.244252
914.280775	2887.736761
914.586510	2956.389714
914.892205	3034.033566
915.197859	3163.127433
915.503475	3353.398224
915.809050	3564.214236
916.114585	3711.756207
916.420081	3731.671285
916.725536	3674.076102
917.030952	3555.271229
917.336328	3432.325049
917.641665	3303.803352
917.946961	3198.702856
918.252218	3127.012607
918.557435	3053.409241
918.862612	2993.532936
919.167750	2943.806994
919.472848	2904.541447
919.777906	2880.212838
920.082925	2852.834332
920.387904	2822.882316
920.692843	2805.644091
920.997743	2792.411062
921.302603	2781.451593
921.607423	2773.942795
921.912204	2760.140116
922.216946	2748.530338
922.521647	2741.528176
922.826310	2732.088615
923.130932	2727.163408
923.435516	2717.706203
923.740059	2710.157075
924.044564	2700.210879
924.349028	2696.578727
924.653454	2690.093283
924.957840	2683.154135
925.262186	2679.494257
925.566493	2676.202383
925.870761	2670.621826
926.174989	2666.480518
926.479178	2661.436844
926.783328	2656.753612
927.087438	2658.465084
927.391509	2656.047850
927.695541	2650.835297
927.999533	2649.098620
928.303486	2644.536376
928.607400	2646.840183
928.911275	2645.579894
929.215110	2643.782723
929.518906	2642.313227
929.822663	2644.687610
930.126381	2642.721560
930.430060	2642.116622
930.733699	2641.284831
931.037299	2646.020995
931.340861	2646.136942
931.644383	2647.908907
931.947866	2643.097126
932.251309	2646.462096
932.554714	2643.913793
932.858080	2639.994296
933.161407	2639.785088
933.464694	2638.716363
933.767943	2633.665127
934.071153	2638.297948
934.374323	2633.912144
934.677455	2635.086733
934.980548	2635.164871
935.283602	2633.355096
935.586617	2633.624798
935.889593	2636.702422
936.192530	2634.411218
936.495428	2638.660911
936.798287	2636.828451
937.101108	2639.971611
937.403890	2644.433032
937.706632	2647.500574
938.009336	2655.601708
938.312002	2665.414314
938.614628	2673.091992
938.917216	2677.621468
939.219765	2678.433094
939.522275	2678.831345
939.824747	2674.632064
940.127179	2675.874708
940.429573	2671.541837
940.731929	2666.069664
941.034246	2663.685198
941.336524	2663.065137
941.638763	2660.471463
941.940964	2658.132367
942.243126	2655.074908
942.545250	2656.501554
942.847335	2652.183806
943.149381	2649.796820
943.451389	2645.234575
943.753359	2639.916158
944.055290	2639.190232
944.357182	2640.566467
944.659036	2641.370531
944.960851	2636.760396
945.262628	2637.428349
945.564367	2638.746610
945.866067	2638.804584
946.167729	2637.640077
946.469352	2638.176960
946.770937	2636.193266
947.072484	2635.051445
947.373992	2634.922895
947.675462	2631.205044
947.976893	2629.090280
948.278286	2628.742441
948.579641	2628.807976
948.880958	2623.618108
949.182236	2630.103552
949.483476	2628.003912
949.784678	2627.121710
950.085841	2628.805455
950.386967	2628.883593
950.688054	2628.008953
950.989103	2631.149592
951.290114	2629.276803
951.591087	2630.721093
951.892021	2634.691002
952.192917	2637.191414
952.493776	2639.096971
952.794596	2641.443628
953.095378	2642.396406
953.396122	2640.702578
953.696828	2635.537916
953.997496	2634.806949
954.298126	2635.638739
954.598718	2630.582462
954.899272	2628.064405
955.199788	2627.220012
955.500266	2625.218674
955.800706	2620.558127
956.101108	2618.024947
956.401472	2619.620473
956.701798	2618.292129
957.002087	2616.280708
957.302337	2614.861623
957.602550	2614.458331
957.902724	2608.746704
958.202861	2610.304420
958.502960	2606.420211
958.803022	2606.669748
959.103045	2609.439862
959.403031	2608.401385
959.702979	2604.156733
960.002889	2604.292844
960.302762	2604.439038
960.602596	2604.408791
960.902393	2602.145313
961.202153	2604.244953
961.501875	2602.735128
961.801559	2600.499376
962.101205	2605.807711
962.400814	2603.125817
962.700385	2602.833430
962.999918	2599.866711
963.299414	2598.646752
963.598873	2599.420569
963.898293	2598.079622
964.197677	2600.108687
964.497022	2597.623398
964.796331	2601.704212
965.095601	2599.206320
965.394835	2599.828903
965.694030	2600.204469
965.993189	2600.958121
966.292309	2601.273193
966.591393	2600.333018
966.890439	2600.504417
967.189447	2598.911413
967.488419	2597.096597
967.787353	2599.952411
968.086249	2598.608943
968.385108	2601.182452
968.683930	2599.854108
968.982714	2599.518872
969.281462	2598.608943
969.580172	2599.352514
969.878844	2600.330498
970.177480	2600.091043
970.476078	2600.955601
970.774639	2602.077257
971.073162	2601.288317
971.371649	2602.082298
971.670098	2597.792277
971.968510	2600.133892
972.266885	2598.868563
972.565223	2600.748913
972.863524	2601.716815
973.161788	2600.365786
973.460014	2599.717997
973.758204	2600.532144
974.056356	2600.287648
974.354471	2596.952924
974.652550	2599.440734
974.950591	2597.935949
975.248595	2598.067019
975.546563	2601.202617
975.844493	2600.310333
976.142386	2598.198089
976.440243	2597.590630
976.738062	2599.052565
977.035845	2598.130034
977.333590	2598.314036
977.631299	2598.646752
977.928971	2595.833788
978.226606	2593.981164
978.524204	2596.436206
978.821765	2591.790783
979.119290	2596.559714
979.416777	2596.804210
979.714228	2595.826227
980.011642	2596.226998
980.309020	2595.226329
980.606360	2600.038111
980.903664	2596.766402
981.200931	2596.776484
981.498162	2598.480394
981.795356	2600.166660
982.092513	2604.746548
982.389633	2602.591455
982.686717	2607.562033
982.983764	2610.120418
983.280775	2613.427415
983.577749	2616.497478
983.874686	2616.391614
984.171587	2612.318361
984.468451	2609.097064
984.765279	2604.726384
985.062070	2605.033894
985.358824	2604.456682
985.655543	2602.251177
985.952224	2599.450816
986.248869	2598.797987
986.545478	2601.124479
986.842050	2596.925198
987.138586	2597.850250
987.435086	2598.140116
987.731549	2595.506113
988.027975	2594.833119
988.324366	2595.087697
988.620719	2594.172728
988.917037	2593.978644
989.213318	2592.746082
989.509563	2593.270362
989.805772	2595.697677
990.101944	2595.359920
990.398080	2596.078284
990.694180	2592.927563
990.990244	2593.587954
991.286271	2594.480238
991.582262	2595.004518
991.878217	2594.966710
992.174136	2591.773139
992.470019	2594.855804
992.765865	2591.871441
993.061676	2590.459918
993.357450	2592.070567
993.653188	2591.758015
993.948890	2594.651638
994.244556	2593.852615
994.540186	2595.062492
994.835780	2594.029055
995.131337	2598.228336
995.426859	2593.882862
995.722345	2598.651793
996.017795	2598.704725
996.313208	2596.325301
996.608586	2598.934098
996.903928	2598.064499
997.199234	2598.576176
997.494504	2602.094901
997.789738	2599.385281
998.084936	2600.136413
998.380099	2595.828747
998.675225	2596.123655
998.970316	2595.995105
999.265371	2596.632811
999.560390	2595.813624
999.855373	2596.479056
1000.150320	2593.837491
1000.445232	2594.921339
1000.740108	2592.163828
1001.034948	2592.652820
1001.329752	2592.688108
1001.624521	2592.670464
1001.919254	2591.253900
1002.213951	2594.087028
1002.508613	2594.155084
1002.803239	2591.473190
1003.097829	2591.999991
1003.392384	2588.748447
1003.686903	2590.535536
1003.981386	2592.373036
1004.275834	2592.045361
1004.570246	2591.412696
1004.864623	2591.243818
1005.158964	2591.505958
1005.453270	2591.644589
1005.747540	2593.923191
1006.041775	2592.229363
1006.335974	2590.568303
1006.630138	2592.128540
1006.924266	2593.719024
1007.218359	2589.544949
1007.512416	2590.855649
1007.806438	2588.319948
1008.100425	2588.750967
1008.394376	2586.774835
1008.688292	2592.330186
1008.982172	2591.997470
1009.276017	2592.284816
1009.569827	2592.216760
1009.863602	2590.051585
1010.157341	2591.163159
1010.451045	2589.842377
1010.744714	2592.645258
1011.038347	2590.744743
1011.331945	2591.838674
1011.625508	2591.853797
1011.919036	2590.593509
1012.212528	2589.834815
1012.505986	2589.648293
1012.799408	2590.026379
1013.092795	2591.112748
1013.386147	2591.589137
1013.679464	2590.331369
1013.972745	2591.740371
1014.265992	2588.481265
1014.559204	2591.558890
1014.852380	2591.967223
1015.145521	2591.100145
1015.438628	2593.093921
1015.731699	2591.329517
1016.024736	2589.829774
1016.317737	2591.344641
1016.610703	2590.399424
1016.903635	2590.759867
1017.196531	2590.449836
1017.489393	2590.895978
1017.782219	2591.178283
1018.075011	2593.804724
1018.367768	2590.936307
1018.660490	2589.648292
1018.953177	2589.648292
1019.245829	2589.648292
