Dividing Wavelength (nm)	Counts (n)	Blue Motor Position (mm): 5.800000	Red Motor Position (mm): 0.000000	
326.493990	2158.657365
326.888308	2158.657365
327.282561	2158.657365
327.676750	2117.118257
328.070874	2113.728081
328.464933	2116.019286
328.858929	2119.734616
329.252859	2126.905658
329.646726	2132.576956
330.040528	2146.293935
330.434265	2156.719041
330.827938	2175.051197
331.221547	2194.101718
331.615091	2211.712989
332.008571	2227.232181
332.401986	2248.084914
332.795338	2265.736514
333.188625	2283.146139
333.581847	2301.526186
333.975006	2319.644093
334.368100	2337.986331
334.761129	2355.224556
335.154095	2375.096785
335.546996	2391.288971
335.939833	2406.172978
336.332606	2419.985739
336.725315	2434.405960
337.117960	2447.273505
337.510540	2457.189455
337.903056	2470.714870
338.295508	2478.243834
338.687896	2488.890751
339.080220	2494.796462
339.472480	2503.782319
339.864676	2506.807011
340.256807	2508.352125
340.648875	2517.486696
341.040879	2517.680780
341.432818	2519.787983
341.824694	2525.842408
342.216506	2525.597912
342.608253	2525.585309
342.999937	2526.044054
343.391557	2526.323838
343.783113	2529.020856
344.174605	2526.321318
344.566033	2524.209074
344.957397	2524.965247
345.348697	2522.018693
345.739934	2521.459125
346.131106	2521.731347
346.522215	2515.331602
346.913260	2514.701458
347.304241	2512.508556
347.695159	2512.566530
348.086012	2513.408402
348.476802	2508.639471
348.867528	2503.205107
349.258191	2500.767709
349.648789	2502.464057
350.039324	2497.269148
350.429796	2501.140754
350.820203	2498.499190
351.210548	2497.256545
351.600828	2495.774446
351.991045	2495.396360
352.381198	2493.205978
352.771288	2493.430310
353.161314	2492.409476
353.551276	2491.098776
353.941175	2492.510299
354.331010	2495.499703
354.720782	2489.868734
355.110490	2490.151039
355.500135	2492.933756
355.889717	2490.539208
356.279235	2491.365957
356.668689	2491.950731
357.058080	2491.789414
357.447408	2492.376708
357.836672	2493.165649
358.225873	2491.489465
358.615010	2493.624394
359.004084	2491.943169
359.393095	2495.761843
359.782043	2492.772439
360.170927	2496.376864
360.559748	2495.035917
360.948505	2491.794455
361.337199	2498.158912
361.725830	2496.568428
362.114398	2499.479694
362.502903	2498.438696
362.891344	2496.586072
363.279722	2499.681340
363.668037	2500.508090
364.056289	2499.010867
364.444478	2500.946670
364.832603	2504.324243
365.220665	2500.573625
365.608665	2503.633605
365.996601	2501.513800
366.384474	2502.257370
366.772284	2502.088491
367.160031	2504.861126
367.547715	2503.615961
367.935336	2504.014212
368.322893	2499.207472
368.710388	2499.124293
369.097820	2504.934223
369.485189	2499.933398
369.872495	2506.277690
370.259738	2506.043277
370.646918	2504.185611
371.034035	2508.702485
371.421090	2507.094357
371.808081	2506.310458
372.195010	2505.491270
372.581875	2509.536796
372.968678	2507.958915
373.355418	2509.017557
373.742096	2507.888339
374.128710	2506.209635
374.515262	2509.025119
374.901751	2507.414470
375.288177	2511.157527
375.674540	2509.289780
376.060841	2509.085613
376.447079	2510.983607
376.833254	2510.103926
377.219367	2515.560975
377.605417	2507.850530
377.991404	2510.726508
378.377329	2511.286077
378.763191	2511.568381
379.148991	2509.418329
379.534727	2510.025788
379.920402	2511.994359
380.306013	2509.851868
380.691563	2511.457476
381.077049	2510.093844
381.462474	2511.659122
381.847835	2513.637775
382.233134	2512.248937
382.618371	2510.408916
383.003545	2513.345388
383.388657	2513.080727
383.773706	2513.345388
384.158693	2512.432939
384.543618	2514.983763
384.928480	2514.222549
385.313280	2516.531397
385.698017	2514.404030
386.082692	2514.267919
386.467305	2515.492919
386.851856	2518.701614
387.236344	2514.978722
387.620770	2516.475944
388.005133	2511.034019
388.389435	2514.625841
388.773674	2512.344719
389.157851	2517.537107
389.541965	2513.811695
389.926018	2517.317817
390.310008	2516.062570
390.693936	2515.709689
391.077802	2518.172293
391.461606	2515.999555
391.845348	2518.721778
392.229027	2522.474918
392.612645	2515.939062
392.996200	2519.561131
393.379694	2517.416120
393.763125	2517.668177
394.146494	2520.904598
394.529801	2520.017355
394.913047	2518.963754
395.296230	2519.157838
395.679351	2521.539783
396.062410	2517.456449
396.445408	2521.423837
396.828343	2518.252951
397.211217	2517.569875
397.594028	2518.499968
397.976778	2520.937366
398.359466	2522.827798
398.742092	2520.408044
399.124656	2520.513909
399.507158	2522.933662
399.889598	2519.616583
400.271977	2520.120699
400.654294	2522.348889
401.036549	2524.146060
401.418742	2522.333765
401.800874	2522.409382
402.182944	2523.485669
402.564952	2520.710514
402.946898	2523.541122
403.328783	2522.472397
403.710606	2524.481297
404.092367	2523.515916
404.474067	2522.250586
404.855705	2524.824095
405.237282	2524.100690
405.618797	2524.017511
406.000250	2522.169928
406.381642	2524.904754
406.762972	2521.015503
407.144240	2519.661954
407.525447	2521.418796
407.906593	2519.180523
408.287677	2521.932993
408.668700	2525.885258
409.049661	2524.589682
409.430560	2524.566996
409.811399	2526.878365
410.192176	2524.972809
410.572891	2526.182686
410.953545	2524.720752
411.334138	2530.339118
411.714669	2526.510361
412.095139	2528.723428
412.475547	2526.817872
412.855894	2526.712007
413.236180	2527.195958
413.616405	2528.894827
413.996568	2527.521112
414.376670	2528.998171
414.756711	2527.511030
415.136691	2526.412059
415.516609	2528.630166
415.896466	2529.149405
416.276262	2531.526309
416.655997	2526.462470
417.035670	2526.712007
417.415283	2531.722914
417.794834	2527.022038
418.174324	2531.430527
418.553753	2526.016328
418.933121	2529.996319
419.312428	2527.987419
419.691674	2529.083870
420.070859	2529.832482
420.449983	2530.538243
420.829045	2528.519261
421.208047	2527.982378
421.586988	2529.585465
421.965867	2531.123017
422.344686	2530.495393
422.723444	2533.308357
423.102141	2530.540764
423.480777	2532.176618
423.859352	2530.361803
424.237866	2529.237625
424.616319	2529.542615
424.994712	2531.848943
425.373044	2532.310209
425.751314	2528.178983
426.129524	2526.318797
426.507673	2531.420445
426.885762	2525.436595
427.263789	2534.777853
427.641756	2530.124868
428.019662	2531.685106
428.397508	2531.760723
428.775292	2532.776515
429.153016	2531.833820
429.530679	2534.535878
429.908282	2532.766433
430.285824	2535.133255
430.663305	2534.296423
431.040726	2532.839530
431.418086	2532.098480
431.795385	2532.809283
432.172624	2533.051258
432.549802	2531.927081
432.926920	2533.343645
433.303977	2533.225178
433.680974	2534.593851
434.057910	2534.130065
434.434786	2535.876825
434.811601	2534.170394
435.188355	2532.378264
435.565050	2533.638553
435.941683	2535.624767
436.318257	2534.487987
436.694770	2533.036135
437.071222	2534.606454
437.447614	2532.153933
437.823946	2537.028729
438.200218	2533.895652
438.576429	2533.661238
438.952580	2533.802390
439.328670	2533.126876
439.704700	2535.357586
440.080670	2534.808100
440.456580	2533.351207
440.832429	2537.207690
441.208218	2535.881866
441.583947	2535.546629
441.959616	2537.242978
442.335224	2535.065199
442.710773	2534.435055
443.086261	2535.100487
443.461689	2536.937988
443.837057	2535.680220
444.212365	2535.339942
444.587612	2533.530168
444.962800	2531.281813
445.337927	2535.554191
445.712995	2532.504293
446.088002	2537.857998
446.462949	2537.202648
446.837837	2538.997299
447.212664	2538.069727
447.587431	2538.808256
447.962139	2539.105684
448.336786	2538.047042
448.711374	2537.290869
449.085901	2538.286497
449.460369	2536.073430
449.834776	2538.485622
450.209124	2536.834644
450.583412	2540.776827
450.957640	2538.556198
451.331808	2538.669624
451.705917	2537.386651
452.079965	2536.950591
452.453954	2538.853626
452.827883	2534.666948
453.201752	2538.374717
453.575562	2537.472350
453.949311	2540.587783
454.323001	2536.857329
454.696632	2540.670962
455.070202	2538.987217
455.443713	2539.279604
455.817164	2540.083668
456.190556	2540.078627
456.563888	2539.362783
456.937160	2540.408822
457.310373	2541.515356
457.683526	2538.959491
458.056619	2538.745242
458.429653	2539.748431
458.802628	2537.580735
459.175542	2540.242464
459.548398	2542.682383
459.921194	2539.019984
460.293930	2539.887063
460.666607	2539.332536
461.039224	2540.542413
461.411782	2542.533669
461.784280	2538.815818
462.156719	2538.097453
462.529099	2543.403268
462.901419	2539.458565
463.273680	2537.840354
463.645882	2537.905889
464.018024	2537.643749
464.390106	2537.653832
464.762130	2538.984696
465.134094	2540.300437
465.505999	2543.020140
465.877845	2540.580222
466.249631	2541.628782
466.621358	2541.767413
466.993026	2542.614327
467.364634	2546.669935
467.736184	2541.049049
468.107674	2542.463092
468.479105	2540.860006
468.850477	2543.163813
469.221790	2541.916127
469.593043	2542.556354
469.964238	2541.480068
470.335373	2544.376210
470.706449	2542.866385
471.077467	2539.977804
471.448425	2541.618699
471.819324	2543.355377
472.190164	2543.015099
472.560945	2543.171375
472.931667	2541.356559
473.302330	2540.383617
473.672934	2542.407640
474.043479	2542.019471
474.413965	2539.816487
474.784393	2542.679862
475.154761	2542.236241
475.525070	2540.600386
475.895321	2542.750438
476.265513	2541.946374
476.635645	2545.185316
477.005719	2542.150541
477.375734	2541.233051
477.745691	2542.437887
478.115588	2543.715819
478.485427	2541.175078
478.855207	2544.040974
479.224928	2545.147507
479.594591	2543.655325
479.964194	2542.485778
480.333739	2541.132228
480.703226	2540.832279
481.072653	2542.977290
481.442022	2545.455017
481.811333	2540.169368
482.180584	2539.332536
482.549777	2541.797660
482.918912	2537.565612
483.287988	2545.465100
483.657005	2541.228010
484.025964	2544.209852
484.394864	2544.782023
484.763706	2544.736653
485.132489	2545.853268
485.501213	2542.326981
485.869879	2544.678680
486.238487	2545.714637
486.607036	2543.511652
486.975527	2546.876623
487.343959	2545.228165
487.712333	2544.103988
488.080648	2545.477703
488.448905	2545.749925
488.817104	2547.794113
489.185244	2546.001982
489.553326	2544.096426
489.921350	2547.166489
490.289315	2545.979297
490.657222	2545.245809
491.025070	2544.923176
491.392861	2544.141797
491.760593	2544.925696
492.128267	2543.771272
492.495883	2546.647250
492.863440	2546.569112
493.230939	2545.898639
493.598380	2544.371169
493.965763	2548.603218
494.333088	2545.129863
494.700354	2544.371169
495.067563	2543.640202
495.434713	2545.543237
495.801805	2546.526262
496.168839	2543.541899
496.535815	2544.167002
496.902733	2546.740512
497.269593	2545.147507
497.636395	2547.496685
498.003139	2542.846220
498.369825	2546.284287
498.736453	2545.565923
499.103023	2546.140614
499.469535	2546.899308
499.835989	2545.271015
500.202385	2542.382434
500.568723	2541.991745
500.935003	2540.928061
501.301226	2542.248843
501.667390	2546.012065
502.033497	2547.448794
502.399546	2545.296221
502.765537	2545.883515
503.131470	2546.324616
503.497345	2543.171375
503.863163	2546.309493
504.228923	2546.067518
504.594625	2547.093392
504.960269	2542.332023
505.325856	2545.911242
505.691385	2544.903011
506.056856	2547.080789
506.422270	2547.816798
506.787625	2547.325285
507.152924	2545.734801
507.518164	2546.387631
507.883347	2545.331509
508.248472	2546.153217
508.613540	2548.406613
508.978550	2547.559699
509.343503	2546.475851
509.708398	2550.523897
510.073236	2547.826880
510.438016	2546.964843
510.802738	2545.089534
511.167403	2545.792775
511.532010	2547.635316
511.896561	2547.312683
512.261053	2545.586087
512.625488	2545.263453
512.989866	2548.131870
513.354186	2546.448125
513.718449	2548.043650
514.082655	2546.690100
514.446803	2546.438042
514.810894	2547.282436
515.174927	2546.730429
515.538904	2546.964843
515.902822	2545.054246
516.266684	2549.024154
516.630488	2546.561551
516.994235	2546.342260
517.357925	2548.565409
517.721558	2549.573640
518.085133	2547.698331
518.448651	2546.916952
518.812112	2545.389482
519.175516	2541.394368
519.538863	2547.108516
519.902152	2549.523228
520.265385	2546.105326
520.628560	2548.804864
520.991678	2547.741181
521.354739	2548.162117
521.717743	2547.594987
522.080690	2547.537014
522.443580	2546.831252
522.806413	2547.002652
523.169189	2545.414688
523.531908	2549.142621
523.894569	2547.940306
524.257174	2551.212015
524.619722	2549.462735
524.982213	2547.509287
525.344647	2548.499874
525.707025	2548.487271
526.069345	2547.022816
526.431608	2546.639688
526.793815	2549.689587
527.155964	2547.050542
527.518057	2548.111705
527.880093	2549.971891
528.242072	2548.018444
528.603995	2549.803013
528.965860	2548.809905
529.327669	2544.900490
529.689421	2547.174051
530.051117	2550.690256
530.412755	2552.104299
530.774337	2546.808567
531.135862	2547.486602
531.497331	2549.853424
531.858743	2548.651109
532.220098	2548.908208
532.581396	2549.087169
532.942638	2548.073897
533.303824	2550.203784
533.664953	2549.051881
534.026025	2550.236552
534.387040	2548.817467
534.747999	2548.819987
535.108902	2547.322765
535.469748	2549.235883
535.830537	2550.768393
536.191270	2552.724361
536.551947	2545.870912
536.912567	2546.737991
537.273131	2547.398382
537.633638	2544.378731
537.994089	2548.111705
538.354483	2548.131870
538.714821	2547.993238
539.075103	2547.756304
539.435328	2549.112374
539.795497	2547.786551
540.155609	2551.453990
540.515665	2547.521890
540.875665	2548.094061
541.235609	2547.728578
541.595496	2550.959957
541.955328	2549.130018
542.315102	2547.466438
542.674821	2550.269319
543.034483	2547.622713
543.394090	2549.518187
543.753640	2547.705892
544.113134	2550.594474
544.472571	2546.874102
544.831953	2549.636654
545.191278	2546.435522
545.550548	2550.239072
545.909761	2548.920811
546.268918	2549.394679
546.628019	2549.240924
546.987064	2548.930893
547.346053	2548.290666
547.704986	2550.148332
548.063863	2549.495502
548.422684	2547.186654
548.781449	2548.772097
549.140158	2550.123126
549.498811	2549.699669
549.857408	2548.023485
550.215949	2551.438867
550.574434	2547.249668
550.932864	2552.069011
551.291237	2549.044319
551.649555	2553.926676
552.007817	2549.712272
552.366022	2549.797971
552.724173	2549.044319
553.082267	2549.366953
553.440305	2548.734288
553.798288	2549.377035
554.156215	2549.830739
554.514086	2547.224462
554.871902	2545.419729
555.229661	2548.343598
555.587365	2546.780841
555.945014	2550.773435
556.302606	2550.546583
556.660143	2553.359547
557.017625	2553.296532
557.375050	2551.350647
557.732421	2551.965667
558.089735	2553.394835
558.446994	2550.501212
558.804197	2553.286450
559.161345	2552.184958
559.518437	2550.634803
559.875474	2549.918959
560.232455	2549.354350
560.589381	2553.029351
560.946251	2550.377704
561.303065	2553.556152
561.659825	2552.477345
562.016528	2553.052036
562.373177	2551.653116
562.729770	2553.117571
563.086307	2551.791748
563.442789	2550.813764
563.799216	2550.218908
564.155587	2553.566234
564.511904	2551.801830
564.868164	2551.149001
565.224370	2555.338199
565.580520	2551.305276
565.936615	2552.817623
566.292654	2554.158569
566.648638	2550.682694
567.004567	2551.171686
567.360441	2552.192519
567.716260	2551.363250
568.072023	2552.399207
568.427732	2551.690925
568.783385	2552.996583
569.138982	2552.253013
569.494525	2550.821326
569.850013	2551.562375
570.205445	2552.066491
570.560823	2553.117571
570.916145	2553.621687
571.271412	2552.837787
571.626625	2552.744526
571.981782	2548.862837
572.336884	2549.271171
572.691931	2549.515667
573.046923	2549.888712
573.401860	2545.502908
573.756743	2555.270144
574.111570	2550.707900
574.466342	2550.085317
574.821059	2550.841490
575.175722	2554.866852
575.530330	2549.528270
575.884882	2554.556821
576.239380	2554.617314
576.593823	2553.052036
576.948211	2553.102448
577.302544	2553.609084
577.656823	2552.126984
578.011047	2552.779814
578.365216	2552.862993
578.719330	2552.111861
579.073389	2554.912222
579.427394	2554.398024
579.781344	2551.983312
580.135239	2550.392827
580.489080	2550.997766
580.842866	2555.015566
581.196597	2553.044474
581.550273	2552.177396
581.903895	2551.970709
582.257463	2554.503888
582.610975	2554.224104
582.964434	2553.193188
583.317837	2550.065152
583.671186	2552.361398
584.024481	2550.317210
584.377721	2551.574978
584.730906	2549.026675
585.084037	2551.847200
585.437113	2552.197561
585.790135	2552.391645
586.143103	2552.623538
586.496016	2552.149670
586.848874	2551.408620
587.201679	2554.128323
587.554428	2552.157231
587.907124	2554.778631
588.259765	2553.972047
588.612352	2550.085317
588.964884	2552.805020
589.317362	2553.077242
589.669786	2551.096068
590.022155	2549.737477
590.374470	2545.833104
590.726731	2550.332334
591.078937	2547.065666
591.431090	2553.326779
591.783188	2553.568754
592.135232	2552.888199
592.487222	2552.575647
592.839157	2551.406099
593.191038	2551.854762
593.542866	2548.230173
593.894639	2550.904505
594.246358	2550.256716
594.598022	2551.312838
594.949633	2553.558672
595.301190	2549.147662
595.652692	2550.780996
596.004141	2550.808723
596.355535	2549.356870
596.706876	2551.154042
597.058162	2550.372663
597.409395	2550.831408
597.760573	2550.720502
598.111698	2552.749567
598.462768	2551.234700
598.813785	2552.351316
599.164748	2553.699824
599.515657	2551.035575
599.866511	2551.847200
600.217312	2550.148332
600.568060	2549.588763
600.918753	2554.014897
601.269392	2551.564896
601.619978	2552.232849
601.970510	2550.223949
602.320988	2552.515153
602.671412	2551.905174
603.021783	2550.082797
603.372100	2552.762170
603.722363	2549.762683
604.072572	2551.204453
604.422728	2553.223435
604.772830	2553.246121
605.122878	2551.885009
605.472872	2551.338044
605.822813	2548.507436
606.172701	2550.909546
606.522534	2552.298384
606.872314	2549.873589
607.222041	2549.515667
607.571714	2549.104813
607.921333	2549.067004
608.270899	2547.350491
608.620411	2549.276212
608.969870	2553.994732
609.319276	2555.817109
609.668627	2557.185782
610.017926	2563.106618
610.367171	2564.843295
610.716362	2562.993192
611.065500	2563.472101
611.414585	2558.924980
611.763616	2559.522357
612.112594	2553.135215
612.461518	2558.204095
612.810389	2555.118909
613.159207	2555.839794
613.507971	2554.297201
613.856682	2552.434495
614.205340	2553.351985
614.553945	2555.507078
614.902496	2553.790565
615.250994	2551.108671
615.599439	2550.864175
615.947830	2549.636654
616.296169	2553.122612
616.644454	2550.206305
616.992686	2552.479865
617.340864	2551.554813
617.688990	2550.332334
618.037063	2553.130174
618.385082	2550.037426
618.733048	2550.599515
619.080961	2552.285781
619.428821	2552.273178
619.776628	2552.036244
620.124382	2551.181768
620.472083	2551.522046
620.819731	2549.803012
621.167326	2553.541028
621.514868	2551.708569
621.862357	2550.468445
622.209793	2554.498847
622.557176	2551.695966
622.904506	2552.235369
623.251783	2550.521377
623.599007	2550.662529
623.946179	2552.888199
624.293297	2547.539534
624.640363	2551.277550
624.987376	2546.438042
625.334336	2546.301931
625.681243	2547.632796
626.028097	2544.204811
626.374899	2551.837118
626.721647	2548.522559
627.068343	2551.935421
627.414987	2552.245452
627.761577	2551.363250
628.108115	2552.956254
628.454600	2552.275698
628.801032	2550.980122
629.147412	2552.598332
629.493739	2552.250493
629.840014	2552.119423
630.186236	2549.954247
630.532405	2551.713610
630.878521	2553.934238
631.224585	2550.929710
631.570597	2548.900646
631.916556	2550.680173
632.262462	2549.896274
632.608316	2551.809392
632.954117	2550.685214
633.299866	2551.040616
633.645562	2551.574978
633.991206	2551.459032
634.336797	2547.564740
634.682336	2549.838301
635.027823	2552.013558
635.373257	2549.253527
635.718639	2549.117416
636.063968	2550.228990
636.409245	2548.726726
636.754470	2551.695966
637.099642	2548.207487
637.444762	2554.040102
637.789829	2550.438198
638.134845	2550.135729
638.479808	2551.181768
638.824719	2551.945503
639.169577	2552.079093
639.514383	2552.540359
639.859137	2552.169834
640.203839	2551.025492
640.548489	2549.130018
640.893086	2550.455842
641.237632	2549.777807
641.582125	2549.702189
641.926566	2551.607746
642.270955	2548.346119
642.615292	2548.106664
642.959576	2549.089689
643.303809	2546.448125
643.647990	2550.355019
643.992118	2548.946016
644.336195	2554.874413
644.680219	2551.227138
645.024192	2551.317879
645.368112	2551.088507
645.711981	2549.142621
646.055797	2549.099772
646.399562	2549.195553
646.743274	2550.725544
647.086935	2551.895091
647.430544	2549.394679
647.774101	2547.602549
648.117606	2551.557334
648.461059	2551.453990
648.804460	2554.864331
649.147810	2551.280071
649.491108	2548.734288
649.834354	2550.506253
650.177548	2551.350647
650.520690	2553.538508
650.863781	2552.454659
651.206820	2552.532797
651.549807	2550.528939
651.892742	2549.308979
652.235626	2549.729916
652.578458	2549.475337
652.921238	2548.217570
653.263967	2552.535318
653.606644	2553.349464
653.949269	2550.579350
654.291843	2550.919628
654.634365	2550.337375
654.976836	2548.951057
655.319255	2550.851572
655.661622	2551.595143
656.003938	2552.585729
656.346203	2551.209494
656.688416	2549.487940
657.030577	2548.683876
657.372687	2551.955585
657.714746	2550.380225
658.056753	2552.552962
658.398708	2550.594474
658.740612	2554.143446
659.082465	2547.925183
659.424266	2547.118598
659.766016	2546.266643
660.107715	2548.131870
660.449362	2546.969884
660.790958	2550.846531
661.132503	2551.113712
661.473996	2553.024310
661.815438	2552.721841
662.156829	2552.706717
662.498168	2551.534649
662.839456	2552.162273
663.180693	2550.977601
663.521879	2553.178065
663.863013	2552.346275
664.204097	2550.763352
664.545129	2549.225800
664.886110	2551.156562
665.227040	2550.778476
665.567918	2552.837787
665.908746	2549.437529
666.249522	2551.431305
666.590248	2550.420554
666.930922	2549.606407
667.271545	2552.217725
667.612118	2550.818805
667.952639	2551.885009
668.293109	2554.345092
668.633528	2550.246634
668.973896	2553.909032
669.314213	2549.200595
669.654480	2553.440205
669.994695	2551.874927
670.334859	2552.235369
670.674973	2549.845862
671.015035	2551.428785
671.355047	2550.523898
671.695008	2551.421223
672.034918	2552.154711
672.374777	2547.602549
672.714585	2552.431974
673.054342	2549.435008
673.394049	2552.250493
673.733705	2552.308466
674.073310	2553.493137
674.412864	2550.176058
674.752368	2549.432488
675.091820	2555.018086
675.431223	2550.717982
675.770574	2552.069011
676.109875	2550.463404
676.449125	2547.721016
676.788324	2547.524411
677.127473	2549.177909
677.466571	2544.373690
677.805619	2551.287632
678.144616	2552.477345
678.483562	2551.814433
678.822458	2552.368960
679.161303	2553.820812
679.500098	2550.859134
679.838842	2551.819474
680.177535	2552.968857
680.516179	2553.009186
680.854771	2554.332489
681.193314	2551.995914
681.531805	2552.658826
681.870247	2550.685214
682.208638	2552.172355
682.546978	2551.375853
682.885268	2555.086142
683.223508	2553.193188
683.561697	2552.605894
683.899836	2552.908363
684.237925	2552.424413
684.575963	2554.266954
684.913951	2552.497509
685.251889	2553.014227
685.589776	2556.815257
685.927614	2553.082283
686.265401	2552.419371
686.603137	2552.736964
686.940824	2552.363919
687.278460	2554.831563
687.616046	2553.460370
687.953582	2554.808878
688.291068	2553.553631
688.628504	2555.728889
688.965889	2554.667726
689.303224	2554.541697
689.640510	2558.446071
689.977745	2556.280895
690.314930	2554.387942
690.652065	2554.854249
690.989150	2557.090000
691.326185	2554.750905
691.663170	2555.786862
692.000105	2555.418858
692.336990	2555.428940
692.673825	2553.339382
693.010610	2555.771739
693.347345	2551.746377
693.684030	2551.343085
694.020665	2552.598332
694.357251	2549.566078
694.693786	2553.911553
695.030272	2555.307952
695.366707	2556.394321
695.703093	2553.346944
696.039429	2551.564896
696.375716	2555.033210
696.711952	2556.273333
697.048139	2552.371480
697.384276	2555.113868
697.720363	2556.699311
698.056400	2556.684187
698.392388	2556.301060
698.728326	2557.553787
699.064214	2555.073539
699.400053	2557.848694
699.735842	2554.597150
700.071581	2554.077911
700.407270	2555.320555
700.742910	2555.852397
701.078501	2556.117058
701.414042	2554.899619
701.749533	2556.351471
702.084974	2555.605381
702.420366	2557.067315
702.755709	2557.747871
703.091002	2552.951213
703.426246	2556.159907
703.761440	2555.728889
704.096584	2558.856925
704.431679	2556.394321
704.766725	2556.162428
705.101721	2557.798282
705.436668	2552.696635
705.771565	2554.773590
706.106413	2556.417006
706.441212	2559.608057
706.775961	2557.664692
707.110661	2558.483879
707.445311	2558.680484
707.779913	2556.422048
708.114465	2555.985988
708.448967	2558.564538
708.783421	2556.175031
709.117825	2557.815927
709.452180	2560.656617
709.786485	2559.600495
710.120742	2557.226112
710.454949	2554.582026
710.789107	2556.807696
711.123216	2554.909701
711.457275	2566.015363
711.791286	2563.222564
712.125247	2563.577965
712.459159	2567.560477
712.793023	2569.297154
713.126837	2566.065775
713.460602	2563.492266
713.794318	2565.060065
714.127985	2562.617626
714.461602	2562.720969
714.795171	2566.164077
715.128691	2564.825651
715.462162	2563.842626
715.795584	2558.516647
716.128957	2566.340518
716.462281	2562.690722
716.795556	2564.056875
717.128782	2561.120403
717.461960	2560.265927
717.795088	2560.941442
718.128167	2561.485887
718.461198	2557.742830
718.794180	2563.083932
719.127113	2559.582851
719.459997	2559.708880
719.792833	2560.354147
720.125619	2561.122923
720.458357	2558.010011
720.791046	2558.078067
721.123686	2560.535629
721.456278	2558.819116
721.788821	2559.192162
722.121315	2557.402552
722.453761	2561.092677
722.786158	2561.609395
723.118506	2561.591751
723.450805	2560.515464
723.783056	2560.056719
724.115259	2561.405228
724.447412	2560.989333
724.779518	2561.052347
725.111574	2562.670558
725.443582	2563.993861
725.775542	2562.471432
726.107453	2566.350600
726.439315	2565.148285
726.771129	2569.047617
727.102895	2558.579661
727.434612	2564.205589
727.766281	2563.305743
728.097901	2569.604665
728.429473	2569.282031
728.760996	2567.608368
729.092471	2568.382185
729.423897	2565.279355
729.755276	2569.602144
730.086606	2563.983778
730.417887	2567.162226
730.749120	2568.162895
731.080305	2569.476115
731.411442	2572.823442
731.742530	2568.654407
732.073570	2570.814542
732.404562	2571.371589
732.735506	2571.719429
733.066401	2574.217321
733.397249	2573.297310
733.728048	2571.951322
734.058798	2570.638101
734.389501	2568.087277
734.720156	2568.498132
735.050762	2563.794735
735.381320	2566.955538
735.711831	2564.661813
736.042293	2567.225240
736.372707	2567.845302
736.703073	2567.535271
737.033391	2567.416804
737.363661	2569.493759
737.693883	2567.104252
738.024056	2567.941084
738.354182	2571.117011
738.684260	2569.425704
739.014290	2570.315467
739.344272	2571.878225
739.674207	2568.951835
740.004093	2573.388051
740.333931	2574.265212
740.663722	2575.374265
740.993464	2573.660273
741.323159	2578.782085
741.652806	2573.975345
741.982405	2570.065930
742.311956	2573.168761
742.641460	2573.491394
742.970915	2571.023750
743.300323	2568.359500
743.629683	2567.154664
743.958996	2567.888152
744.288260	2563.315825
744.617477	2569.617268
744.946647	2571.676579
745.275768	2569.587021
745.604842	2565.266752
745.933869	2571.681620
746.262847	2569.798749
746.591778	2568.503173
746.920662	2567.807493
747.249498	2569.463512
747.578286	2569.503842
747.907027	2571.215313
748.235720	2572.273956
748.564365	2571.416960
748.892963	2572.190777
749.221514	2577.597414
749.550017	2574.595407
749.878473	2572.843606
750.206881	2572.122721
750.535242	2572.767989
750.863555	2569.375292
751.191821	2570.358317
751.520039	2572.518452
751.848210	2572.024419
752.176334	2573.758576
752.504411	2571.638770
752.832440	2570.358317
753.160421	2572.682289
753.488356	2575.777558
753.816243	2574.542475
754.144082	2572.493246
754.471875	2572.251271
754.799620	2572.856209
755.127318	2573.806467
755.454969	2575.800243
755.782572	2572.810839
756.110129	2573.133472
756.437638	2574.577763
756.765100	2576.173288
757.092515	2575.608679
757.419882	2574.875191
757.747203	2575.855696
758.074477	2576.276632
758.401703	2578.580439
758.728882	2573.995510
759.056014	2575.528021
759.383099	2577.201684
759.710138	2577.499112
760.037129	2574.066086
760.364073	2577.171437
760.690970	2572.278997
761.017820	2579.255954
761.344623	2580.604462
761.671379	2581.779051
761.998088	2581.330389
762.324751	2583.417426
762.651366	2591.813468
762.977935	2605.006168
763.304456	2617.097375
763.630931	2634.000364
763.957359	2627.812348
764.283740	2621.263889
764.610074	2611.433639
764.936362	2605.570777
765.262602	2596.836978
765.588796	2588.370360
765.914943	2584.408013
766.241044	2586.139649
766.567097	2583.886254
766.893104	2579.744946
767.219064	2577.400809
767.544978	2577.582291
767.870845	2575.417115
768.196665	2574.358473
768.522438	2575.293607
768.848165	2575.124728
769.173846	2574.343349
769.499479	2573.740932
769.825066	2571.948801
770.150607	2575.230592
770.476101	2570.595252
770.801548	2572.089954
771.126949	2572.959553
771.452303	2569.856722
771.777611	2570.723801
772.102872	2572.173133
772.428087	2571.006106
772.753256	2572.788153
773.078378	2570.817062
773.403453	2570.237330
773.728482	2570.128945
774.053465	2567.852864
774.378401	2570.542319
774.703291	2570.179356
775.028135	2566.469067
775.352932	2568.989644
775.677683	2567.202555
776.002388	2566.421176
776.327046	2564.525702
776.651658	2564.576114
776.976224	2561.133006
777.300743	2564.011505
777.625216	2563.381360
777.949643	2563.638459
778.274024	2568.908986
778.598359	2564.941598
778.922647	2565.281875
779.246889	2564.203068
779.571086	2566.083419
779.895236	2566.685837
780.219339	2565.402863
780.543397	2565.561659
780.867409	2567.704150
781.191374	2563.915723
781.515294	2563.540157
781.839167	2566.637946
782.162995	2568.077195
782.486776	2569.415622
782.810511	2566.307750
783.134201	2567.421845
783.457844	2565.521330
783.781441	2569.592062
784.104993	2567.016032
784.428498	2566.244736
784.751958	2566.753892
785.075372	2566.849674
785.398739	2565.022256
785.722061	2564.946639
786.045337	2567.893193
786.368568	2566.902606
786.691752	2566.716084
787.014891	2563.575445
787.337983	2568.346897
787.661030	2569.287072
787.984031	2572.389902
788.306987	2577.572208
788.629897	2575.439800
788.952760	2579.697055
789.275579	2578.219997
789.598351	2577.836869
789.921078	2574.797053
790.243759	2569.027453
790.566395	2570.718760
790.888984	2572.563822
791.211529	2565.990157
791.534027	2567.522668
791.856480	2567.731876
792.178888	2564.984447
792.501249	2561.795917
792.823566	2562.093346
793.145836	2560.865825
793.468062	2563.220043
793.790241	2563.940928
794.112375	2566.670713
794.434464	2566.388409
794.756507	2566.648028
795.078505	2565.455795
795.400457	2564.813048
795.722364	2568.747669
796.044226	2572.377299
796.366042	2574.353432
796.687812	2571.590879
797.009538	2573.932495
797.331218	2572.836044
797.652852	2571.709347
797.974442	2568.155333
798.295986	2569.337484
798.617484	2570.227247
798.938938	2568.026784
799.260346	2570.275138
799.581709	2570.600293
799.903026	2571.182546
800.224299	2570.504511
800.545526	2567.941084
800.866708	2566.796742
801.187845	2566.075857
801.508936	2567.971331
801.829983	2570.010478
802.150984	2566.189283
802.471940	2566.927812
802.792851	2565.168449
803.113717	2564.712225
803.434538	2566.932853
803.755314	2566.965621
804.076045	2561.770712
804.396731	2564.671896
804.717372	2565.460836
805.037967	2566.794222
805.358518	2566.809345
805.679024	2570.696075
805.999485	2565.707853
806.319901	2567.888152
806.640272	2564.515620
806.960598	2565.155847
807.280879	2567.497462
807.601115	2567.462174
807.921306	2566.063254
808.241453	2567.709191
808.561554	2565.281875
808.881611	2564.573593
809.201623	2563.580486
809.521590	2570.408729
809.841513	2568.132648
810.161390	2569.012329
810.481223	2566.582493
810.801011	2568.687175
811.120755	2567.240364
811.440453	2570.965776
811.760107	2567.129458
812.079716	2567.250446
812.399281	2567.096691
812.718801	2568.309088
813.038276	2567.734397
813.357707	2567.484860
813.677093	2568.503173
813.996434	2568.535940
814.315731	2569.791188
814.634983	2564.492935
814.954191	2567.510065
815.273354	2566.763975
815.592473	2568.369582
815.911547	2569.352607
816.230577	2571.931157
816.549562	2572.994841
816.868502	2570.544840
817.187399	2572.609193
817.506250	2575.454924
817.825058	2571.437124
818.143821	2573.435942
818.462539	2578.613207
818.781213	2578.141859
819.099843	2579.442477
819.418429	2588.120823
819.736970	2594.591144
820.055466	2593.708942
820.373919	2605.207814
820.692327	2618.468569
821.010691	2632.394757
821.329011	2657.688746
821.647286	2704.944522
821.965517	2764.082298
822.283704	2803.307516
822.601847	2856.973119
822.919945	2858.104858
823.237999	2829.927329
823.556010	2791.995167
823.873976	2764.374685
824.191897	2725.356154
824.509775	2688.820392
824.827609	2660.468942
825.145398	2650.074083
825.463144	2649.839669
825.780845	2649.101140
826.098502	2654.699342
826.416116	2675.481498
826.733685	2695.782225
827.051210	2708.143134
827.368692	2717.260061
827.686129	2711.074565
828.003522	2673.928823
828.320872	2651.115081
828.638177	2631.699077
828.955439	2616.048815
829.272656	2603.604727
829.589830	2597.451999
829.906960	2590.805237
830.224046	2583.699731
830.541088	2583.614031
830.858086	2583.566140
831.175041	2579.868454
831.491952	2578.411561
831.808819	2581.617734
832.125642	2586.598394
832.442421	2589.038313
832.759157	2592.418407
833.075849	2607.161261
833.392497	2629.181021
833.709101	2642.587970
834.025662	2649.360760
834.342179	2646.270532
834.658653	2637.720736
834.975083	2622.720782
835.291469	2610.359873
835.607811	2592.315063
835.924110	2588.156111
836.240366	2584.168558
836.556578	2579.485326
836.872746	2572.064748
837.188871	2572.815880
837.504952	2569.859243
837.820990	2567.131979
838.136984	2567.404201
838.452935	2565.846485
838.768842	2565.354972
839.084706	2569.365210
839.400526	2574.819738
839.716303	2582.031109
840.032037	2591.516040
840.347727	2594.949066
840.663373	2596.380753
840.978977	2583.198136
841.294537	2579.553382
841.610054	2573.516600
841.925527	2570.940571
842.240957	2564.336659
842.556344	2566.033007
842.871687	2563.000753
843.186987	2558.312480
843.502244	2559.308108
843.817458	2561.102759
844.132629	2558.234342
844.447756	2556.245607
844.762840	2559.139229
845.077881	2556.432130
845.392879	2555.149156
845.707833	2554.461039
846.022745	2555.955741
846.337613	2553.793086
846.652438	2554.171172
846.967221	2555.769218
847.281960	2552.805020
847.596656	2554.128323
847.911309	2553.909032
848.225919	2555.774259
848.540485	2555.015566
848.855009	2552.242931
849.169490	2553.987170
849.483928	2555.166800
849.798323	2553.591440
850.112675	2553.203271
850.426984	2555.648230
850.741251	2553.936759
851.055474	2552.474824
851.369654	2553.483055
851.683792	2554.889537
851.997887	2555.953220
852.311938	2551.552293
852.625947	2552.018600
852.939914	2553.215874
853.253837	2550.985163
853.567718	2554.234187
853.881555	2555.270144
854.195350	2553.420040
854.509103	2555.439022
854.822812	2551.590102
855.136479	2555.431461
855.450103	2553.747715
855.763685	2553.498178
856.077224	2551.249824
856.390720	2552.623538
856.704173	2549.808054
857.017584	2552.096737
857.330953	2555.106306
857.644278	2554.738302
857.957561	2558.287274
858.270802	2552.096738
858.584000	2555.592778
858.897155	2553.263765
859.210268	2555.340720
859.523339	2554.219063
859.836367	2553.641851
860.149352	2552.883158
860.462295	2552.595812
860.775195	2553.528425
861.088054	2552.280740
861.400869	2557.407593
861.713642	2553.233518
862.026373	2554.811399
862.339062	2552.157231
862.651708	2555.862479
862.964312	2555.459187
863.276873	2554.266954
863.589392	2555.960782
863.901869	2555.875082
864.214303	2557.576472
864.526696	2555.653272
864.839045	2554.766028
865.151353	2555.653272
865.463619	2557.934394
865.775842	2557.173179
866.088023	2555.348282
866.400162	2557.838612
866.712258	2553.767880
867.024313	2554.022458
867.336325	2559.958417
867.648296	2555.786862
867.960224	2557.389949
868.272110	2555.983467
868.583954	2557.581513
868.895755	2556.359033
869.207515	2556.144784
869.519233	2556.875751
869.830909	2559.245094
870.142542	2559.567727
870.454134	2559.320711
870.765684	2558.806513
871.077191	2556.946327
871.388657	2556.626214
871.700081	2555.975905
872.011463	2558.040258
872.322803	2555.938097
872.634101	2560.036555
872.945357	2560.505382
873.256571	2562.599982
873.567744	2561.014539
873.878874	2560.891030
874.189963	2561.140568
874.501010	2560.666699
874.812015	2560.215516
875.122979	2559.890361
875.433900	2560.230639
875.744780	2560.863304
876.055618	2560.331462
876.366415	2563.406566
876.677169	2564.200548
876.987882	2563.593089
877.298554	2566.058213
877.609183	2565.302040
877.919771	2567.237843
878.230317	2568.026784
878.540822	2573.274625
878.851285	2572.883935
879.161707	2575.114646
879.472087	2577.559606
879.782425	2587.432705
880.092722	2606.929368
880.402977	2624.379322
880.713191	2632.563635
881.023363	2651.770431
881.333494	2673.959070
881.643583	2679.020388
881.953631	2669.774912
882.263637	2671.395643
882.573602	2671.204079
882.883526	2662.261072
883.193408	2651.304125
883.503248	2637.758544
883.813048	2632.707308
884.122806	2622.055350
884.432522	2611.279884
884.742197	2601.195055
885.051831	2593.459405
885.361424	2587.440267
885.670975	2584.715523
885.980485	2579.704617
886.289954	2578.388875
886.599382	2574.643298
886.908768	2571.517783
887.218113	2568.571228
887.527417	2566.469067
887.836680	2560.114693
888.145901	2566.829510
888.455082	2563.958572
888.764221	2561.221226
889.073319	2560.107131
889.382376	2562.552091
889.691392	2561.271638
890.000366	2559.270299
890.309300	2559.623180
890.618193	2561.125444
890.927044	2561.637121
891.235855	2560.762481
891.544625	2557.110165
891.853353	2561.231308
892.162041	2559.156873
892.470687	2560.835578
892.779293	2562.375650
893.087858	2569.140879
893.396381	2571.190108
893.704864	2575.399471
894.013306	2583.064546
894.321707	2593.877821
894.630068	2599.168512
894.938387	2598.621546
895.246665	2599.667586
895.554903	2601.681527
895.863100	2595.909406
896.171256	2587.099989
896.479371	2581.101016
896.787446	2580.848958
897.095480	2571.800087
897.403473	2567.948646
897.711425	2562.506720
898.019336	2565.644838
898.327207	2564.961762
898.635038	2562.904971
898.942827	2564.256001
899.250576	2560.921277
899.558284	2560.155022
899.865952	2560.565876
900.173579	2557.936914
900.481165	2559.179559
900.788711	2555.723848
901.096216	2556.855587
901.403681	2556.716955
901.711105	2555.870041
902.018489	2556.326266
902.325832	2551.637993
902.633135	2552.613456
902.940397	2556.061605
903.247619	2557.984805
903.554800	2567.406722
903.861941	2579.911304
904.169041	2590.588468
904.476101	2598.011567
904.783121	2601.174891
905.090100	2591.659713
905.397039	2588.219125
905.703938	2579.727302
906.010796	2573.924934
906.317614	2567.633574
906.624391	2566.864798
906.931129	2562.428582
907.237826	2559.043447
907.544483	2558.035217
907.851099	2554.309804
908.157675	2555.398693
908.464211	2552.558003
908.770707	2551.585060
909.077163	2551.895091
909.383578	2550.808723
909.689954	2549.535831
909.996289	2549.205636
910.302584	2552.268137
910.608839	2550.259237
910.915054	2549.263609
911.221229	2550.521377
911.527363	2548.015923
911.833458	2550.171017
912.139513	2548.749411
912.445527	2548.189843
912.751502	2548.736808
913.057436	2549.848383
913.363331	2550.377704
913.669186	2553.397355
913.975000	2554.282078
914.280775	2555.958261
914.586510	2558.861966
914.892205	2563.366237
915.197859	2566.862277
915.503475	2571.222875
915.809050	2578.393917
916.114585	2580.637230
916.420081	2581.058166
916.725536	2580.211253
917.030952	2582.550348
917.336328	2577.559606
917.641665	2569.382854
917.946961	2564.109807
918.252218	2564.727348
918.557435	2560.780125
918.862612	2560.117213
919.167750	2559.613098
919.472848	2556.931204
919.777906	2555.118909
920.082925	2554.861810
920.387904	2553.462890
920.692843	2551.098589
920.997743	2552.764690
921.302603	2552.890719
921.607423	2552.074052
921.912204	2549.639175
922.216946	2548.333516
922.521647	2548.167158
922.826310	2548.527601
923.130932	2549.835780
923.435516	2549.298897
923.740059	2549.364432
924.044564	2544.900490
924.349028	2548.419216
924.653454	2545.344112
924.957840	2545.795295
925.262186	2543.027702
925.566493	2547.058104
925.870761	2544.076262
926.174989	2545.744884
926.479178	2544.146838
926.783328	2543.657846
927.087438	2543.005017
927.391509	2544.903011
927.695541	2543.448638
927.999533	2546.556509
928.303486	2545.523073
928.607400	2546.735470
928.911275	2544.235058
929.215110	2542.742877
929.518906	2544.892929
929.822663	2545.218083
930.126381	2543.279759
930.430060	2543.110881
930.733699	2541.845551
931.037299	2544.716488
931.340861	2545.543237
931.644383	2544.151879
931.947866	2543.577188
932.251309	2545.253371
932.554714	2544.295552
932.858080	2541.482588
933.161407	2538.495704
933.464694	2541.386806
933.767943	2540.431507
934.071153	2543.458720
934.374323	2540.638195
934.677455	2543.405788
934.980548	2544.870243
935.283602	2541.679193
935.586617	2542.649615
935.889593	2542.205994
936.192530	2542.004348
936.495428	2541.684234
936.798287	2542.957126
937.101108	2544.696324
937.403890	2545.601211
937.706632	2545.868392
938.009336	2545.482744
938.312002	2544.529966
938.614628	2544.018288
938.917216	2546.254040
939.219765	2544.197249
939.522275	2546.783361
939.824747	2547.085831
940.127179	2547.128680
940.429573	2544.650953
940.731929	2546.632127
941.034246	2545.533155
941.336524	2545.243289
941.638763	2542.909235
941.940964	2544.721529
942.243126	2543.070552
942.545250	2544.938299
942.847335	2544.499719
943.149381	2543.879657
943.451389	2544.925696
943.753359	2541.981662
944.055290	2544.295552
944.357182	2545.044163
944.659036	2543.594832
944.960851	2544.030891
945.262628	2543.645243
945.564367	2543.710778
945.866067	2546.231355
946.167729	2542.629451
946.469352	2543.005017
946.770937	2542.891591
947.072484	2542.400078
947.373992	2541.522917
947.675462	2543.143648
947.976893	2539.589635
948.278286	2538.848585
948.579641	2540.998637
948.880958	2536.532175
949.182236	2540.930582
949.483476	2542.999975
949.784678	2543.385624
950.085841	2543.108360
950.386967	2541.132228
950.688054	2542.493339
950.989103	2544.313196
951.290114	2543.282280
951.591087	2543.849410
951.892021	2542.533669
952.192917	2544.330840
952.493776	2542.755479
952.794596	2543.093237
953.095378	2543.206663
953.396122	2543.688093
953.696828	2542.231199
953.997496	2542.853782
954.298126	2543.579708
954.598718	2542.432846
954.899272	2541.535520
955.199788	2542.422763
955.500266	2542.347146
955.800706	2542.198432
956.101108	2542.894111
956.401472	2541.046528
956.701798	2541.018802
957.002087	2543.869574
957.302337	2540.418905
957.602550	2542.526107
957.902724	2542.881508
958.202861	2541.144831
958.502960	2541.845551
958.803022	2541.477547
959.103045	2540.358411
959.403031	2541.285983
959.702979	2539.461085
960.002889	2540.232382
960.302762	2540.630633
960.602596	2543.403268
960.902393	2539.791281
961.202153	2543.035263
961.501875	2540.169368
961.801559	2539.085519
962.101205	2540.408822
962.400814	2544.111550
962.700385	2539.720705
962.999918	2539.284645
963.299414	2535.276928
963.598873	2538.505787
963.898293	2536.388502
964.197677	2541.527958
964.497022	2539.168698
964.796331	2540.418905
965.095601	2539.607279
965.394835	2538.898997
965.694030	2541.245654
965.993189	2540.892773
966.292309	2539.451003
966.591393	2543.297403
966.890439	2538.619213
967.189447	2539.501415
967.488419	2539.201466
967.787353	2541.396888
968.086249	2539.221631
968.385108	2540.867567
968.683930	2541.301107
968.982714	2539.667773
969.281462	2541.835469
969.580172	2537.711805
969.878844	2541.091899
970.177480	2541.417053
970.476078	2539.503935
970.774639	2539.355221
971.073162	2541.585932
971.371649	2538.909079
971.670098	2538.397402
971.968510	2541.011240
972.266885	2541.023843
972.565223	2541.901004
972.863524	2538.157947
973.161788	2540.146682
973.460014	2538.851106
973.758204	2539.466127
974.056356	2543.577188
974.354471	2541.079296
974.652550	2540.088709
974.950591	2541.661549
975.248595	2539.703061
975.546563	2539.140972
975.844493	2539.249357
976.142386	2540.721374
976.440243	2538.556198
976.738062	2541.694317
977.035845	2538.833462
977.333590	2541.545602
977.631299	2540.663401
977.928971	2537.550488
978.226606	2535.160981
978.524204	2537.817669
978.821765	2538.188194
979.119290	2541.371683
979.416777	2538.215920
979.714228	2540.696168
980.011642	2540.040818
980.309020	2541.550644
980.606360	2540.461754
980.903664	2540.746580
981.200931	2540.421425
981.498162	2541.764893
981.795356	2540.247505
982.092513	2540.549975
982.389633	2539.448483
982.686717	2539.798843
982.983764	2541.412012
983.280775	2540.297917
983.577749	2539.665252
983.874686	2541.185160
984.171587	2539.085519
984.468451	2541.142310
984.765279	2538.435211
985.062070	2539.040149
985.358824	2540.003009
985.655543	2538.044521
985.952224	2540.439069
986.248869	2540.744059
986.545478	2538.513348
986.842050	2539.065355
987.138586	2540.849923
987.435086	2538.911600
987.731549	2541.059131
988.027975	2538.435211
988.324366	2538.780530
988.620719	2540.991076
988.917037	2540.290355
989.213318	2538.241126
989.509563	2539.203987
989.805772	2540.628113
990.101944	2537.255581
990.398080	2541.190201
990.694180	2538.551157
990.990244	2539.330015
991.286271	2538.853626
991.582262	2539.451003
991.878217	2539.234233
992.174136	2540.668442
992.470019	2537.633667
992.765865	2537.006043
993.061676	2534.193080
993.357450	2538.823379
993.653188	2535.544109
993.948890	2538.256250
994.244556	2537.537885
994.540186	2538.210879
994.835780	2539.703061
995.131337	2539.382948
995.426859	2538.417567
995.722345	2537.116949
996.017795	2542.155582
996.313208	2539.380427
996.608586	2541.046528
996.903928	2541.467465
997.199234	2541.356559
997.494504	2540.607948
997.789738	2535.758358
998.084936	2541.056611
998.380099	2537.651311
998.675225	2538.115097
998.970316	2537.704243
999.265371	2541.926210
999.560390	2539.937474
999.855373	2540.645757
1000.150320	2538.518390
1000.445232	2538.115097
1000.740108	2540.605427
1001.034948	2539.289686
1001.329752	2540.252547
1001.624521	2537.419418
1001.919254	2539.350180
1002.213951	2537.076620
1002.508613	2535.347504
1002.803239	2540.499563
1003.097829	2538.566281
1003.392384	2540.068544
1003.686903	2539.582073
1003.981386	2541.215407
1004.275834	2538.616692
1004.570246	2538.062165
1004.864623	2538.016795
1005.158964	2539.539223
1005.453270	2539.203987
1005.747540	2539.375386
1006.041775	2538.253729
1006.335974	2542.896632
1006.630138	2538.835982
1006.924266	2538.168029
1007.218359	2538.735159
1007.512416	2538.856147
1007.806438	2534.581248
1008.100425	2537.852957
1008.394376	2533.900693
1008.688292	2540.217258
1008.982172	2538.190715
1009.276017	2537.374048
1009.569827	2538.571322
1009.863602	2539.730787
1010.157341	2539.012423
1010.451045	2539.967721
1010.744714	2539.032587
1011.038347	2540.129038
1011.331945	2541.026364
1011.625508	2537.540406
1011.919036	2538.813297
1012.212528	2538.611651
1012.505986	2536.401105
1012.799408	2538.974614
1013.092795	2538.664583
1013.386147	2540.302958
1013.679464	2538.067206
1013.972745	2535.917154
1014.265992	2538.450334
1014.559204	2537.369007
1014.852380	2540.292876
1015.145521	2542.258926
1015.438628	2540.660880
1015.731699	2537.565612
1016.024736	2538.707433
1016.317737	2540.144162
1016.610703	2539.607279
1016.903635	2539.496373
1017.196531	2539.564429
1017.489393	2537.089222
1017.782219	2538.140303
1018.075011	2537.026208
1018.367768	2541.573329
1018.660490	2539.526620
1018.953177	2539.526620
1019.245829	2539.526620
