Dividing Wavelength (nm)	Counts (n)	Blue Motor Position (mm): 12.500000	Red Motor Position (mm): 0.000000	
326.493990	2165.601554
326.888308	2165.601554
327.282561	2165.601554
327.676750	2123.523043
328.070874	2119.164966
328.464933	2120.841149
328.858929	2124.145626
329.252859	2128.256687
329.646726	2137.378655
330.040528	2151.244348
330.434265	2164.028714
330.827938	2184.705007
331.221547	2197.401153
331.615091	2217.059132
332.008571	2235.058572
332.401986	2252.866448
332.795338	2273.663728
333.188625	2291.451440
333.581847	2309.032464
333.975006	2326.343786
334.368100	2346.044615
334.761129	2362.566997
335.154095	2379.434698
335.546996	2401.043604
335.939833	2424.694177
336.332606	2440.180602
336.725315	2455.228446
337.117960	2467.624643
337.510540	2480.204843
337.903056	2490.130874
338.295508	2497.909375
338.687896	2506.091167
339.080220	2513.630213
339.472480	2519.619104
339.864676	2525.970958
340.256807	2532.653007
340.648875	2533.741896
341.040879	2538.984696
341.432818	2540.426466
341.824694	2545.553320
342.216506	2542.568957
342.608253	2542.521066
342.999937	2545.371838
343.391557	2542.710109
343.783113	2546.475851
344.174605	2543.307486
344.566033	2545.334030
344.957397	2544.345963
345.348697	2541.066693
345.739934	2540.151723
346.131106	2535.410518
346.522215	2532.093439
346.913260	2532.436238
347.304241	2535.539068
347.695159	2531.352389
348.086012	2531.014632
348.476802	2527.415248
348.867528	2522.303518
349.258191	2518.895698
349.648789	2519.646830
350.039324	2514.991325
350.429796	2518.499968
350.820203	2517.118692
351.210548	2518.094155
351.600828	2515.989473
351.991045	2512.702641
352.381198	2512.211128
352.771288	2510.628206
353.161314	2512.553927
353.551276	2511.858248
353.941175	2513.163906
354.331010	2513.216838
354.720782	2511.117198
355.110490	2512.400172
355.500135	2510.537465
355.889717	2507.936230
356.279235	2510.746673
356.668689	2509.078051
357.058080	2511.288597
357.447408	2510.398833
357.836672	2511.492764
358.225873	2510.489574
358.615010	2510.930675
359.004084	2512.362363
359.393095	2515.805471
359.782043	2511.782630
360.170927	2511.966632
360.559748	2514.315810
360.948505	2516.528877
361.337199	2514.731705
361.725830	2513.345388
362.114398	2517.058198
362.502903	2517.491737
362.891344	2518.865451
363.279722	2517.199350
363.668037	2519.359484
364.056289	2519.470390
364.444478	2519.800585
364.832603	2519.750174
365.220665	2520.145904
365.608665	2520.914680
365.996601	2521.978364
366.384474	2522.074146
366.772284	2521.849814
367.160031	2523.205885
367.547715	2520.045081
367.935336	2524.471214
368.322893	2517.995852
368.710388	2518.568023
369.097820	2524.335103
369.485189	2517.534587
369.872495	2525.802079
370.259738	2522.454753
370.646918	2527.059847
371.034035	2521.582633
371.421090	2524.922398
371.808081	2524.090607
372.195010	2525.287881
372.581875	2528.516740
372.968678	2528.990609
373.355418	2524.884589
373.742096	2527.039682
374.128710	2525.436595
374.515262	2528.723428
374.901751	2524.239321
375.288177	2530.439941
375.674540	2529.119158
376.060841	2527.909281
376.447079	2526.762419
376.833254	2528.993129
377.219367	2529.726617
377.605417	2530.084539
377.991404	2530.112266
378.377329	2527.896678
378.763191	2529.630835
379.148991	2528.070598
379.534727	2527.644621
379.920402	2528.050434
380.306013	2528.612522
380.691563	2534.445137
381.077049	2530.810465
381.462474	2532.821886
381.847835	2530.225692
382.233134	2531.395239
382.618371	2534.026722
383.003545	2530.923891
383.388657	2531.024714
383.773706	2530.722245
384.158693	2531.680064
384.543618	2533.477236
384.928480	2532.179139
385.313280	2533.406660
385.698017	2532.970600
386.082692	2530.941535
386.467305	2534.198121
386.851856	2535.256763
387.236344	2533.028573
387.620770	2533.139478
388.005133	2531.223840
388.389435	2533.429345
388.773674	2527.974816
389.157851	2538.755324
389.541965	2535.355066
389.926018	2535.367668
390.310008	2536.743903
390.693936	2537.721887
391.077802	2536.854809
391.461606	2535.052596
391.845348	2535.939839
392.229027	2536.141486
392.612645	2534.929088
392.996200	2537.260622
393.379694	2537.137113
393.763125	2537.986548
394.146494	2536.020498
394.529801	2538.692309
394.913047	2538.367155
395.296230	2539.912269
395.679351	2538.346990
396.062410	2538.039480
396.445408	2537.237937
396.828343	2537.759696
397.211217	2540.582742
397.594028	2540.620551
397.976778	2538.205838
398.359466	2541.611138
398.742092	2541.492670
399.124656	2540.451672
399.507158	2540.933102
399.889598	2543.148689
400.271977	2541.812784
400.654294	2540.416384
401.036549	2540.940664
401.418742	2544.280428
401.800874	2541.202804
402.182944	2544.308155
402.564952	2539.990407
402.946898	2541.706919
403.328783	2541.913607
403.710606	2541.880839
404.092367	2541.686755
404.474067	2539.657690
404.855705	2542.241282
405.237282	2545.936448
405.618797	2540.618030
406.000250	2544.235058
406.381642	2543.471323
406.762972	2542.369831
407.144240	2538.089892
407.525447	2542.332023
407.906593	2538.888914
408.287677	2543.345294
408.668700	2542.072403
409.049661	2546.193546
409.430560	2545.555840
409.811399	2544.136756
410.192176	2544.603062
410.572891	2544.098947
410.953545	2544.819832
411.334138	2543.993083
411.714669	2544.905532
412.095139	2547.204298
412.475547	2545.142466
412.855894	2545.901159
413.236180	2547.065666
413.616405	2544.557692
413.996568	2548.058773
414.376670	2544.192208
414.756711	2545.389482
415.136691	2548.643547
415.516609	2545.263453
415.896466	2544.729091
416.276262	2548.593136
416.655997	2547.635316
417.035670	2546.576674
417.415283	2551.212015
417.794834	2548.673794
418.174324	2547.438711
418.553753	2548.789741
418.933121	2548.575492
419.312428	2548.431819
419.691674	2547.980635
420.070859	2550.415513
420.449983	2548.963660
420.829045	2548.635985
421.208047	2552.978939
421.586988	2546.606921
421.965867	2550.042467
422.344686	2553.520863
422.723444	2550.929710
423.102141	2550.591953
423.480777	2550.919628
423.859352	2551.012889
424.237866	2547.441232
424.616319	2550.909546
424.994712	2552.298384
425.373044	2551.985832
425.751314	2550.508774
426.129524	2547.521890
426.507673	2550.672612
426.885762	2546.692621
427.263789	2549.445091
427.641756	2548.983825
428.019662	2552.106820
428.397508	2551.585060
428.775292	2550.281922
429.153016	2551.196892
429.530679	2554.098076
429.908282	2552.147149
430.285824	2552.729402
430.663305	2550.947354
431.040726	2551.824515
431.418086	2551.665719
431.795385	2553.621687
432.172624	2550.165976
432.549802	2551.953065
432.926920	2553.006666
433.303977	2551.448949
433.680974	2553.851059
434.057910	2552.121943
434.434786	2553.412479
434.811601	2551.587581
435.188355	2553.944320
435.565050	2550.901984
435.941683	2552.971378
436.318257	2553.243600
436.694770	2553.382232
437.071222	2552.691594
437.447614	2554.642520
437.823946	2555.615463
438.200218	2551.217056
438.576429	2553.535987
438.952580	2552.023641
439.328670	2551.040616
439.704700	2555.386090
440.080670	2553.578837
440.456580	2555.340720
440.832429	2553.480534
441.208218	2554.498847
441.583947	2554.400545
441.959616	2558.110834
442.335224	2555.151677
442.710773	2557.309291
443.086261	2555.406255
443.461689	2555.484393
443.837057	2557.982285
444.212365	2554.617314
444.587612	2552.089176
444.962800	2553.294012
445.337927	2554.556821
445.712995	2552.333672
446.088002	2554.695452
446.462949	2554.108158
446.837837	2554.319886
447.212664	2554.224104
447.587431	2558.350289
447.962139	2555.708724
448.336786	2557.571431
448.711374	2556.858107
449.085901	2557.190823
449.460369	2556.618652
449.834776	2557.536143
450.209124	2556.411965
450.583412	2555.439022
450.957640	2557.387428
451.331808	2558.977913
451.705917	2557.427758
452.079965	2560.253324
452.453954	2558.564538
452.827883	2560.575958
453.201752	2558.693087
453.575562	2559.419013
453.949311	2555.807027
454.323001	2558.562017
454.696632	2557.508416
455.070202	2558.461194
455.443713	2556.573282
455.817164	2557.384908
456.190556	2557.853735
456.563888	2558.829198
456.937160	2557.790721
457.310373	2559.292985
457.683526	2560.215516
458.056619	2559.214847
458.429653	2558.897254
458.802628	2559.857594
459.175542	2557.016904
459.548398	2560.497820
459.921194	2557.984805
460.293930	2558.408262
460.666607	2561.521175
461.039224	2560.727193
461.411782	2559.789538
461.784280	2558.574620
462.156719	2561.838767
462.529099	2561.808520
462.901419	2561.107800
463.273680	2559.517316
463.645882	2556.900957
464.018024	2557.329455
464.390106	2555.887685
464.762130	2560.323901
465.134094	2562.022769
465.505999	2562.446226
465.877845	2563.189797
466.249631	2563.071329
466.621358	2562.516803
466.993026	2567.016032
467.364634	2568.059551
467.736184	2564.603840
468.107674	2563.646021
468.479105	2561.541339
468.850477	2565.438151
469.221790	2561.984961
469.593043	2565.075188
469.964238	2564.427400
470.335373	2561.846329
470.706449	2564.503017
471.077467	2564.341700
471.448425	2566.514437
471.819324	2565.481001
472.190164	2566.222051
472.560945	2566.496793
472.931667	2564.525702
473.302330	2565.765826
473.672934	2567.938563
474.043479	2566.665672
474.413965	2564.298850
474.784393	2566.249777
475.154761	2567.515107
475.525070	2568.067113
475.895321	2562.973027
476.265513	2564.351782
476.635645	2568.331773
477.005719	2566.504355
477.375734	2565.012174
477.745691	2566.511917
478.115588	2569.518965
478.485427	2567.215158
478.855207	2567.557956
479.224928	2569.975190
479.594591	2568.558625
479.964194	2571.542988
480.333739	2568.891342
480.703226	2569.841599
481.072653	2572.735221
481.442022	2568.883780
481.811333	2570.781774
482.180584	2568.667010
482.549777	2570.978379
482.918912	2567.762123
483.287988	2571.293451
483.657005	2572.795715
484.025964	2572.465520
484.394864	2569.670200
484.763706	2572.084912
485.132489	2571.842937
485.501213	2571.820252
485.869879	2569.244222
486.238487	2573.398133
486.607036	2569.440827
486.975527	2572.447876
487.343959	2571.832855
487.712333	2571.535427
488.080648	2570.426373
488.448905	2573.201528
488.817104	2571.974007
489.185244	2572.498287
489.553326	2574.504666
489.921350	2573.012485
490.289315	2573.826631
490.657222	2575.669173
491.025070	2574.199677
491.392861	2573.594738
491.760593	2574.897876
492.128267	2574.189594
492.495883	2574.184553
492.863440	2572.767989
493.230939	2575.336457
493.598380	2574.272773
493.965763	2574.706312
494.333088	2571.948801
494.700354	2574.224882
495.067563	2571.434604
495.434713	2572.790674
495.801805	2573.209090
496.168839	2573.902248
496.535815	2573.945098
496.902733	2573.781261
497.269593	2575.490212
497.636395	2573.662794
498.003139	2571.260684
498.369825	2576.309399
498.736453	2576.478278
499.103023	2573.022567
499.469535	2573.302351
499.835989	2573.483833
500.202385	2572.571384
500.568723	2567.232802
500.935003	2571.137176
501.301226	2566.892524
501.667390	2574.343349
502.033497	2575.064234
502.399546	2573.594738
502.765537	2574.091292
503.131470	2575.434759
503.497345	2574.290417
503.863163	2576.067424
504.228923	2575.018864
504.594625	2577.547003
504.960269	2579.858372
505.325856	2575.520459
505.691385	2573.181363
506.056856	2575.636405
506.422270	2575.114646
506.787625	2578.991293
507.152924	2578.446849
507.518164	2578.230079
507.883347	2577.214287
508.248472	2579.308886
508.613540	2580.370049
508.978550	2580.407857
509.343503	2578.734194
509.708398	2579.969277
510.073236	2578.691345
510.438016	2580.181006
510.802738	2581.882395
511.167403	2582.121850
511.532010	2580.128073
511.896561	2583.314083
512.261053	2581.542117
512.625488	2581.307703
512.989866	2582.925914
513.354186	2582.358784
513.718449	2584.831470
514.082655	2587.299115
514.446803	2584.355081
514.810894	2588.241811
515.174927	2585.569999
515.538904	2586.575709
515.902822	2589.779362
516.266684	2587.977150
516.630488	2587.379773
516.994235	2588.398086
517.357925	2589.797007
517.721558	2591.362285
518.085133	2592.441092
518.448651	2587.427664
518.812112	2587.329362
519.175516	2589.108889
519.538863	2590.797676
519.902152	2594.792790
520.265385	2597.283120
520.628560	2597.147009
520.991678	2597.126844
521.354739	2597.278079
521.717743	2599.647421
522.080690	2598.722369
522.443580	2600.882504
522.806413	2602.669593
523.169189	2602.011722
523.531908	2603.642536
523.894569	2603.942484
524.257174	2604.126486
524.619722	2606.677310
524.982213	2605.132197
525.344647	2608.227465
525.707025	2612.542693
526.069345	2609.860799
526.431608	2609.850717
526.793815	2610.743001
527.155964	2609.936416
527.518057	2608.224944
527.880093	2613.407251
528.242072	2616.179885
528.603995	2611.935234
528.965860	2613.782817
529.327669	2614.498660
529.689421	2616.983949
530.051117	2616.391614
530.412755	2616.308435
530.774337	2619.254989
531.135862	2619.179372
531.497331	2617.813219
531.858743	2619.975874
532.220098	2621.568879
532.581396	2623.920577
532.942638	2622.529218
533.303824	2624.543159
533.664953	2624.482666
534.026025	2623.451750
534.387040	2624.984260
534.747999	2627.988788
535.108902	2630.862246
535.469748	2626.852008
535.830537	2628.913840
536.191270	2630.653038
536.551947	2627.721607
536.912567	2626.741102
537.273131	2630.552215
537.633638	2626.806637
537.994089	2635.447175
538.354483	2632.828296
538.714821	2638.910448
539.075103	2636.226033
539.435328	2633.788636
539.795497	2636.946918
540.155609	2636.836013
540.515665	2637.337608
540.875665	2637.272073
541.235609	2638.550005
541.595496	2637.287196
541.955328	2641.030253
542.315102	2643.981849
542.674821	2641.103350
543.034483	2643.702065
543.394090	2641.425984
543.753640	2644.349853
544.113134	2649.764052
544.472571	2645.554689
544.831953	2649.136428
545.191278	2647.498053
545.550548	2648.604587
545.909761	2650.336223
546.268918	2652.244300
546.628019	2652.922335
546.987064	2653.610452
547.346053	2650.716830
547.704986	2654.215391
548.063863	2654.580875
548.422684	2656.395690
548.781449	2654.235556
549.140158	2657.131698
549.498811	2658.618839
549.857408	2656.791421
550.215949	2658.651606
550.574434	2659.375012
550.932864	2664.476660
551.291237	2660.332831
551.649555	2663.523882
552.007817	2662.981957
552.366022	2664.940446
552.724173	2664.464057
553.082267	2664.806855
553.440305	2669.880777
553.798288	2667.849192
554.156215	2672.061076
554.514086	2672.323216
554.871902	2663.349962
555.229661	2667.657628
555.587365	2668.718791
555.945014	2671.693071
556.302606	2674.314471
556.660143	2678.652384
557.017625	2680.996521
557.375050	2677.840758
557.732421	2680.104237
558.089735	2683.605318
558.446994	2682.740760
558.804197	2688.838036
559.161345	2686.675381
559.518437	2686.617407
559.875474	2688.354085
560.232455	2689.727799
560.589381	2691.761905
560.946251	2691.376257
561.303065	2695.893130
561.659825	2701.108204
562.016528	2700.536033
562.373177	2696.556042
562.729770	2700.357072
563.086307	2704.097608
563.442789	2707.714636
563.799216	2707.029039
564.155587	2711.235882
564.511904	2714.558002
564.868164	2711.402240
565.224370	2715.510781
565.580520	2713.718650
565.936615	2721.691235
566.292654	2717.726368
566.648638	2726.712224
567.004567	2723.140567
567.360441	2728.448902
567.716260	2730.273800
568.072023	2736.955849
568.427732	2736.547516
568.783385	2738.069944
569.138982	2742.105388
569.494525	2746.052611
569.850013	2751.426481
570.205445	2751.928076
570.560823	2752.016296
570.916145	2756.505444
571.271412	2762.217071
571.626625	2765.972731
571.981782	2770.048503
572.336884	2767.666558
572.691931	2774.043618
573.046923	2772.196035
573.401860	2778.273146
573.756743	2792.133798
574.111570	2793.578089
574.466342	2795.438275
574.821059	2800.237453
575.175722	2800.113945
575.530330	2808.862867
575.884882	2815.930565
576.239380	2820.407110
576.593823	2825.982626
576.948211	2828.931701
577.302544	2831.306084
577.656823	2832.954542
578.011047	2843.198166
578.365216	2850.102027
578.719330	2857.978829
579.073389	2862.241125
579.427394	2875.854761
579.781344	2873.777806
580.135239	2881.205946
580.489080	2888.747512
580.842866	2894.106258
581.196597	2915.984866
581.550273	2913.940678
581.903895	2927.309818
582.257463	2940.177363
582.610975	2943.144083
582.964434	2957.592029
583.317837	2969.647949
583.671186	2981.378714
584.024481	2995.894716
584.377721	2997.046620
584.730906	3008.328722
585.084037	3024.702390
585.437113	3028.841177
585.790135	3045.910524
586.143103	3052.350598
586.496016	3058.377298
586.848874	3080.550813
587.201679	3089.619849
587.554428	3095.969182
587.907124	3121.336268
588.259765	3129.127371
588.612352	3156.878923
588.964884	3156.775580
589.317362	3172.940039
589.669786	3190.921835
590.022155	3206.461192
590.374470	3233.315418
590.726731	3243.145668
591.078937	3247.541555
591.431090	3270.153650
591.783188	3274.904938
592.135232	3287.941362
592.487222	3317.830363
592.839157	3328.741940
593.191038	3349.937472
593.542866	3353.425950
593.894639	3372.095863
594.246358	3401.826068
594.598022	3412.117584
594.949633	3422.378852
595.301190	3433.802107
595.652692	3463.265131
596.004141	3489.159017
596.355535	3482.577791
596.706876	3503.385153
597.058162	3524.628576
597.409395	3547.782595
597.760573	3573.396698
598.111698	3586.239038
598.462768	3607.326184
598.813785	3622.038792
599.164748	3637.114362
599.515657	3661.218639
599.866511	3673.942512
600.217312	3717.263667
600.568060	3710.069941
600.918753	3763.755708
601.269392	3782.231537
601.619978	3784.948719
601.970510	3839.715815
602.320988	3857.241386
602.671412	3901.422058
603.021783	3913.951846
603.372100	3924.936520
603.722363	3961.116882
604.072572	3991.159638
604.422728	4022.465203
604.772830	4049.710119
605.122878	4053.327147
605.472872	4094.495730
605.822813	4129.534270
606.172701	4153.509998
606.522534	4203.435065
606.872314	4233.283737
607.222041	4245.652208
607.571714	4297.765135
607.921333	4327.538190
608.270899	4367.270044
608.620411	4432.409313
608.969870	4422.395061
609.319276	4464.791165
609.668627	4517.836707
610.017926	4566.284716
610.367171	4613.485039
610.716362	4674.641797
611.065500	4677.875697
611.414585	4734.013986
611.763616	4768.923977
612.112594	4810.407632
612.461518	4833.967464
612.810389	4903.686622
613.159207	4907.212909
613.507971	4944.905616
613.856682	5045.625350
614.205340	5073.785235
614.553945	5160.445190
614.902496	5140.388960
615.250994	5239.074587
615.599439	5270.662457
615.947830	5310.931194
616.296169	5345.231205
616.644454	5406.282099
616.992686	5426.247588
617.340864	5528.598135
617.688990	5542.960382
618.037063	5634.664012
618.385082	5658.876674
618.733048	5751.432258
619.080961	5774.601402
619.428821	5842.094890
619.776628	5875.893306
620.124382	5893.665894
620.472083	5963.979908
620.819731	6018.673906
621.167326	5988.429504
621.514868	6029.411564
621.862357	6036.254930
622.209793	6069.836577
622.557176	6078.446867
622.904506	6064.508077
623.251783	6088.652683
623.599007	6102.140290
623.946179	6127.729187
624.293297	6151.883876
624.640363	6148.589482
624.987376	6176.688873
625.334336	6169.104457
625.681243	6177.661816
626.028097	6207.006373
626.374899	6276.634790
626.721647	6246.670171
627.068343	6253.997488
627.414987	6281.580162
627.761577	6346.164904
628.108115	6405.844604
628.454600	6350.674216
628.801032	6414.202837
629.147412	6437.762669
629.493739	6496.799622
629.840014	6501.412278
630.186236	6563.345373
630.532405	6543.596653
630.878521	6647.479711
631.224585	6661.360528
631.570597	6671.755387
631.916556	6695.529468
632.262462	6735.899028
632.608316	6775.895543
632.954117	6791.271062
633.299866	6839.862744
633.645562	6868.325099
633.991206	6817.190155
634.336797	6792.314581
634.682336	6844.840884
635.027823	6833.284038
635.373257	6853.294899
635.718639	6832.132135
636.063968	6864.544233
636.409245	6824.504869
636.754470	6869.260233
637.099642	6856.576690
637.444762	6809.552807
637.789829	6876.872375
638.134845	6858.802359
638.479808	6901.576550
638.824719	6917.153715
639.169577	6902.557054
639.514383	6951.320135
639.859137	6922.401556
640.203839	6996.849316
640.548489	6958.602082
640.893086	7014.967223
641.237632	6967.635830
641.582125	7094.811538
641.926566	7060.060344
642.270955	7096.056703
642.615292	7115.959179
642.959576	7155.905282
643.303809	7223.323153
643.647990	7211.909980
643.992118	7295.063813
644.336195	7212.409055
644.680219	7331.554205
645.024192	7359.046138
645.368112	7487.469532
645.711981	7573.685866
646.055797	7676.969026
646.399562	7709.650826
646.743274	7847.899429
647.086935	8038.061834
647.430544	8065.543685
647.774101	8093.383457
648.117606	8237.792350
648.461059	8223.866162
648.804460	8295.637070
649.147810	8211.583391
649.491108	8167.294334
649.834354	8233.063748
650.177548	8124.091645
650.520690	8074.307731
650.863781	8062.496307
651.206820	8113.573278
651.549807	8063.328097
651.892742	8019.744802
652.235626	8012.820777
652.578458	8047.047691
652.921238	7928.484794
653.263967	8056.792242
653.606644	8013.682814
653.949269	8015.593412
654.291843	7974.671845
654.634365	8062.186276
654.976836	8033.660907
655.319255	8075.842762
655.661622	8085.178979
656.003938	8071.734222
656.346203	8056.784680
656.688416	8131.547512
657.030577	8140.036815
657.372687	8139.535220
657.714746	8153.342941
658.056753	8271.623533
658.398708	8232.763799
658.740612	8253.682067
659.082465	8343.427208
659.424266	8332.601330
659.766016	8387.885144
660.107715	8372.335705
660.449362	8433.149664
660.790958	8453.478117
661.132503	8453.573899
661.473996	8505.033998
661.815438	8554.298673
662.156829	8582.052746
662.498168	8618.593550
662.839456	8631.372875
663.180693	8670.950973
663.521879	8767.431096
663.863013	8783.376266
664.204097	8804.753279
664.545129	8903.237260
664.886110	8893.452381
665.227040	8986.479313
665.567918	9022.614304
665.908746	9075.853930
666.249522	9077.872912
666.590248	9133.116396
666.930922	9237.992561
667.271545	9259.553576
667.612118	9336.531995
667.952639	9316.780754
668.293109	9329.625614
668.633528	9351.899953
668.973896	9349.437349
669.314213	9467.627201
669.654480	9307.038725
669.994695	9359.423875
670.334859	9419.683307
670.674973	9405.837778
671.015035	9467.027304
671.355047	9457.756622
671.695008	9453.333009
672.034918	9486.692845
672.374777	9535.697901
672.714585	9503.061471
673.054342	9550.690293
673.394049	9547.554695
673.733705	9624.951530
674.073310	9614.483574
674.412864	9644.165888
674.752368	9577.660466
675.091820	9597.131923
675.431223	9634.839753
675.770574	9569.728210
676.109875	9532.668168
676.449125	9540.822234
676.788324	9518.555458
677.127473	9428.046582
677.466571	9442.610475
677.805619	9401.346110
678.144616	9355.446404
678.483562	9365.984937
678.822458	9284.794633
679.161303	9294.433319
679.500098	9313.400661
679.838842	9299.335842
680.177535	9338.800514
680.516179	9393.615501
680.854771	9381.511690
681.193314	9570.615453
681.531805	9673.442389
681.870247	9998.954734
682.208638	10302.822885
682.546978	10561.923069
682.885268	10652.613427
683.223508	10441.552918
683.561697	10345.120686
683.899836	10289.292428
684.237925	10153.791254
684.575963	10118.903949
684.913951	10082.141334
685.251889	10033.663078
685.589776	10146.070727
685.927614	10103.031876
686.265401	10067.779087
686.603137	10126.261513
686.940824	10257.568447
687.278460	10351.739721
687.616046	10407.426827
687.953582	10551.291276
688.291068	10485.337860
688.628504	10665.591878
688.965889	10679.525627
689.303224	10694.795282
689.640510	10645.394495
689.977745	10437.741806
690.314930	10273.092680
690.652065	10234.946269
690.989150	10026.943220
691.326185	9863.319969
691.663170	9731.420699
692.000105	9548.454541
692.336990	9502.902675
692.673825	9297.836098
693.010610	9223.718534
693.347345	9069.187004
693.684030	8915.318386
694.020665	8885.288232
694.357251	8738.260460
694.693786	8721.632214
695.030272	8577.266170
695.366707	8496.895055
695.703093	8442.024616
696.039429	8453.735216
696.375716	8425.091380
696.711952	8304.214593
697.048139	8350.366356
697.384276	8317.112385
697.720363	8332.654262
698.056400	8295.175804
698.392388	8265.864015
698.728326	8237.938543
699.064214	8194.123355
699.400053	8253.813137
699.735842	8096.234229
700.071581	8077.985252
700.407270	8027.578755
700.742910	7970.684293
701.078501	7908.073162
701.414042	7807.519787
701.749533	7757.236798
702.084974	7642.490054
702.420366	7749.163390
702.755709	7663.052920
703.091002	7557.355048
703.426246	7587.181034
703.761440	7548.530508
704.096584	7519.758122
704.431679	7469.265925
704.766725	7467.514124
705.101721	7424.855881
705.436668	7474.665001
705.771565	7388.602423
706.106413	7460.365768
706.441212	7523.264245
706.775961	7478.276988
707.110661	7510.343768
707.445311	7659.438413
707.779913	7568.750576
708.114465	7692.513423
708.448967	7738.256853
708.783421	7855.002415
709.117825	8030.069085
709.452180	8067.590393
709.786485	8141.458420
710.120742	8398.264880
710.454949	8394.463850
710.789107	8478.590625
711.123216	8658.159046
711.457275	8800.433010
711.791286	8955.269530
712.125247	8933.479142
712.459159	8948.015309
712.793023	9183.601032
713.126837	8801.085839
713.460602	8940.027601
713.794318	8793.418244
714.127985	8845.200977
714.461602	8589.944672
714.795171	8542.152013
715.128691	8349.113630
715.462162	8113.971529
715.795584	8079.865603
716.128957	7970.220507
716.462281	7805.324364
716.795556	7868.464816
717.128782	7688.170469
717.461960	7424.495438
717.795088	7500.379927
718.128167	7425.276817
718.461198	7279.292563
718.794180	7227.134265
719.127113	7236.110039
719.459997	7103.920903
719.792833	6883.990484
720.125619	6945.653878
720.458357	6813.111861
720.791046	6805.232538
721.123686	6818.006822
721.456278	6674.654050
721.788821	6686.097470
722.121315	6584.109886
722.453761	6646.915101
722.786158	6601.756445
723.118506	6622.268900
723.450805	6600.075220
723.783056	6661.025291
724.115259	6562.069962
724.447412	6558.009312
724.779518	6610.021417
725.111574	6615.128106
725.443582	6697.109870
725.775542	6675.397621
726.107453	6849.677871
726.439315	6772.873371
726.771129	6814.636810
727.102895	6972.114895
727.434612	7089.833399
727.766281	7104.351922
728.097901	7189.597833
728.429473	7168.188053
728.760996	7149.195506
729.092471	7136.597662
729.423897	7105.851665
729.755276	7124.740869
730.086606	7064.569656
730.417887	7159.786970
730.749120	7316.975188
731.080305	7510.094230
731.411442	7647.483317
731.742530	7651.299470
732.073570	7756.039524
732.404562	7836.513983
732.735506	7675.232348
733.066401	7829.897469
733.397249	7767.545957
733.728048	7546.209057
734.058798	7241.504074
734.389501	7035.956067
734.720156	6872.007662
735.050762	6637.369677
735.381320	6537.280088
735.711831	6501.787844
736.042293	6394.716257
736.372707	6418.228198
736.703073	6291.407891
737.033391	6323.492315
737.363661	6331.301062
737.693883	6350.064237
738.024056	6437.165293
738.354182	6485.668754
738.684260	6521.221492
739.014290	6621.389219
739.344272	6727.694551
739.674207	6748.973261
740.004093	6806.538197
740.333931	6831.726322
740.663722	6839.701427
740.993464	6916.200937
741.323159	6926.590755
741.652806	6683.972623
741.982405	6668.823956
742.311956	6741.638382
742.641460	6608.478824
742.970915	6413.781901
743.300323	6412.183855
743.629683	6350.366706
743.958996	6232.375979
744.288260	6147.417414
744.617477	6090.684268
744.946647	6107.486434
745.275768	5950.451971
745.604842	5905.840280
745.933869	5886.227671
746.262847	5837.333520
746.591778	5835.599363
746.920662	5798.695596
747.249498	5779.140961
747.578286	5829.320606
747.907027	5899.266616
748.235720	5956.529082
748.564365	5929.480771
748.892963	5951.543381
749.221514	6106.760508
749.550017	5966.530731
749.878473	5832.310010
750.206881	5878.832298
750.535242	5824.060162
750.863555	5759.951808
751.191821	5784.250170
751.520039	5785.172701
751.848210	5703.085072
752.176334	5713.179983
752.504411	5771.846411
752.832440	5688.851375
753.160421	5617.597186
753.488356	5667.638199
753.816243	5708.327872
754.144082	5566.767231
754.471875	5526.236354
754.799620	5573.134209
755.127318	5583.254325
755.454969	5533.866141
755.782572	5502.331203
756.110129	5539.426533
756.437638	5535.393610
756.765100	5477.805989
757.092515	5469.651923
757.419882	5514.989540
757.747203	5495.812991
758.074477	5565.295214
758.401703	5559.298762
758.728882	5502.636193
759.056014	5548.518254
759.383099	5690.409091
759.710138	5696.208939
760.037129	5672.404610
760.364073	5680.818296
760.690970	5768.947747
761.017820	5753.995685
761.344623	5699.513415
761.671379	5792.318537
761.998088	5903.942286
762.324751	6126.834383
762.651366	6686.573859
762.977935	7919.763598
763.304456	9497.604422
763.630931	10421.032902
763.957359	10100.491134
764.283740	9186.756794
764.610074	8399.321001
764.936362	7438.973632
765.262602	6843.540266
765.588796	6307.232073
765.914943	5964.922603
766.241044	5816.327032
766.567097	5630.888188
766.893104	5376.806472
767.219064	5192.206980
767.544978	5133.253206
767.870845	5069.681736
768.196665	4956.321309
768.522438	4883.791708
768.848165	4855.523438
769.173846	4791.689827
769.499479	4755.605248
769.825066	4698.935117
770.150607	4637.221312
770.476101	4613.399339
770.801548	4610.571252
771.126949	4545.789905
771.452303	4492.424250
771.777611	4447.515131
772.102872	4458.567861
772.428087	4427.859672
772.753256	4389.614958
773.078378	4347.664997
773.403453	4280.562198
773.728482	4270.101804
774.053465	4221.598342
774.378401	4208.758523
774.703291	4212.925037
775.028135	4143.704953
775.352932	4095.740895
775.677683	4078.631219
776.002388	4103.312708
776.327046	4115.847537
776.651658	4040.121845
776.976224	3976.124397
777.300743	3980.628667
777.625216	4006.361237
777.949643	4005.894931
778.274024	3959.549083
778.598359	3903.519178
778.922647	3929.554217
779.246889	3926.242179
779.571086	3925.725461
779.895236	3911.645518
780.219339	3892.322776
780.543397	3884.687948
780.867409	3931.366512
781.191374	3949.681024
781.515294	3891.203639
781.839167	3882.278277
782.162995	3899.652613
782.486776	3887.510994
782.810511	3895.755801
783.134201	3900.922984
783.457844	3860.543342
783.781441	3800.147798
784.104993	3803.540495
784.428498	3821.799554
784.751958	3825.116633
785.075372	3801.355154
785.398739	3763.193620
785.722061	3773.502779
786.045337	3813.131290
786.368568	3848.991538
786.691752	3768.282665
787.014891	3806.124086
787.337983	3925.448197
787.661030	4073.027976
787.984031	4237.583841
788.306987	4412.002723
788.629897	4490.667408
788.952760	4446.093526
789.275579	4381.660018
789.598351	4323.931244
789.921078	4193.032644
790.243759	3998.839836
790.566395	3967.602326
790.888984	3965.364054
791.211529	3861.556614
791.534027	3805.231802
791.856480	3802.562511
792.178888	3739.031369
792.501249	3680.453162
792.823566	3693.792055
793.145836	3725.382445
793.468062	3676.521062
793.790241	3628.856952
794.112375	3656.686642
794.434464	3714.964901
794.756507	3740.684868
795.078505	3730.118609
795.400457	3753.585181
795.722364	3880.256774
796.044226	3986.753669
796.366042	4058.547262
796.687812	4051.106519
797.009538	4055.386458
797.331218	4011.099922
797.652852	3980.243019
797.974442	3963.420689
798.295986	3966.599136
798.617484	3887.773134
798.938938	3801.516471
799.260346	3839.620033
799.581709	3837.790094
799.903026	3766.576234
800.224299	3731.378898
800.545526	3723.552507
800.866708	3691.526056
801.187845	3623.147845
801.508936	3658.924914
801.829983	3667.131913
802.150984	3584.257864
802.471940	3571.279413
802.792851	3584.182247
803.113717	3583.277360
803.434538	3589.394800
803.755314	3533.193496
804.076045	3502.218126
804.396731	3518.488450
804.717372	3547.228068
805.037967	3534.988147
805.358518	3525.694780
805.679024	3549.360477
805.999485	3562.772466
806.319901	3567.314546
806.640272	3582.122935
806.960598	3596.263372
807.280879	3569.477201
807.601115	3582.052359
807.921306	3595.454267
808.241453	3637.568066
808.561554	3618.162144
808.881611	3554.688976
809.201623	3581.928851
809.521590	3597.931994
809.841513	3571.453333
810.161390	3597.117847
810.481223	3583.380703
810.801011	3524.121940
811.120755	3509.991586
811.440453	3547.427194
811.760107	3553.882392
812.079716	3517.578522
812.399281	3478.252481
812.718801	3502.119824
813.038276	3480.092502
813.357707	3471.807366
813.677093	3493.408710
813.996434	3443.236626
814.315731	3446.697378
814.634983	3448.849951
814.954191	3460.472331
815.273354	3492.481138
815.592473	3491.861076
815.911547	3493.164214
816.230577	3529.241232
816.549562	3581.316351
816.868502	3623.316724
817.187399	3648.887977
817.506250	3642.009322
817.825058	3609.839199
818.143821	3696.728527
818.462539	3803.616112
818.781213	3847.496836
819.099843	3898.112541
819.418429	4120.775265
819.736970	4353.253116
820.055466	4586.018312
820.373919	4935.070325
820.692327	5338.924722
821.010691	5730.244289
821.329011	6977.385421
821.647286	9523.137867
821.965517	13835.240043
822.283704	17779.700953
822.601847	20077.141283
822.919945	18397.489315
823.237999	15959.940196
823.556010	13552.451477
823.873976	11546.697350
824.191897	9518.152165
824.509775	8173.976383
824.827609	7067.140645
825.145398	6516.407190
825.463144	6407.127577
825.780845	6519.817531
826.098502	6676.272261
826.416116	7457.545243
826.733685	8718.657933
827.051210	9833.047840
827.368692	9978.084357
827.686129	8805.832086
828.003522	7321.736558
828.320872	6321.700184
828.638177	5642.069467
828.955439	5103.961582
829.272656	4620.509887
829.589830	4331.571113
829.906960	4160.615504
830.224046	3985.697548
830.541088	3858.841952
830.858086	3813.542144
831.175041	3743.303747
831.491952	3725.304308
831.808819	3733.193713
832.125642	3791.955923
832.442421	3931.742078
832.759157	4184.460162
833.075849	4692.094272
833.392497	5517.384088
833.709101	6268.205980
834.025662	6629.535723
834.342179	6331.243089
834.658653	5680.984654
834.975083	5060.436260
835.291469	4505.364892
835.607811	4092.716203
835.924110	3961.399186
836.240366	3770.578910
836.556578	3564.892272
836.872746	3455.680715
837.188871	3421.567227
837.504952	3360.619677
837.820990	3279.285700
838.136984	3230.719224
838.452935	3254.178234
838.768842	3248.632964
839.084706	3270.660286
839.400526	3413.513983
839.716303	3722.380438
840.032037	4214.071899
840.347727	4500.467411
840.663373	4261.635186
840.978977	3892.330337
841.294537	3596.132302
841.610054	3366.535471
841.925527	3258.667381
842.240957	3193.891075
842.556344	3139.023156
842.871687	3084.757656
843.186987	3036.758309
843.502244	3002.067609
843.817458	2969.320274
844.132629	2936.635953
844.447756	2941.467899
844.762840	2932.242587
845.077881	2900.594223
845.392879	2883.572768
845.707833	2880.114536
846.022745	2877.117570
846.337613	2879.008003
846.652438	2867.988040
846.967221	2863.108203
847.281960	2852.078159
847.596656	2846.928620
847.911309	2846.427025
848.225919	2842.376458
848.540485	2833.851867
848.855009	2837.473936
849.169490	2829.571927
849.483928	2816.462407
849.798323	2812.227838
850.112675	2813.593990
850.426984	2823.688901
850.741251	2823.600681
851.055474	2813.488126
851.369654	2806.022177
851.683792	2811.632982
851.997887	2816.888384
852.311938	2822.947851
852.625947	2810.798671
852.939914	2815.358394
853.253837	2818.451142
853.567718	2805.424801
853.881555	2802.528658
854.195350	2814.672797
854.509103	2815.386121
854.822812	2807.705923
855.136479	2806.422949
855.450103	2803.899852
855.763685	2797.452216
856.077224	2794.684622
856.390720	2804.976138
856.704173	2820.404589
857.017584	2811.080975
857.330953	2808.661221
857.644278	2814.844197
857.957561	2822.370639
858.270802	2825.891885
858.584000	2828.122596
858.897155	2815.764207
859.210268	2813.389824
859.523339	2811.882519
859.836367	2812.457210
860.149352	2807.922692
860.462295	2800.139151
860.775195	2808.210038
861.088054	2809.059472
861.400869	2794.170425
861.713642	2786.391924
862.026373	2803.922537
862.339062	2808.419246
862.651708	2811.113743
862.964312	2817.463076
863.276873	2810.057621
863.589392	2816.492654
863.901869	2826.038079
864.214303	2850.621265
864.526696	2863.788759
864.839045	2861.583254
865.151353	2861.585775
865.463619	2858.954293
865.775842	2855.796010
866.088023	2874.213865
866.400162	2882.695607
866.712258	2860.491845
867.024313	2846.490040
867.336325	2852.131091
867.648296	2873.792929
867.960224	2864.028214
868.272110	2854.134950
868.583954	2858.006556
868.895755	2873.119935
869.207515	2861.910929
869.519233	2859.851618
869.830909	2870.695140
870.142542	2882.239382
870.454134	2883.590412
870.765684	2887.023437
871.077191	2886.234497
871.388657	2892.190620
871.700081	2905.867270
872.011463	2914.089392
872.322803	2917.577871
872.634101	2913.776841
872.945357	2928.537339
873.256571	2953.700259
873.567744	2949.158179
873.878874	2938.632250
874.189963	2963.623770
874.501010	2967.210551
874.812015	2956.177986
875.122979	2959.421968
875.433900	2952.873509
875.744780	2957.869293
876.055618	2964.498410
876.366415	2959.787452
876.677169	2972.803711
876.987882	2973.799339
877.298554	2961.960189
877.609183	2979.775627
877.919771	3003.164060
878.230317	3026.920498
878.540822	3077.891604
878.851285	3113.882922
879.161707	3148.739980
879.472087	3239.798342
879.782425	3441.525155
880.092722	3842.193542
880.402977	4342.074357
880.713191	4929.116723
881.023363	6001.849055
881.333494	7233.662559
881.643583	7805.896535
881.953631	7528.774226
882.263637	6960.326157
882.573602	6415.132930
882.883526	5856.137024
883.193408	5299.470131
883.503248	4840.957024
883.813048	4553.759969
884.122806	4283.034884
884.432522	3980.046414
884.742197	3758.366715
885.051831	3566.621387
885.361424	3436.141202
885.670975	3365.721324
885.980485	3289.317597
886.289954	3212.601317
886.599382	3174.134793
886.908768	3135.796818
887.218113	3096.233842
887.527417	3040.639998
887.836680	2993.769870
888.145901	2987.380208
888.455082	2981.822335
888.764221	2935.342897
889.073319	2903.452558
889.382376	2900.619429
889.691392	2905.053124
890.000366	2903.727301
890.309300	2892.483007
890.618193	2903.770150
890.927044	2920.549631
891.235855	2920.842018
891.544625	2906.159657
891.853353	2914.064187
892.162041	2932.822320
892.470687	2966.708956
892.779293	3019.993952
893.087858	3063.489028
893.396381	3128.013276
893.704864	3233.045717
894.013306	3455.849593
894.321707	3742.235023
894.630068	3948.753452
894.938387	3953.787044
895.246665	3903.493972
895.554903	3794.753763
895.863100	3606.171760
896.171256	3444.322995
896.479371	3318.034529
896.787446	3199.285109
897.095480	3101.625357
897.403473	3035.548432
897.711425	3003.675737
898.019336	2994.170642
898.327207	2968.811117
898.635038	2937.104780
898.942827	2923.115578
899.250576	2913.055956
899.558284	2883.998745
899.865952	2863.541743
900.173579	2843.687158
900.481165	2837.950325
900.788711	2827.978923
901.096216	2804.703916
901.403681	2788.826802
901.711105	2795.660086
902.018489	2796.285189
902.325832	2796.461629
902.633135	2802.642084
902.940397	2832.939418
903.247619	2903.797877
903.554800	3077.548806
903.861941	3390.554048
904.169041	3788.810243
904.476101	4093.363991
904.783121	4072.286927
905.090100	3846.649922
905.397039	3585.578646
905.703938	3344.639219
906.010796	3165.990809
906.317614	3061.863256
906.624391	2973.532158
906.931129	2904.634708
907.237826	2847.180678
907.544483	2800.781898
907.851099	2773.531941
908.157675	2751.393714
908.464211	2732.925447
908.770707	2719.909187
909.077163	2709.380737
909.383578	2697.365147
909.689954	2684.474917
909.996289	2681.944258
910.302584	2685.510874
910.608839	2686.236800
910.915054	2681.775379
911.221229	2671.360355
911.527363	2675.690706
911.833458	2680.978877
912.139513	2685.543642
912.445527	2688.580937
912.751502	2695.033614
913.057436	2707.165150
913.363331	2718.137222
913.669186	2732.963255
913.975000	2765.521547
914.280775	2822.521874
914.586510	2886.138715
914.892205	2958.123871
915.197859	3074.813980
915.503475	3249.885691
915.809050	3449.772482
916.114585	3591.701128
916.420081	3617.668111
916.725536	3569.114238
917.030952	3455.048050
917.336328	3336.233095
917.641665	3213.309599
917.946961	3116.713530
918.252218	3055.473593
918.557435	2983.813591
918.862612	2925.600867
919.167750	2877.641850
919.472848	2840.992662
919.777906	2816.517860
920.082925	2791.493572
920.387904	2764.049530
920.692843	2748.275760
920.997743	2737.066754
921.302603	2726.941597
921.607423	2716.703013
921.912204	2705.005016
922.216946	2693.586802
922.521647	2686.219156
922.826310	2677.581139
923.130932	2672.512259
923.435516	2663.380209
923.740059	2656.816626
924.044564	2649.567447
924.349028	2643.102167
924.653454	2638.839872
924.957840	2634.328039
925.262186	2630.083387
925.566493	2625.783283
925.870761	2620.921090
926.174989	2619.217180
926.479178	2611.421036
926.783328	2605.737135
927.087438	2603.186311
927.391509	2606.871395
927.695541	2605.759820
927.999533	2598.311515
928.303486	2595.594333
928.607400	2594.555856
928.911275	2597.507451
929.215110	2594.893613
929.518906	2593.729107
929.822663	2594.548294
930.126381	2591.720207
930.430060	2593.698860
930.733699	2592.526791
931.037299	2592.224322
931.340861	2595.372523
931.644383	2595.821185
931.947866	2597.986361
932.251309	2596.108531
932.554714	2593.368664
932.858080	2591.447984
933.161407	2588.546800
933.464694	2587.679722
933.767943	2582.774679
934.071153	2587.893971
934.374323	2588.695514
934.677455	2587.251224
934.980548	2586.358940
935.283602	2587.616707
935.586617	2585.852304
935.889593	2586.923549
936.192530	2584.604618
936.495428	2585.239803
936.798287	2588.876996
937.101108	2590.805237
937.403890	2594.112234
937.706632	2600.091043
938.009336	2605.177567
938.312002	2615.287601
938.614628	2621.873868
938.917216	2629.289406
939.219765	2629.690177
939.522275	2626.441154
939.824747	2624.580968
940.127179	2622.783797
940.429573	2618.246758
940.731929	2617.838425
941.034246	2615.564864
941.336524	2615.461521
941.638763	2608.925665
941.940964	2609.427260
942.243126	2605.366610
942.545250	2605.293513
942.847335	2600.774119
943.149381	2600.113728
943.451389	2596.191710
943.753359	2591.591657
944.055290	2590.391863
944.357182	2591.135433
944.659036	2590.346492
944.960851	2590.964034
945.262628	2585.315421
945.564367	2585.839701
945.866067	2588.400607
946.167729	2588.975298
946.469352	2589.539908
946.770937	2591.117789
947.072484	2586.754670
947.373992	2587.732654
947.675462	2585.779207
947.976893	2580.024730
948.278286	2578.580439
948.579641	2578.945923
948.880958	2577.519276
949.182236	2583.069587
949.483476	2576.783268
949.784678	2577.380645
950.085841	2579.802919
950.386967	2577.584811
950.688054	2579.707137
950.989103	2581.988259
951.290114	2581.176633
951.591087	2585.736357
951.892021	2586.754670
952.192917	2589.983529
952.493776	2589.376070
952.794596	2592.761205
953.095378	2593.053592
953.396122	2590.074270
953.696828	2590.303642
953.997496	2588.488827
954.298126	2589.338262
954.598718	2583.853486
954.899272	2581.169072
955.199788	2578.386355
955.500266	2575.701940
955.800706	2573.814028
956.101108	2574.048442
956.401472	2570.673389
956.701798	2568.946794
957.002087	2565.312122
957.302337	2566.907648
957.602550	2564.835733
957.902724	2565.803635
958.202861	2562.448747
958.502960	2562.592420
958.803022	2562.383212
959.103045	2558.526729
959.403031	2559.522357
959.702979	2559.126627
960.002889	2559.265258
960.302762	2559.819785
960.602596	2558.025134
960.902393	2556.595967
961.202153	2558.443550
961.501875	2556.192675
961.801559	2555.242418
962.101205	2558.380536
962.400814	2554.100596
962.700385	2555.272664
962.999918	2552.701676
963.299414	2552.474824
963.598873	2554.624876
963.898293	2552.074052
964.197677	2555.610422
964.497022	2552.888199
964.796331	2555.993549
965.095601	2556.495144
965.394835	2554.793755
965.694030	2553.430123
965.993189	2553.566234
966.292309	2552.951213
966.591393	2554.103117
966.890439	2555.134033
967.189447	2551.360729
967.488419	2553.261244
967.787353	2555.184444
968.086249	2553.543549
968.385108	2553.225956
968.683930	2555.060936
968.982714	2554.120761
969.281462	2554.942469
969.580172	2553.311656
969.878844	2555.202088
970.177480	2556.507747
970.476078	2553.583878
970.774639	2556.207798
971.073162	2553.563713
971.371649	2556.991698
971.670098	2558.070505
971.968510	2556.464897
972.266885	2556.689229
972.565223	2555.769218
972.863524	2555.222253
973.161788	2556.648899
973.460014	2554.302242
973.758204	2555.509599
974.056356	2553.924156
974.354471	2558.909857
974.652550	2553.510781
974.950591	2556.238045
975.248595	2554.340051
975.546563	2558.609908
975.844493	2554.052705
976.142386	2554.241748
976.440243	2552.626059
976.738062	2556.457336
977.035845	2556.117058
977.333590	2556.986657
977.631299	2553.858621
977.928971	2551.091027
978.226606	2548.578012
978.524204	2551.612787
978.821765	2547.778989
979.119290	2550.846531
979.416777	2552.374001
979.714228	2553.233518
980.011642	2553.238559
980.309020	2552.739485
980.606360	2552.449618
980.903664	2554.337530
981.200931	2552.862993
981.498162	2555.759136
981.795356	2555.418858
982.092513	2558.851884
982.389633	2557.949517
982.686717	2561.543860
982.983764	2567.288255
983.280775	2569.334963
983.577749	2569.183728
983.874686	2572.268915
984.171587	2568.586352
984.468451	2567.691547
984.765279	2563.381360
985.062070	2559.597974
985.358824	2562.615105
985.655543	2555.764177
985.952224	2554.221584
986.248869	2554.776111
986.545478	2557.485731
986.842050	2554.103117
987.138586	2551.945503
987.435086	2551.781665
987.731549	2551.718651
988.027975	2551.002807
988.324366	2550.297046
988.620719	2551.988353
988.917037	2553.175544
989.213318	2549.916438
989.509563	2549.399720
989.805772	2552.464742
990.101944	2551.779145
990.398080	2549.866027
990.694180	2551.169165
990.990244	2554.564382
991.286271	2549.810574
991.582262	2547.758825
991.878217	2549.770245
992.174136	2549.558517
992.470019	2549.334185
992.765865	2548.676315
993.061676	2545.845707
993.357450	2549.374514
993.653188	2546.793444
993.948890	2550.150852
994.244556	2549.891233
994.540186	2553.591440
994.835780	2549.853424
995.131337	2552.258054
995.426859	2553.052036
995.722345	2550.947354
996.017795	2555.983467
996.313208	2556.520350
996.608586	2555.665874
996.903928	2557.178221
997.199234	2559.015721
997.494504	2557.405072
997.789738	2554.347613
998.084936	2555.494475
998.380099	2552.663867
998.675225	2553.480534
998.970316	2553.770401
999.265371	2554.075390
999.560390	2552.318548
999.855373	2550.586912
1000.150320	2550.019782
1000.445232	2553.414999
1000.740108	2550.231511
1001.034948	2549.213198
1001.329752	2549.422405
1001.624521	2550.579350
1001.919254	2549.563558
1002.213951	2552.442057
1002.508613	2551.706048
1002.803239	2546.680018
1003.097829	2552.028682
1003.392384	2550.496171
1003.686903	2549.684545
1003.981386	2551.459032
1004.275834	2551.637992
1004.570246	2547.902497
1004.864623	2550.120605
1005.158964	2549.750080
1005.453270	2549.271171
1005.747540	2552.038764
1006.041775	2547.872251
1006.335974	2548.890564
1006.630138	2550.478527
1006.924266	2550.523897
1007.218359	2551.416182
1007.512416	2547.678166
1007.806438	2544.527445
1008.100425	2544.547610
1008.394376	2544.328319
1008.688292	2548.862837
1008.982172	2547.872251
1009.276017	2548.373845
1009.569827	2548.630944
1009.863602	2547.678166
1010.157341	2550.228990
1010.451045	2550.702858
1010.744714	2548.900646
1011.038347	2548.154555
1011.331945	2549.510626
1011.625508	2549.566078
1011.919036	2549.858465
1012.212528	2548.517518
1012.505986	2549.429967
1012.799408	2548.391489
1013.092795	2550.085317
1013.386147	2550.082797
1013.679464	2548.913249
1013.972745	2550.886861
1014.265992	2549.374514
1014.559204	2549.208156
1014.852380	2548.603218
1015.145521	2550.203784
1015.438628	2545.059287
1015.731699	2548.482230
1016.024736	2548.691438
1016.317737	2549.369473
1016.610703	2551.549772
1016.903635	2549.860986
1017.196531	2549.283774
1017.489393	2550.735626
1017.782219	2549.918959
1018.075011	2548.872920
1018.367768	2548.560368
1018.660490	2550.647406
1018.953177	2550.647406
1019.245829	2550.647406
