Dividing Wavelength (nm)	Counts (n)	Blue Motor Position (mm): 49.100000	Red Motor Position (mm): 0.000000	
326.493990	2281.308638
326.888308	2281.308638
327.282561	2281.308638
327.676750	2245.952506
328.070874	2241.886815
328.464933	2240.276166
328.858929	2243.981414
329.252859	2251.790162
329.646726	2260.702922
330.040528	2270.981834
330.434265	2283.345264
330.827938	2301.982410
331.221547	2319.853300
331.615091	2340.557319
332.008571	2354.912005
332.401986	2374.753986
332.795338	2397.746689
333.188625	2416.547672
333.581847	2436.528286
333.975006	2453.713579
334.368100	2472.212093
334.761129	2492.152377
335.154095	2506.071003
335.546996	2535.455889
335.939833	2574.620613
336.332606	2589.451687
336.725315	2604.244953
337.117960	2614.138218
337.510540	2626.894858
337.903056	2634.897689
338.295508	2646.010913
338.687896	2651.193219
339.080220	2660.905002
339.472480	2669.505211
339.864676	2671.466219
340.256807	2678.788495
340.648875	2681.160358
341.040879	2684.669001
341.432818	2687.113961
341.824694	2689.846266
342.216506	2689.601770
342.608253	2691.719055
342.999937	2690.781400
343.391557	2691.537573
343.783113	2692.666792
344.174605	2689.715196
344.566033	2689.339630
344.957397	2688.296112
345.348697	2684.245544
345.739934	2686.824095
346.131106	2685.299146
346.522215	2683.660771
346.913260	2680.278156
347.304241	2679.544668
347.695159	2676.832528
348.086012	2675.453772
348.476802	2673.628874
348.867528	2670.916734
349.258191	2668.328101
349.648789	2666.941784
350.039324	2662.528254
350.429796	2670.596620
350.820203	2665.457164
351.210548	2666.193172
351.600828	2663.596978
351.991045	2663.004643
352.381198	2663.791063
352.771288	2664.670744
353.161314	2661.194868
353.551276	2662.687050
353.941175	2658.331493
354.331010	2660.841988
354.720782	2661.782163
355.110490	2659.748057
355.500135	2661.126813
355.889717	2662.603871
356.279235	2660.829385
356.668689	2659.919457
357.058080	2661.066319
357.447408	2659.896771
357.836672	2664.282575
358.225873	2665.089160
358.615010	2661.830054
359.004084	2665.041269
359.393095	2665.910868
359.782043	2665.489932
360.170927	2665.860456
360.559748	2663.551608
360.948505	2669.727021
361.337199	2670.364727
361.725830	2668.257525
362.114398	2669.270797
362.502903	2668.759120
362.891344	2671.267094
363.279722	2670.397495
363.668037	2669.648883
364.056289	2669.873215
364.444478	2673.349090
364.832603	2671.995541
365.220665	2673.669204
365.608665	2671.932526
365.996601	2673.278514
366.384474	2675.000068
366.772284	2676.807322
367.160031	2677.445028
367.547715	2676.295645
367.935336	2678.627178
368.322893	2675.179029
368.710388	2675.373114
369.097820	2679.751356
369.485189	2681.624144
369.872495	2682.682787
370.259738	2684.916018
370.646918	2688.182686
371.034035	2693.153263
371.421090	2696.382122
371.808081	2704.884028
372.195010	2715.077241
372.581875	2720.904815
372.968678	2730.553584
373.355418	2737.535582
373.742096	2756.104672
374.128710	2768.873915
374.515262	2780.077879
374.901751	2798.399953
375.288177	2813.921665
375.674540	2835.888493
376.060841	2856.801720
376.447079	2883.071173
376.833254	2908.334915
377.219367	2924.922832
377.605417	2964.752988
377.991404	2983.231338
378.377329	3020.215763
378.763191	3042.202756
379.148991	3083.613314
379.534727	3122.001700
379.920402	3163.099707
380.306013	3179.758200
380.691563	3246.346801
381.077049	3268.439658
381.462474	3309.048673
381.847835	3363.604040
382.233134	3406.184146
382.618371	3429.817075
383.003545	3498.147395
383.388657	3518.029705
383.773706	3581.391968
384.158693	3610.897842
384.543618	3639.985299
384.928480	3698.180379
385.313280	3754.968977
385.698017	3779.433697
386.082692	3867.381667
386.467305	3871.500290
386.851856	3903.067995
387.236344	3986.365501
387.620770	4010.865508
388.005133	4061.571954
388.389435	4106.977627
388.773674	4119.469606
389.157851	4193.362839
389.541965	4258.025720
389.926018	4223.972725
390.310008	4326.121626
390.693936	4380.949215
391.077802	4411.652362
391.461606	4409.829985
391.845348	4477.348679
392.229027	4537.918143
392.612645	4535.652144
392.996200	4641.959997
393.379694	4695.285322
393.763125	4803.120644
394.146494	4832.429912
394.529801	4883.007809
394.913047	4974.232529
395.296230	4917.474178
395.679351	5025.180950
396.062410	5082.367799
396.445408	5044.964958
396.828343	5109.176656
397.211217	5166.897867
397.594028	5048.851688
397.976778	5166.592877
398.359466	5211.131472
398.742092	5234.003187
399.124656	5159.555427
399.507158	5279.199651
399.889598	5340.174928
400.271977	5461.926355
400.654294	5460.290500
401.036549	5507.233725
401.418742	5422.675931
401.800874	5630.361387
402.182944	5693.670718
402.564952	5797.004289
402.946898	5858.657601
403.328783	5689.421025
403.710606	5714.732658
404.092367	6038.760384
404.474067	6060.870884
404.855705	5954.288289
405.237282	5890.815121
405.618797	6158.969218
406.000250	6124.291120
406.381642	6333.511608
406.762972	6362.064703
407.144240	6408.702938
407.525447	6392.001595
407.906593	6403.835704
408.287677	6571.234779
408.668700	6488.406101
409.049661	6600.602021
409.430560	6621.495083
409.811399	6495.022615
410.192176	6750.460401
410.572891	6776.102230
410.953545	6961.578883
411.334138	6688.403798
411.714669	6867.246292
412.095139	6662.020919
412.475547	6905.909421
412.855894	6976.636810
413.236180	7169.665111
413.616405	6818.026986
413.996568	7036.293824
414.376670	7101.488547
414.756711	6984.359858
415.136691	7088.343738
415.516609	7294.645397
415.896466	7265.479802
416.276262	7482.105744
416.655997	7467.027653
417.035670	7633.191646
417.415283	7988.585430
417.794834	8050.092548
418.174324	7912.108606
418.553753	7835.702357
418.933121	8125.311605
419.312428	8232.065599
419.691674	8002.957760
420.070859	8479.261098
420.449983	8165.971031
420.829045	8535.187659
421.208047	8296.738562
421.586988	8616.980380
421.965867	8643.910224
422.344686	8728.475580
422.723444	8819.281884
423.102141	8133.261504
423.480777	8912.633971
423.859352	8433.210158
424.237866	9048.518273
424.616319	8911.799660
424.994712	9359.370943
425.373044	8884.590032
425.751314	9375.926092
426.129524	9256.637268
426.507673	9317.736053
426.885762	9485.167896
427.263789	9408.265094
427.641756	9354.163431
428.019662	9427.245038
428.397508	9708.097801
428.775292	9356.436991
429.153016	9751.799564
429.530679	9583.795550
429.908282	9581.164068
430.285824	9314.287904
430.663305	10004.111834
431.040726	9451.442577
431.418086	9433.985061
431.795385	9769.766236
432.172624	9874.481084
432.549802	9777.388461
432.926920	9837.728552
433.303977	9710.527637
433.680974	9915.546323
434.057910	10017.173464
434.434786	10093.362943
434.811601	9902.787163
435.188355	10467.295570
435.565050	10231.581299
435.941683	10137.977154
436.318257	10616.670000
436.694770	10803.076746
437.071222	10844.595689
437.447614	10667.888123
437.823946	10603.384039
438.200218	10679.676861
438.576429	10532.170179
438.952580	10781.576225
439.328670	10790.637699
439.704700	10604.283885
440.080670	10588.759652
440.456580	11096.718916
440.832429	10893.726774
441.208218	10500.478966
441.583947	10776.766964
441.959616	10972.383898
442.335224	10792.873450
442.710773	10881.885104
443.086261	11125.156065
443.461689	10385.066789
443.837057	11083.057389
444.212365	11299.776593
444.587612	10942.444485
444.962800	11144.151133
445.337927	10880.271935
445.712995	10587.950547
446.088002	11610.052051
446.462949	11315.865436
446.837837	11278.487800
447.212664	11178.791421
447.587431	11800.196812
447.962139	12574.538207
448.336786	14875.887952
448.711374	15330.660523
449.085901	13128.535809
449.460369	12793.843523
449.834776	12245.799524
450.209124	13205.252088
450.583412	13625.036531
450.957640	14540.386561
451.331808	13551.216395
451.705917	12648.741471
452.079965	11868.020496
452.453954	12786.488480
452.827883	12457.959004
453.201752	12743.820153
453.575562	12314.414669
453.949311	12721.200496
454.323001	12709.628528
454.696632	12951.245990
455.070202	13218.308677
455.443713	13395.787539
455.817164	13913.319955
456.190556	13867.135424
456.563888	14228.772677
456.937160	14364.412483
457.310373	13733.640629
457.683526	13846.751518
458.056619	13365.049104
458.429653	13589.972785
458.802628	12926.201538
459.175542	13361.280841
459.548398	14300.089881
459.921194	14673.750286
460.293930	14752.462862
460.666607	15576.252936
461.039224	16651.556257
461.411782	17381.651445
461.784280	17119.496322
462.156719	17252.691168
462.529099	16913.103921
462.901419	15893.187758
463.273680	15631.171266
463.645882	15553.943309
464.018024	15264.392035
464.390106	15496.940462
464.762130	16209.946139
465.134094	17028.059873
465.505999	19115.455487
465.877845	22400.389801
466.249631	25176.349057
466.621358	24754.555715
466.993026	23341.374098
467.364634	22739.472932
467.736184	21269.328797
468.107674	20473.267591
468.479105	20605.953280
468.850477	20052.268230
469.221790	19671.872843
469.593043	18966.146593
469.964238	18387.099497
470.335373	18024.290176
470.706449	18554.639725
471.077467	18148.902457
471.448425	20051.761594
471.819324	24227.498039
472.190164	25980.193805
472.560945	22247.917582
472.931667	19988.298508
473.302330	19398.183560
473.672934	19069.369259
474.043479	19261.696840
474.413965	19063.188804
474.784393	18648.569024
475.154761	19452.640624
475.525070	19340.434622
475.895321	19076.704138
476.265513	19698.079281
476.635645	20272.367528
477.005719	20028.489107
477.375734	20209.161541
477.745691	20699.935512
478.115588	21257.335892
478.485427	21833.698573
478.855207	22939.813427
479.224928	24736.894032
479.594591	26972.411349
479.964194	26822.983988
480.333739	27065.350062
480.703226	26652.577864
481.072653	26387.700517
481.442022	27037.147326
481.811333	27966.365571
482.180584	27815.599783
482.549777	26868.931584
482.918912	26568.307416
483.287988	26698.434720
483.657005	26308.267056
484.025964	26109.219617
484.394864	25961.533974
484.763706	25597.169457
485.132489	25091.859318
485.501213	25270.406905
485.869879	25191.717014
486.238487	25043.681011
486.607036	25167.622820
486.975527	24940.758294
487.343959	25210.429778
487.712333	25104.631082
488.080648	24775.310145
488.448905	25281.101713
488.817104	25059.210286
489.185244	25774.093792
489.553326	25705.924789
489.921350	26789.067104
490.289315	29171.133284
490.657222	30851.334738
491.025070	31376.998535
491.392861	31083.079101
491.760593	30229.190818
492.128267	29302.785538
492.495883	28222.935096
492.863440	27365.936421
493.230939	26503.881470
493.598380	26330.138102
493.965763	25959.756968
494.333088	25444.750170
494.700354	25437.138028
495.067563	25270.225424
495.434713	25031.095771
495.801805	25214.261054
496.168839	24959.435769
496.535815	24852.439799
496.902733	25073.539765
497.269593	24788.462515
497.636395	24940.775938
498.003139	24859.996488
498.369825	24599.880512
498.736453	24823.906868
499.103023	24692.496590
499.469535	24679.384549
499.835989	24913.730147
500.202385	24934.126656
500.568723	24486.215095
500.935003	24640.459280
501.301226	24364.995510
501.667390	25209.837442
502.033497	25386.207250
502.399546	25124.561283
502.765537	24636.703620
503.131470	25020.741241
503.497345	25180.127402
503.863163	24422.240332
504.228923	24945.552431
504.594625	25220.743978
504.960269	24784.800117
505.325856	25272.461176
505.691385	24644.219980
506.056856	25259.870894
506.422270	25271.584015
506.787625	24759.213741
507.152924	25201.900145
507.518164	25249.168524
507.883347	25059.827827
508.248472	24734.736418
508.613540	25495.431410
508.978550	25310.105992
509.343503	25335.957029
509.708398	25516.309349
510.073236	25685.208167
510.438016	25907.099595
510.802738	25545.104420
511.167403	25821.170607
511.532010	25569.803553
511.896561	26299.787836
512.261053	26285.307121
512.625488	26109.285152
512.989866	25999.816497
513.354186	25825.417779
513.718449	25963.109335
514.082655	26329.328997
514.446803	26038.260336
514.810894	26528.154625
515.174927	26038.136828
515.538904	26083.829846
515.902822	26568.463692
516.266684	26322.062174
516.630488	26222.088531
516.994235	26161.516547
517.357925	26527.577413
517.721558	26659.484245
518.085133	26798.874669
518.448651	26679.333788
518.812112	26464.867980
519.175516	26674.522007
519.538863	26824.980284
519.902152	26624.049974
520.265385	26865.228857
520.628560	26684.523656
520.991678	26651.594839
521.354739	26697.870111
521.717743	26823.972054
522.080690	26574.203045
522.443580	26905.333756
522.806413	26872.387295
523.169189	26992.938928
523.531908	27042.052369
523.894569	26671.368765
524.257174	26765.650945
524.619722	26879.543213
524.982213	26620.266588
525.344647	26619.654088
525.707025	26792.588350
526.069345	26725.349440
526.431608	26711.030043
526.793815	26863.323301
527.155964	26394.168318
527.518057	26579.108088
527.880093	26479.857851
528.242072	26698.404473
528.603995	26420.883913
528.965860	26213.173251
529.327669	26243.508394
529.689421	26226.098769
530.051117	26093.314777
530.412755	26258.286537
530.774337	26015.867530
531.135862	25925.426710
531.497331	26112.871933
531.858743	25721.229732
532.220098	26149.788303
532.581396	25856.483890
532.942638	25744.930717
533.303824	25865.011002
533.664953	25857.721493
534.026025	25523.694639
534.387040	25776.080007
534.747999	25794.825537
535.108902	25958.899971
535.469748	25482.417672
535.830537	25611.274605
536.191270	25770.159171
536.551947	25578.050881
536.912567	25200.115577
537.273131	25665.020867
537.633638	25321.191489
537.994089	25544.267588
538.354483	25017.706466
538.714821	25529.713777
539.075103	25578.665901
539.435328	25344.035478
539.795497	24970.657377
540.155609	25271.077379
540.515665	25612.610511
540.875665	24812.365146
541.235609	25174.214128
541.595496	25086.407311
541.955328	25471.538862
542.315102	25372.137390
542.674821	24887.775767
543.034483	24767.645071
543.394090	24932.866367
543.753640	24761.262970
544.113134	25379.900767
544.472571	24957.731859
544.831953	25269.502018
545.191278	24927.764720
545.550548	24804.626975
545.909761	25007.946792
546.268918	25233.616565
546.628019	25224.905451
546.987064	24900.958384
547.346053	24622.986640
547.704986	24732.392282
548.063863	24888.330294
548.422684	24925.307157
548.781449	24424.017339
549.140158	24825.411652
549.498811	24398.753597
549.857408	24186.460526
550.215949	24538.927921
550.574434	24251.806483
550.932864	24437.772128
551.291237	24649.669468
551.649555	24459.431445
552.007817	24540.631831
552.366022	24384.174580
552.724173	24391.839654
553.082267	24382.397573
553.440305	24856.452557
553.798288	24078.441202
554.156215	24556.418204
554.514086	24717.944335
554.871902	24122.556339
555.229661	24378.057140
555.587365	24214.549835
555.945014	24147.560462
556.302606	24326.352545
556.660143	24335.698844
557.017625	24555.082298
557.375050	24081.249125
557.732421	24460.205262
558.089735	24287.407111
558.446994	24338.511808
558.804197	24387.383274
559.161345	24255.438634
559.518437	24084.636780
559.875474	24225.093408
560.232455	24401.359873
560.589381	24217.743406
560.946251	24232.335026
561.303065	24522.781105
561.659825	24613.126143
562.016528	24228.939809
562.373177	23958.282779
562.729770	24318.511030
563.086307	24159.941536
563.442789	24332.419574
563.799216	24188.449261
564.155587	24161.476568
564.511904	24142.428568
564.868164	24123.297389
565.224370	24069.888884
565.580520	24021.566904
565.936615	24133.087310
566.292654	23843.939328
566.648638	24060.325816
567.004567	23899.926383
567.360441	23837.451363
567.716260	23555.809659
568.072023	23866.410271
568.427732	23654.661645
568.783385	23408.610487
569.138982	23677.513195
569.494525	23696.765362
569.850013	23463.034784
570.205445	23563.784765
570.560823	23384.218865
570.916145	23166.889681
571.271412	23353.838351
571.626625	23097.044495
571.981782	23205.804868
572.336884	22999.241069
572.691931	23131.450370
573.046923	22882.704715
573.401860	22762.619390
573.756743	22810.233088
574.111570	22690.984593
574.466342	22598.063525
574.821059	22682.825486
575.175722	22402.812075
575.530330	22351.828366
575.884882	22353.496987
576.239380	22266.642948
576.593823	22170.482938
576.948211	22135.837608
577.302544	21986.337150
577.656823	21852.817149
578.011047	21956.387655
578.365216	21833.252431
578.719330	21702.951207
579.073389	21576.014953
579.427394	21741.861353
579.781344	21486.277374
580.135239	21381.643184
580.489080	21312.455868
580.842866	21101.632294
581.196597	21325.522539
581.550273	21279.078389
581.903895	21155.045840
582.257463	21468.446813
582.610975	21000.824341
582.964434	21329.510092
583.317837	20984.644757
583.671186	21083.058163
584.024481	21078.619427
584.377721	20835.179587
584.730906	20939.171029
585.084037	20898.251983
585.437113	20845.224086
585.790135	21038.459075
586.143103	20497.507979
586.496016	20522.504540
586.848874	20757.881054
587.201679	20657.594860
587.554428	20373.117508
587.907124	20704.069258
588.259765	20442.035122
588.612352	20530.255314
588.964884	20096.244736
589.317362	20252.361708
589.669786	20328.682257
590.022155	20313.785648
590.374470	20568.787374
590.726731	20308.767179
591.078937	20127.212544
591.431090	20179.438898
591.783188	19972.963318
592.135232	19919.302756
592.487222	20022.139774
592.839157	20030.666886
593.191038	19899.675024
593.542866	19799.592996
593.894639	19497.325412
594.246358	19706.631599
594.598022	19601.959601
594.949633	19358.423979
595.301190	19348.944089
595.652692	19520.161839
596.004141	19726.826461
596.355535	19056.050530
596.706876	19079.428881
597.058162	18974.328385
597.409395	19226.907837
597.760573	19254.833309
598.111698	19036.952119
598.462768	18976.170927
598.813785	18960.414801
599.164748	18746.281709
599.515657	18812.030958
599.866511	18610.974619
600.217312	18961.896900
600.568060	18464.367783
600.918753	18766.801726
601.269392	18674.803188
601.619978	18480.842274
601.970510	18646.923087
602.320988	18613.205330
602.671412	18798.177867
603.021783	18744.166945
603.372100	18437.984904
603.722363	18599.145552
604.072572	18553.066885
604.422728	18695.587866
604.772830	18436.270912
605.122878	18406.394514
605.472872	18381.511378
605.822813	18371.837404
606.172701	18363.758955
606.522534	18519.182769
606.872314	18570.897446
607.222041	18409.265451
607.571714	18615.698180
607.921333	18435.741591
608.270899	18525.126290
608.620411	18654.820055
608.969870	18467.984811
609.319276	18461.078430
609.668627	18491.723604
610.017926	18618.538870
610.367171	18724.019973
610.716362	18796.652918
611.065500	18590.338656
611.414585	18762.587321
611.763616	18729.237568
612.112594	18671.869237
612.461518	18638.113671
612.810389	18838.706223
613.159207	18681.263427
613.507971	18607.460935
613.856682	18844.954734
614.205340	18761.614378
614.553945	18927.531354
614.902496	18666.460079
615.250994	18867.624803
615.599439	18824.185180
615.947830	18808.363518
616.296169	18884.941166
616.644454	18841.221759
616.992686	18831.023505
617.340864	19043.019148
617.688990	18784.236556
618.037063	18961.065110
618.385082	18825.609306
618.733048	19091.504965
619.080961	18985.481938
619.428821	19008.220063
619.776628	18883.668275
620.124382	18817.374581
620.472083	18880.935969
620.819731	18879.950424
621.167326	18564.616168
621.514868	18615.718345
621.862357	18397.897649
622.209793	18383.502634
622.557176	18216.136326
622.904506	18053.571718
623.251783	18001.448707
623.599007	17738.711331
623.946179	17675.026434
624.293297	17613.753730
624.640363	17332.626224
624.987376	17357.068258
625.334336	17171.263930
625.681243	17017.629726
626.028097	17043.112758
626.374899	16945.914271
626.721647	16817.226216
627.068343	16659.919531
627.414987	16586.495125
627.761577	16545.142540
628.108115	16562.227011
628.454600	16307.510110
628.801032	16406.677168
629.147412	16345.505286
629.493739	16345.878332
629.840014	16166.698080
630.186236	16255.624034
630.532405	16025.757501
630.878521	16214.291613
631.224585	16126.119312
631.570597	15942.800273
631.916556	15972.185159
632.262462	15944.514265
632.608316	15873.945673
632.954117	15813.537527
633.299866	15792.135308
633.645562	15720.074534
633.991206	15485.396220
634.336797	15363.801069
634.682336	15336.107490
635.027823	15183.733574
635.373257	15054.274223
635.718639	14969.812210
636.063968	14912.723664
636.409245	14661.701928
636.754470	14702.885635
637.099642	14552.686977
637.444762	14337.318802
637.789829	14373.138721
638.134845	14204.416342
638.479808	14235.653852
638.824719	14137.711795
639.169577	14006.926620
639.514383	14041.710582
639.859137	13876.650602
640.203839	13974.292711
640.548489	13826.365092
640.893086	13811.284480
641.237632	13685.210264
641.582125	13852.120347
641.926566	13661.050534
642.270955	13681.028627
642.615292	13624.081232
642.959576	13643.146876
643.303809	13655.573320
643.647990	13596.291872
643.992118	13670.356504
644.336195	13430.085029
644.680219	13670.054035
645.024192	13565.704671
645.368112	13814.208350
645.711981	13849.957692
646.055797	14037.586918
646.399562	14012.547507
646.743274	14276.676242
647.086935	14545.478127
647.430544	14507.407333
647.774101	14552.986925
648.117606	14692.153018
648.461059	14669.966900
648.804460	14641.595286
649.147810	14372.339698
649.491108	14294.204334
649.834354	14300.425118
650.177548	13972.402278
650.520690	13790.214978
650.863781	13706.194067
651.206820	13761.752623
651.549807	13589.178804
651.892742	13365.553219
652.235626	13312.971464
652.578458	13316.578409
652.921238	13026.424718
653.263967	13223.637177
653.606644	13046.642265
653.949269	13034.684648
654.291843	12826.817710
654.634365	12991.562618
654.976836	12837.348681
655.319255	12828.304851
655.661622	12803.449442
656.003938	12726.980179
656.346203	12643.970019
656.688416	12725.220816
657.030577	12672.966736
657.372687	12573.469483
657.714746	12573.406468
658.056753	12766.540634
658.398708	12564.213924
658.740612	12578.808065
659.082465	12676.016634
659.424266	12656.078871
659.766016	12689.917616
660.107715	12601.407557
660.449362	12681.723220
660.790958	12621.133592
661.132503	12562.714181
661.473996	12641.260399
661.815438	12654.717759
662.156829	12684.813448
662.498168	12650.972182
662.839456	12658.670024
663.180693	12666.970284
663.521879	12770.550872
663.863013	12736.278587
664.204097	12706.687014
664.545129	12838.419926
664.886110	12816.543839
665.227040	12914.407758
665.567918	12907.703024
665.908746	12927.958380
666.249522	12919.300198
666.590248	12980.467038
666.930922	13088.015015
667.271545	13063.804873
667.612118	13141.254640
667.952639	13033.913352
668.293109	13072.959609
668.633528	13012.470804
668.973896	12987.421310
669.314213	13055.681054
669.654480	12798.322588
669.994695	12890.570662
670.334859	12912.204774
670.674973	12850.241432
671.015035	12873.980225
671.355047	12829.686127
671.695008	12801.962301
672.034918	12817.007625
672.374777	12864.515459
672.714585	12771.445677
673.054342	12806.610245
673.394049	12767.211107
673.733705	12855.761495
674.073310	12750.287954
674.412864	12763.767999
674.752368	12615.512706
675.091820	12676.792972
675.431223	12633.015592
675.770574	12504.425840
676.109875	12415.285637
676.449125	12376.574616
676.788324	12335.761435
677.127473	12163.220383
677.466571	12158.234682
677.805619	12040.896785
678.144616	11984.582055
678.483562	11959.220010
678.822458	11826.919968
679.161303	11806.609160
679.500098	11780.679985
679.838842	11740.433933
680.177535	11784.390274
680.516179	11854.497601
680.854771	11793.250102
681.193314	12003.937565
681.531805	12177.413751
681.870247	12626.295734
682.208638	13038.528528
682.546978	13320.538236
682.885268	13341.494312
683.223508	13044.681256
683.561697	12895.601734
683.899836	12800.515490
684.237925	12595.522010
684.575963	12504.665294
684.913951	12418.466605
685.251889	12389.726987
685.589776	12488.858757
685.927614	12394.624468
686.265401	12385.752037
686.603137	12444.521808
686.940824	12585.661513
687.278460	12732.074265
687.616046	12752.826175
687.953582	12903.337385
688.291068	12851.529447
688.628504	13082.323552
688.965889	13081.335486
689.303224	13036.852344
689.640510	12915.300043
689.977745	12582.687233
690.314930	12386.901420
690.652065	12284.533229
690.989150	11988.637663
691.326185	11760.454876
691.663170	11555.380737
692.000105	11325.748618
692.336990	11204.065246
692.673825	10937.715883
693.010610	10825.688841
693.347345	10621.028077
693.684030	10430.124623
694.020665	10369.018276
694.357251	10171.609212
694.693786	10088.820863
695.030272	9949.228793
695.366707	9834.391308
695.703093	9768.702553
696.039429	9758.113609
696.375716	9657.545110
696.711952	9537.535402
697.048139	9586.837887
697.384276	9548.482267
697.720363	9569.839116
698.056400	9498.272375
698.392388	9436.445144
698.728326	9407.062779
699.064214	9346.989869
699.400053	9384.170899
699.735842	9204.615081
700.071581	9174.116101
700.407270	9088.986136
700.742910	9013.212552
701.078501	8915.242768
701.414042	8784.465155
701.749533	8731.217968
702.084974	8587.719003
702.420366	8712.154844
702.755709	8588.346627
703.091002	8453.006769
703.426246	8484.766038
703.761440	8440.270294
704.096584	8396.807986
704.431679	8332.646701
704.766725	8312.623238
705.101721	8273.229141
705.436668	8324.757295
705.771565	8215.460038
706.106413	8301.719222
706.441212	8327.474477
706.775961	8295.765619
707.110661	8340.105088
707.445311	8468.914130
707.779913	8368.310343
708.114465	8491.178386
708.448967	8523.774487
708.783421	8699.362917
709.117825	8864.075057
709.452180	8896.940859
709.786485	8983.568047
710.120742	9272.844578
710.454949	9283.151217
710.789107	9390.406806
711.123216	9615.080951
711.457275	9790.026633
711.791286	9928.655844
712.125247	9938.463408
712.459159	9922.225852
712.793023	10139.570159
713.126837	9716.178771
713.460602	9883.794616
713.794318	9704.563952
714.127985	9729.658816
714.461602	9382.068738
714.795171	9343.521555
715.128691	9093.528215
715.462162	8858.118933
715.795584	8789.415568
716.128957	8619.238817
716.462281	8457.022048
716.795556	8496.562338
717.128782	8289.759084
717.461960	8041.202473
717.795088	8106.505580
718.128167	8012.619131
718.461198	7852.839760
718.794180	7804.631206
719.127113	7797.041748
719.459997	7615.396373
719.792833	7398.382261
720.125619	7469.868343
720.458357	7327.690161
720.791046	7320.070457
721.123686	7302.111346
721.456278	7143.647716
721.788821	7164.276118
722.121315	7064.501601
722.453761	7143.090669
722.786158	7073.129536
723.118506	7084.673778
723.450805	7045.786317
723.783056	7105.034998
724.115259	7026.045159
724.447412	7027.620519
724.779518	7080.356030
725.111574	7081.936431
725.443582	7154.307236
725.775542	7124.884542
726.107453	7325.744275
726.439315	7235.671459
726.771129	7317.260013
727.102895	7498.769278
727.434612	7600.303158
727.766281	7649.081362
728.097901	7713.078811
728.429473	7730.178404
728.760996	7724.202117
729.092471	7687.570572
729.423897	7618.650437
729.755276	7614.337730
730.086606	7526.329266
730.417887	7638.641133
730.749120	7862.874177
731.080305	8053.399545
731.411442	8144.553689
731.742530	8127.335628
732.073570	8236.547185
732.404562	8321.614135
732.735506	8194.398097
733.066401	8318.070204
733.397249	8230.326401
733.728048	7978.513205
734.058798	7651.483472
734.389501	7413.079745
734.720156	7245.534477
735.050762	7034.368104
735.381320	6952.235105
735.711831	6881.674074
736.042293	6775.585512
736.372707	6788.508510
736.703073	6662.230127
737.033391	6702.075407
737.363661	6717.690381
737.693883	6747.229022
738.024056	6832.348904
738.354182	6859.994592
738.684260	6898.241826
739.014290	7030.723349
739.344272	7130.472661
739.674207	7161.921899
740.004093	7250.948676
740.333931	7257.545026
740.663722	7260.363031
740.993464	7339.725916
741.323159	7305.509084
741.652806	7069.648619
741.982405	7114.212419
742.311956	7141.865668
742.641460	6951.708304
742.970915	6762.768378
743.300323	6762.743173
743.629683	6720.478139
743.958996	6579.842549
744.288260	6486.866028
744.617477	6440.467248
744.946647	6423.624753
745.275768	6272.778307
745.604842	6229.139559
745.933869	6204.531166
746.262847	6166.097409
746.591778	6150.792466
746.920662	6111.695798
747.249498	6113.334173
747.578286	6162.341750
747.907027	6236.388738
748.235720	6295.980217
748.564365	6270.446773
748.892963	6317.858825
749.221514	6443.524708
749.550017	6248.870635
749.878473	6148.617208
750.206881	6211.624070
750.535242	6163.065155
750.863555	6097.872954
751.191821	6096.179126
751.520039	6089.270225
751.848210	5996.956615
752.176334	6039.496392
752.504411	6077.030303
752.832440	5998.773951
753.160421	5934.627789
753.488356	5977.517926
753.816243	6007.434654
754.144082	5855.509400
754.471875	5839.644889
754.799620	5875.207709
755.127318	5890.890738
755.454969	5849.689388
755.782572	5817.630170
756.110129	5856.605851
756.437638	5825.930430
756.765100	5778.331855
757.092515	5791.580008
757.419882	5849.333987
757.747203	5818.832485
758.074477	5874.970775
758.401703	5847.352813
758.728882	5815.785108
759.056014	5893.766717
759.383099	6002.491802
759.710138	6010.492113
760.037129	6000.205639
760.364073	6004.188151
760.690970	6085.373413
761.017820	6060.449948
761.344623	6025.814701
761.671379	6134.789323
761.998088	6263.968891
762.324751	6532.354880
762.651366	7193.724018
762.977935	8578.927231
763.304456	10244.506817
763.630931	11076.443395
763.957359	10596.865827
764.283740	9620.850552
764.610074	8736.680058
764.936362	7741.145435
765.262602	7148.552759
765.588796	6624.126565
765.914943	6301.943903
766.241044	6121.394977
766.567097	5904.136370
766.893104	5649.507689
767.219064	5481.024766
767.544978	5410.935084
767.870845	5326.397454
768.196665	5223.449531
768.522438	5154.907483
768.848165	5118.820383
769.173846	5047.367068
769.499479	5003.188917
769.825066	4958.196618
770.150607	4892.520466
770.476101	4872.202096
770.801548	4862.714644
771.126949	4771.925984
771.452303	4723.959405
771.777611	4692.696689
772.102872	4716.909351
772.428087	4672.837064
772.753256	4630.756032
773.078378	4574.557249
773.403453	4508.896220
773.728482	4495.436339
774.053465	4452.105102
774.378401	4440.250828
774.703291	4429.581226
775.028135	4354.707489
775.352932	4308.762413
775.677683	4298.307059
776.002388	4315.058814
776.327046	4321.574505
776.651658	4247.288062
776.976224	4189.246737
777.300743	4189.599618
777.625216	4214.235737
777.949643	4200.851473
778.274024	4164.915608
778.598359	4131.540649
778.922647	4157.137108
779.246889	4140.468533
779.571086	4129.320021
779.895236	4115.275366
780.219339	4107.748923
780.543397	4105.624077
780.867409	4159.667767
781.191374	4167.161442
781.515294	4099.400773
781.839167	4099.191565
782.162995	4123.086634
782.486776	4108.091722
782.810511	4120.187971
783.134201	4105.903861
783.457844	4056.528280
783.781441	4007.981968
784.104993	4012.965149
784.428498	4029.638765
784.751958	4021.598125
785.075372	4001.930063
785.398739	3965.359012
785.722061	3981.084892
786.045337	4025.227756
786.368568	4050.151220
786.691752	3965.212819
787.014891	4026.324207
787.337983	4161.348992
787.661030	4324.354701
787.984031	4479.090398
788.306987	4646.923012
788.629897	4736.126230
788.952760	4688.638561
789.275579	4622.354949
789.598351	4549.379206
789.921078	4391.454980
790.243759	4194.923076
790.566395	4193.672870
790.888984	4178.622505
791.211529	4075.072164
791.534027	4013.469264
791.856480	3991.212570
792.178888	3937.050413
792.501249	3896.680853
792.823566	3906.952204
793.145836	3923.088937
793.468062	3868.798231
793.790241	3834.193231
794.112375	3864.057026
794.434464	3933.113272
794.756507	3953.650933
795.078505	3925.556582
795.400457	3975.297647
795.722364	4121.964977
796.044226	4220.285121
796.366042	4293.165083
796.687812	4264.995115
797.009538	4269.012914
797.331218	4229.480186
797.652852	4205.998491
797.974442	4184.505532
798.295986	4177.984799
798.617484	4092.925411
798.938938	4014.704347
799.260346	4055.905697
799.581709	4046.125859
799.903026	3964.991008
800.224299	3931.885751
800.545526	3928.304011
800.866708	3886.633833
801.187845	3832.012932
801.508936	3865.909650
801.829983	3846.660004
802.150984	3781.790436
802.471940	3775.163840
802.792851	3780.154582
803.113717	3778.564098
803.434538	3778.427987
803.755314	3719.012948
804.076045	3701.694063
804.396731	3724.172568
804.717372	3747.084613
805.037967	3729.145667
805.358518	3717.634192
805.679024	3746.721650
805.999485	3764.905092
806.319901	3769.197634
806.640272	3781.251033
806.960598	3788.858134
807.280879	3767.171090
807.601115	3786.531642
807.921306	3802.827171
808.241453	3838.236236
808.561554	3809.181546
808.881611	3741.526741
809.201623	3787.738998
809.521590	3795.832570
809.841513	3766.838374
810.161390	3797.576810
810.481223	3765.754526
810.801011	3719.290211
811.120755	3719.683421
811.440453	3750.983945
811.760107	3745.040425
812.079716	3701.076522
812.399281	3677.274714
812.718801	3698.906305
813.038276	3674.423942
813.357707	3671.288344
813.677093	3684.249151
813.996434	3631.044813
814.315731	3648.625837
814.634983	3649.182884
814.954191	3667.308353
815.273354	3690.860624
815.592473	3680.072555
815.911547	3699.985112
816.230577	3747.734922
816.549562	3791.043474
816.868502	3834.785566
817.187399	3857.402703
817.506250	3850.319882
817.825058	3834.800690
818.143821	3936.135444
818.462539	4030.316800
818.781213	4070.010846
819.099843	4143.435252
819.418429	4419.153599
819.736970	4658.920959
820.055466	4916.148354
820.373919	5290.360766
820.692327	5705.651020
821.010691	6221.661007
821.329011	7741.480671
821.647286	10690.835455
821.965517	15484.894625
822.283704	19445.303225
822.601847	21337.850681
822.919945	19393.253311
823.237999	16715.715022
823.556010	14193.595506
823.873976	12014.894513
824.191897	9902.905630
824.509775	8581.901511
824.827609	7458.472815
825.145398	6953.087060
825.463144	6825.785322
825.780845	6930.149810
826.098502	7178.872779
826.416116	8155.868559
826.733685	9539.761071
827.051210	10620.203849
827.368692	10514.445482
827.686129	9170.877159
828.003522	7664.338415
828.320872	6640.696838
828.638177	5915.383184
828.955439	5340.283313
829.272656	4842.126572
829.589830	4581.554371
829.906960	4399.876227
830.224046	4205.214592
830.541088	4080.377979
830.858086	4034.536246
831.175041	3955.730409
831.491952	3945.940488
831.808819	3954.195377
832.125642	4041.223337
832.442421	4200.324673
832.759157	4503.489583
833.075849	5093.629737
833.392497	6003.731926
833.709101	6797.590149
834.025662	7085.324087
834.342179	6643.532487
834.658653	5962.477644
834.975083	5299.467610
835.291469	4713.806521
835.607811	4321.415709
835.924110	4172.258049
836.240366	3968.192141
836.556578	3766.961882
836.872746	3656.560613
837.188871	3611.152420
837.504952	3539.666338
837.820990	3459.302784
838.136984	3422.764501
838.452935	3445.366514
838.768842	3438.692026
839.084706	3463.590285
839.400526	3641.777429
839.716303	4015.914224
840.032037	4573.133123
840.347727	4791.036998
840.663373	4465.582626
840.978977	4072.717945
841.294537	3765.769649
841.610054	3537.160884
841.925527	3437.136830
842.240957	3366.001108
842.556344	3306.759989
842.871687	3245.517531
843.186987	3196.895602
843.502244	3161.390756
843.817458	3125.941362
844.132629	3098.217537
844.447756	3107.851182
844.762840	3086.433839
845.077881	3055.710527
845.392879	3039.750234
845.707833	3037.469112
846.022745	3034.323432
846.337613	3033.849564
846.652438	3022.106196
846.967221	3017.906915
847.281960	3004.736900
847.596656	3000.245232
847.911309	3003.514420
848.225919	2997.023935
848.540485	2990.667040
848.855009	2992.970847
849.169490	2976.892087
849.483928	2972.607106
849.798323	2972.203814
850.112675	2968.231385
850.426984	2981.245123
850.741251	2976.851758
851.055474	2965.552011
851.369654	2959.855508
851.683792	2967.787763
851.997887	2976.256902
852.311938	2975.183136
852.625947	2963.895992
852.939914	2970.411684
853.253837	2972.483598
853.567718	2956.079683
853.881555	2956.331741
854.195350	2970.666262
854.509103	2961.816516
854.822812	2957.942390
855.136479	2955.875517
855.450103	2958.365847
855.763685	2949.838735
856.077224	2947.106429
856.390720	2963.878348
856.704173	2971.727425
857.017584	2959.797534
857.330953	2961.887093
857.644278	2969.335397
857.957561	2981.124136
858.270802	2981.897953
858.584000	2978.706902
858.897155	2966.756847
859.210268	2968.682568
859.523339	2965.751137
859.836367	2965.693164
860.149352	2959.870631
860.462295	2955.343675
860.775195	2961.824078
861.088054	2961.130919
861.400869	2945.364711
861.713642	2945.533589
862.026373	2958.491875
862.339062	2962.466825
862.651708	2965.546970
862.964312	2973.174236
863.276873	2961.393059
863.589392	2973.706078
863.901869	2989.815085
864.214303	3012.129752
864.526696	3025.445960
864.839045	3020.142666
865.151353	3018.196781
865.463619	3020.669467
865.775842	3021.879344
866.088023	3042.177550
866.400162	3043.868857
866.712258	3010.461130
867.024313	3004.487363
867.336325	3017.047398
867.648296	3038.018598
867.960224	3031.492824
868.272110	3011.597911
868.583954	3021.367667
868.895755	3031.006353
869.207515	3018.705938
869.519233	3028.856301
869.830909	3037.806869
870.142542	3044.902293
870.454134	3046.371790
870.765684	3047.710216
871.077191	3049.174671
871.388657	3058.954510
871.700081	3070.954977
872.011463	3084.039291
872.322803	3082.678180
872.634101	3079.139290
872.945357	3103.591407
873.256571	3124.058491
873.567744	3115.291925
873.878874	3116.363170
874.189963	3136.769761
874.501010	3134.939822
874.812015	3125.601084
875.122979	3126.256434
875.433900	3124.255096
875.744780	3130.614512
876.055618	3137.548619
876.366415	3134.284472
876.677169	3144.505411
876.987882	3141.846203
877.298554	3137.490646
877.609183	3166.134482
877.919771	3188.280271
878.230317	3213.584342
878.540822	3268.356479
878.851285	3307.969866
879.161707	3357.549614
879.472087	3475.898262
879.782425	3732.755133
880.092722	4198.759394
880.402977	4744.686109
880.713191	5417.130662
881.023363	6660.309447
881.333494	7970.722101
881.643583	8475.916293
881.953631	8124.880586
882.263637	7429.685306
882.573602	6799.813298
882.883526	6214.714297
883.193408	5650.924254
883.503248	5200.053536
883.813048	4878.448085
884.122806	4543.455850
884.432522	4222.861151
884.742197	3977.949294
885.051831	3787.784368
885.361424	3665.496058
885.670975	3586.728029
885.980485	3490.958709
886.289954	3411.860485
886.599382	3367.084956
886.908768	3333.031962
887.218113	3285.390538
887.527417	3225.259655
887.836680	3174.349042
888.145901	3171.440296
888.455082	3156.019407
888.764221	3106.081737
889.073319	3075.986048
889.382376	3074.725760
889.691392	3077.889084
890.000366	3078.340267
890.309300	3064.204872
890.618193	3076.931264
890.927044	3093.163780
891.235855	3089.516505
891.544625	3080.092068
891.853353	3091.923656
892.162041	3110.477623
892.470687	3154.202071
892.779293	3207.320709
893.087858	3253.848038
893.396381	3332.842919
893.704864	3468.971717
894.013306	3729.286819
894.321707	4041.853481
894.630068	4237.621649
894.938387	4218.800502
895.246665	4175.043286
895.554903	4042.914644
895.863100	3838.148016
896.171256	3663.870286
896.479371	3519.610107
896.787446	3390.049933
897.095480	3285.476237
897.403473	3221.559448
897.711425	3187.594674
898.019336	3178.709640
898.327207	3143.371152
898.635038	3105.789350
898.942827	3094.890375
899.250576	3081.929568
899.558284	3048.874723
899.865952	3030.938297
900.173579	3005.266221
900.481165	3000.257835
900.788711	2983.811071
901.096216	2962.174438
901.403681	2950.466358
901.711105	2959.820219
902.018489	2957.682770
902.325832	2957.677729
902.633135	2969.421097
902.940397	3005.450223
903.247619	3098.441868
903.554800	3308.000113
903.861941	3691.697455
904.169041	4145.923061
904.476101	4434.705559
904.783121	4350.833362
905.090100	4083.591714
905.397039	3790.819143
905.703938	3537.871687
906.010796	3352.034592
906.317614	3236.178794
906.624391	3137.155409
906.931129	3064.645972
907.237826	3004.557939
907.544483	2954.113633
907.851099	2925.714293
908.157675	2906.245357
908.464211	2886.373128
908.770707	2868.774460
909.077163	2855.675022
909.383578	2840.712877
909.689954	2831.714418
909.996289	2829.433296
910.302584	2830.320539
910.608839	2830.975889
910.915054	2822.915084
911.221229	2816.369146
911.527363	2819.371153
911.833458	2828.916577
912.139513	2834.746672
912.445527	2836.944615
912.751502	2844.299658
913.057436	2856.839529
913.363331	2869.036600
913.669186	2894.002915
913.975000	2931.703184
914.280775	2998.390088
914.586510	3065.966755
914.892205	3153.171155
915.197859	3293.030406
915.503475	3507.135772
915.809050	3737.665217
916.114585	3883.067217
916.420081	3879.382134
916.725536	3813.821928
917.030952	3689.859955
917.336328	3554.711661
917.641665	3419.369283
917.946961	3316.905311
918.252218	3238.321284
918.557435	3158.487051
918.862612	3096.511106
919.167750	3045.718960
919.472848	3007.680934
919.777906	2977.222283
920.082925	2948.661625
920.387904	2917.852614
920.692843	2902.356107
920.997743	2890.373284
921.302603	2876.371479
921.607423	2867.282279
921.912204	2852.350381
922.216946	2843.243537
922.521647	2829.632421
922.826310	2820.530618
923.130932	2815.693631
923.435516	2805.689461
923.740059	2799.120838
924.044564	2791.589354
924.349028	2783.641975
924.653454	2775.785337
924.957840	2771.316354
925.262186	2767.338883
925.566493	2761.433172
925.870761	2758.388315
926.174989	2752.883375
926.479178	2747.564957
926.783328	2743.617734
927.087438	2742.569174
927.391509	2740.209914
927.695541	2738.483319
927.999533	2735.665314
928.303486	2732.650704
928.607400	2732.680951
928.911275	2731.239181
929.215110	2729.736917
929.518906	2724.678119
929.822663	2728.902606
930.126381	2728.335476
930.430060	2728.680795
930.733699	2727.952348
931.037299	2728.133830
931.340861	2733.288410
931.644383	2730.578789
931.947866	2731.256825
932.251309	2729.043758
932.554714	2729.137019
932.858080	2726.722307
933.161407	2726.114848
933.464694	2723.725341
933.767943	2718.694269
934.071153	2723.916905
934.374323	2721.781976
934.677455	2723.354816
934.980548	2720.960268
935.283602	2720.055381
935.586617	2720.231821
935.889593	2719.677294
936.192530	2719.775597
936.495428	2720.793910
936.798287	2721.744167
937.101108	2726.865980
937.403890	2730.089797
937.706632	2736.948287
938.009336	2740.875346
938.312002	2751.199629
938.614628	2760.215733
938.917216	2768.042124
939.219765	2767.820313
939.522275	2766.194541
939.824747	2763.469798
940.127179	2760.850918
940.429573	2755.245155
940.731929	2754.859507
941.034246	2751.479413
941.336524	2745.959350
941.638763	2744.653691
941.940964	2744.315934
942.243126	2742.032291
942.545250	2739.547002
942.847335	2736.088771
943.149381	2733.270766
943.451389	2730.813203
943.753359	2730.568707
944.055290	2730.399828
944.357182	2723.473283
944.659036	2722.913715
944.960851	2724.388252
945.262628	2721.081256
945.564367	2721.406410
945.866067	2723.064950
946.167729	2723.916905
946.469352	2725.071329
946.770937	2721.902964
947.072484	2719.904146
947.373992	2721.940772
947.675462	2717.807026
947.976893	2713.980790
948.278286	2713.544731
948.579641	2714.182437
948.880958	2712.140769
949.182236	2714.217725
949.483476	2710.325954
949.784678	2712.276880
950.085841	2714.048846
950.386967	2713.602704
950.688054	2714.512632
950.989103	2715.533466
951.290114	2713.963146
951.591087	2717.280226
951.892021	2719.589074
952.192917	2725.646020
952.493776	2725.204919
952.794596	2726.031669
953.095378	2724.305073
953.396122	2725.426730
953.696828	2723.725341
953.997496	2718.719475
954.298126	2721.177037
954.598718	2717.756615
954.899272	2711.800491
955.199788	2712.493650
955.500266	2708.838813
955.800706	2709.289997
956.101108	2704.135417
956.401472	2703.071733
956.701798	2700.962011
957.002087	2699.416897
957.302337	2699.192566
957.602550	2696.475384
957.902724	2694.998326
958.202861	2691.925742
958.502960	2693.617049
958.803022	2693.627132
959.103045	2691.744261
959.403031	2690.857018
959.702979	2689.576565
960.002889	2691.688808
960.302762	2689.251410
960.602596	2688.013807
960.902393	2688.563293
961.202153	2689.571523
961.501875	2688.636389
961.801559	2687.330731
962.101205	2686.536749
962.400814	2686.506502
962.700385	2688.497758
962.999918	2683.819567
963.299414	2680.613393
963.598873	2682.811336
963.898293	2685.253775
964.197677	2686.022551
964.497022	2686.095648
964.796331	2684.376614
965.095601	2683.471727
965.394835	2683.940555
965.694030	2685.150432
965.993189	2686.241841
966.292309	2686.418282
966.591393	2681.712365
966.890439	2684.487520
967.189447	2684.273271
967.488419	2683.204546
967.787353	2686.841739
968.086249	2684.800071
968.385108	2683.907787
968.683930	2684.807633
968.982714	2685.203364
969.281462	2683.015503
969.580172	2684.328723
969.878844	2685.069773
970.177480	2685.447860
970.476078	2683.338137
970.774639	2685.296625
971.073162	2684.356450
971.371649	2684.464835
971.670098	2685.089938
971.968510	2685.112623
972.266885	2686.549352
972.565223	2687.265196
972.863524	2685.989784
973.161788	2688.502799
973.460014	2686.204033
973.758204	2686.438446
974.056356	2684.706810
974.354471	2684.878209
974.652550	2685.072294
974.950591	2683.529701
975.248595	2683.932993
975.546563	2683.996007
975.844493	2685.977181
976.142386	2683.507015
976.440243	2683.988446
976.738062	2681.447704
977.035845	2682.839062
977.333590	2683.920390
977.631299	2683.524659
977.928971	2681.553568
978.226606	2680.709175
978.524204	2679.595080
978.821765	2678.498629
979.119290	2683.131449
979.416777	2683.406192
979.714228	2686.307376
980.011642	2681.241017
980.309020	2681.359484
980.606360	2683.335616
980.903664	2685.437777
981.200931	2682.498785
981.498162	2681.140194
981.795356	2682.859227
982.092513	2685.551203
982.389633	2688.364167
982.686717	2691.565300
982.983764	2695.401618
983.280775	2704.253884
983.577749	2701.632484
983.874686	2699.792463
984.171587	2697.108048
984.468451	2695.550332
984.765279	2689.339630
985.062070	2690.788962
985.358824	2687.222346
985.655543	2685.228569
985.952224	2687.353416
986.248869	2685.810823
986.545478	2683.895184
986.842050	2682.932324
987.138586	2680.454597
987.435086	2681.200687
987.731549	2681.777900
988.027975	2682.486182
988.324366	2680.535255
988.620719	2681.523321
988.917037	2678.395285
989.213318	2681.233455
989.509563	2678.833866
989.805772	2680.300842
990.101944	2676.398988
990.398080	2677.921417
990.694180	2679.461489
990.990244	2679.174144
991.286271	2679.209432
991.582262	2678.226407
991.878217	2680.295800
992.174136	2681.029288
992.470019	2679.839576
992.765865	2675.713392
993.061676	2676.396468
993.357450	2678.153310
993.653188	2675.786488
993.948890	2678.559123
994.244556	2679.272446
994.540186	2677.649195
994.835780	2679.438804
995.131337	2680.958712
995.426859	2681.195646
995.722345	2682.012313
996.017795	2682.440811
996.313208	2682.307221
996.608586	2686.032633
996.903928	2682.634896
997.199234	2682.728157
997.494504	2684.119516
997.789738	2684.275791
998.084936	2683.577592
998.380099	2680.958712
998.675225	2682.029957
998.970316	2679.171623
999.265371	2682.700431
999.560390	2679.519463
999.855373	2679.370749
1000.150320	2678.533917
1000.445232	2679.479133
1000.740108	2679.232117
1001.034948	2680.056346
1001.329752	2675.897394
1001.624521	2675.368072
1001.919254	2676.456962
1002.213951	2677.868485
1002.508613	2676.862775
1002.803239	2675.191632
1003.097829	2676.613237
1003.392384	2677.122394
1003.686903	2673.664162
1003.981386	2677.455110
1004.275834	2676.582991
1004.570246	2676.507373
1004.864623	2677.220697
1005.158964	2675.877229
1005.453270	2678.319668
1005.747540	2676.653567
1006.041775	2677.865964
1006.335974	2675.857064
1006.630138	2674.017043
1006.924266	2675.909997
1007.218359	2677.238341
1007.512416	2673.550737
1007.806438	2672.141734
1008.100425	2672.252639
1008.394376	2673.238185
1008.688292	2675.662980
1008.982172	2676.376303
1009.276017	2675.743638
1009.569827	2674.942095
1009.863602	2677.228258
1010.157341	2675.698268
1010.451045	2675.521828
1010.744714	2672.885304
1011.038347	2673.480160
1011.331945	2675.211797
1011.625508	2675.718433
1011.919036	2676.411591
1012.212528	2676.058711
1012.505986	2677.324040
1012.799408	2677.571057
1013.092795	2674.246416
1013.386147	2676.575429
1013.679464	2676.242713
1013.972745	2675.746159
1014.265992	2678.080213
1014.559204	2674.412774
1014.852380	2676.388906
1015.145521	2677.545851
1015.438628	2677.008968
1015.731699	2676.610717
1016.024736	2676.121725
1016.317737	2674.614420
1016.610703	2675.678103
1016.903635	2675.536951
1017.196531	2675.983093
1017.489393	2675.627692
1017.782219	2673.754903
1018.075011	2676.918227
1018.367768	2672.363545
1018.660490	2674.785819
1018.953177	2674.785819
1019.245829	2674.785819
