Dividing Wavelength (nm)	Counts (n)	Blue Motor Position (mm): 40.500000	Red Motor Position (mm): 0.000000	
326.493990	2246.985942
326.888308	2246.985942
327.282561	2246.985942
327.676750	2208.075796
328.070874	2204.967925
328.464933	2207.919520
328.858929	2212.370859
329.252859	2217.563248
329.646726	2225.064485
330.040528	2235.567729
330.434265	2247.542990
330.827938	2269.537544
331.221547	2282.566406
331.615091	2302.786474
332.008571	2319.205512
332.401986	2340.143945
332.795338	2357.450226
333.188625	2376.480582
333.581847	2396.743499
333.975006	2420.615883
334.368100	2435.633481
334.761129	2453.637962
335.154095	2470.921558
335.546996	2496.646566
335.939833	2537.731970
336.332606	2550.554144
336.725315	2566.733728
337.117960	2578.116653
337.510540	2589.242480
337.903056	2601.953749
338.295508	2611.252157
338.687896	2618.110647
339.080220	2625.800927
339.472480	2634.068420
339.864676	2639.084368
340.256807	2642.308186
340.648875	2646.204997
341.040879	2648.715492
341.432818	2651.115081
341.824694	2653.066008
342.216506	2655.924342
342.608253	2657.358550
342.999937	2656.904847
343.391557	2657.045999
343.783113	2657.978612
344.174605	2654.217912
344.566033	2654.578354
344.957397	2655.954589
345.348697	2649.585091
345.739934	2651.152890
346.131106	2648.730616
346.522215	2647.828249
346.913260	2643.671818
347.304241	2644.496046
347.695159	2642.358597
348.086012	2641.055459
348.476802	2641.587301
348.867528	2635.230406
349.258191	2632.891310
349.648789	2629.846453
350.039324	2628.205558
350.429796	2631.275620
350.820203	2628.886113
351.210548	2631.273100
351.600828	2627.129271
351.991045	2628.132461
352.381198	2623.456791
352.771288	2623.542490
353.161314	2624.205402
353.551276	2625.269086
353.941175	2621.515947
354.331010	2623.161883
354.720782	2624.248252
355.110490	2626.100876
355.500135	2621.158025
355.889717	2623.648355
356.279235	2622.115844
356.668689	2622.549383
357.058080	2623.986112
357.447408	2622.932511
357.836672	2623.660958
358.225873	2624.071812
358.615010	2624.538118
359.004084	2626.247069
359.393095	2629.009622
359.782043	2626.978037
360.170927	2628.727317
360.559748	2628.107255
360.948505	2628.258490
361.337199	2630.164046
361.725830	2629.244035
362.114398	2628.162708
362.502903	2631.048768
362.891344	2633.428193
363.279722	2631.983902
363.668037	2633.713018
364.056289	2631.252935
364.444478	2633.070271
364.832603	2635.477422
365.220665	2635.369037
365.608665	2634.804428
365.996601	2634.330560
366.384474	2636.435241
366.772284	2638.862557
367.160031	2636.924233
367.547715	2638.918010
367.935336	2637.246867
368.322893	2636.296610
368.710388	2638.086219
369.097820	2635.696712
369.485189	2640.067393
369.872495	2642.653505
370.259738	2644.798516
370.646918	2644.836324
371.034035	2642.978659
371.421090	2646.575522
371.808081	2645.264822
372.195010	2644.092754
372.581875	2644.228865
372.968678	2644.949750
373.355418	2647.099802
373.742096	2648.861686
374.128710	2647.523259
374.515262	2648.649957
374.901751	2649.663229
375.288177	2649.706079
375.674540	2648.327323
376.060841	2649.340595
376.447079	2649.733805
376.833254	2651.311686
377.219367	2650.527787
377.605417	2652.304794
377.991404	2651.238590
378.377329	2656.330155
378.763191	2653.827222
379.148991	2651.268837
379.534727	2655.485762
379.920402	2655.309321
380.306013	2655.639517
380.691563	2656.335196
381.077049	2658.243273
381.462474	2655.077428
381.847835	2658.923829
382.233134	2658.704538
382.618371	2659.352327
383.003545	2660.179076
383.388657	2659.964827
383.773706	2660.973058
384.158693	2662.485404
384.543618	2663.579334
384.928480	2663.934736
385.313280	2666.089829
385.698017	2668.512103
386.082692	2668.499500
386.467305	2672.323216
386.851856	2681.152797
387.236344	2687.671008
387.620770	2691.502285
388.005133	2703.991744
388.389435	2721.769373
388.773674	2732.980899
389.157851	2760.866042
389.541965	2788.983077
389.926018	2812.855461
390.310008	2853.875330
390.693936	2897.420817
391.077802	2941.165430
391.461606	2979.931903
391.845348	3036.539019
392.229027	3097.872218
392.612645	3144.220586
392.996200	3221.246896
393.379694	3294.502423
393.763125	3382.725136
394.146494	3447.536731
394.529801	3529.833567
394.913047	3625.106334
395.296230	3664.936490
395.679351	3776.998820
396.062410	3867.207747
396.445408	3917.150458
396.828343	4012.521527
397.211217	4111.232361
397.594028	4102.375053
397.976778	4237.170466
398.359466	4327.727233
398.742092	4406.407042
399.124656	4396.034868
399.507158	4540.559707
399.889598	4645.909741
400.271977	4791.462976
400.654294	4832.533256
401.036549	4914.492335
401.418742	4898.993308
401.800874	5112.783601
402.182944	5203.410944
402.564952	5342.844219
402.946898	5432.498619
403.328783	5330.387527
403.710606	5372.241707
404.092367	5696.566861
404.474067	5743.179890
404.855705	5684.032032
405.237282	5647.892000
405.618797	5905.200054
406.000250	5906.258696
406.381642	6113.835767
406.762972	6150.023690
407.144240	6227.226441
407.525447	6228.156534
407.906593	6267.414519
408.287677	6421.207520
408.668700	6341.373287
409.049661	6468.541434
409.430560	6509.263875
409.811399	6367.831783
410.192176	6650.358209
410.572891	6659.838099
410.953545	6864.970211
411.334138	6596.899293
411.714669	6768.490088
412.095139	6564.835034
412.475547	6809.099103
412.855894	6877.694083
413.236180	7056.571866
413.616405	6748.650627
413.996568	6962.345139
414.376670	6989.627863
414.756711	6897.609162
415.136691	6989.388408
415.516609	7188.783687
415.896466	7188.461053
416.276262	7381.885085
416.655997	7360.984461
417.035670	7551.963534
417.415283	7892.566573
417.794834	7939.537524
418.174324	7802.720608
418.553753	7718.356899
418.933121	8040.378245
419.312428	8134.118500
419.691674	7917.346364
420.070859	8390.682984
420.449983	8071.537617
420.829045	8437.744676
421.208047	8212.400058
421.586988	8505.780088
421.965867	8527.545270
422.344686	8642.579360
422.723444	8677.784257
423.102141	8046.495685
423.480777	8799.654152
423.859352	8318.639855
424.237866	8935.674565
424.616319	8804.861664
424.994712	9221.500426
425.373044	8784.518087
425.751314	9242.030525
426.129524	9113.206359
426.507673	9230.166170
426.885762	9379.764931
427.263789	9295.658320
427.641756	9221.729799
428.019662	9325.257455
428.397508	9568.115041
428.775292	9249.146114
429.153016	9635.550556
429.530679	9463.891706
429.908282	9499.981326
430.285824	9217.298624
430.663305	9903.742461
431.040726	9350.311989
431.418086	9334.102159
431.795385	9663.657509
432.172624	9748.726981
432.549802	9666.059619
432.926920	9744.479808
433.303977	9623.310635
433.680974	9830.025669
434.057910	9916.766282
434.434786	9979.579059
434.811601	9813.155447
435.188355	10386.531245
435.565050	10115.788516
435.941683	10048.988186
436.318257	10536.724862
436.694770	10675.033959
437.071222	10738.602909
437.447614	10573.986550
437.823946	10482.532458
438.200218	10606.998546
438.576429	10434.581003
438.952580	10669.748309
439.328670	10717.888808
439.704700	10509.192600
440.080670	10495.208439
440.456580	11047.650845
440.832429	10810.908178
441.208218	10403.668647
441.583947	10730.617721
441.959616	10883.319312
442.335224	10688.657677
442.710773	10826.533235
443.086261	11035.980574
443.461689	10309.497373
443.837057	10970.964813
444.212365	11239.804506
444.587612	10876.302026
444.962800	11100.595563
445.337927	10861.861641
445.712995	10480.233692
446.088002	11551.113400
446.462949	11219.415560
446.837837	11190.451610
447.212664	11154.024232
447.587431	11693.112622
447.962139	12430.187287
448.336786	14702.137023
448.711374	15224.284615
449.085901	13071.064135
449.460369	12692.533975
449.834776	12142.153401
450.209124	13038.515925
450.583412	13451.918267
450.957640	14393.383994
451.331808	13490.989730
451.705917	12513.928415
452.079965	11791.468054
452.453954	12714.818395
452.827883	12349.811131
453.201752	12634.782516
453.575562	12167.114674
453.949311	12586.515989
454.323001	12557.121021
454.696632	12781.815330
455.070202	13070.446593
455.443713	13287.884162
455.817164	13756.139298
456.190556	13740.350405
456.563888	14110.313124
456.937160	14265.845323
457.310373	13615.909522
457.683526	13707.030898
458.056619	13241.654260
458.429653	13422.558587
458.802628	12822.704129
459.175542	13212.065208
459.548398	14170.814532
459.921194	14503.185366
460.293930	14580.539352
460.666607	15442.616988
461.039224	16493.175806
461.411782	17207.575362
461.784280	17041.688633
462.156719	17111.856453
462.529099	16794.551106
462.901419	15733.907461
463.273680	15506.972358
463.645882	15395.656120
464.018024	15124.459687
464.390106	15342.630743
464.762130	16064.619756
465.134094	16847.510948
465.505999	18870.218476
465.877845	22145.153661
466.249631	24958.949297
466.621358	24606.585246
466.993026	23179.303522
467.364634	22601.642744
467.736184	21136.456585
468.107674	20332.538740
468.479105	20458.497010
468.850477	19919.564896
469.221790	19528.517551
469.593043	18840.485751
469.964238	18264.818749
470.335373	17919.114062
470.706449	18383.260659
471.077467	17949.814689
471.448425	19807.316044
471.819324	23895.074272
472.190164	25832.014129
472.560945	22210.678578
472.931667	19882.913187
473.302330	19260.776829
473.672934	18836.115070
474.043479	19105.131204
474.413965	18922.061702
474.784393	18530.442186
475.154761	19263.133569
475.525070	19215.005673
475.895321	18911.092152
476.265513	19498.563015
476.635645	20098.853533
477.005719	19866.746207
477.375734	20044.527538
477.745691	20534.210099
478.115588	21070.351934
478.485427	21614.506683
478.855207	22694.042053
479.224928	24474.214629
479.594591	26703.896810
479.964194	26664.525399
480.333739	26880.856434
480.703226	26459.259696
481.072653	26156.266186
481.442022	26757.408658
481.811333	27674.386981
482.180584	27566.700373
482.549777	26611.414322
482.918912	26286.459025
483.287988	26415.210094
483.657005	26052.907408
484.025964	25817.248589
484.394864	25722.051440
484.763706	25373.637133
485.132489	24837.565874
485.501213	25013.723954
485.869879	24924.303967
486.238487	24750.462298
486.607036	24889.651076
486.975527	24613.993222
487.343959	24925.657517
487.712333	24853.531209
488.080648	24507.251830
488.448905	25004.037377
488.817104	24763.438228
489.185244	25465.136596
489.553326	25406.175261
489.921350	26430.469667
490.289315	28759.157589
490.657222	30492.828041
491.025070	31002.362666
491.392861	30753.609450
491.760593	29917.471070
492.128267	28987.078237
492.495883	27948.136758
492.863440	27083.810767
493.230939	26208.414402
493.598380	26045.363322
493.965763	25651.588712
494.333088	25190.386150
494.700354	25129.753672
495.067563	24995.474978
495.434713	24757.953452
495.801805	24912.469859
496.168839	24697.414236
496.535815	24548.806062
496.902733	24784.139726
497.269593	24469.700275
497.636395	24627.553926
498.003139	24571.987808
498.369825	24318.425331
498.736453	24537.092941
499.103023	24397.858792
499.469535	24406.968157
499.835989	24634.334278
500.202385	24652.671475
500.568723	24169.620552
500.935003	24377.429516
501.301226	24031.281208
501.667390	24880.957606
502.033497	25085.507465
502.399546	24831.198897
502.765537	24372.058167
503.131470	24756.156281
503.497345	24895.619802
503.863163	24130.435663
504.228923	24699.791140
504.594625	24930.416367
504.960269	24475.631193
505.325856	24945.338182
505.691385	24359.157854
506.056856	24962.563805
506.422270	24940.710403
506.787625	24490.240457
507.152924	24912.865589
507.518164	24945.292812
507.883347	24754.901034
508.248472	24427.452886
508.613540	25211.874068
508.978550	25007.609035
509.343503	25010.542986
509.708398	25250.413689
510.073236	25415.357722
510.438016	25624.046368
510.802738	25279.929645
511.167403	25542.762804
511.532010	25260.914413
511.896561	26027.361361
512.261053	25985.842418
512.625488	25812.172148
512.989866	25709.957712
513.354186	25549.094493
513.718449	25682.939648
514.082655	26050.961523
514.446803	25781.121160
514.810894	26264.509841
515.174927	25741.041467
515.538904	25775.016323
515.902822	26257.873162
516.266684	26015.771748
516.630488	25923.120382
516.994235	25887.953293
517.357925	26208.152262
517.721558	26365.733690
518.085133	26488.450498
518.448651	26384.310342
518.812112	26123.400383
519.175516	26347.630906
519.538863	26494.940983
519.902152	26295.182742
520.265385	26553.136063
520.628560	26354.252462
520.991678	26347.961102
521.354739	26401.725008
521.717743	26494.038617
522.080690	26274.342612
522.443580	26594.065191
522.806413	26584.734016
523.169189	26698.268362
523.531908	26743.845434
523.894569	26347.441863
524.257174	26437.350842
524.619722	26597.036952
524.982213	26298.328422
525.344647	26333.102301
525.707025	26490.078790
526.069345	26466.148433
526.431608	26429.458915
526.793815	26605.269156
527.155964	26072.373824
527.518057	26260.088749
527.880093	26169.290007
528.242072	26394.884162
528.603995	26110.207683
528.965860	25905.342753
529.327669	25949.823374
529.689421	25946.657529
530.051117	25786.003518
530.412755	25954.148684
530.774337	25743.680511
531.135862	25627.033252
531.497331	25812.283053
531.858743	25401.975980
532.220098	25864.121238
532.581396	25550.790841
532.942638	25462.467305
533.303824	25582.482055
533.664953	25575.563071
534.026025	25241.984880
534.387040	25475.566743
534.747999	25534.734766
535.108902	25692.447264
535.469748	25186.635531
535.830537	25364.747058
536.191270	25492.910833
536.551947	25340.874674
536.912567	24969.513035
537.273131	25385.075511
537.633638	25060.820934
537.994089	25282.440140
538.354483	24788.255828
538.714821	25289.386850
539.075103	25342.790313
539.435328	25113.160714
539.795497	24705.601070
540.155609	25065.950308
540.515665	25381.702979
540.875665	24585.482976
541.235609	24925.874287
541.595496	24856.881055
541.955328	25221.021242
542.315102	25143.352184
542.674821	24673.176368
543.034483	24547.389497
543.394090	24711.375711
543.753640	24510.896585
544.113134	25135.971935
544.472571	24737.012499
544.831953	25034.790936
545.191278	24684.972668
545.550548	24576.277829
545.909761	24778.745691
546.268918	25013.723954
546.628019	24982.814120
546.987064	24674.540000
547.346053	24414.411421
547.704986	24521.281362
548.063863	24677.083262
548.422684	24709.870927
548.781449	24210.723599
549.140158	24632.980728
549.498811	24203.444173
549.857408	23964.541372
550.215949	24368.461303
550.574434	24048.900040
550.932864	24253.548201
551.291237	24432.138638
551.649555	24276.306490
552.007817	24342.872406
552.366022	24184.938097
552.724173	24221.078129
553.082267	24187.569580
553.440305	24662.879811
553.798288	23903.024172
554.156215	24416.246401
554.514086	24529.717733
554.871902	23911.160594
555.229661	24193.949160
555.587365	24045.346027
555.945014	23928.681124
556.302606	24172.713299
556.660143	24130.866681
557.017625	24369.555234
557.375050	23889.108066
557.732421	24271.363639
558.089735	24091.593572
558.446994	24155.890969
558.804197	24183.415669
559.161345	24099.162865
559.518437	23881.579103
559.875474	24058.644591
560.232455	24244.096038
560.589381	24063.839500
560.946251	24056.471853
561.303065	24350.940773
561.659825	24455.234684
562.016528	24052.317943
562.373177	23794.977121
562.729770	24155.621267
563.086307	24001.188040
563.442789	24173.580378
563.799216	24025.395661
564.155587	24012.172714
564.511904	23998.874150
564.868164	23943.393732
565.224370	23915.546398
565.580520	23846.633825
565.936615	23966.162103
566.292654	23662.364528
566.648638	23914.911212
567.004567	23752.034052
567.360441	23695.063972
567.716260	23417.301437
568.072023	23741.303956
568.427732	23521.063506
568.783385	23277.835395
569.138982	23540.119068
569.494525	23561.758221
569.850013	23327.843641
570.205445	23420.802518
570.560823	23247.046548
570.916145	23010.172811
571.271412	23196.181306
571.626625	22937.297891
571.981782	23036.641389
572.336884	22853.466023
572.691931	22983.948729
573.046923	22727.495150
573.401860	22602.565276
573.756743	22626.626703
574.111570	22526.194315
574.466342	22450.577008
574.821059	22535.984236
575.175722	22235.644893
575.530330	22198.945293
575.884882	22207.651366
576.239380	22131.955920
576.593823	22026.336185
576.948211	21997.304180
577.302544	21863.774097
577.656823	21715.657435
578.011047	21826.787151
578.365216	21690.146676
578.719330	21564.385011
579.073389	21449.406374
579.427394	21610.589707
579.781344	21360.102334
580.135239	21257.973598
580.489080	21202.346986
580.842866	20990.313535
581.196597	21193.109072
581.550273	21158.257055
581.903895	21036.535874
582.257463	21346.571877
582.610975	20878.873788
582.964434	21206.780681
583.317837	20887.605066
583.671186	20982.474541
584.024481	20965.687498
584.377721	20727.152701
584.730906	20799.039555
585.084037	20796.627363
585.437113	20720.727751
585.790135	20923.056981
586.143103	20379.797037
586.496016	20398.391332
586.848874	20642.022736
587.201679	20553.084179
587.554428	20256.903788
587.907124	20584.654405
588.259765	20346.883343
588.612352	20417.051163
588.964884	19988.936214
589.317362	20156.912502
589.669786	20223.208716
590.022155	20231.360262
590.374470	20466.951025
590.726731	20221.358612
591.078937	20015.976963
591.431090	20097.517627
591.783188	19866.542040
592.135232	19820.574279
592.487222	19926.146122
592.839157	19926.622512
593.191038	19820.508744
593.542866	19711.284584
593.894639	19417.569317
594.246358	19625.075812
594.598022	19525.190390
594.949633	19283.126785
595.301190	19260.280276
595.652692	19428.622047
596.004141	19654.034720
596.355535	18983.155446
596.706876	18997.447117
597.058162	18896.180418
597.409395	19134.737901
597.760573	19180.793882
598.111698	18971.568354
598.462768	18913.542152
598.813785	18879.695845
599.164748	18683.400876
599.515657	18729.076251
599.866511	18528.491260
600.217312	18878.836329
600.568060	18393.007730
600.918753	18709.607315
601.269392	18599.747969
601.619978	18397.431342
601.970510	18593.199511
602.320988	18538.006438
602.671412	18738.034381
603.021783	18676.686059
603.372100	18373.967292
603.722363	18527.793060
604.072572	18470.205439
604.422728	18625.767885
604.772830	18370.425881
605.122878	18333.905242
605.472872	18307.938258
605.822813	18305.309297
606.172701	18280.136295
606.522534	18463.377196
606.872314	18489.999530
607.222041	18327.553388
607.571714	18536.915028
607.921333	18374.370584
608.270899	18440.923897
608.620411	18612.275237
608.969870	18396.128204
609.319276	18391.634015
609.668627	18429.281352
610.017926	18557.331701
610.367171	18665.197270
610.716362	18712.279126
611.065500	18544.691008
611.414585	18678.105144
611.763616	18664.715840
612.112594	18600.325182
612.461518	18571.320903
612.810389	18763.257794
613.159207	18615.766236
613.507971	18532.239358
613.856682	18782.159601
614.205340	18709.914825
614.553945	18861.610706
614.902496	18604.428681
615.250994	18825.112752
615.599439	18769.471017
615.947830	18756.490045
616.296169	18842.038426
616.644454	18792.166291
616.992686	18761.826107
617.340864	18991.952259
617.688990	18731.397702
618.037063	18908.566533
618.385082	18767.482281
618.733048	19041.020330
619.080961	18931.415563
619.428821	18950.140929
619.776628	18831.517538
620.124382	18768.329195
620.472083	18800.421181
620.819731	18811.035330
621.167326	18515.454836
621.514868	18550.223674
621.862357	18337.882712
622.209793	18329.365683
622.557176	18174.030089
622.904506	17995.631216
623.251783	17917.221109
623.599007	17677.184048
623.946179	17613.879759
624.293297	17543.633800
624.640363	17274.640352
624.987376	17310.475394
625.334336	17108.887213
625.681243	16958.539841
626.028097	16974.742109
626.374899	16887.850261
626.721647	16758.007782
627.068343	16592.436125
627.414987	16526.039088
627.761577	16488.066597
628.108115	16523.543717
628.454600	16254.111688
628.801032	16351.330340
629.147412	16294.042667
629.493739	16301.347299
629.840014	16106.189110
630.186236	16211.672734
630.532405	15971.431506
630.878521	16171.346024
631.224585	16079.012250
631.570597	15891.758590
631.916556	15921.942499
632.262462	15901.535908
632.608316	15818.412323
632.954117	15759.587098
633.299866	15751.392703
633.645562	15667.762481
633.991206	15428.695842
634.336797	15306.843592
634.682336	15276.813438
635.027823	15146.386186
635.373257	15013.108160
635.718639	14922.793368
636.063968	14864.631056
636.409245	14627.094407
636.754470	14656.910312
637.099642	14508.788609
637.444762	14280.620945
637.789829	14314.747036
638.134845	14152.467252
638.479808	14182.641078
638.824719	14112.168268
639.169577	13970.859685
639.514383	14011.637578
639.859137	13838.176516
640.203839	13938.172843
640.548489	13776.853400
640.893086	13766.108180
641.237632	13633.014157
641.582125	13797.466678
641.926566	13617.321045
642.270955	13625.081901
642.615292	13577.032143
642.959576	13589.143516
643.303809	13620.345737
643.647990	13551.332341
643.992118	13617.747022
644.336195	13389.569276
644.680219	13612.428605
645.024192	13515.222556
645.368112	13762.733128
645.711981	13807.884222
646.055797	13992.735772
646.399562	13968.482781
646.743274	14239.913627
647.086935	14512.834135
647.430544	14470.304440
647.774101	14515.992418
648.117606	14645.421522
648.461059	14633.305109
648.804460	14602.894348
649.147810	14338.508514
649.491108	14245.789092
649.834354	14257.232511
650.177548	13943.019913
650.520690	13756.923198
650.863781	13666.338704
651.206820	13718.633114
651.549807	13553.121951
651.892742	13341.960619
652.235626	13282.096917
652.578458	13291.932208
652.921238	12986.261845
653.263967	13177.485413
653.606644	13016.924663
653.949269	12995.535047
654.291843	12785.664251
654.634365	12947.525619
654.976836	12793.294037
655.319255	12793.793112
655.661622	12752.803490
656.003938	12684.884024
656.346203	12605.493412
656.688416	12684.810927
657.030577	12636.632620
657.372687	12548.848487
657.714746	12536.946323
658.056753	12727.920354
658.398708	12527.529448
658.740612	12529.797967
659.082465	12652.557625
659.424266	12612.971964
659.766016	12643.619659
660.107715	12547.736913
660.449362	12634.059111
660.790958	12577.756984
661.132503	12522.505938
661.473996	12587.239394
661.815438	12612.374588
662.156829	12636.814101
662.498168	12601.755397
662.839456	12606.279833
663.180693	12620.758026
663.521879	12719.642780
663.863013	12687.084487
664.204097	12652.224909
664.545129	12793.654480
664.886110	12768.983073
665.227040	12857.727545
665.567918	12855.171680
665.908746	12886.051268
666.249522	12874.421326
666.590248	12930.632712
666.930922	13037.522818
667.271545	13007.782531
667.612118	13094.245881
667.952639	12990.564470
668.293109	13021.658307
668.633528	12966.986993
668.973896	12947.767594
669.314213	13010.093900
669.654480	12758.152154
669.994695	12836.796674
670.334859	12857.130168
670.674973	12808.538487
671.015035	12841.547962
671.355047	12782.677367
671.695008	12752.047317
672.034918	12763.417639
672.374777	12799.953402
672.714585	12722.974982
673.054342	12756.039910
673.394049	12708.857231
673.733705	12813.309939
674.073310	12712.499465
674.412864	12721.941546
674.752368	12575.685070
675.091820	12615.212757
675.431223	12596.991507
675.770574	12460.892956
676.109875	12377.182075
676.449125	12333.255981
676.788324	12292.188222
677.127473	12114.845470
677.466571	12108.327258
677.805619	12003.148625
678.144616	11927.501070
678.483562	11903.386711
678.822458	11775.182607
679.161303	11749.155129
679.500098	11733.469579
679.838842	11688.494925
680.177535	11730.049156
680.516179	11786.462188
680.854771	11729.451779
681.193314	11944.487238
681.531805	12112.768515
681.870247	12545.044937
682.208638	12954.847895
682.546978	13262.668310
682.885268	13284.584727
683.223508	12997.057476
683.561697	12840.401099
683.899836	12736.245820
684.237925	12530.692772
684.575963	12451.549177
684.913951	12368.962474
685.251889	12322.389774
685.589776	12418.655648
685.927614	12340.132115
686.265401	12313.582878
686.603137	12368.022299
686.940824	12519.554342
687.278460	12647.060247
687.616046	12683.054085
687.953582	12840.685925
688.291068	12777.371553
688.628504	13009.320082
688.965889	13016.760826
689.303224	12977.311276
689.640510	12864.840613
689.977745	12545.493599
690.314930	12320.592603
690.652065	12232.783265
690.989150	11939.226794
691.326185	11715.316384
691.663170	11507.152018
692.000105	11273.423961
692.336990	11145.608026
692.673825	10890.412216
693.010610	10785.770465
693.347345	10567.972454
693.684030	10380.859947
694.020665	10314.336880
694.357251	10124.519794
694.693786	10045.567763
695.030272	9897.216688
695.366707	9781.174367
695.703093	9713.680879
696.039429	9709.718532
696.375716	9622.017579
696.711952	9491.234924
697.048139	9540.555053
697.384276	9495.900512
697.720363	9515.719809
698.056400	9450.058780
698.392388	9392.332527
698.728326	9358.201395
699.064214	9299.812231
699.400053	9337.323456
699.735842	9158.629676
700.071581	9115.550496
700.407270	9041.291779
700.742910	8965.651786
701.078501	8864.785859
701.414042	8735.739883
701.749533	8682.038991
702.084974	8538.726549
702.420366	8652.449939
702.755709	8533.395529
703.091002	8401.715549
703.426246	8425.192203
703.761440	8379.847024
704.096584	8338.577618
704.431679	8275.918596
704.766725	8256.913446
705.101721	8209.806384
705.436668	8258.052747
705.771565	8148.190881
706.106413	8232.902431
706.441212	8271.247967
706.775961	8231.775733
707.110661	8280.324565
707.445311	8410.754338
707.779913	8306.440262
708.114465	8432.179242
708.448967	8472.170716
708.783421	8629.394222
709.117825	8796.206002
709.452180	8835.395932
709.786485	8930.202392
710.120742	9216.600425
710.454949	9213.008603
710.789107	9317.975508
711.123216	9542.526144
711.457275	9715.636847
711.791286	9864.550011
712.125247	9860.975833
712.459159	9851.049801
712.793023	10079.257794
713.126837	9659.697683
713.460602	9811.227206
713.794318	9645.801742
714.127985	9667.115741
714.461602	9334.991923
714.795171	9282.354715
715.128691	9031.872383
715.462162	8787.084035
715.795584	8731.142350
716.128957	8567.418276
716.462281	8402.590190
716.795556	8453.329403
717.128782	8242.495746
717.461960	7988.774473
717.795088	8057.064464
718.128167	7970.858212
718.461198	7805.243706
718.794180	7751.378977
719.127113	7737.412460
719.459997	7563.182622
719.792833	7343.229517
720.125619	7418.435971
720.458357	7269.001048
720.791046	7260.766323
721.123686	7251.137719
721.456278	7085.898778
721.788821	7107.439629
722.121315	7007.592015
722.453761	7077.001142
722.786158	7015.002511
723.118506	7027.920468
723.450805	6988.977554
723.783056	7050.028448
724.115259	6970.226983
724.447412	6964.878318
724.779518	7015.110896
725.111574	7015.718355
725.443582	7092.313647
725.775542	7072.590132
726.107453	7271.854341
726.439315	7177.993097
726.771129	7250.258038
727.102895	7422.627691
727.434612	7533.563322
727.766281	7574.832728
728.097901	7646.628841
728.429473	7649.242679
728.760996	7630.086295
729.092471	7607.161648
729.423897	7542.592029
729.755276	7545.896505
730.086606	7462.044473
730.417887	7566.466933
730.749120	7789.293495
731.080305	7972.690672
731.411442	8076.939213
731.742530	8064.048982
732.073570	8171.541506
732.404562	8261.770598
732.735506	8121.510575
733.066401	8253.346830
733.397249	8178.399996
733.728048	7938.113398
734.058798	7602.092768
734.389501	7373.350412
734.720156	7197.782147
735.050762	6973.473486
735.381320	6886.546349
735.711831	6825.293810
736.042293	6716.422531
736.372707	6728.927113
736.703073	6597.504232
737.033391	6637.357074
737.363661	6645.916953
737.693883	6687.650145
738.024056	6766.670232
738.354182	6806.356715
738.684260	6838.410892
739.014290	6962.803884
739.344272	7071.183650
739.674207	7100.538289
740.004093	7177.385638
740.333931	7184.881834
740.663722	7195.445572
740.993464	7272.096316
741.323159	7247.669405
741.652806	7001.267887
741.982405	7034.035388
742.311956	7076.118940
742.641460	6897.150417
742.970915	6709.082611
743.300323	6700.507608
743.629683	6656.236195
743.958996	6515.424165
744.288260	6427.566936
744.617477	6382.763681
744.946647	6374.433174
745.275768	6211.369491
745.604842	6164.534652
745.933869	6147.994626
746.262847	6107.667916
746.591778	6095.314568
746.920662	6051.353186
747.249498	6050.377723
747.578286	6102.760352
747.907027	6176.489748
748.235720	6234.735239
748.564365	6202.832297
748.892963	6244.867959
749.221514	6383.126644
749.550017	6199.953798
749.878473	6091.561429
750.206881	6149.728783
750.535242	6097.462100
750.863555	6025.587849
751.191821	6041.492689
751.520039	6034.808119
751.848210	5944.074912
752.176334	5970.309076
752.504411	6011.427247
752.832440	5943.311177
753.160421	5872.994642
753.488356	5918.632208
753.816243	5947.664213
754.144082	5798.902284
754.471875	5769.744250
754.799620	5813.020035
755.127318	5822.966232
755.454969	5785.709584
755.782572	5753.857053
756.110129	5794.629906
756.437638	5771.586792
756.765100	5716.522268
757.092515	5722.702723
757.419882	5775.723058
757.747203	5747.127113
758.074477	5811.548018
758.401703	5794.158558
758.728882	5748.273976
759.056014	5820.075130
759.383099	5932.568478
759.710138	5948.773267
760.037129	5932.003869
760.364073	5938.706083
760.690970	6019.271283
761.017820	5998.511811
761.344623	5963.057376
761.671379	6064.344239
761.998088	6190.325195
762.324751	6446.786335
762.651366	7079.584733
762.977935	8438.846168
763.304456	10089.173744
763.630931	10948.572008
763.957359	10500.128605
764.283740	9547.128718
764.610074	8679.775513
764.936362	7686.968154
765.262602	7095.056034
765.588796	6559.504014
765.914943	6233.807667
766.241044	6060.497839
766.567097	5850.914388
766.893104	5590.753041
767.219064	5414.804169
767.544978	5354.030539
767.870845	5273.271254
768.196665	5166.658412
768.522438	5096.422536
768.848165	5061.031116
769.173846	4994.036702
769.499479	4947.040545
769.825066	4895.593049
770.150607	4837.339996
770.476101	4817.939116
770.801548	4807.448474
771.126949	4727.452925
771.452303	4674.288916
771.777611	4636.278616
772.102872	4654.396523
772.428087	4614.934371
772.753256	4574.390891
773.078378	4525.627810
773.403453	4455.893529
773.728482	4440.707053
774.053465	4397.000249
774.378401	4386.617992
774.703291	4379.600706
775.028135	4305.422648
775.352932	4261.332717
775.677683	4249.536417
776.002388	4265.247173
776.327046	4275.425262
776.651658	4200.412893
776.976224	4141.259994
777.300743	4140.065240
777.625216	4168.199920
777.949643	4159.803878
778.274024	4115.522383
778.598359	4078.729521
778.922647	4102.422944
779.246889	4093.427005
779.571086	4086.772682
779.895236	4066.792069
780.219339	4056.860996
780.543397	4053.594328
780.867409	4106.652473
781.191374	4118.640336
781.515294	4052.417219
781.839167	4043.325498
782.162995	4070.031010
782.486776	4055.883012
782.810511	4068.309456
783.134201	4059.361408
783.457844	4012.176208
783.781441	3955.448104
784.104993	3964.151656
784.428498	3983.363493
784.751958	3974.647338
785.075372	3954.817960
785.398739	3917.518462
785.722061	3929.796193
786.045337	3977.573728
786.368568	4000.765557
786.691752	3915.234820
787.014891	3976.174808
787.337983	4107.948049
787.661030	4267.450157
787.984031	4430.649951
788.306987	4591.372018
788.629897	4680.360986
788.952760	4633.778204
789.275579	4568.563317
789.598351	4499.519674
789.921078	4347.964945
790.243759	4148.620078
790.566395	4139.528357
790.888984	4130.408910
791.211529	4020.272301
791.534027	3963.201399
791.856480	3946.096764
792.178888	3888.264647
792.501249	3841.528109
792.823566	3853.442877
793.145836	3879.404819
793.468062	3824.317610
793.790241	3784.653812
794.112375	3814.310920
794.434464	3879.230899
794.756507	3902.427768
795.078505	3877.408522
795.400457	3920.538114
795.722364	4064.127819
796.044226	4168.656144
796.366042	4239.617946
796.687812	4214.061817
797.009538	4219.057600
797.331218	4180.240716
797.652852	4152.703413
797.974442	4133.050475
798.295986	4131.921256
798.617484	4044.207700
798.938938	3959.400369
799.260346	4004.581710
799.581709	3996.530987
799.903026	3922.080707
800.224299	3886.041498
800.545526	3884.098133
800.866708	3840.020804
801.187845	3785.510808
801.508936	3816.702947
801.829983	3808.649704
802.150984	3731.126840
802.471940	3731.880493
802.792851	3733.155905
803.113717	3733.498703
803.434538	3733.055082
803.755314	3672.818334
804.076045	3649.946619
804.396731	3673.803880
804.717372	3698.707180
805.037967	3684.604552
805.358518	3670.262469
805.679024	3697.666182
805.999485	3717.122515
806.319901	3719.302814
806.640272	3730.945359
806.960598	3746.807349
807.280879	3718.110581
807.601115	3735.812593
807.921306	3752.513935
808.241453	3791.013227
808.561554	3760.836880
808.881611	3696.738609
809.201623	3738.681009
809.521590	3746.893049
809.841513	3718.604614
810.161390	3747.989500
810.481223	3723.492013
810.801011	3672.460412
811.120755	3669.007222
811.440453	3700.642983
811.760107	3702.230946
812.079716	3655.572547
812.399281	3631.039772
812.718801	3650.740601
813.038276	3625.393679
813.357707	3624.589615
813.677093	3639.806338
813.996434	3583.456321
814.315731	3597.238835
814.634983	3602.597582
814.954191	3617.874798
815.273354	3645.386896
815.592473	3637.837768
815.911547	3649.099705
816.230577	3692.317517
816.549562	3742.250146
816.868502	3782.486116
817.187399	3804.324394
817.506250	3803.283396
817.825058	3781.135086
818.143821	3876.443141
818.462539	3976.963749
818.781213	4018.144934
819.099843	4084.433587
819.418429	4343.024615
819.736970	4586.865226
820.055466	4838.033155
820.373919	5211.814548
820.692327	5624.899297
821.010691	6103.128357
821.329011	7562.539874
821.647286	10424.486092
821.965517	15119.471465
822.283704	19125.719277
822.601847	21140.630660
822.919945	19239.800588
823.237999	16601.232939
823.556010	14090.413169
823.873976	11956.535596
824.191897	9845.204583
824.509775	8506.508535
824.827609	7384.594705
825.145398	6857.743717
825.463144	6736.193936
825.780845	6849.052768
826.098502	7064.811632
826.416116	7995.136409
826.733685	9350.934572
827.051210	10450.248909
827.368692	10421.519373
827.686129	9100.628680
828.003522	7592.015501
828.320872	6571.915335
828.638177	5861.057190
828.955439	5295.049039
829.272656	4796.327689
829.589830	4522.441801
829.906960	4343.506045
830.224046	4156.620389
830.541088	4032.038354
830.858086	3984.384327
831.175041	3903.738468
831.491952	3894.266140
831.808819	3903.055392
832.125642	3984.248216
832.442421	4135.986947
832.759157	4428.099127
833.075849	5004.799565
833.392497	5892.110698
833.709101	6676.920049
834.025662	6983.127295
834.342179	6584.140133
834.658653	5904.927831
834.975083	5253.134365
835.291469	4665.978574
835.607811	4264.170886
835.924110	4123.184937
836.240366	3921.430398
836.556578	3718.065211
836.872746	3609.188890
837.188871	3568.784042
837.504952	3498.389370
837.820990	3412.911565
838.136984	3373.613251
838.452935	3398.738361
838.768842	3392.535222
839.084706	3416.513470
839.400526	3587.585026
839.716303	3942.749437
840.032037	4487.216738
840.347727	4724.879416
840.663373	4424.608128
840.978977	4034.170762
841.294537	3725.095100
841.610054	3499.190913
841.925527	3396.779873
842.240957	3325.530725
842.556344	3268.958897
842.871687	3209.455637
843.186987	3160.989984
843.502244	3121.883233
843.817458	3085.130701
844.132629	3055.259344
844.447756	3066.722928
844.762840	3047.322047
845.077881	3016.301307
845.392879	3000.164574
845.707833	2997.238184
846.022745	2996.154336
846.337613	2997.465036
846.652438	2984.743684
846.967221	2982.767552
847.281960	2967.323977
847.596656	2963.351548
847.911309	2961.352730
848.225919	2955.928449
848.540485	2951.381328
848.855009	2949.581636
849.169490	2939.564863
849.483928	2935.834409
849.798323	2931.637649
850.112675	2927.582041
850.426984	2938.841458
850.741251	2939.844647
851.055474	2924.849735
851.369654	2920.320258
851.683792	2927.065322
851.997887	2936.144440
852.311938	2937.495470
852.625947	2925.467277
852.939914	2932.103956
853.253837	2934.836261
853.567718	2918.235741
853.881555	2918.926379
854.195350	2934.692588
854.509103	2926.382246
854.822812	2922.124992
855.136479	2914.414547
855.450103	2921.341092
855.763685	2915.299269
856.077224	2910.490008
856.390720	2923.455856
856.704173	2930.798297
857.017584	2922.770259
857.330953	2921.699014
857.644278	2935.080757
857.957561	2943.116356
858.270802	2944.825307
858.584000	2941.911520
858.897155	2929.260745
859.210268	2928.940632
859.523339	2925.870569
859.836367	2924.315373
860.149352	2920.857141
860.462295	2915.468148
860.775195	2923.854107
861.088054	2922.379570
861.400869	2906.452044
861.713642	2905.532034
862.026373	2921.497368
862.339062	2921.998963
862.651708	2925.421906
862.964312	2931.030190
863.276873	2922.530804
863.589392	2934.175870
863.901869	2945.470575
864.214303	2971.702219
864.526696	2984.688231
864.839045	2976.871922
865.151353	2980.670432
865.463619	2979.321923
865.775842	2978.956439
866.088023	3000.479646
866.400162	3004.613392
866.712258	2972.269349
867.024313	2963.969089
867.336325	2974.565594
867.648296	2998.153153
867.960224	2987.014724
868.272110	2972.947384
868.583954	2980.746049
868.895755	2993.306084
869.207515	2977.456696
869.519233	2986.911380
869.830909	2998.619460
870.142542	3005.432579
870.454134	3005.916530
870.765684	3007.388547
871.077191	3010.965246
871.388657	3014.751152
871.700081	3030.439223
872.011463	3039.704864
872.322803	3042.263249
872.634101	3039.107487
872.945357	3059.806465
873.256571	3087.071545
873.567744	3076.689289
873.878874	3068.875501
874.189963	3092.755446
874.501010	3097.479008
874.812015	3083.918304
875.122979	3085.498705
875.433900	3080.744897
875.744780	3087.948706
876.055618	3096.995057
876.366415	3091.371650
876.677169	3105.411263
876.987882	3099.429934
877.298554	3095.117227
877.609183	3116.514404
877.919771	3141.024494
878.230317	3170.237981
878.540822	3222.892833
878.851285	3257.906167
879.161707	3307.846358
879.472087	3419.008841
879.782425	3661.064884
880.092722	4111.980972
880.402977	4654.643540
880.713191	5306.132016
881.023363	6512.956520
881.333494	7822.292888
881.643583	8338.078544
881.953631	8019.964092
882.263637	7351.300405
882.573602	6734.041363
882.883526	6151.838506
883.193408	5584.897741
883.503248	5126.525787
883.813048	4815.940298
884.122806	4493.860979
884.432522	4173.084798
884.742197	3934.590330
885.051831	3740.079929
885.361424	3611.210393
885.670975	3536.024104
885.980485	3444.277625
886.289954	3365.181921
886.599382	3323.146259
886.908768	3285.350208
887.218113	3242.886049
887.527417	3179.680062
887.836680	3130.299440
888.145901	3120.479272
888.455082	3114.439970
888.764221	3062.833678
889.073319	3036.728062
889.382376	3031.611291
889.691392	3035.707229
890.000366	3034.116745
890.309300	3022.239786
890.618193	3034.494831
890.927044	3049.444373
891.235855	3049.003272
891.544625	3038.716798
891.853353	3049.416647
892.162041	3066.107907
892.470687	3107.984772
892.779293	3159.011331
893.087858	3208.669217
893.396381	3284.785599
893.704864	3410.396030
894.013306	3659.900377
894.321707	3971.693222
894.630068	4170.465918
894.938387	4160.436543
895.246665	4120.566057
895.554903	3988.762569
895.863100	3782.183646
896.171256	3612.533696
896.479371	3473.642346
896.787446	3347.250537
897.095480	3242.833117
897.403473	3178.243333
897.711425	3143.358549
898.019336	3135.617857
898.327207	3104.279524
898.635038	3065.170253
898.942827	3051.879250
899.250576	3039.132693
899.558284	3010.304855
899.865952	2990.903974
900.173579	2966.262814
900.481165	2961.256948
900.788711	2947.454269
901.096216	2923.244128
901.403681	2914.124680
901.711105	2918.434867
902.018489	2913.567633
902.325832	2915.505957
902.633135	2925.532812
902.940397	2963.260807
903.247619	3053.290773
903.554800	3254.309304
903.861941	3623.498206
904.169041	4061.171182
904.476101	4352.771686
904.783121	4287.491264
905.090100	4031.985422
905.397039	3746.525045
905.703938	3498.066736
906.010796	3310.535813
906.317614	3195.453832
906.624391	3102.258021
906.931129	3026.300436
907.237826	2964.266517
907.544483	2920.158942
907.851099	2889.733058
908.157675	2865.706918
908.464211	2847.684793
908.770707	2832.142916
909.077163	2821.468273
909.383578	2803.914975
909.689954	2796.103707
909.996289	2792.406021
910.302584	2791.097841
910.608839	2792.080866
910.915054	2784.998045
911.221229	2780.765997
911.527363	2784.015020
911.833458	2790.805454
912.139513	2797.369037
912.445527	2798.112607
912.751502	2807.584935
913.057436	2818.375525
913.363331	2832.057216
913.669186	2854.971781
913.975000	2890.849673
914.280775	2956.084724
914.586510	3025.410672
914.892205	3106.485029
915.197859	3243.511152
915.503475	3446.314251
915.809050	3667.159639
916.114585	3813.539623
916.420081	3827.370029
916.725536	3761.547683
917.030952	3639.161071
917.336328	3504.524454
917.641665	3371.838764
917.946961	3270.274638
918.252218	3196.877958
918.557435	3116.834518
918.862612	3056.292781
919.167750	3005.830831
919.472848	2964.765591
919.777906	2938.932198
920.082925	2912.992941
920.387904	2881.891543
920.692843	2862.843543
920.997743	2851.206039
921.302603	2837.758761
921.607423	2827.164777
921.912204	2816.008703
922.216946	2802.803401
922.521647	2795.675209
922.826310	2786.195319
923.130932	2779.072169
923.435516	2769.632608
923.740059	2761.518871
924.044564	2753.362284
924.349028	2748.046387
924.653454	2740.819893
924.957840	2735.319995
925.262186	2730.291444
925.566493	2727.143243
925.870761	2722.346585
926.174989	2718.515308
926.479178	2713.307796
926.783328	2709.292517
927.087438	2708.947198
927.391509	2705.095757
927.695541	2701.738348
927.999533	2700.841023
928.303486	2697.851619
928.607400	2695.973789
928.911275	2694.274920
929.215110	2695.835157
929.518906	2690.730989
929.822663	2691.585464
930.126381	2693.135619
930.430060	2694.083356
930.733699	2693.508665
931.037299	2697.082843
931.340861	2697.667617
931.644383	2698.559901
931.947866	2697.108048
932.251309	2694.526978
932.554714	2693.985054
932.858080	2691.351051
933.161407	2689.695032
933.464694	2688.258303
933.767943	2688.386852
934.071153	2688.361647
934.374323	2688.490196
934.677455	2687.761749
934.980548	2686.098168
935.283602	2685.117664
935.586617	2685.440298
935.889593	2685.331913
936.192530	2686.103210
936.495428	2686.236800
936.798287	2686.720751
937.101108	2691.885413
937.403890	2692.432378
937.706632	2699.966383
938.009336	2705.153730
938.312002	2715.634289
938.614628	2723.785835
938.917216	2729.366392
939.219765	2730.649366
939.522275	2731.297154
939.824747	2728.688357
940.127179	2725.010835
940.429573	2720.952706
940.731929	2719.473127
941.034246	2716.299721
941.336524	2712.533979
941.638763	2712.211345
941.940964	2708.642208
942.243126	2707.061807
942.545250	2707.502908
942.847335	2700.881352
943.149381	2696.649303
943.451389	2696.490507
943.753359	2695.469673
944.055290	2690.105886
944.357182	2688.964064
944.659036	2687.313087
944.960851	2688.878365
945.262628	2685.281502
945.564367	2687.817202
945.866067	2686.892150
946.167729	2689.037161
946.469352	2690.209229
946.770937	2691.696370
947.072484	2687.918025
947.373992	2686.435926
947.675462	2682.105575
947.976893	2680.936027
948.278286	2678.352436
948.579641	2680.895698
948.880958	2677.434946
949.182236	2681.283867
949.483476	2680.540296
949.784678	2678.533917
950.085841	2678.347394
950.386967	2679.204391
950.688054	2679.963084
950.989103	2680.028619
951.290114	2681.409895
951.591087	2683.060873
951.892021	2683.796882
952.192917	2688.638910
952.493776	2691.809796
952.794596	2689.011955
953.095378	2693.128057
953.396122	2694.592513
953.696828	2690.705783
953.997496	2685.813343
954.298126	2683.292766
954.598718	2683.113805
954.899272	2679.330419
955.199788	2678.622137
955.500266	2674.143072
955.800706	2672.731549
956.101108	2671.884635
956.401472	2670.127793
956.701798	2668.764161
957.002087	2666.140240
957.302337	2662.553459
957.602550	2661.036072
957.902724	2659.372491
958.202861	2661.333500
958.502960	2660.763850
958.803022	2659.359888
959.103045	2658.424754
959.403031	2654.452325
959.702979	2655.757984
960.002889	2656.189003
960.302762	2654.792603
960.602596	2654.056595
960.902393	2653.141625
961.202153	2656.940135
961.501875	2654.555669
961.801559	2654.578354
962.101205	2651.982160
962.400814	2653.895278
962.700385	2655.102634
962.999918	2650.787406
963.299414	2651.727582
963.598873	2647.843372
963.898293	2647.787920
964.197677	2651.793117
964.497022	2651.024341
964.796331	2650.104330
965.095601	2651.430153
965.394835	2649.300266
965.694030	2649.590132
965.993189	2648.672642
966.292309	2648.826397
966.591393	2650.474855
966.890439	2652.445946
967.189447	2649.063332
967.488419	2650.177427
967.787353	2650.870585
968.086249	2651.586429
968.385108	2648.864206
968.683930	2651.936789
968.982714	2650.104330
969.281462	2647.538383
969.580172	2652.841677
969.878844	2650.134577
970.177480	2651.692293
970.476078	2648.188692
970.774639	2650.426964
971.073162	2651.415030
971.371649	2650.343785
971.670098	2651.949392
971.968510	2646.368835
972.266885	2651.339413
972.565223	2652.589619
972.863524	2649.968219
973.161788	2649.668270
973.460014	2651.593991
973.758204	2651.147849
974.056356	2649.922848
974.354471	2650.822694
974.652550	2651.674649
974.950591	2651.765390
975.248595	2650.963847
975.546563	2651.929228
975.844493	2648.455873
976.142386	2647.692138
976.440243	2650.527787
976.738062	2648.914618
977.035845	2650.810092
977.333590	2648.667601
977.631299	2645.295069
977.928971	2644.889256
978.226606	2641.897332
978.524204	2647.523259
978.821765	2644.632157
979.119290	2646.852786
979.416777	2647.356901
979.714228	2647.319092
980.011642	2647.329175
980.309020	2649.847231
980.606360	2649.451501
980.903664	2647.966881
981.200931	2648.236582
981.498162	2646.366314
981.795356	2650.542910
982.092513	2652.859321
982.389633	2654.603560
982.686717	2657.000628
982.983764	2662.964313
983.280775	2666.094870
983.577749	2665.754592
983.874686	2666.644356
984.171587	2662.687050
984.468451	2659.906854
984.765279	2656.304949
985.062070	2657.005670
985.358824	2653.880154
985.655543	2652.004845
985.952224	2650.517705
986.248869	2651.863693
986.545478	2647.848414
986.842050	2646.540234
987.138586	2646.262971
987.435086	2645.952940
987.731549	2644.727939
988.027975	2647.064514
988.324366	2644.533855
988.620719	2642.910603
988.917037	2646.378917
989.213318	2646.464617
989.509563	2644.808598
989.805772	2644.400264
990.101944	2645.519401
990.398080	2647.114926
990.694180	2644.614513
990.990244	2643.611324
991.286271	2644.382620
991.582262	2645.658032
991.878217	2643.805408
992.174136	2644.790954
992.470019	2643.268525
992.765865	2641.796508
993.061676	2640.120325
993.357450	2640.571508
993.653188	2641.317599
993.948890	2644.856489
994.244556	2643.805408
994.540186	2646.807415
994.835780	2646.744401
995.131337	2647.026706
995.426859	2646.615852
995.722345	2649.438898
996.017795	2647.475368
996.313208	2647.656850
996.608586	2648.997797
996.903928	2650.999135
997.199234	2649.910246
997.494504	2649.733805
997.789738	2647.775317
998.084936	2647.745070
998.380099	2644.470841
998.675225	2647.024185
998.970316	2647.215749
999.265371	2647.087199
999.560390	2647.172899
999.855373	2644.554020
1000.150320	2645.874802
1000.445232	2641.970428
1000.740108	2643.810449
1001.034948	2642.517393
1001.329752	2642.076292
1001.624521	2640.773154
1001.919254	2644.528814
1002.213951	2643.351704
1002.508613	2644.422950
1002.803239	2642.177116
1003.097829	2642.656025
1003.392384	2641.448669
1003.686903	2643.848258
1003.981386	2644.599390
1004.275834	2643.281128
1004.570246	2643.392034
1004.864623	2645.093423
1005.158964	2641.670480
1005.453270	2641.640233
1005.747540	2641.811632
1006.041775	2643.790285
1006.335974	2642.240130
1006.630138	2642.983700
1006.924266	2642.870274
1007.218359	2642.666107
1007.512416	2639.885911
1007.806438	2637.577063
1008.100425	2639.278452
1008.394376	2637.970273
1008.688292	2642.391365
1008.982172	2641.368010
1009.276017	2638.915489
1009.569827	2641.393216
1009.863602	2640.344656
1010.157341	2642.782054
1010.451045	2642.459420
1010.744714	2640.337094
1011.038347	2643.694503
1011.331945	2643.379431
1011.625508	2641.804070
1011.919036	2642.686272
1012.212528	2641.604945
1012.505986	2641.395737
1012.799408	2642.935809
1013.092795	2643.114770
1013.386147	2641.068062
1013.679464	2641.073103
1013.972745	2642.051087
1014.265992	2640.788278
1014.559204	2639.885911
1014.852380	2641.463792
1015.145521	2641.105870
1015.438628	2641.612506
1015.731699	2642.449338
1016.024736	2642.653505
1016.317737	2640.420273
1016.610703	2641.962867
1016.903635	2641.869605
1017.196531	2641.365490
1017.489393	2640.516055
1017.782219	2641.904893
1018.075011	2639.079327
1018.367768	2642.340953
1018.660490	2640.858854
1018.953177	2640.858854
1019.245829	2640.858854
