Dividing Wavelength (nm)	Counts (n)	Blue Motor Position (mm): 32.200000	Red Motor Position (mm): 0.000000	
326.493990	2218.011910
326.888308	2218.011910
327.282561	2218.011910
327.676750	2179.252999
328.070874	2176.049346
328.464933	2175.623368
328.858929	2180.157886
329.252859	2182.993535
329.646726	2193.731193
330.040528	2206.848275
330.434265	2217.964019
330.827938	2238.022771
331.221547	2252.947107
331.615091	2272.718512
332.008571	2289.001439
332.401986	2308.021712
332.795338	2328.428303
333.188625	2347.952692
333.581847	2366.103366
333.975006	2382.018289
334.368100	2403.483522
334.761129	2420.618404
335.154095	2437.423090
335.546996	2465.557770
335.939833	2501.831393
336.332606	2519.722447
336.725315	2530.568490
337.117960	2545.026519
337.510540	2553.165462
337.903056	2566.131310
338.295508	2576.493402
338.687896	2583.004052
339.080220	2591.107707
339.472480	2599.995261
339.864676	2602.331836
340.256807	2609.036570
340.648875	2613.316510
341.040879	2615.436315
341.432818	2619.328086
341.824694	2621.132819
342.216506	2621.931842
342.608253	2624.885958
342.999937	2623.464352
343.391557	2623.431585
343.783113	2622.078035
344.174605	2625.218674
344.566033	2618.239197
344.957397	2621.347068
345.348697	2618.914711
345.739934	2618.322376
346.131106	2615.053187
346.522215	2614.864144
346.913260	2610.460696
347.304241	2609.633947
347.695159	2607.448607
348.086012	2608.045983
348.476802	2603.513986
348.867528	2600.028028
349.258191	2598.379571
349.648789	2597.472163
350.039324	2592.733479
350.429796	2596.660537
350.820203	2595.001998
351.210548	2594.916298
351.600828	2593.393870
351.991045	2591.639548
352.381198	2591.828592
352.771288	2591.047213
353.161314	2588.632500
353.551276	2589.917994
353.941175	2591.276585
354.331010	2590.530494
354.720782	2588.332551
355.110490	2586.290884
355.500135	2585.706110
355.889717	2586.626121
356.279235	2588.430854
356.668689	2589.166862
357.058080	2586.767273
357.447408	2588.002356
357.836672	2591.261462
358.225873	2588.806420
358.615010	2590.230546
359.004084	2590.810278
359.393095	2593.376226
359.782043	2592.615012
360.170927	2590.785073
360.559748	2593.754312
360.948505	2595.627101
361.337199	2593.524940
361.725830	2595.979982
362.114398	2594.273551
362.502903	2593.338417
362.891344	2596.907554
363.279722	2595.183479
363.668037	2593.920670
364.056289	2597.862853
364.444478	2597.078953
364.832603	2594.366812
365.220665	2598.641711
365.608665	2600.655652
365.996601	2599.491145
366.384474	2599.952411
366.772284	2596.700867
367.160031	2600.983327
367.547715	2602.165477
367.935336	2602.367124
368.322893	2599.864191
368.710388	2598.064499
369.097820	2600.338059
369.485189	2595.213726
369.872495	2604.761672
370.259738	2603.430807
370.646918	2604.166816
371.034035	2603.085488
371.421090	2605.938781
371.808081	2607.010026
372.195010	2605.175046
372.581875	2602.825869
372.968678	2604.638163
373.355418	2608.829883
373.742096	2606.042125
374.128710	2605.240581
374.515262	2607.100767
374.901751	2607.415839
375.288177	2609.510439
375.674540	2610.027157
376.060841	2606.967177
376.447079	2606.941971
376.833254	2609.371807
377.219367	2605.664038
377.605417	2609.560850
377.991404	2610.957250
378.377329	2608.920624
378.763191	2612.313320
379.148991	2612.199894
379.534727	2612.363732
379.920402	2609.460027
380.306013	2610.022116
380.691563	2612.625872
381.077049	2609.344081
381.462474	2614.259206
381.847835	2613.193002
382.233134	2615.285080
382.618371	2612.595625
383.003545	2612.310800
383.388657	2613.054370
383.773706	2613.157713
384.158693	2615.237189
384.543618	2613.853393
384.928480	2615.509412
385.313280	2614.196191
385.698017	2616.905811
386.082692	2616.371449
386.467305	2618.156017
386.851856	2618.239197
387.236344	2617.972015
387.620770	2613.946654
388.005133	2613.707199
388.389435	2615.310286
388.773674	2612.104112
389.157851	2620.865638
389.541965	2619.877572
389.926018	2619.431429
390.310008	2624.165073
390.693936	2622.647686
391.077802	2622.065432
391.461606	2625.090125
391.845348	2623.539970
392.229027	2622.909826
392.612645	2620.933693
392.996200	2625.304374
393.379694	2623.887809
393.763125	2625.158180
394.146494	2625.223715
394.529801	2628.346710
394.913047	2627.431741
395.296230	2628.329066
395.679351	2625.490896
396.062410	2628.694550
396.445408	2628.568521
396.828343	2628.412245
397.211217	2630.279992
397.594028	2630.852163
397.976778	2632.702267
398.359466	2631.172277
398.742092	2633.491207
399.124656	2632.987092
399.507158	2632.876187
399.889598	2634.811990
400.271977	2637.476240
400.654294	2634.544809
401.036549	2636.662093
401.418742	2634.839716
401.800874	2640.258957
402.182944	2636.059675
402.564952	2638.786940
402.946898	2637.645118
403.328783	2640.430356
403.710606	2639.094450
404.092367	2642.429173
404.474067	2639.868267
404.855705	2638.839872
405.237282	2640.659728
405.618797	2642.373721
406.000250	2646.177271
406.381642	2647.150214
406.762972	2642.134266
407.144240	2644.370017
407.525447	2645.504277
407.906593	2644.155768
408.287677	2649.509474
408.668700	2647.051911
409.049661	2650.432005
409.430560	2649.469145
409.811399	2651.934269
410.192176	2652.118271
410.572891	2651.967036
410.953545	2653.945689
411.334138	2655.258910
411.714669	2655.972233
412.095139	2658.270999
412.475547	2659.188489
412.855894	2665.371464
413.236180	2668.098729
413.616405	2670.258863
413.996568	2674.231292
414.376670	2678.811181
414.756711	2687.754187
415.136691	2698.713656
415.516609	2707.439893
415.896466	2721.660988
416.276262	2737.870818
416.655997	2759.464601
417.035670	2780.292128
417.415283	2811.799340
417.794834	2839.399657
418.174324	2862.606609
418.553753	2895.686660
418.933121	2944.767334
419.312428	2986.445073
419.691674	3019.116792
420.070859	3107.798249
420.449983	3136.565594
420.829045	3227.082032
421.208047	3270.768671
421.586988	3376.118704
421.965867	3447.110753
422.344686	3539.739434
422.723444	3625.693628
423.102141	3595.655913
423.480777	3805.423366
423.859352	3802.527223
424.237866	4022.034185
424.616319	4082.858226
424.994712	4271.530971
425.373044	4269.219602
425.751314	4487.065503
426.129524	4556.162079
426.507673	4706.161611
426.885762	4862.064335
427.263789	4939.249442
427.641756	5017.755331
428.019662	5175.951779
428.397508	5369.096027
428.775292	5362.350963
429.153016	5648.524664
429.530679	5686.053534
429.908282	5824.743238
430.285824	5799.623169
430.663305	6239.461321
431.040726	6096.763900
431.418086	6190.181522
431.795385	6476.990408
432.172624	6635.096116
432.549802	6702.907197
432.926920	6869.141766
433.303977	6903.270377
433.680974	7130.855788
434.057910	7305.113353
434.434786	7448.312369
434.811601	7475.592573
435.188355	7956.601829
435.565050	7877.110395
435.941683	7935.320598
436.318257	8402.590190
436.694770	8585.440401
437.071222	8763.599819
437.447614	8747.173220
437.823946	8757.048840
438.200218	8982.118715
438.576429	8911.731605
438.952580	9186.902987
439.328670	9330.475049
439.704700	9222.135612
440.080670	9291.617835
440.456580	9861.477427
440.832429	9705.975475
441.208218	9426.781252
441.583947	9791.246593
441.959616	9975.183173
442.335224	9864.108910
442.710773	10053.086644
443.086261	10285.483836
443.461689	9689.072487
443.837057	10316.965842
444.212365	10643.766202
444.587612	10352.243837
444.962800	10611.752354
445.337927	10445.369072
445.712995	10044.186487
446.088002	11134.046140
446.462949	10817.035701
446.837837	10820.216669
447.212664	10869.110820
447.587431	11354.984789
447.962139	12056.292468
448.336786	14263.460857
448.711374	14865.659451
449.085901	12788.797328
449.460369	12412.515523
449.834776	11903.658933
450.209124	12733.581570
450.583412	13147.039364
450.957640	14109.652733
451.331808	13324.830778
451.705917	12296.369859
452.079965	11645.957669
452.453954	12529.871064
452.827883	12163.328767
453.201752	12454.447840
453.575562	11979.135088
453.949311	12393.558264
454.323001	12344.827950
454.696632	12573.487127
455.070202	12861.505890
455.443713	13126.022794
455.817164	13572.008634
456.190556	13581.549017
456.563888	13944.638123
456.937160	14132.884890
457.310373	13461.120893
457.683526	13533.930278
458.056619	13098.152775
458.429653	13224.524420
458.802628	12690.562884
459.175542	13044.328375
459.548398	13991.140247
459.921194	14324.978057
460.293930	14373.582342
460.666607	15274.534837
461.039224	16301.458205
461.411782	16990.977145
461.784280	16900.473310
462.156719	16931.859534
462.529099	16632.450284
462.901419	15554.006324
463.273680	15352.458472
463.645882	15210.066041
464.018024	14949.128356
464.390106	15167.748075
464.762130	15897.800413
465.134094	16634.368443
465.505999	18600.879708
465.877845	21858.382583
466.249631	24700.675862
466.621358	24408.465380
466.993026	22955.698102
467.364634	22406.698805
467.736184	20959.476797
468.107674	20161.164715
468.479105	20277.333064
468.850477	19749.151211
469.221790	19328.146809
469.593043	18649.055495
469.964238	18108.142208
470.335373	17761.537675
470.706449	18186.733797
471.077467	17728.336636
471.448425	19552.304236
471.819324	23533.106823
472.190164	25624.220288
472.560945	22116.749279
472.931667	19722.692715
473.302330	19082.650179
473.672934	18577.796265
474.043479	18944.280588
474.413965	18754.778574
474.784393	18375.550214
475.154761	19052.862001
475.525070	19060.103618
475.895321	18709.761070
476.265513	19289.375295
476.635645	19874.156703
477.005719	19658.236522
477.375734	19854.808754
477.745691	20338.681386
478.115588	20840.636636
478.485427	21354.826767
478.855207	22406.837436
479.224928	24152.278982
479.594591	26381.212552
479.964194	26453.401876
480.333739	26640.007747
480.703226	26200.540119
481.072653	25885.183179
481.442022	26441.015761
481.811333	27348.988062
482.180584	27285.686293
482.549777	26324.839850
482.918912	25977.771531
483.287988	26091.777225
483.657005	25784.833970
484.025964	25498.239333
484.394864	25430.879435
484.763706	25142.711958
485.132489	24549.756319
485.501213	24720.419541
485.869879	24635.803774
486.238487	24435.231386
486.607036	24593.669810
486.975527	24286.915599
487.343959	24616.128151
487.712333	24565.570419
488.080648	24223.233223
488.448905	24705.878333
488.817104	24454.473470
489.185244	25125.201510
489.553326	25103.587563
489.921350	26074.614617
490.289315	28339.083280
490.657222	30139.049946
491.025070	30635.336419
491.392861	30415.118654
491.760593	29575.025489
492.128267	28674.292285
492.495883	27654.013158
492.863440	26763.526098
493.230939	25889.994960
493.598380	25740.877629
493.965763	25334.606000
494.333088	24894.987137
494.700354	24819.561393
495.067563	24690.487690
495.434713	24454.198727
495.801805	24595.159471
496.168839	24420.909468
496.535815	24247.413117
496.902733	24468.263547
497.269593	24134.322392
497.636395	24319.093284
498.003139	24300.009996
498.369825	24045.840060
498.736453	24238.472631
499.103023	24118.513334
499.469535	24149.639938
499.835989	24348.233673
500.202385	24369.552713
500.568723	23869.208112
500.935003	24120.774291
501.301226	23736.270364
501.667390	24568.030502
502.033497	24812.392873
502.399546	24534.559761
502.765537	24107.876499
503.131470	24484.198634
503.497345	24625.355983
503.863163	23849.955945
504.228923	24457.568739
504.594625	24650.876824
504.960269	24172.105840
505.325856	24670.381048
505.691385	24077.528753
506.056856	24686.182545
506.422270	24642.304342
506.787625	24231.659511
507.152924	24640.025740
507.518164	24662.068186
507.883347	24460.505211
508.248472	24157.693182
508.613540	24933.176398
508.978550	24715.902668
509.343503	24713.119951
509.708398	24978.975281
510.073236	25137.640557
510.438016	25342.911301
510.802738	25013.038358
511.167403	25270.225424
511.532010	24961.842920
511.896561	25738.735139
512.261053	25700.954211
512.625488	25528.808890
512.989866	25447.532887
513.354186	25297.230885
513.718449	25391.266048
514.082655	25766.587514
514.446803	25511.200139
514.810894	25966.935571
515.174927	25455.094618
515.538904	25478.115047
515.902822	25981.025596
516.266684	25745.107157
516.630488	25645.675439
516.994235	25610.077331
517.357925	25910.832569
517.721558	26102.676200
518.085133	26194.223553
518.448651	26109.199453
518.812112	25833.871794
519.175516	26031.003595
519.538863	26193.258172
519.902152	25974.446890
520.265385	26261.898523
520.628560	26048.516563
520.991678	26060.305302
521.354739	26130.102597
521.717743	26190.367071
522.080690	25977.786654
522.443580	26325.613667
522.806413	26321.311042
523.169189	26408.724650
523.531908	26461.752547
523.894569	26066.208493
524.257174	26143.232282
524.619722	26322.614180
524.982213	26015.428950
525.344647	26077.084782
525.707025	26207.572529
526.069345	26190.107451
526.431608	26157.128223
526.793815	26339.590266
527.155964	25808.250130
527.518057	25970.479502
527.880093	25893.450671
528.242072	26121.701514
528.603995	25839.341446
528.965860	25622.781039
529.327669	25665.275445
529.689421	25666.013974
530.051117	25510.133935
530.412755	25673.255592
530.774337	25473.157072
531.135862	25341.461969
531.497331	25548.116509
531.858743	25111.660971
532.220098	25586.230153
532.581396	25263.674444
532.942638	25203.924168
533.303824	25298.090402
533.664953	25315.124461
534.026025	24976.847914
534.387040	25211.218718
534.747999	25285.001046
535.108902	25434.501504
535.469748	24925.208855
535.830537	25120.097342
536.191270	25239.860034
536.551947	25105.014209
536.912567	24755.276600
537.273131	25111.918070
537.633638	24801.400637
537.994089	25011.843604
538.354483	24562.528082
538.714821	25063.429731
539.075103	25102.985145
539.435328	24892.529575
539.795497	24445.190185
540.155609	24838.183416
540.515665	25133.952953
540.875665	24371.962385
541.235609	24665.733104
541.595496	24634.752693
541.955328	24986.849563
542.315102	24904.920731
542.674821	24443.695483
543.034483	24336.681869
543.394090	24501.832590
543.753640	24302.815398
544.113134	24925.075264
544.472571	24530.131107
544.831953	24813.877492
545.191278	24433.451859
545.550548	24349.010011
545.909761	24558.840478
546.268918	24779.181751
546.628019	24754.222998
546.987064	24460.532937
547.346053	24219.374219
547.704986	24334.443597
548.063863	24480.750485
548.422684	24492.584593
548.781449	24020.432645
549.140158	24428.561939
549.498811	24005.122660
549.857408	23760.921606
550.215949	24182.914074
550.574434	23860.696123
550.932864	24083.053858
551.291237	24239.196036
551.649555	24091.563325
552.007817	24154.507172
552.366022	24012.525595
552.724173	24063.620210
553.082267	24006.902188
553.440305	24475.570699
553.798288	23748.089349
554.156215	24245.618466
554.514086	24346.176883
554.871902	23724.380803
555.229661	24008.306149
555.587365	23862.072358
555.945014	23732.207194
556.302606	23975.863803
556.660143	23926.216000
557.017625	24173.998794
557.375050	23708.160890
557.732421	24097.126239
558.089735	23900.067535
558.446994	23975.125274
558.804197	23998.657381
559.161345	23944.994298
559.518437	23698.633109
559.875474	23901.597525
560.232455	24077.609412
560.589381	23908.866869
560.946251	23885.738055
561.303065	24204.500295
561.659825	24295.296517
562.016528	23891.633684
562.373177	23637.443584
562.729770	23991.244364
563.086307	23851.503579
563.442789	24011.270347
563.799216	23856.839641
564.155587	23852.277396
564.511904	23837.453883
564.868164	23774.903247
565.224370	23750.980451
565.580520	23667.919880
565.936615	23805.830725
566.292654	23492.865812
566.648638	23778.074132
567.004567	23601.931176
567.360441	23557.463158
567.716260	23290.213948
568.072023	23617.873825
568.427732	23367.121791
568.783385	23152.305623
569.138982	23381.284913
569.494525	23431.777110
569.850013	23168.490247
570.205445	23270.860959
570.560823	23075.125558
570.916145	22833.843332
571.271412	23001.791893
571.626625	22770.234053
571.981782	22880.660528
572.336884	22687.922093
572.691931	22821.981497
573.046923	22554.288666
573.401860	22445.354372
573.756743	22443.257252
574.111570	22344.780833
574.466342	22286.200104
574.821059	22371.526674
575.175722	22073.574317
575.530330	22063.912946
575.884882	22085.554619
576.239380	21991.794199
576.593823	21883.469885
576.948211	21865.472966
577.302544	21699.019107
577.656823	21574.492525
578.011047	21673.168070
578.365216	21549.334647
578.719330	21422.756315
579.073389	21318.744708
579.427394	21470.604426
579.781344	21238.532388
580.135239	21124.675408
580.489080	21096.024010
580.842866	20865.862570
581.196597	21050.489788
581.550273	21027.376098
581.903895	20920.901888
582.257463	21229.957386
582.610975	20757.419789
582.964434	21074.062224
583.317837	20774.350504
583.671186	20865.988599
584.024481	20836.225626
584.377721	20608.453693
584.730906	20675.017088
585.084037	20689.954027
585.437113	20597.302660
585.790135	20799.659617
586.143103	20267.855695
586.496016	20283.321955
586.848874	20517.465907
587.201679	20440.999165
587.554428	20132.916609
587.907124	20456.714962
588.259765	20242.423074
588.612352	20313.130297
588.964884	19877.990500
589.317362	20046.922086
589.669786	20095.854046
590.022155	20138.499687
590.374470	20335.916313
590.726731	20123.363623
591.078937	19902.150230
591.431090	19990.289764
591.783188	19741.360108
592.135232	19711.760973
592.487222	19801.180960
592.839157	19818.184772
593.191038	19705.638492
593.542866	19596.028683
593.894639	19309.683583
594.246358	19536.338901
594.598022	19438.588408
594.949633	19191.360141
595.301190	19156.074584
595.652692	19322.904009
596.004141	19566.971473
596.355535	18884.714314
596.706876	18900.697292
597.058162	18796.854564
597.409395	19032.430204
597.760573	19097.612323
598.111698	18873.459938
598.462768	18804.607859
598.813785	18777.224311
599.164748	18593.282690
599.515657	18634.342888
599.866511	18423.511752
600.217312	18783.979457
600.568060	18312.492941
600.918753	18614.720196
601.269392	18524.256691
601.619978	18295.884860
601.970510	18507.862858
602.320988	18452.730279
602.671412	18665.146858
603.021783	18563.665911
603.372100	18289.220454
603.722363	18444.044371
604.072572	18377.385194
604.422728	18521.915075
604.772830	18278.195451
605.122878	18230.375065
605.472872	18224.912975
605.822813	18206.948823
606.172701	18177.198454
606.522534	18378.113641
606.872314	18386.902892
607.222041	18233.213235
607.571714	18449.640052
607.921333	18265.274973
608.270899	18354.001802
608.620411	18524.080250
608.969870	18294.581721
609.319276	18306.740984
609.668627	18327.371907
610.017926	18461.060786
610.367171	18583.833047
610.716362	18634.743659
611.065500	18441.165872
611.414585	18573.100430
611.763616	18565.813442
612.112594	18490.281834
612.461518	18466.129666
612.810389	18661.560077
613.159207	18526.051341
613.507971	18427.131300
613.856682	18706.030616
614.205340	18636.974370
614.553945	18785.380898
614.902496	18522.966155
615.250994	18765.047404
615.599439	18708.014310
615.947830	18687.811886
616.296169	18739.589577
616.644454	18699.603145
616.992686	18673.638682
617.340864	18888.424603
617.688990	18647.661616
618.037063	18820.154777
618.385082	18672.315379
618.733048	18953.082443
619.080961	18824.893462
619.428821	18862.497949
619.776628	18743.080576
620.124382	18674.034412
620.472083	18711.462459
620.819731	18730.228154
621.167326	18422.518644
621.514868	18456.090208
621.862357	18236.779851
622.209793	18237.210870
622.557176	18074.290860
622.904506	17897.777379
623.251783	17811.419893
623.599007	17570.780414
623.946179	17514.763112
624.293297	17457.301520
624.640363	17214.625415
624.987376	17232.453456
625.334336	17028.042229
625.681243	16864.918052
626.028097	16882.728449
626.374899	16800.998742
626.721647	16668.005542
627.068343	16499.026065
627.414987	16436.457784
627.761577	16403.100469
628.108115	16453.385979
628.454600	16174.247208
628.801032	16270.382012
629.147412	16201.449274
629.493739	16212.849843
629.840014	16022.642068
630.186236	16118.764269
630.532405	15887.463527
630.878521	16091.342912
631.224585	15991.210473
631.570597	15801.791638
631.916556	15844.344018
632.262462	15812.126004
632.608316	15724.089813
632.954117	15673.814386
633.299866	15663.971533
633.645562	15576.232771
633.991206	15349.219531
634.336797	15217.922679
634.682336	15185.946640
635.027823	15065.170677
635.373257	14941.942191
635.718639	14854.019427
636.063968	14806.609896
636.409245	14551.966092
636.754470	14570.401591
637.099642	14416.059104
637.444762	14200.716136
637.789829	14234.539757
638.134845	14082.871603
638.479808	14110.361015
638.824719	14047.943968
639.169577	13903.605651
639.514383	13949.575933
639.859137	13769.395013
640.203839	13856.279299
640.548489	13695.093446
640.893086	13682.906457
641.237632	13551.518864
641.582125	13711.857803
641.926566	13536.604610
642.270955	13543.805898
642.615292	13502.912058
642.959576	13509.578984
643.303809	13556.597826
643.647990	13484.688287
643.992118	13542.013768
644.336195	13309.692193
644.680219	13527.354093
645.024192	13441.462914
645.368112	13688.986088
645.711981	13731.934198
646.055797	13916.884051
646.399562	13893.825813
646.743274	14160.044106
647.086935	14442.842755
647.430544	14395.271907
647.774101	14434.517289
648.117606	14576.864350
648.461059	14550.108426
648.804460	14543.701120
649.147810	14261.663686
649.491108	14160.139888
649.834354	14171.016178
650.177548	13871.012071
650.520690	13676.529397
650.863781	13603.813273
651.206820	13643.968584
651.549807	13482.611332
651.892742	13279.089869
652.235626	13221.356054
652.578458	13219.160632
652.921238	12908.633117
653.263967	13107.388169
653.606644	12933.549020
653.949269	12917.208119
654.291843	12718.014487
654.634365	12863.325747
654.976836	12727.050755
655.319255	12730.211559
655.661622	12679.926049
656.003938	12607.938372
656.346203	12535.486909
656.688416	12602.897218
657.030577	12567.531003
657.372687	12483.371461
657.714746	12463.584932
658.056753	12641.744350
658.398708	12465.041825
658.740612	12464.202473
659.082465	12563.346846
659.424266	12531.524562
659.766016	12559.729818
660.107715	12471.623052
660.449362	12545.735575
660.790958	12505.607990
661.132503	12443.251438
661.473996	12506.522960
661.815438	12522.684899
662.156829	12552.261348
662.498168	12519.312367
662.839456	12527.708409
663.180693	12534.176209
663.521879	12630.394192
663.863013	12607.325872
664.204097	12582.225967
664.545129	12703.871530
664.886110	12675.930935
665.227040	12769.177157
665.567918	12769.976180
665.908746	12808.926655
666.249522	12785.800362
666.590248	12835.314575
666.930922	12945.612501
667.271545	12921.568717
667.612118	13013.058098
667.952639	12921.243563
668.293109	12930.226899
668.633528	12890.336249
668.973896	12859.350797
669.314213	12932.392075
669.654480	12674.837004
669.994695	12755.898758
670.334859	12776.575051
670.674973	12715.506513
671.015035	12753.005136
671.355047	12697.489429
671.695008	12665.034481
672.034918	12671.466993
672.374777	12719.078170
672.714585	12630.434521
673.054342	12665.631857
673.394049	12614.166718
673.733705	12710.969474
674.073310	12617.997995
674.412864	12638.046663
674.752368	12500.297135
675.091820	12519.032583
675.431223	12507.253927
675.770574	12379.609391
676.109875	12294.466823
676.449125	12253.953590
676.788324	12204.348636
677.127473	12034.071062
677.466571	12033.932431
677.805619	11923.221130
678.144616	11841.380518
678.483562	11810.072432
678.822458	11684.850171
679.161303	11667.947182
679.500098	11647.215437
679.838842	11601.996287
680.177535	11631.935699
680.516179	11689.409894
680.854771	11641.062708
681.193314	11852.965090
681.531805	12010.690191
681.870247	12424.815938
682.208638	12841.459742
682.546978	13154.056651
682.885268	13201.345194
683.223508	12898.631467
683.561697	12733.095099
683.899836	12636.088175
684.237925	12435.402361
684.575963	12357.708098
684.913951	12274.942434
685.251889	12227.946277
685.589776	12323.869353
685.927614	12246.533012
686.265401	12214.715769
686.603137	12261.066658
686.940824	12416.712283
687.278460	12532.426929
687.616046	12582.556163
687.953582	12753.196700
688.291068	12687.341586
688.628504	12918.289447
688.965889	12926.151126
689.303224	12889.554870
689.640510	12782.974795
689.977745	12471.257568
690.314930	12239.871127
690.652065	12155.401553
690.989150	11857.000533
691.326185	11632.923766
691.663170	11431.353229
692.000105	11190.290293
692.336990	11078.900958
692.673825	10817.083592
693.010610	10706.102590
693.347345	10490.068983
693.684030	10297.572523
694.020665	10236.072967
694.357251	10044.841837
694.693786	9979.621909
695.030272	9819.008227
695.366707	9695.305873
695.703093	9633.831523
696.039429	9627.996387
696.375716	9550.034943
696.711952	9414.059900
697.048139	9465.835071
697.384276	9416.855220
697.720363	9433.571686
698.056400	9372.120021
698.392388	9319.321496
698.728326	9278.805743
699.064214	9215.256957
699.400053	9267.286706
699.735842	9078.356863
700.071581	9040.961583
700.407270	8960.903019
700.742910	8881.761945
701.078501	8791.666443
701.414042	8668.241353
701.749533	8600.397505
702.084974	8458.884755
702.420366	8574.619565
702.755709	8463.116803
703.091002	8332.031680
703.426246	8353.668312
703.761440	8304.817011
704.096584	8260.759847
704.431679	8200.760034
704.766725	8183.786469
705.101721	8136.646639
705.436668	8180.734050
705.771565	8072.926454
706.106413	8148.049729
706.441212	8188.142026
706.775961	8152.821181
707.110661	8188.086573
707.445311	8330.887338
707.779913	8228.733396
708.114465	8357.532357
708.448967	8392.820433
708.783421	8544.269298
709.117825	8725.377791
709.452180	8757.931042
709.786485	8844.263322
710.120742	9130.305953
710.454949	9129.567424
710.789107	9234.710770
711.123216	9443.792626
711.457275	9612.860323
711.791286	9766.030741
712.125247	9768.069888
712.459159	9755.454400
712.793023	9999.065639
713.126837	9577.204242
713.460602	9729.931038
713.794318	9555.625583
714.127985	9583.170447
714.461602	9253.834387
714.795171	9208.262356
715.128691	8956.817164
715.462162	8712.905976
715.795584	8648.439701
716.128957	8503.201538
716.462281	8335.661311
716.795556	8388.701811
717.128782	8179.287239
717.461960	7915.334944
717.795088	7989.061819
718.128167	7891.422231
718.461198	7729.507931
718.794180	7666.856471
719.127113	7663.695668
719.459997	7503.444948
719.792833	7276.330885
720.125619	7339.010072
720.458357	7193.008174
720.791046	7185.776639
721.123686	7186.497524
721.456278	7023.186824
721.788821	7041.765997
722.121315	6939.654905
722.453761	7003.342322
722.786158	6945.376615
723.118506	6960.031249
723.450805	6923.361896
723.783056	6995.079871
724.115259	6902.108391
724.447412	6898.103195
724.779518	6945.202695
725.111574	6949.369209
725.443582	7029.526075
725.775542	7012.991091
726.107453	7200.950512
726.439315	7103.865451
726.771129	7172.299114
727.102895	7341.031574
727.434612	7452.988040
727.766281	7488.767629
728.097901	7567.719660
728.429473	7558.809421
728.760996	7539.237141
729.092471	7508.506267
729.423897	7457.835109
729.755276	7473.205587
730.086606	7395.486118
730.417887	7493.670151
730.749120	7695.580966
731.080305	7886.554997
731.411442	8009.102926
731.742530	7994.052561
732.073570	8108.443904
732.404562	8191.940535
732.735506	8039.294397
733.066401	8179.524173
733.397249	8108.653112
733.728048	7871.441617
734.058798	7533.326388
734.389501	7308.818601
734.720156	7132.509287
735.050762	6900.800212
735.381320	6811.322252
735.711831	6756.721514
736.042293	6649.228991
736.372707	6665.363204
736.703073	6532.745570
737.033391	6568.857875
737.363661	6581.904381
737.693883	6610.412106
738.024056	6691.153747
738.354182	6734.684110
738.684260	6770.022599
739.014290	6885.137347
739.344272	6997.381158
739.674207	7025.523399
740.004093	7092.916064
740.333931	7109.483817
740.663722	7119.412369
740.993464	7192.967845
741.323159	7182.290681
741.652806	6928.027484
741.982405	6948.403828
742.311956	7007.115626
742.641460	6834.589697
742.970915	6643.782024
743.300323	6633.344315
743.629683	6583.996460
743.958996	6450.743641
744.288260	6359.506318
744.617477	6311.204502
744.946647	6309.576209
745.275768	6144.342310
745.604842	6098.366987
745.933869	6084.619760
746.262847	6046.329676
746.591778	6033.754518
746.920662	5990.609803
747.249498	5980.530016
747.578286	6031.475916
747.907027	6103.952585
748.235720	6164.721174
748.564365	6138.998687
748.892963	6168.272667
749.221514	6320.182797
749.550017	6150.852960
749.878473	6028.236975
750.206881	6079.828143
750.535242	6025.474423
750.863555	5957.673424
751.191821	5974.087421
751.520039	5972.862421
751.848210	5878.040837
752.176334	5903.906998
752.504411	5957.567560
752.832440	5877.798862
753.160421	5803.658612
753.488356	5855.882446
753.816243	5884.538885
754.144082	5736.739816
754.471875	5708.932811
754.799620	5757.022898
755.127318	5763.664618
755.454969	5718.198452
755.782572	5687.051683
756.110129	5722.364965
756.437638	5710.480445
756.765100	5650.783101
757.092515	5653.611189
757.419882	5705.237645
757.747203	5684.188307
758.074477	5747.754737
758.401703	5732.560699
758.728882	5681.801321
759.056014	5741.483541
759.383099	5873.571854
759.710138	5879.785077
760.037129	5868.538262
760.364073	5870.494230
760.690970	5953.249812
761.017820	5932.238282
761.344623	5886.038628
761.671379	5991.431511
761.998088	6113.533298
762.324751	6359.975145
762.651366	6965.755479
762.977935	8291.175648
763.304456	9921.084031
763.630931	10816.017388
763.957359	10413.387992
764.283740	9464.642838
764.610074	8621.441802
764.936362	7625.982796
765.262602	7030.257043
765.588796	6494.614282
765.914943	6160.196739
766.241044	5995.035936
766.567097	5792.295852
766.893104	5539.252614
767.219064	5363.512949
767.544978	5292.084841
767.870845	5212.351431
768.196665	5107.107262
768.522438	5040.934556
768.848165	5003.703114
769.173846	4935.007311
769.499479	4895.109099
769.825066	4841.483825
770.150607	4784.206235
770.476101	4758.624899
770.801548	4751.030401
771.126949	4676.196993
771.452303	4627.930465
771.777611	4580.881377
772.102872	4600.562041
772.428087	4562.019899
772.753256	4521.773848
773.078378	4475.526302
773.403453	4407.314450
773.728482	4395.523191
774.053465	4344.163915
774.378401	4333.852235
774.703291	4333.816947
775.028135	4264.188530
775.352932	4213.741704
775.677683	4200.944735
776.002388	4219.082806
776.327046	4230.995053
776.651658	4155.221469
776.976224	4090.367025
777.300743	4101.538222
777.625216	4122.867344
777.949643	4113.606744
778.274024	4072.680137
778.598359	4027.929814
778.922647	4050.032753
779.246889	4042.029921
779.571086	4038.032286
779.895236	4022.588712
780.219339	4005.836957
780.543397	4001.604909
780.867409	4051.076272
781.191374	4069.264755
781.515294	4005.542050
781.839167	3998.670957
782.162995	4019.899256
782.486776	4003.452492
782.810511	4017.499667
783.134201	4010.230323
783.457844	3965.752222
783.781441	3912.434459
784.104993	3917.833535
784.428498	3935.119651
784.751958	3932.659568
785.075372	3909.581166
785.398739	3872.586658
785.722061	3882.512690
786.045337	3929.347530
786.368568	3960.698466
786.691752	3871.253273
787.014891	3922.698248
787.337983	4052.913772
787.661030	4211.218606
787.984031	4376.003843
788.306987	4547.725708
788.629897	4625.697234
788.952760	4578.317950
789.275579	4514.754041
789.598351	4448.578814
789.921078	4303.451557
790.243759	4105.520733
790.566395	4086.104729
790.888984	4081.643308
791.211529	3974.680106
791.534027	3915.638112
791.856480	3906.455650
792.178888	3840.013243
792.501249	3793.566572
792.823566	3805.912358
793.145836	3831.624763
793.468062	3782.239099
793.790241	3737.755958
794.112375	3767.798714
794.434464	3828.834484
794.756507	3852.974049
795.078505	3835.491328
795.400457	3870.741596
795.722364	4008.065147
796.044226	4114.662866
796.366042	4188.460317
796.687812	4164.726565
797.009538	4169.238398
797.331218	4129.630052
797.652852	4105.319087
797.974442	4085.167075
798.295986	4080.594748
798.617484	3997.564424
798.938938	3908.953542
799.260346	3955.553968
799.581709	3949.804532
799.903026	3875.384499
800.224299	3841.344107
800.545526	3834.352027
800.866708	3795.273002
801.187845	3730.902509
801.508936	3770.273920
801.829983	3765.225205
802.150984	3689.575130
802.471940	3676.589117
802.792851	3688.783668
803.113717	3689.219728
803.434538	3691.546221
803.755314	3634.003970
804.076045	3607.303499
804.396731	3629.202271
804.717372	3659.371056
805.037967	3637.958755
805.358518	3630.402066
805.679024	3658.375428
805.999485	3671.426976
806.319901	3675.979138
806.640272	3691.329451
806.960598	3702.077191
807.280879	3677.115918
807.601115	3691.147970
807.921306	3705.926112
808.241453	3746.141917
808.561554	3721.964543
808.881611	3652.096671
809.201623	3694.732230
809.521590	3700.564845
809.841513	3677.579704
810.161390	3706.677244
810.481223	3684.226465
810.801011	3629.648413
811.120755	3624.314872
811.440453	3655.491888
811.760107	3658.047753
812.079716	3612.752986
812.399281	3585.480344
812.718801	3605.486163
813.038276	3582.823656
813.357707	3578.473140
813.677093	3595.108948
813.996434	3544.621792
814.315731	3554.983884
814.634983	3556.670150
814.954191	3571.755802
815.273354	3598.453753
815.592473	3596.248248
815.911547	3602.993312
816.230577	3644.199704
816.549562	3693.209802
816.868502	3734.511975
817.187399	3760.446191
817.506250	3754.691714
817.825058	3729.511150
818.143821	3823.311900
818.462539	3927.426850
818.781213	3968.671051
819.099843	4031.483827
819.418429	4274.197741
819.736970	4519.417108
820.055466	4767.872896
820.373919	5134.964678
820.692327	5544.606319
821.010691	5994.052911
821.329011	7397.981489
821.647286	10173.335807
821.965517	14771.949443
822.283704	18813.313932
822.601847	20953.182916
822.919945	19101.090719
823.237999	16490.327554
823.556010	13992.589578
823.873976	11878.369985
824.191897	9784.372979
824.509775	8436.633102
824.827609	7306.734084
825.145398	6766.108143
825.463144	6652.558673
825.780845	6764.111846
826.098502	6958.196269
826.416116	7860.595575
826.733685	9194.056385
827.051210	10298.767277
827.368692	10321.384413
827.686129	9044.414774
828.003522	7535.698251
828.320872	6519.560432
828.638177	5809.387884
828.955439	5252.511783
829.272656	4749.722222
829.589830	4470.606136
829.906960	4291.998055
830.224046	4109.939305
830.541088	3982.435921
830.858086	3937.466308
831.175041	3861.034854
831.491952	3846.077751
831.808819	3855.842466
832.125642	3929.917180
832.442421	4078.273297
832.759157	4363.176627
833.075849	4912.906892
833.392497	5783.796466
833.709101	6567.542134
834.025662	6899.126549
834.342179	6525.289703
834.658653	5854.912023
834.975083	5203.294998
835.291469	4625.467862
835.607811	4220.214545
835.924110	4078.497628
836.240366	3878.789798
836.556578	3674.156761
836.872746	3567.233888
837.188871	3523.620345
837.504952	3458.493678
837.820990	3374.298848
838.136984	3332.724452
838.452935	3357.983153
838.768842	3347.172399
839.084706	3373.464537
839.400526	3534.398332
839.716303	3878.933471
840.032037	4412.325357
840.347727	4670.694573
840.663373	4382.638002
840.978977	3994.953106
841.294537	3688.844162
841.610054	3465.634473
841.925527	3358.005838
842.240957	3286.537400
842.556344	3231.624111
842.871687	3174.212931
843.186987	3121.263171
843.502244	3084.147676
843.817458	3050.760114
844.132629	3019.530166
844.447756	3028.747916
844.762840	3014.983045
845.077881	2983.029692
845.392879	2965.912454
845.707833	2960.780559
846.022745	2958.927935
846.337613	2962.983543
846.652438	2946.998045
846.967221	2944.643826
847.281960	2932.953390
847.596656	2929.512803
847.911309	2927.977771
848.225919	2921.530135
848.540485	2915.064856
848.855009	2915.831111
849.169490	2906.787281
849.483928	2895.674057
849.798323	2896.760426
850.112675	2893.213974
850.426984	2906.242836
850.741251	2903.518093
851.055474	2893.145919
851.369654	2888.442522
851.683792	2890.738768
851.997887	2899.865777
852.311938	2900.117834
852.625947	2887.769528
852.939914	2892.483007
853.253837	2899.061713
853.567718	2883.676111
853.881555	2884.994373
854.195350	2894.065929
854.509103	2894.204561
854.822812	2885.455638
855.136479	2882.108312
855.450103	2883.494630
855.763685	2874.120604
856.077224	2873.853423
856.390720	2887.777090
856.704173	2899.691857
857.017584	2890.030486
857.330953	2887.338509
857.644278	2896.145405
857.957561	2903.066909
858.270802	2908.216448
858.584000	2907.803073
858.897155	2893.037534
859.210268	2891.384035
859.523339	2891.691546
859.836367	2889.985115
860.149352	2885.619476
860.462295	2882.874568
860.775195	2888.845814
861.088054	2890.874879
861.400869	2869.744882
861.713642	2868.756816
862.026373	2884.155021
862.339062	2888.624004
862.651708	2891.119375
862.964312	2894.174314
863.276873	2889.450753
863.589392	2901.196641
863.901869	2911.256264
864.214303	2932.323246
864.526696	2949.616924
864.839045	2943.438990
865.151353	2942.060234
865.463619	2941.626695
865.775842	2944.348918
866.088023	2964.440437
866.400162	2969.965542
866.712258	2937.724842
867.024313	2929.487597
867.336325	2939.138886
867.648296	2959.777370
867.960224	2952.001390
868.272110	2939.509411
868.583954	2942.264401
868.895755	2954.272430
869.207515	2945.127777
869.519233	2949.130453
869.830909	2959.527833
870.142542	2969.441262
870.454134	2970.610809
870.765684	2972.181129
871.077191	2972.281952
871.388657	2977.774289
871.700081	2993.890858
872.011463	3005.049452
872.322803	3006.045080
872.634101	3003.738752
872.945357	3022.965713
873.256571	3045.403888
873.567744	3040.425749
873.878874	3032.306971
874.189963	3056.547359
874.501010	3055.390414
874.812015	3047.342212
875.122979	3044.335164
875.433900	3045.255174
875.744780	3050.182902
876.055618	3059.650189
876.366415	3054.470403
876.677169	3065.966755
876.987882	3060.625652
877.298554	3057.943758
877.609183	3075.103846
877.919771	3100.639811
878.230317	3128.061167
878.540822	3178.641584
878.851285	3220.011813
879.161707	3262.130654
879.472087	3367.977241
879.782425	3600.185390
880.092722	4041.208213
880.402977	4574.390891
880.713191	5211.438982
881.023363	6384.195369
881.333494	7672.089189
881.643583	8225.839774
881.953631	7924.535050
882.263637	7277.356760
882.573602	6685.797521
882.883526	6105.331341
883.193408	5526.470768
883.503248	5061.182350
883.813048	4753.936626
884.122806	4447.109318
884.432522	4126.353302
884.742197	3890.452507
885.051831	3698.472766
885.361424	3561.708783
885.670975	3491.556086
885.980485	3401.841192
886.289954	3328.966272
886.599382	3282.683438
886.908768	3245.053745
887.218113	3199.484235
887.527417	3141.163126
887.836680	3091.744695
888.145901	3086.950558
888.455082	3077.132911
888.764221	3024.041999
889.073319	2994.490755
889.382376	2991.461022
889.691392	2998.112824
890.000366	2996.005622
890.309300	2982.954074
890.618193	2995.930004
890.927044	3014.252078
891.235855	3012.333919
891.544625	2999.305057
891.853353	3010.803929
892.162041	3029.652803
892.470687	3068.817527
892.779293	3121.174951
893.087858	3168.085408
893.396381	3241.091398
893.704864	3367.150491
894.013306	3607.565639
894.321707	3912.222730
894.630068	4118.620172
894.938387	4113.248822
895.246665	4064.866348
895.554903	3944.591979
895.863100	3746.656115
896.171256	3572.471646
896.479371	3432.504010
896.787446	3309.464568
897.095480	3204.633774
897.403473	3143.098929
897.711425	3107.057200
898.019336	3095.071857
898.327207	3066.203689
898.635038	3030.030890
898.942827	3017.657378
899.250576	3005.001561
899.558284	2972.108032
899.865952	2952.439970
900.173579	2928.625559
900.481165	2923.786052
900.788711	2912.589649
901.096216	2889.541494
901.403681	2872.731766
901.711105	2882.516646
902.018489	2881.450442
902.325832	2879.065976
902.633135	2888.681977
902.940397	2925.245466
903.247619	3006.823938
903.554800	3205.304247
903.861941	3554.220149
904.169041	3986.350377
904.476101	4287.173671
904.783121	4238.639963
905.090100	3985.069924
905.397039	3707.987944
905.703938	3456.847742
906.010796	3273.969804
906.317614	3161.010149
906.624391	3065.384502
906.931129	2993.842967
907.237826	2931.282248
907.544483	2884.538148
907.851099	2852.869620
908.157675	2833.917402
908.464211	2813.969556
908.770707	2798.591517
909.077163	2786.449897
909.383578	2769.569594
909.689954	2760.538367
909.996289	2760.540887
910.302584	2759.076432
910.608839	2759.089035
910.915054	2755.383787
911.221229	2746.740729
911.527363	2749.871285
911.833458	2757.370002
912.139513	2759.509971
912.445527	2765.309819
912.751502	2774.106632
913.057436	2782.472427
913.363331	2796.103707
913.669186	2815.297900
913.975000	2853.154445
914.280775	2914.865730
914.586510	2987.465907
914.892205	3065.253432
915.197859	3196.139429
915.503475	3392.832650
915.809050	3609.284672
916.114585	3756.655243
916.420081	3774.153088
916.725536	3714.334757
917.030952	3592.923607
917.336328	3463.562559
917.641665	3332.641273
917.946961	3227.659244
918.252218	3160.185920
918.557435	3076.303641
918.862612	3017.922038
919.167750	2969.574852
919.472848	2932.192176
919.777906	2903.356776
920.082925	2875.340563
920.387904	2845.393589
920.692843	2830.431444
920.997743	2816.348981
921.302603	2805.717187
921.607423	2792.287554
921.912204	2782.502674
922.216946	2769.436003
922.521647	2762.517020
922.826310	2753.311873
923.130932	2747.658219
923.435516	2736.728997
923.740059	2731.418142
924.044564	2724.214333
924.349028	2717.738971
924.653454	2712.541541
924.957840	2704.483257
925.262186	2699.794983
925.566493	2695.757019
925.870761	2689.919363
926.174989	2684.691687
926.479178	2680.184895
926.783328	2676.514935
927.087438	2676.797240
927.391509	2675.597445
927.695541	2672.834893
927.999533	2664.821979
928.303486	2666.011691
928.607400	2663.654952
928.911275	2661.961124
929.215110	2661.388953
929.518906	2660.572286
929.822663	2660.015238
930.126381	2661.948521
930.430060	2663.896927
930.733699	2661.071360
931.037299	2663.181083
931.340861	2666.530930
931.644383	2664.537153
931.947866	2664.277534
932.251309	2664.721156
932.554714	2663.881803
932.858080	2660.448778
933.161407	2656.607418
933.464694	2655.921822
933.767943	2655.180772
934.071153	2656.647748
934.374323	2656.415855
934.677455	2654.361584
934.980548	2657.436688
935.283602	2651.959475
935.586617	2652.506440
935.889593	2653.416368
936.192530	2654.906029
936.495428	2654.162459
936.798287	2653.244969
937.101108	2658.727224
937.403890	2662.014056
937.706632	2665.729386
938.009336	2671.884635
938.312002	2685.011800
938.614628	2690.718386
938.917216	2699.179963
939.219765	2699.593337
939.522275	2697.241639
939.824747	2693.647296
940.127179	2692.530681
940.429573	2691.653520
940.731929	2690.216791
941.034246	2684.979032
941.336524	2681.689679
941.638763	2679.174144
941.940964	2677.129956
942.243126	2673.717095
942.545250	2671.244409
942.847335	2669.449758
943.149381	2666.309119
943.451389	2658.291164
943.753359	2660.852070
944.055290	2658.490289
944.357182	2657.103972
944.659036	2658.094559
944.960851	2659.072543
945.262628	2655.478200
945.564367	2654.250679
945.866067	2656.448622
946.167729	2658.049188
946.469352	2657.693787
946.770937	2656.415855
947.072484	2658.581030
947.373992	2655.682367
947.675462	2650.920997
947.976893	2648.851603
948.278286	2647.056952
948.579641	2647.034267
948.880958	2647.112405
949.182236	2648.097951
949.483476	2646.522590
949.784678	2648.392858
950.085841	2650.026192
950.386967	2646.956129
950.688054	2646.182312
950.989103	2648.286994
951.290114	2651.415030
951.591087	2652.945020
951.892021	2653.822181
952.192917	2658.379384
952.493776	2659.589261
952.794596	2657.333345
953.095378	2659.178407
953.396122	2658.848211
953.696828	2658.651606
953.997496	2656.330155
954.298126	2653.703714
954.598718	2649.675832
954.899272	2648.360091
955.199788	2645.758855
955.500266	2642.492188
955.800706	2640.513535
956.101108	2639.827938
956.401472	2640.178298
956.701798	2638.300468
957.002087	2632.994654
957.302337	2634.635549
957.602550	2632.561115
957.902724	2627.451905
958.202861	2628.984416
958.502960	2628.830661
958.803022	2627.824951
959.103045	2627.404014
959.403031	2626.494086
959.702979	2622.985443
960.002889	2623.401338
960.302762	2621.674743
960.602596	2624.676750
960.902393	2622.541821
961.202153	2623.161883
961.501875	2625.538787
961.801559	2622.887140
962.101205	2620.144753
962.400814	2622.728344
962.700385	2622.677932
962.999918	2617.629217
963.299414	2614.433125
963.598873	2616.169803
963.898293	2614.783486
964.197677	2619.789351
964.497022	2621.710031
964.796331	2618.042592
965.095601	2616.671398
965.394835	2619.383538
965.694030	2620.979064
965.993189	2619.103754
966.292309	2617.472941
966.591393	2619.297839
966.890439	2617.553600
967.189447	2619.754063
967.488419	2617.490585
967.787353	2621.052160
968.086249	2617.341871
968.385108	2619.300359
968.683930	2618.745832
968.982714	2616.139556
969.281462	2619.441512
969.580172	2620.139712
969.878844	2619.098713
970.177480	2618.914711
970.476078	2617.505709
970.774639	2616.351284
971.073162	2618.481172
971.371649	2620.011162
971.670098	2619.194495
971.968510	2619.527211
972.266885	2623.756739
972.565223	2620.999228
972.863524	2617.956892
973.161788	2621.473097
973.460014	2620.187602
973.758204	2617.420009
974.056356	2620.046450
974.354471	2619.454115
974.652550	2619.930504
974.950591	2620.472428
975.248595	2619.068466
975.546563	2620.641306
975.844493	2616.394134
976.142386	2614.849021
976.440243	2618.713065
976.738062	2619.416306
977.035845	2616.784824
977.333590	2617.462859
977.631299	2616.520163
977.928971	2613.349277
978.226606	2614.145780
978.524204	2613.034205
978.821765	2612.658639
979.119290	2617.351953
979.416777	2617.576285
979.714228	2617.256172
980.011642	2614.216356
980.309020	2615.605194
980.606360	2614.876747
980.903664	2618.977726
981.200931	2617.543517
981.498162	2617.661984
981.795356	2618.503857
982.092513	2620.109465
982.389633	2623.431585
982.686717	2625.558952
982.983764	2629.417955
983.280775	2632.256125
983.577749	2635.742083
983.874686	2635.490025
984.171587	2628.248408
984.468451	2628.177831
984.765279	2626.617594
985.062070	2624.865793
985.358824	2621.778087
985.655543	2622.080556
985.952224	2620.674074
986.248869	2621.505864
986.545478	2617.669546
986.842050	2615.607714
987.138586	2615.401027
987.435086	2618.226594
987.731549	2615.191819
988.027975	2615.484206
988.324366	2612.467075
988.620719	2616.273147
988.917037	2613.593773
989.213318	2613.447580
989.509563	2613.250975
989.805772	2614.077724
990.101944	2614.448249
990.398080	2611.995727
990.694180	2612.144442
990.990244	2613.533279
991.286271	2612.189812
991.582262	2611.196705
991.878217	2612.227621
992.174136	2612.986314
992.470019	2613.992024
992.765865	2608.298041
993.061676	2607.219234
993.357450	2610.990017
993.653188	2607.637650
993.948890	2614.551592
994.244556	2612.681324
994.540186	2614.586881
994.835780	2612.131839
995.131337	2616.709206
995.426859	2615.769031
995.722345	2616.689042
996.017795	2617.898919
996.313208	2615.083434
996.608586	2615.922786
996.903928	2614.307097
997.199234	2618.897067
997.494504	2615.438836
997.789738	2618.105606
998.084936	2616.626027
998.380099	2614.493619
998.675225	2615.915225
998.970316	2615.806840
999.265371	2615.640482
999.560390	2616.464710
999.855373	2614.158383
1000.150320	2612.537652
1000.445232	2612.202415
1000.740108	2613.860954
1001.034948	2610.841303
1001.329752	2612.945985
1001.624521	2611.171499
1001.919254	2614.022271
1002.213951	2613.802981
1002.508613	2614.357508
1002.803239	2612.038577
1003.097829	2613.288783
1003.392384	2612.479678
1003.686903	2611.269801
1003.981386	2611.650408
1004.275834	2612.585542
1004.570246	2612.938423
1004.864623	2608.068669
1005.158964	2610.362394
1005.453270	2610.997579
1005.747540	2611.647888
1006.041775	2609.674276
1006.335974	2613.339195
1006.630138	2610.256529
1006.924266	2612.842641
1007.218359	2609.875922
1007.512416	2609.384410
1007.806438	2608.184615
1008.100425	2606.828545
1008.394376	2605.666559
1008.688292	2610.501025
1008.982172	2608.645881
1009.276017	2608.250150
1009.569827	2608.923144
1009.863602	2611.148814
1010.157341	2610.009513
1010.451045	2610.047322
1010.744714	2610.616972
1011.038347	2609.633947
1011.331945	2609.535644
1011.625508	2608.711416
1011.919036	2612.547734
1012.212528	2610.511108
1012.505986	2608.023298
1012.799408	2608.950871
1013.092795	2612.305758
1013.386147	2610.750562
1013.679464	2607.420880
1013.972745	2610.027157
1014.265992	2608.771910
1014.559204	2609.812908
1014.852380	2609.545727
1015.145521	2608.219903
1015.438628	2611.592435
1015.731699	2611.058073
1016.024736	2612.144442
1016.317737	2609.288628
1016.610703	2608.600510
1016.903635	2610.717795
1017.196531	2610.725357
1017.489393	2612.202415
1017.782219	2608.078751
1018.075011	2608.635798
1018.367768	2609.084461
1018.660490	2610.160747
1018.953177	2610.160747
1019.245829	2610.160747
