Dividing Wavelength (nm)	Counts (n)	Blue Motor Position (mm): 19.700000	Red Motor Position (mm): 0.000000	
326.493990	2183.492609
326.888308	2183.492609
327.282561	2183.492609
327.676750	2143.566671
328.070874	2140.181536
328.464933	2139.006947
328.858929	2144.161527
329.252859	2148.910294
329.646726	2159.340441
330.040528	2168.807728
330.434265	2182.131498
330.827938	2202.535568
331.221547	2217.754812
331.615091	2234.327605
332.008571	2254.257807
332.401986	2273.877977
332.795338	2290.256686
333.188625	2310.005406
333.581847	2328.118272
333.975006	2344.315499
334.368100	2365.717718
334.761129	2381.877137
335.154095	2401.313305
335.546996	2424.046389
335.939833	2454.063939
336.332606	2470.160343
336.725315	2480.177116
337.117960	2495.731596
337.510540	2503.260560
337.903056	2517.605163
338.295508	2528.272244
338.687896	2532.605116
339.080220	2543.488967
339.472480	2548.199926
339.864676	2555.544887
340.256807	2561.017059
340.648875	2563.436813
341.040879	2565.871690
341.432818	2572.115159
341.824694	2572.886456
342.216506	2573.824111
342.608253	2577.282342
342.999937	2574.615572
343.391557	2575.767475
343.783113	2574.222362
344.174605	2572.704974
344.566033	2571.263204
344.957397	2570.423852
345.348697	2568.329253
345.739934	2567.573080
346.131106	2565.982596
346.522215	2566.942936
346.913260	2562.922615
347.304241	2559.691236
347.695159	2560.530588
348.086012	2558.158725
348.476802	2556.729558
348.867528	2548.726726
349.258191	2547.095913
349.648789	2549.440049
350.039324	2542.286652
350.429796	2549.132539
350.820203	2544.580377
351.210548	2545.782692
351.600828	2543.120963
351.991045	2542.301776
352.381198	2541.840510
352.771288	2540.923020
353.161314	2539.009902
353.551276	2540.784388
353.941175	2539.108205
354.331010	2538.553678
354.720782	2537.958822
355.110490	2541.406971
355.500135	2539.927392
355.889717	2538.987217
356.279235	2538.346990
356.668689	2538.977135
357.058080	2539.826569
357.447408	2541.520397
357.836672	2540.093750
358.225873	2540.247505
358.615010	2540.814635
359.004084	2539.153575
359.393095	2540.166847
359.782043	2540.804553
360.170927	2541.464944
360.559748	2542.788247
360.948505	2542.536189
361.337199	2545.918803
361.725830	2544.804708
362.114398	2544.731612
362.502903	2544.295552
362.891344	2545.533155
363.279722	2547.443753
363.668037	2544.905532
364.056289	2549.540873
364.444478	2547.058104
364.832603	2550.743188
365.220665	2545.644061
365.608665	2549.752601
365.996601	2547.650440
366.384474	2549.424926
366.772284	2552.696635
367.160031	2549.613969
367.547715	2549.258568
367.935336	2551.227138
368.322893	2546.785882
368.710388	2547.433670
369.097820	2550.047508
369.485189	2549.016592
369.872495	2552.121943
370.259738	2554.030020
370.646918	2554.269475
371.034035	2553.208312
371.421090	2551.416182
371.808081	2554.302242
372.195010	2553.838456
372.581875	2555.865000
372.968678	2556.830381
373.355418	2553.707386
373.742096	2557.155535
374.128710	2555.030689
374.515262	2555.716286
374.901751	2557.584033
375.288177	2556.595967
375.674540	2557.803324
376.060841	2557.090000
376.447079	2556.225442
376.833254	2558.592264
377.219367	2557.820968
377.605417	2559.787018
377.991404	2558.851884
378.377329	2558.526729
378.763191	2556.691749
379.148991	2559.030845
379.534727	2559.300546
379.920402	2558.448591
380.306013	2557.974723
380.691563	2560.049158
381.077049	2559.663509
381.462474	2560.197872
381.847835	2556.313663
382.233134	2559.756771
382.618371	2560.281051
383.003545	2562.678119
383.388657	2559.545042
383.773706	2560.928839
384.158693	2560.638973
384.543618	2561.415310
384.928480	2561.075032
385.313280	2561.916905
385.698017	2560.583520
386.082692	2563.983778
386.467305	2564.578634
386.851856	2563.976217
387.236344	2563.935887
387.620770	2561.286761
388.005133	2559.582851
388.389435	2564.165260
388.773674	2560.349106
389.157851	2564.800445
389.541965	2565.060065
389.926018	2565.029818
390.310008	2566.839592
390.693936	2568.213306
391.077802	2566.166598
391.461606	2566.337997
391.845348	2566.678275
392.229027	2566.171639
392.612645	2567.013512
392.996200	2568.024263
393.379694	2567.303378
393.763125	2568.389747
394.146494	2570.796898
394.529801	2566.632905
394.913047	2569.839078
395.296230	2568.004098
395.679351	2568.092319
396.062410	2569.213975
396.445408	2567.406722
396.828343	2569.922258
397.211217	2568.805642
397.594028	2568.261197
397.976778	2571.525344
398.359466	2572.725139
398.742092	2569.851681
399.124656	2568.208265
399.507158	2569.271949
399.889598	2571.419480
400.271977	2571.328739
400.654294	2571.532906
401.036549	2571.028791
401.418742	2571.734552
401.800874	2570.512072
402.182944	2572.006775
402.564952	2572.450396
402.946898	2576.337126
403.328783	2573.748493
403.710606	2572.626837
404.092367	2573.042732
404.474067	2575.102043
404.855705	2575.109605
405.237282	2573.050293
405.618797	2573.115828
406.000250	2575.139852
406.381642	2573.700602
406.762972	2573.546847
407.144240	2573.249419
407.525447	2573.045252
407.906593	2570.822103
408.287677	2575.742270
408.668700	2575.394430
409.049661	2577.332754
409.430560	2575.477609
409.811399	2576.485840
410.192176	2579.636561
410.572891	2576.175809
410.953545	2575.994327
411.334138	2577.211766
411.714669	2576.536251
412.095139	2579.094637
412.475547	2574.847465
412.855894	2578.708989
413.236180	2577.957857
413.616405	2577.524318
413.996568	2579.896180
414.376670	2579.059349
414.756711	2577.214287
415.136691	2577.166396
415.516609	2577.718402
415.896466	2578.913155
416.276262	2578.456931
416.655997	2580.811150
417.035670	2578.283011
417.415283	2581.305183
417.794834	2580.796026
418.174324	2579.414750
418.553753	2579.931468
418.933121	2582.560430
419.312428	2578.149421
419.691674	2581.176633
420.070859	2580.216294
420.449983	2581.247210
420.829045	2580.758218
421.208047	2581.186716
421.586988	2581.406006
421.965867	2581.842066
422.344686	2582.429360
422.723444	2582.378949
423.102141	2584.224011
423.480777	2583.649319
423.859352	2581.721078
424.237866	2584.634865
424.616319	2580.274267
424.994712	2582.847776
425.373044	2582.961202
425.751314	2579.684452
426.129524	2581.257292
426.507673	2577.554564
426.885762	2579.203022
427.263789	2584.367684
427.641756	2582.260482
428.019662	2585.980853
428.397508	2582.714185
428.775292	2584.077817
429.153016	2581.222004
429.530679	2582.812488
429.908282	2584.965061
430.285824	2582.951120
430.663305	2585.630493
431.040726	2583.409865
431.418086	2584.450863
431.795385	2586.298446
432.172624	2587.687284
432.549802	2584.103023
432.926920	2585.403641
433.303977	2586.905905
433.680974	2586.817685
434.057910	2586.696697
434.434786	2584.889443
434.811601	2587.102510
435.188355	2589.577716
435.565050	2587.019331
435.941683	2587.525967
436.318257	2587.016810
436.694770	2587.931780
437.071222	2588.861872
437.447614	2589.025710
437.823946	2589.310535
438.200218	2588.733323
438.576429	2589.933118
438.952580	2587.785586
439.328670	2589.411358
439.704700	2588.942531
440.080670	2592.163828
440.456580	2588.574527
440.832429	2589.902871
441.208218	2591.584096
441.583947	2589.862542
441.959616	2592.899837
442.335224	2590.711976
442.710773	2592.564600
443.086261	2589.250041
443.461689	2591.180803
443.837057	2591.916812
444.212365	2591.611822
444.587612	2590.417068
444.962800	2589.701225
445.337927	2591.536205
445.712995	2587.520926
446.088002	2592.904878
446.462949	2592.244487
446.837837	2592.483942
447.212664	2592.683067
447.587431	2593.474528
447.962139	2594.719693
448.336786	2598.808069
448.711374	2600.000302
449.085901	2594.145002
449.460369	2595.826227
449.834776	2594.805393
450.209124	2596.005187
450.583412	2595.412852
450.957640	2596.864704
451.331808	2599.405446
451.705917	2597.998964
452.079965	2597.058789
452.453954	2597.003336
452.827883	2597.462081
453.201752	2601.777309
453.575562	2596.995774
453.949311	2597.220106
454.323001	2597.729262
454.696632	2597.517534
455.070202	2599.050044
455.443713	2600.186825
455.817164	2600.640528
456.190556	2596.559714
456.563888	2600.615323
456.937160	2600.784201
457.310373	2598.951742
457.683526	2599.533995
458.056619	2599.443254
458.429653	2599.904520
458.802628	2599.687750
459.175542	2600.123810
459.548398	2600.088522
459.921194	2601.729418
460.293930	2602.382247
460.666607	2599.231526
461.039224	2603.753441
461.411782	2604.280242
461.784280	2605.170005
462.156719	2602.964500
462.529099	2605.222937
462.901419	2606.818462
463.273680	2601.487442
463.645882	2599.539036
464.018024	2601.132041
464.390106	2600.716146
464.762130	2604.693616
465.134094	2607.332660
465.505999	2607.846858
465.877845	2611.365583
466.249631	2616.394134
466.621358	2617.619135
466.993026	2616.522684
467.364634	2617.760287
467.736184	2615.121243
468.107674	2613.949175
468.479105	2613.520677
468.850477	2614.145780
469.221790	2612.358691
469.593043	2615.751387
469.964238	2616.469752
470.335373	2612.535131
470.706449	2613.752570
471.077467	2610.546396
471.448425	2614.901953
471.819324	2619.975874
472.190164	2624.112141
472.560945	2621.410082
472.931667	2617.334309
473.302330	2616.842797
473.672934	2616.608383
474.043479	2618.776079
474.413965	2615.665687
474.784393	2617.611573
475.154761	2619.499485
475.525070	2621.596605
475.895321	2619.471759
476.265513	2620.006121
476.635645	2623.895371
477.005719	2619.018055
477.375734	2623.792027
477.745691	2626.685650
478.115588	2627.918212
478.485427	2630.111114
478.855207	2633.445837
479.224928	2635.676548
479.594591	2640.206024
479.964194	2644.511170
480.333739	2646.318423
480.703226	2643.747435
481.072653	2644.659884
481.442022	2649.035605
481.811333	2650.192550
482.180584	2648.954947
482.549777	2649.824546
482.918912	2649.126346
483.287988	2656.811585
483.657005	2660.264776
484.025964	2661.895589
484.394864	2661.469611
484.763706	2662.036741
485.132489	2666.538492
485.501213	2670.354645
485.869879	2670.019408
486.238487	2673.165088
486.607036	2675.912517
486.975527	2680.149607
487.343959	2684.616069
487.712333	2686.645134
488.080648	2690.635207
488.448905	2695.207533
488.817104	2700.286496
489.185244	2710.192363
489.553326	2713.446428
489.921350	2728.169118
490.289315	2752.086872
490.657222	2770.403905
491.025070	2782.658950
491.392861	2795.040024
491.760593	2799.418266
492.128267	2801.903555
492.495883	2804.141827
492.863440	2809.961839
493.230939	2815.817139
493.598380	2829.173676
493.965763	2837.980572
494.333088	2850.780062
494.700354	2868.580376
495.067563	2883.971019
495.434713	2898.277813
495.801805	2923.647420
496.168839	2941.851027
496.535815	2963.729634
496.902733	2989.061432
497.269593	3010.771161
497.636395	3038.212682
498.003139	3066.523802
498.369825	3094.348451
498.736453	3126.657206
499.103023	3154.673418
499.469535	3192.247659
499.835989	3231.029255
500.202385	3269.004267
500.568723	3295.268679
500.935003	3347.711802
501.301226	3377.895711
501.667390	3457.548462
502.033497	3526.166128
502.399546	3557.010427
502.765537	3598.894854
503.131470	3664.772653
503.497345	3729.203640
503.863163	3748.861619
504.228923	3841.820496
504.594625	3920.311262
504.960269	3947.168009
505.325856	4052.354204
505.691385	4094.047067
506.056856	4189.027447
506.422270	4275.483235
506.787625	4313.743073
507.152924	4442.209317
507.518164	4509.211292
507.883347	4570.259665
508.248472	4615.990492
508.613540	4780.823620
508.978550	4869.689080
509.343503	4960.644099
509.708398	5080.086677
510.073236	5183.135424
510.438016	5303.064474
510.802738	5379.947111
511.167403	5504.425802
511.532010	5570.911060
511.896561	5780.189521
512.261053	5915.302526
512.625488	5987.431355
512.989866	6079.578606
513.354186	6159.251522
513.718449	6319.512324
514.082655	6470.300797
514.446803	6577.841211
514.810894	6765.185612
515.174927	6803.500902
515.538904	6932.035201
515.902822	7144.799620
516.266684	7263.402846
516.630488	7348.474838
516.994235	7488.966755
517.357925	7692.997374
517.721558	7890.071202
518.085133	8053.961634
518.448651	8166.628902
518.812112	8265.054910
519.175516	8430.853419
519.538863	8651.088827
519.902152	8727.608502
520.265385	8976.165113
520.628560	9071.077437
520.991678	9239.789732
521.354739	9415.184078
521.717743	9601.931101
522.080690	9677.974386
522.443580	9966.918201
522.806413	10098.731772
523.169189	10323.889867
523.531908	10464.076794
523.894569	10534.141270
524.257174	10721.447862
524.619722	10949.910434
524.982213	10993.004738
525.344647	11223.088040
525.707025	11397.554813
526.069345	11602.490320
526.431608	11757.210893
526.793815	12005.001249
527.155964	11913.789132
527.518057	12169.879747
527.880093	12326.026967
528.242072	12529.712267
528.603995	12597.793050
528.965860	12690.257894
529.327669	12946.872789
529.689421	13067.356366
530.051117	13164.693485
530.412755	13446.889716
530.774337	13475.936844
531.135862	13599.034259
531.497331	13851.951468
531.858743	13805.466989
532.220098	14230.816865
532.581396	14187.291543
532.942638	14388.176482
533.303824	14554.658068
533.664953	14734.057610
534.026025	14753.919756
534.387040	14995.201982
534.747999	15244.124076
535.108902	15454.935048
535.469748	15348.957391
535.830537	15629.971471
536.191270	15822.447766
536.551947	15974.211703
536.912567	15875.533637
537.273131	16211.382868
537.633638	16184.150555
537.994089	16511.949063
538.354483	16358.614807
538.714821	16815.968448
539.075103	17024.394954
539.435328	17016.898758
539.795497	16876.497583
540.155609	17295.861089
540.515665	17635.707955
540.875665	17265.798168
541.235609	17590.519052
541.595496	17740.332062
541.955328	18129.821690
542.315102	18211.760605
542.674821	18074.207681
543.034483	18103.441332
543.394090	18329.360642
543.753640	18320.563828
544.113134	18906.013189
544.472571	18770.746428
544.831953	19138.904414
545.191278	18936.655843
545.550548	19041.022851
545.909761	19269.039280
546.268918	19602.562019
546.628019	19680.800727
546.987064	19623.470204
547.346053	19549.513957
547.704986	19729.331915
548.063863	19986.390432
548.422684	20041.407064
548.781449	19838.062041
549.140158	20261.513923
549.498811	20044.479647
549.857408	19911.967877
550.215949	20382.413395
550.574434	20199.419511
550.932864	20482.056842
551.291237	20686.667195
551.649555	20698.816375
552.007817	20830.793783
552.366022	20819.887247
552.724173	20917.975498
553.082267	20948.839962
553.440305	21447.276487
553.798288	20905.566698
554.156215	21445.552412
554.514086	21589.709248
554.871902	21109.738469
555.229661	21440.995209
555.587365	21405.581103
555.945014	21314.207669
556.302606	21642.593472
556.660143	21630.509826
557.017625	21952.775668
557.375050	21609.054676
557.732421	22004.316425
558.089735	21920.023292
558.446994	22011.825224
558.804197	22090.326072
559.161345	22128.175055
559.518437	21925.072007
559.875474	22198.201723
560.232455	22395.167165
560.589381	22316.850320
560.946251	22300.413637
561.303065	22677.260052
561.659825	22799.775214
562.016528	22476.233960
562.373177	22293.398872
562.729770	22657.440756
563.086307	22591.331064
563.442789	22793.138535
563.799216	22654.113594
564.155587	22707.648128
564.511904	22731.628896
564.868164	22696.353422
565.224370	22732.700142
565.580520	22646.602275
565.936615	22829.268485
566.292654	22528.525849
566.648638	22887.703019
567.004567	22724.384758
567.360441	22714.602399
567.716260	22465.821457
568.072023	22813.376247
568.427732	22609.736317
568.783385	22418.926123
569.138982	22656.276249
569.494525	22722.010375
569.850013	22500.055933
570.205445	22611.961986
570.560823	22424.980549
570.916145	22232.836970
571.271412	22413.453951
571.626625	22198.473945
571.981782	22312.220020
572.336884	22139.222743
572.691931	22281.158950
573.046923	22028.231659
573.401860	21937.954676
573.756743	21943.537754
574.111570	21874.330273
574.466342	21828.486020
574.821059	21926.435639
575.175722	21642.285962
575.530330	21644.882156
575.884882	21681.236437
576.239380	21593.837953
576.593823	21482.395685
576.948211	21477.324284
577.302544	21327.712921
577.656823	21217.815767
578.011047	21313.154068
578.365216	21199.806245
578.719330	21084.391548
579.073389	20996.317549
579.427394	21149.795478
579.781344	20939.597007
580.135239	20826.218936
580.489080	20802.800256
580.842866	20576.810370
581.196597	20751.148593
581.550273	20740.889845
581.903895	20645.733025
582.257463	20961.248762
582.610975	20493.850622
582.964434	20787.328955
583.317837	20515.469610
583.671186	20604.614854
584.024481	20564.341076
584.377721	20359.854232
584.730906	20402.575490
585.084037	20444.971594
585.437113	20338.288176
585.790135	20542.369207
586.143103	20029.172184
586.496016	20032.587565
586.848874	20276.765934
587.201679	20228.670806
587.554428	19887.102386
587.907124	20219.200998
588.259765	20008.614358
588.612352	20078.537683
588.964884	19659.590072
589.317362	19828.844292
589.669786	19877.713237
590.022155	19943.500295
590.374470	20101.023749
590.726731	19927.378685
591.078937	19667.265228
591.431090	19773.210118
591.783188	19513.547845
592.135232	19486.988526
592.487222	19586.349668
592.839157	19622.550194
593.191038	19502.293469
593.542866	19394.279186
593.894639	19122.220716
594.246358	19339.726340
594.598022	19252.726107
594.949633	19006.385083
595.301190	18962.832034
595.652692	19127.992837
596.004141	19367.830772
596.355535	18702.834524
596.706876	18707.774855
597.058162	18610.490668
597.409395	18822.650148
597.760573	18918.066588
598.111698	18700.928968
598.462768	18625.788050
598.813785	18584.042255
599.164748	18429.220858
599.515657	18449.940001
599.866511	18241.959637
600.217312	18596.317464
600.568060	18133.214387
600.918753	18444.987067
601.269392	18336.493874
601.619978	18114.846943
601.970510	18332.937340
602.320988	18273.575233
602.671412	18486.344693
603.021783	18387.470022
603.372100	18138.444584
603.722363	18261.368079
604.072572	18194.724025
604.422728	18332.375252
604.772830	18099.166434
605.122878	18040.694090
605.472872	18041.059574
605.822813	18025.789919
606.172701	17988.661821
606.522534	18195.644036
606.872314	18214.182879
607.222041	18037.770221
607.571714	18264.725488
607.921333	18090.808201
608.270899	18159.849323
608.620411	18363.617803
608.969870	18104.162217
609.319276	18116.099669
609.668627	18151.410432
610.017926	18285.772305
610.367171	18409.003311
610.716362	18432.255633
611.065500	18264.728008
611.414585	18393.002688
611.763616	18377.095327
612.112594	18335.203339
612.461518	18291.143654
612.810389	18485.142378
613.159207	18337.461776
613.507971	18245.511130
613.856682	18533.129121
614.205340	18461.806877
614.553945	18609.832798
614.902496	18341.106530
615.250994	18595.629347
615.599439	18522.945991
615.947830	18518.534981
616.296169	18546.510864
616.644454	18523.412297
616.992686	18491.806783
617.340864	18710.519763
617.688990	18481.376636
618.037063	18654.817534
618.385082	18487.022728
618.733048	18784.213871
619.080961	18641.340009
619.428821	18682.440537
619.776628	18575.174865
620.124382	18492.532709
620.472083	18524.289458
620.819731	18560.757165
621.167326	18246.098424
621.514868	18294.034756
621.862357	18033.578502
622.209793	18061.584632
622.557176	17891.624650
622.904506	17727.222541
623.251783	17625.781923
623.599007	17401.311945
623.946179	17346.829675
624.293297	17289.491591
624.640363	17052.620375
624.987376	17061.754945
625.334336	16856.395982
625.681243	16700.712548
626.028097	16704.259000
626.374899	16647.624157
626.721647	16525.237544
627.068343	16351.907552
627.414987	16269.106600
627.761577	16242.882517
628.108115	16298.216743
628.454600	16017.147210
628.801032	16104.225581
629.147412	16040.951538
629.493739	16066.424489
629.840014	15876.279728
630.186236	15976.596168
630.532405	15740.201341
630.878521	15939.296671
631.224585	15821.898280
631.570597	15646.130890
631.916556	15693.253075
632.262462	15667.134857
632.608316	15577.430045
632.954117	15530.237283
633.299866	15526.340472
633.645562	15446.037411
633.991206	15206.416246
634.336797	15065.294185
634.682336	15040.368200
635.027823	14929.092290
635.373257	14817.891998
635.718639	14707.699937
636.063968	14656.849818
636.409245	14416.500205
636.754470	14435.580973
637.099642	14295.497390
637.444762	14066.749993
637.789829	14109.332619
638.134845	13942.848513
638.479808	13966.398264
638.824719	13926.994085
639.169577	13772.656639
639.514383	13824.734279
639.859137	13637.868788
640.203839	13726.542684
640.548489	13556.378536
640.893086	13547.349830
641.237632	13416.380653
641.582125	13567.758941
641.926566	13406.936051
642.270955	13409.370928
642.615292	13382.317576
642.959576	13389.463412
643.303809	13427.877004
643.647990	13354.687012
643.992118	13418.518102
644.336195	13186.047813
644.680219	13374.828942
645.024192	13308.893170
645.368112	13541.950754
645.711981	13605.045835
646.055797	13780.006641
646.399562	13751.032610
646.743274	14017.243341
647.086935	14289.016986
647.430544	14254.840484
647.774101	14282.332416
648.117606	14444.559268
648.461059	14415.209670
648.804460	14408.111725
649.147810	14136.058296
649.491108	14028.918654
649.834354	14048.145614
650.177548	13752.723917
650.520690	13564.010843
650.863781	13484.627793
651.206820	13528.223692
651.549807	13353.535108
651.892742	13160.249708
652.235626	13102.909104
652.578458	13107.942696
652.921238	12781.908591
653.263967	12980.071308
653.606644	12815.407059
653.949269	12785.157615
654.291843	12590.546391
654.634365	12740.573650
654.976836	12600.429573
655.319255	12608.349226
655.661622	12565.017988
656.003938	12482.138898
656.346203	12409.175758
656.688416	12490.852533
657.030577	12436.019903
657.372687	12366.578008
657.714746	12335.063235
658.056753	12515.745751
658.398708	12345.732837
658.740612	12349.221316
659.082465	12442.714555
659.424266	12406.264492
659.766016	12421.904672
660.107715	12341.780573
660.449362	12409.936973
660.790958	12372.856765
661.132503	12319.750730
661.473996	12384.539639
661.815438	12398.475909
662.156829	12403.207032
662.498168	12392.764282
662.839456	12393.336453
663.180693	12405.737691
663.521879	12490.850012
663.863013	12480.659320
664.204097	12452.980865
664.545129	12569.610479
664.886110	12536.921117
665.227040	12625.103501
665.567918	12629.572484
665.908746	12671.388855
666.249522	12650.475628
666.590248	12701.792054
666.930922	12814.746667
667.271545	12795.955767
667.612118	12885.693346
667.952639	12787.907564
668.293109	12781.530505
668.633528	12749.521698
668.973896	12717.006256
669.314213	12807.908342
669.654480	12544.568548
669.994695	12609.833846
670.334859	12626.656176
670.674973	12575.364957
671.015035	12619.575876
671.355047	12555.739745
671.695008	12528.661187
672.034918	12536.238041
672.374777	12576.400914
672.714585	12494.653563
673.054342	12530.334850
673.394049	12475.913073
673.733705	12562.247874
674.073310	12480.218219
674.412864	12500.173626
674.752368	12373.827187
675.091820	12374.469935
675.431223	12372.448432
675.770574	12244.829102
676.109875	12162.927996
676.449125	12135.738532
676.788324	12061.542830
677.127473	11909.050447
677.466571	11895.683828
677.805619	11797.003241
678.144616	11714.643390
678.483562	11681.197855
678.822458	11549.497711
679.161303	11532.720751
679.500098	11523.843279
679.838842	11479.849129
680.177535	11499.244968
680.516179	11564.447252
680.854771	11501.566420
681.193314	11718.769574
681.531805	11863.748118
681.870247	12257.880649
682.208638	12674.557220
682.546978	12999.179802
682.885268	13069.849217
683.223508	12744.389804
683.561697	12583.854260
683.899836	12482.161584
684.237925	12288.810648
684.575963	12210.818957
684.913951	12140.731795
685.251889	12077.369533
685.589776	12170.197340
685.927614	12109.925304
686.265401	12067.156155
686.603137	12111.273813
686.940824	12262.132862
687.278460	12379.601829
687.616046	12429.204263
687.953582	12603.240017
688.291068	12520.330680
688.628504	12751.535639
688.965889	12760.997885
689.303224	12729.654511
689.640510	12625.791618
689.977745	12324.181904
690.314930	12095.129518
690.652065	12015.386026
690.989150	11725.033208
691.326185	11499.320586
691.663170	11296.822477
692.000105	11053.213758
692.336990	10946.888262
692.673825	10707.587210
693.010610	10585.848385
693.347345	10378.782991
693.684030	10179.042393
694.020665	10119.619793
694.357251	9927.362788
694.693786	9879.658349
695.030272	9703.449857
695.366707	9579.177853
695.703093	9511.865847
696.039429	9510.837451
696.375716	9441.980331
696.711952	9311.762286
697.048139	9348.373666
697.384276	9308.293972
697.720363	9320.100354
698.056400	9263.253783
698.392388	9206.258498
698.728326	9173.236419
699.064214	9106.373075
699.400053	9157.296291
699.735842	8969.808217
700.071581	8924.495806
700.407270	8850.940330
700.742910	8767.678113
701.078501	8685.066204
701.414042	8560.073315
701.749533	8488.753591
702.084974	8360.022687
702.420366	8465.420611
702.755709	8355.286523
703.091002	8222.318528
703.426246	8242.946930
703.761440	8203.446969
704.096584	8154.948548
704.431679	8084.022034
704.766725	8075.666322
705.101721	8026.237808
705.436668	8069.208603
705.771565	7960.216337
706.106413	8043.397896
706.441212	8091.929084
706.775961	8040.340436
707.110661	8063.212151
707.445311	8224.156029
707.779913	8115.456149
708.114465	8246.127898
708.448967	8281.441180
708.783421	8416.617200
709.117825	8602.151826
709.452180	8638.208679
709.786485	8719.966112
710.120742	9002.449689
710.454949	9002.522785
710.789107	9100.197662
711.123216	9312.115167
711.457275	9475.015012
711.791286	9642.867791
712.125247	9633.637438
712.459159	9617.125139
712.793023	9879.857474
713.126837	9449.347977
713.460602	9607.289848
713.794318	9426.882075
714.127985	9458.454822
714.461602	9152.434098
714.795171	9090.649716
715.128691	8859.043985
715.462162	8596.616639
715.795584	8537.650263
716.128957	8401.302175
716.462281	8230.850681
716.795556	8276.077393
717.128782	8077.811332
717.461960	7806.700599
717.795088	7879.323462
718.128167	7785.343751
718.461198	7624.979606
718.794180	7562.194555
719.127113	7555.353710
719.459997	7416.371619
719.792833	7179.581061
720.125619	7242.116574
720.458357	7097.012002
720.791046	7094.728359
721.123686	7088.479849
721.456278	6934.492764
721.788821	6946.253776
722.121315	6839.255285
722.453761	6899.517238
722.786158	6849.279620
723.118506	6868.481375
723.450805	6830.138358
723.783056	6896.772330
724.115259	6802.958978
724.447412	6805.250182
724.779518	6849.942531
725.111574	6846.743919
725.443582	6926.227792
725.775542	6903.691314
726.107453	7101.891839
726.439315	7010.926738
726.771129	7062.696868
727.102895	7230.204328
727.434612	7343.131215
727.766281	7375.175309
728.097901	7460.574976
728.429473	7447.939324
728.760996	7428.051972
729.092471	7404.328302
729.423897	7348.575661
729.755276	7363.033690
730.086606	7294.582383
730.417887	7384.723255
730.749120	7566.320740
731.080305	7761.284844
731.411442	7889.292343
731.742530	7878.738688
732.073570	7988.996284
732.404562	8075.704130
732.735506	7923.413393
733.066401	8061.233498
733.397249	7994.584403
733.728048	7766.454548
734.058798	7431.842920
734.389501	7220.782411
734.720156	7039.424381
735.050762	6803.664739
735.381320	6702.869388
735.711831	6658.519838
736.042293	6550.495472
736.372707	6573.762918
736.703073	6434.425426
737.033391	6469.637885
737.363661	6479.021993
737.693883	6508.041395
738.024056	6586.849753
738.354182	6639.318083
738.684260	6672.178844
739.014290	6777.168434
739.344272	6890.362503
739.674207	6922.426762
740.004093	6986.847667
740.333931	7006.233424
740.663722	7010.483117
740.993464	7089.271310
741.323159	7085.818120
741.652806	6836.258319
741.982405	6831.812022
742.311956	6899.998668
742.641460	6743.551500
742.970915	6549.366254
743.300323	6538.338730
743.629683	6488.073385
743.958996	6354.339135
744.288260	6264.286483
744.617477	6209.715993
744.946647	6222.689402
745.275768	6060.016409
745.604842	6010.716445
745.933869	5992.502756
746.262847	5948.556497
746.591778	5938.438902
746.920662	5897.948354
747.249498	5886.346138
747.578286	5935.303304
747.907027	6009.188975
748.235720	6071.411937
748.564365	6041.797679
748.892963	6058.930040
749.221514	6214.777311
749.550017	6064.873561
749.878473	5937.244148
750.206881	5986.481098
750.535242	5930.017654
750.863555	5857.893866
751.191821	5884.322115
751.520039	5880.465632
751.848210	5792.356345
752.176334	5805.705321
752.504411	5862.098188
752.832440	5791.272497
753.160421	5711.206371
753.488356	5755.460140
753.816243	5796.674094
754.144082	5649.820241
754.471875	5617.163646
754.799620	5661.346839
755.127318	5676.457698
755.454969	5622.267815
755.782572	5587.952680
756.110129	5630.918435
756.437638	5621.632629
756.765100	5564.891922
757.092515	5558.277928
757.419882	5604.066729
757.747203	5591.158854
758.074477	5651.861908
758.401703	5640.521833
758.728882	5596.525162
759.056014	5638.780114
759.383099	5774.530825
759.710138	5781.061640
760.037129	5762.941213
760.364073	5775.188696
760.690970	5856.578125
761.017820	5840.476679
761.344623	5796.026305
761.671379	5886.068875
761.998088	6003.305949
762.324751	6234.289097
762.651366	6809.048691
762.977935	8081.544307
763.304456	9695.351244
763.630931	10615.994485
763.957359	10262.284446
764.283740	9339.849074
764.610074	8517.732664
764.936362	7539.229579
765.262602	6939.501150
765.588796	6396.702471
765.914943	6058.793929
766.241044	5901.658643
766.567097	5708.587492
766.893104	5453.237926
767.219064	5268.431747
767.544978	5207.433785
767.870845	5132.277743
768.196665	5024.449983
768.522438	4951.307882
768.848165	4924.214200
769.173846	4856.314899
769.499479	4815.834434
769.825066	4763.416516
770.150607	4700.192885
770.476101	4678.278989
770.801548	4675.188762
771.126949	4603.775777
771.452303	4550.291655
771.777611	4505.039737
772.102872	4524.319630
772.428087	4485.061645
772.753256	4446.534627
773.078378	4403.100045
773.403453	4337.509592
773.728482	4318.970749
774.053465	4272.647586
774.378401	4260.367336
774.703291	4263.911267
775.028135	4194.325700
775.352932	4147.095129
775.677683	4130.141729
776.002388	4148.637722
776.327046	4165.376874
776.651658	4089.099175
776.976224	4028.663302
777.300743	4031.715721
777.625216	4051.860171
777.949643	4050.594842
778.274024	4004.143130
778.598359	3958.805512
778.922647	3982.909790
779.246889	3977.533399
779.571086	3969.966627
779.895236	3958.886171
780.219339	3938.819858
780.543397	3931.915998
780.867409	3985.236282
781.191374	3997.975278
781.515294	3941.796659
781.839167	3929.604629
782.162995	3947.412505
782.486776	3938.872790
782.810511	3947.568781
783.134201	3944.208852
783.457844	3904.093870
783.781441	3846.685210
784.104993	3848.789892
784.428498	3871.636401
784.751958	3869.151112
785.075372	3847.577494
785.398739	3808.110301
785.722061	3817.514573
786.045337	3861.662478
786.368568	3897.530287
786.691752	3805.924960
787.014891	3857.710213
787.337983	3976.530209
787.661030	4132.823623
787.984031	4290.672232
788.306987	4464.831494
788.629897	4545.290830
788.952760	4506.335314
789.275579	4437.505920
789.598351	4376.291189
789.921078	4239.053337
790.243759	4042.236609
790.566395	4018.122249
790.888984	4014.764841
791.211529	3912.933533
791.534027	3849.997248
791.856480	3842.586752
792.178888	3782.743214
792.501249	3728.636510
792.823566	3737.708067
793.145836	3769.144702
793.468062	3720.084193
793.790241	3671.855474
794.112375	3700.700956
794.434464	3765.263013
794.756507	3787.459214
795.078505	3774.480763
795.400457	3802.502017
795.722364	3933.224177
796.044226	4037.845764
796.366042	4110.025004
796.687812	4097.031430
797.009538	4104.179787
797.331218	4059.976429
797.652852	4035.468860
797.974442	4014.202752
798.295986	4014.842979
798.617484	3932.833488
798.938938	3847.925334
799.260346	3886.041498
799.581709	3887.949575
799.903026	3817.108760
800.224299	3775.362965
800.545526	3772.005557
800.866708	3734.184300
801.187845	3668.291378
801.508936	3706.306719
801.829983	3707.410732
802.150984	3629.759319
802.471940	3615.223152
802.792851	3629.706387
803.113717	3628.622538
803.434538	3633.076398
803.755314	3575.337542
804.076045	3546.882749
804.396731	3564.650296
804.717372	3591.489399
805.037967	3581.949016
805.358518	3569.787232
805.679024	3591.875047
805.999485	3606.496914
806.319901	3611.659056
806.640272	3627.052219
806.960598	3638.225937
807.280879	3612.873974
807.601115	3623.437712
807.921306	3639.206441
808.241453	3682.303265
808.561554	3657.536076
808.881611	3597.407714
809.201623	3627.460552
809.521590	3641.941267
809.841513	3613.574694
810.161390	3643.541833
810.481223	3625.146663
810.801011	3568.733631
811.120755	3556.213925
811.440453	3593.921756
811.760107	3600.744958
812.079716	3557.759039
812.399281	3524.618493
812.718801	3547.281001
813.038276	3519.065662
813.357707	3515.791433
813.677093	3536.767674
813.996434	3487.077021
814.315731	3491.876199
814.634983	3495.435254
814.954191	3505.958663
815.273354	3539.220196
815.592473	3535.900596
815.911547	3540.057027
816.230577	3575.135896
816.549562	3630.086994
816.868502	3669.309691
817.187399	3697.767005
817.506250	3694.371788
817.825058	3661.974812
818.143821	3747.442535
818.462539	3853.160572
818.781213	3901.878283
819.099843	3954.102116
819.418429	4182.930171
819.736970	4427.496709
820.055466	4662.863141
820.373919	5019.981000
820.692327	5422.222227
821.010691	5842.866186
821.329011	7144.232490
821.647286	9779.636815
821.965517	14212.305748
822.283704	18223.546823
822.601847	20481.063735
822.919945	18741.507736
823.237999	16225.994652
823.556010	13773.417853
823.873976	11725.635626
824.191897	9651.551178
824.509775	8301.015981
824.827609	7180.685073
825.145398	6627.115970
825.463144	6521.229054
825.780845	6626.929447
826.098502	6801.229862
826.416116	7624.561190
826.733685	8918.524559
827.051210	10033.877327
827.368692	10135.171752
827.686129	8938.086757
828.003522	7426.718587
828.320872	6411.057157
828.638177	5722.080140
828.955439	5174.401625
829.272656	4680.446686
829.589830	4395.150145
829.906960	4220.174216
830.224046	4040.540260
830.541088	3912.769696
830.858086	3866.184393
831.175041	3793.606901
831.491952	3771.309878
831.808819	3787.063483
832.125642	3854.950182
832.442421	3994.416223
832.759157	4257.370370
833.075849	4789.975835
833.392497	5634.129650
833.709101	6393.904631
834.025662	6747.022334
834.342179	6418.518065
834.658653	5764.577067
834.975083	5128.653153
835.291469	4560.769693
835.607811	4149.411539
835.924110	4010.590765
836.240366	3817.491888
836.556578	3615.074437
836.872746	3502.278620
837.188871	3467.398877
837.504952	3400.396901
837.820990	3319.630055
838.136984	3272.467540
838.452935	3298.033752
838.768842	3290.925725
839.084706	3315.967656
839.400526	3461.417548
839.716303	3785.399903
840.032037	4294.001914
840.347727	4572.374429
840.663373	4312.931447
840.978977	3941.834468
841.294537	3638.755258
841.610054	3407.930905
841.925527	3299.508289
842.240957	3230.409193
842.556344	3179.561595
842.871687	3121.553038
843.186987	3072.921027
843.502244	3035.470295
843.817458	3002.417969
844.132629	2971.583752
844.447756	2978.883343
844.762840	2966.973617
845.077881	2937.676951
845.392879	2917.106523
845.707833	2914.648960
846.022745	2910.474885
846.337613	2913.756676
846.652438	2900.843761
846.967221	2899.727145
847.281960	2885.291801
847.596656	2882.647716
847.911309	2882.907335
848.225919	2873.510624
848.540485	2868.136754
848.855009	2867.960314
849.169490	2860.050744
849.483928	2851.952130
849.798323	2846.817715
850.112675	2844.478619
850.426984	2857.225177
850.741251	2854.873479
851.055474	2845.050790
851.369654	2840.816221
851.683792	2845.605317
851.997887	2853.822398
852.311938	2856.532018
852.625947	2843.354442
852.939914	2846.139680
853.253837	2850.835514
853.567718	2835.626353
853.881555	2834.550067
854.195350	2849.066069
854.509103	2846.646316
854.822812	2838.595593
855.136479	2837.206755
855.450103	2839.795387
855.763685	2828.762822
856.077224	2826.953048
856.390720	2840.667507
856.704173	2849.532376
857.017584	2843.225893
857.330953	2839.858402
857.644278	2848.564475
857.957561	2857.580578
858.270802	2862.407483
858.584000	2861.442102
858.897155	2848.569516
859.210268	2848.597242
859.523339	2847.094978
859.836367	2844.239165
860.149352	2838.683813
860.462295	2836.213648
860.775195	2844.334947
861.088054	2843.422498
861.400869	2826.832060
861.713642	2821.566575
862.026373	2836.251456
862.339062	2837.660459
862.651708	2845.386027
862.964312	2849.809640
863.276873	2841.698423
863.589392	2849.355936
863.901869	2863.219109
864.214303	2882.872047
864.526696	2899.379305
864.839045	2894.345713
865.151353	2896.455436
865.463619	2891.820095
865.775842	2894.078532
866.088023	2912.685431
866.400162	2918.954106
866.712258	2891.620970
867.024313	2879.958260
867.336325	2888.533263
867.648296	2910.308527
867.960224	2902.635891
868.272110	2886.342882
868.583954	2892.621639
868.895755	2908.597055
869.207515	2894.675909
869.519233	2898.083729
869.830909	2909.721233
870.142542	2918.656678
870.454134	2918.371853
870.765684	2922.886206
871.077191	2919.606935
871.388657	2926.198244
871.700081	2940.331119
872.011463	2950.741101
872.322803	2955.182358
872.634101	2952.840742
872.945357	2967.634008
873.256571	2991.186279
873.567744	2985.434322
873.878874	2981.313179
874.189963	3002.145747
874.501010	3006.816376
874.812015	2991.166114
875.122979	2996.832371
875.433900	2991.216526
875.744780	2995.869511
876.055618	3003.726149
876.366415	3000.668689
876.677169	3010.264525
876.987882	3011.585308
877.298554	3003.214472
877.609183	3020.898839
877.919771	3041.738969
878.230317	3070.281982
878.540822	3120.406175
878.851285	3161.433606
879.161707	3194.279244
879.472087	3292.606949
879.782425	3503.929598
880.092722	3927.623455
880.402977	4439.666054
880.713191	5047.977048
881.023363	6159.599362
881.333494	7413.195692
881.643583	7987.332703
881.953631	7703.326698
882.263637	7102.005265
882.573602	6539.152876
882.883526	5969.353778
883.193408	5403.653137
883.503248	4939.809010
883.813048	4642.060820
884.122806	4357.477603
884.432522	4047.287845
884.742197	3814.073986
885.051831	3624.277064
885.361424	3488.589367
885.670975	3419.054211
885.980485	3339.719053
886.289954	3262.680140
886.599382	3223.298646
886.908768	3180.179136
887.218113	3138.224133
887.527417	3083.202460
887.836680	3033.791590
888.145901	3030.182124
888.455082	3021.758356
888.764221	2971.563587
889.073319	2942.077878
889.382376	2941.959411
889.691392	2945.463013
890.000366	2942.413115
890.309300	2928.307967
890.618193	2941.384720
890.927044	2961.067905
891.235855	2961.491362
891.544625	2947.852520
891.853353	2952.881071
892.162041	2973.663228
892.470687	3009.029443
892.779293	3062.092628
893.087858	3107.629371
893.396381	3173.605472
893.704864	3286.285343
894.013306	3517.581043
894.321707	3813.252278
894.630068	4019.425387
894.938387	4019.594266
895.246665	3969.885969
895.554903	3859.038557
895.863100	3665.513702
896.171256	3500.579751
896.479371	3366.908516
896.787446	3249.026174
897.095480	3149.677635
897.403473	3085.372677
897.711425	3047.208621
898.019336	3037.630429
898.327207	3012.850637
898.635038	2976.836634
898.942827	2962.577731
899.250576	2952.737398
899.558284	2920.920156
899.865952	2898.892834
900.173579	2881.294166
900.481165	2873.147661
900.788711	2862.513347
901.096216	2839.011488
901.403681	2825.425578
901.711105	2832.941939
902.018489	2832.160560
902.325832	2830.121413
902.633135	2839.959225
902.940397	2867.609954
903.247619	2947.696244
903.554800	3127.292391
903.861941	3458.808751
904.169041	3870.136658
904.476101	4170.380219
904.783121	4143.644459
905.090100	3902.422727
905.397039	3637.663848
905.703938	3393.261148
906.010796	3211.303220
906.317614	3105.194493
906.624391	3012.039012
906.931129	2945.500822
907.237826	2881.979763
907.544483	2836.755572
907.851099	2807.239616
908.157675	2788.012655
908.464211	2769.539347
908.770707	2753.599218
909.077163	2741.316447
909.383578	2727.183572
909.689954	2716.743343
909.996289	2715.805688
910.302584	2717.123950
910.608839	2716.740822
910.915054	2709.731098
911.221229	2705.851930
911.527363	2707.442414
911.833458	2713.907694
912.139513	2718.787531
912.445527	2718.958930
912.751502	2727.186093
913.057436	2737.596076
913.363331	2747.655698
913.669186	2768.216044
913.975000	2802.868936
914.280775	2857.404138
914.586510	2926.916608
914.892205	3004.991478
915.197859	3122.261320
915.503475	3306.853250
915.809050	3514.314375
916.114585	3658.950120
916.420081	3684.528935
916.725536	3628.589771
917.030952	3511.645084
917.336328	3392.205026
917.641665	3264.731889
917.946961	3165.194307
918.252218	3098.940942
918.557435	3023.671474
918.862612	2966.073771
919.167750	2915.629465
919.472848	2877.742673
919.777906	2854.034127
920.082925	2829.849191
920.387904	2798.657052
920.692843	2781.713733
920.997743	2770.222423
921.302603	2758.831936
921.607423	2749.558734
921.912204	2736.550036
922.216946	2724.083263
922.521647	2717.570092
922.826310	2708.806046
923.130932	2702.721373
923.435516	2695.477235
923.740059	2689.483303
924.044564	2680.832683
924.349028	2675.211797
924.653454	2670.553771
924.957840	2663.559170
925.262186	2660.441216
925.566493	2653.804537
925.870761	2649.922848
926.174989	2648.554175
926.479178	2640.505973
926.783328	2639.654018
927.087438	2635.162350
927.391509	2635.162350
927.695541	2630.579941
927.999533	2627.716566
928.303486	2626.519292
928.607400	2624.840587
928.911275	2622.211626
929.215110	2622.355299
929.518906	2620.701800
929.822663	2621.710031
930.126381	2620.500154
930.430060	2623.996194
930.733699	2622.377984
931.037299	2623.834877
931.340861	2626.889817
931.644383	2627.794704
931.947866	2624.742285
932.251309	2622.788838
932.554714	2623.421503
932.858080	2620.255658
933.161407	2619.081069
933.464694	2619.282715
933.767943	2613.261057
934.071153	2618.687859
934.374323	2616.595780
934.677455	2613.999586
934.980548	2610.609410
935.283602	2614.183588
935.586617	2615.481685
935.889593	2613.419853
936.192530	2613.248454
936.495428	2613.674432
936.798287	2613.828187
937.101108	2618.811367
937.403890	2625.747995
937.706632	2628.107255
938.009336	2632.561115
938.312002	2643.815491
938.614628	2647.261119
938.917216	2657.330824
939.219765	2654.714465
939.522275	2657.958448
939.824747	2654.865700
940.127179	2654.056595
940.429573	2647.908907
940.731929	2645.980666
941.034246	2642.477064
941.336524	2641.189049
941.638763	2638.628143
941.940964	2634.665796
942.243126	2634.920375
942.545250	2633.828965
942.847335	2630.799231
943.149381	2626.786473
943.451389	2625.478293
943.753359	2623.182048
944.055290	2618.450925
944.357182	2620.646347
944.659036	2619.128960
944.960851	2619.958230
945.262628	2616.613424
945.564367	2616.764659
945.866067	2616.096706
946.167729	2617.382200
946.469352	2620.719444
946.770937	2616.139556
947.072484	2615.096037
947.373992	2616.164762
947.675462	2613.051849
947.976893	2608.106477
948.278286	2606.183277
948.579641	2607.327619
948.880958	2605.043976
949.182236	2608.524893
949.483476	2604.295365
949.784678	2608.905500
950.085841	2607.952722
950.386967	2605.222937
950.688054	2607.463730
950.989103	2608.522372
951.290114	2612.467075
951.591087	2610.274173
951.892021	2613.712240
952.192917	2615.214504
952.493776	2619.963271
952.794596	2621.059722
953.095378	2619.128960
953.396122	2620.217849
953.696828	2616.820112
953.997496	2617.677108
954.298126	2612.071345
954.598718	2611.577312
954.899272	2607.511621
955.199788	2607.015067
955.500266	2605.573298
955.800706	2602.926692
956.101108	2603.057762
956.401472	2598.971907
956.701798	2598.238419
957.002087	2591.309353
957.302337	2592.841863
957.602550	2592.216760
957.902724	2591.440423
958.202861	2589.547469
958.502960	2588.690473
958.803022	2587.488158
959.103045	2584.836511
959.403031	2587.566296
959.702979	2585.655699
960.002889	2584.990266
960.302762	2585.209557
960.602596	2586.248034
960.902393	2584.886923
961.202153	2581.736202
961.501875	2582.383990
961.801559	2583.399782
962.101205	2582.744432
962.400814	2583.835842
962.700385	2584.196285
962.999918	2577.186560
963.299414	2578.565316
963.598873	2577.741087
963.898293	2576.150603
964.197677	2579.954154
964.497022	2582.421798
964.796331	2578.950964
965.095601	2578.139338
965.394835	2579.039184
965.694030	2582.641089
965.993189	2583.112437
966.292309	2581.108578
966.591393	2580.332240
966.890439	2578.230079
967.189447	2579.747466
967.488419	2580.891808
967.787353	2579.765110
968.086249	2582.288208
968.385108	2580.612024
968.683930	2580.218814
968.982714	2580.370049
969.281462	2580.047415
969.580172	2579.545820
969.878844	2579.384503
970.177480	2581.441294
970.476078	2581.305183
970.774639	2580.130594
971.073162	2577.942733
971.371649	2581.511870
971.670098	2581.423650
971.968510	2580.254102
972.266885	2578.731674
972.565223	2582.202508
972.863524	2582.792323
973.161788	2581.045563
973.460014	2579.959195
973.758204	2582.638568
974.056356	2582.981367
974.354471	2580.745615
974.652550	2580.551530
974.950591	2580.281829
975.248595	2583.263671
975.546563	2580.175964
975.844493	2580.002045
976.142386	2581.048084
976.440243	2582.152097
976.738062	2582.071438
977.035845	2581.252251
977.333590	2579.775193
977.631299	2580.859041
977.928971	2576.468196
978.226606	2572.755386
978.524204	2576.269070
978.821765	2574.187074
979.119290	2578.537589
979.416777	2576.117836
979.714228	2577.345357
980.011642	2576.619430
980.309020	2576.919379
980.606360	2580.264185
980.903664	2579.326530
981.200931	2578.116653
981.498162	2580.100347
981.795356	2578.426684
982.092513	2582.086562
982.389633	2583.790472
982.686717	2585.943044
982.983764	2590.190217
983.280775	2594.543253
983.577749	2594.573500
983.874686	2598.550970
984.171587	2591.916812
984.468451	2589.242480
984.765279	2587.818354
985.062070	2586.598394
985.358824	2583.145204
985.655543	2585.607808
985.952224	2581.983218
986.248869	2581.048084
986.545478	2576.233782
986.842050	2576.538772
987.138586	2578.091447
987.435086	2577.904925
987.731549	2576.994996
988.027975	2574.807136
988.324366	2576.092630
988.620719	2573.814028
988.917037	2575.036508
989.213318	2574.108936
989.509563	2575.785119
989.805772	2575.540623
990.101944	2575.016343
990.398080	2573.476271
990.694180	2578.701427
990.990244	2575.255798
991.286271	2574.628175
991.582262	2574.481981
991.878217	2576.470716
992.174136	2576.803432
992.470019	2574.671024
992.765865	2575.086920
993.061676	2572.473081
993.357450	2572.379820
993.653188	2570.512073
993.948890	2574.338308
994.244556	2571.968966
994.540186	2576.168247
994.835780	2576.697568
995.131337	2576.493402
995.426859	2579.903742
995.722345	2576.823597
996.017795	2577.360480
996.313208	2578.146900
996.608586	2577.728484
996.903928	2580.496078
997.199234	2579.281160
997.494504	2579.500450
997.789738	2578.139338
998.084936	2579.462641
998.380099	2579.316448
998.675225	2579.777713
998.970316	2575.603638
999.265371	2578.043556
999.560390	2576.266550
999.855373	2576.742939
1000.150320	2571.757237
1000.445232	2576.044739
1000.740108	2575.089440
1001.034948	2574.925603
1001.329752	2575.268401
1001.624521	2574.489543
1001.919254	2575.898545
1002.213951	2575.207907
1002.508613	2573.226734
1002.803239	2575.286045
1003.097829	2570.905282
1003.392384	2573.398133
1003.686903	2572.727660
1003.981386	2576.778227
1004.275834	2572.785633
1004.570246	2574.280335
1004.864623	2574.923082
1005.158964	2573.478792
1005.453270	2576.228741
1005.747540	2572.004254
1006.041775	2572.810839
1006.335974	2570.741445
1006.630138	2573.272104
1006.924266	2573.957701
1007.218359	2572.268915
1007.512416	2570.849830
1007.806438	2569.632391
1008.100425	2570.000395
1008.394376	2570.323029
1008.688292	2571.663976
1008.982172	2571.142217
1009.276017	2571.323698
1009.569827	2572.921744
1009.863602	2571.119532
1010.157341	2572.684810
1010.451045	2572.515931
1010.744714	2572.079871
1011.038347	2573.352763
1011.331945	2572.752865
1011.625508	2572.715057
1011.919036	2574.247568
1012.212528	2572.929306
1012.505986	2571.817731
1012.799408	2573.446024
1013.092795	2573.642629
1013.386147	2574.151786
1013.679464	2571.512742
1013.972745	2572.251271
1014.265992	2570.691033
1014.559204	2572.415108
1014.852380	2571.661456
1015.145521	2572.233627
1015.438628	2570.391085
1015.731699	2573.607341
1016.024736	2572.851168
1016.317737	2569.816393
1016.610703	2569.859243
1016.903635	2574.610531
1017.196531	2571.943760
1017.489393	2572.755386
1017.782219	2573.776220
1018.075011	2571.971487
1018.367768	2571.757237
1018.660490	2571.689182
1018.953177	2571.689182
1019.245829	2571.689182
