Dividing Wavelength (nm)	Counts (n)	Blue Motor Position (mm): 35.400000	Red Motor Position (mm): 0.000000	
326.493990	2229.392315
326.888308	2229.392315
327.282561	2229.392315
327.676750	2189.211798
328.070874	2186.824812
328.464933	2186.887827
328.858929	2187.800275
329.252859	2195.742613
329.646726	2203.954653
330.040528	2215.682897
330.434265	2230.902141
330.827938	2245.834038
331.221547	2266.999323
331.615091	2281.805192
332.008571	2299.043417
332.401986	2315.291056
332.795338	2338.621516
333.188625	2359.144053
333.581847	2376.331867
333.975006	2393.880124
334.368100	2415.940213
334.761129	2433.717842
335.154095	2448.995059
335.546996	2478.435397
335.939833	2514.121726
336.332606	2531.609488
336.725315	2542.763041
337.117960	2555.549928
337.510540	2570.373441
337.903056	2579.452559
338.295508	2589.431523
338.687896	2594.676843
339.080220	2605.638832
339.472480	2608.729060
339.864676	2614.380193
340.256807	2622.365381
340.648875	2625.488376
341.040879	2628.344189
341.432818	2628.520630
341.824694	2630.670682
342.216506	2634.136475
342.608253	2634.877525
342.999937	2634.983389
343.391557	2636.788122
343.783113	2633.539098
344.174605	2633.433234
344.566033	2633.244191
344.957397	2629.904427
345.348697	2630.350569
345.739934	2629.894344
346.131106	2627.497276
346.522215	2625.579117
346.913260	2626.168932
347.304241	2621.979733
347.695159	2619.219701
348.086012	2618.440843
348.476802	2618.755915
348.867528	2613.495471
349.258191	2610.402723
349.648789	2609.346601
350.039324	2607.975407
350.429796	2608.519852
350.820203	2608.293000
351.210548	2607.194028
351.600828	2604.005499
351.991045	2605.404419
352.381198	2604.630602
352.771288	2605.331322
353.161314	2602.717484
353.551276	2603.080447
353.941175	2601.116917
354.331010	2602.331836
354.720782	2603.813935
355.110490	2601.444592
355.500135	2601.164808
355.889717	2604.625561
356.279235	2600.244798
356.668689	2600.469129
357.058080	2600.486773
357.447408	2601.817638
357.836672	2601.767226
358.225873	2599.604571
358.615010	2601.840323
359.004084	2603.571959
359.393095	2603.670262
359.782043	2606.901642
360.170927	2603.456013
360.559748	2605.338884
360.948505	2606.173195
361.337199	2608.529934
361.725830	2606.503390
362.114398	2607.292331
362.502903	2607.012547
362.891344	2607.766199
363.279722	2608.295521
363.668037	2609.775099
364.056289	2611.995727
364.444478	2610.012033
364.832603	2613.021602
365.220665	2610.052363
365.608665	2613.243413
365.996601	2610.279215
366.384474	2612.933382
366.772284	2614.750718
367.160031	2614.763321
367.547715	2613.666870
367.935336	2615.075872
368.322893	2612.865327
368.710388	2608.711416
369.097820	2612.507405
369.485189	2613.976901
369.872495	2616.482354
370.259738	2618.400513
370.646918	2618.163579
371.034035	2621.037037
371.421090	2617.162910
371.808081	2619.040740
372.195010	2615.017899
372.581875	2617.714917
372.968678	2615.595111
373.355418	2617.548558
373.742096	2617.374639
374.128710	2620.084259
374.515262	2622.367902
374.901751	2620.495113
375.288177	2621.405041
375.674540	2623.313118
376.060841	2624.099538
376.447079	2623.126595
376.833254	2621.584002
377.219367	2625.982409
377.605417	2623.348406
377.991404	2624.835546
378.377329	2625.722789
378.763191	2625.387553
379.148991	2624.381842
379.534727	2625.798407
379.920402	2625.107769
380.306013	2625.790845
380.691563	2627.600619
381.077049	2625.974847
381.462474	2624.780094
381.847835	2628.820578
382.233134	2628.772687
382.618371	2629.372585
383.003545	2629.526340
383.388657	2631.250415
383.773706	2630.438789
384.158693	2631.116824
384.543618	2632.868625
384.928480	2630.300157
385.313280	2633.518934
385.698017	2634.232257
386.082692	2636.180663
386.467305	2635.348873
386.851856	2636.082361
387.236344	2634.363327
387.620770	2632.157822
388.005133	2632.787967
388.389435	2635.089253
388.773674	2631.142030
389.157851	2638.416415
389.541965	2639.820376
389.926018	2640.473206
390.310008	2639.699388
390.693936	2641.917496
391.077802	2642.255253
391.461606	2640.848772
391.845348	2644.415388
392.229027	2643.654174
392.612645	2642.151910
392.996200	2643.510501
393.379694	2646.013434
393.763125	2645.589977
394.146494	2646.976294
394.529801	2646.769607
394.913047	2647.734988
395.296230	2648.581902
395.679351	2651.513332
396.062410	2651.369660
396.445408	2650.726912
396.828343	2651.142808
397.211217	2653.282778
397.594028	2652.314876
397.976778	2653.655823
398.359466	2654.051553
398.742092	2657.204795
399.124656	2656.849394
399.507158	2656.151194
399.889598	2659.410300
400.271977	2660.269817
400.654294	2661.283089
401.036549	2662.573624
401.418742	2666.833399
401.800874	2671.650222
402.182944	2672.688699
402.564952	2678.312106
402.946898	2688.512881
403.328783	2695.154601
403.710606	2704.263966
404.092367	2723.145608
404.474067	2732.678430
404.855705	2753.934455
405.237282	2772.178391
405.618797	2807.234575
406.000250	2835.689368
406.381642	2884.066801
406.762972	2924.219591
407.144240	2965.942701
407.525447	3017.793489
407.906593	3071.501942
408.287677	3147.688900
408.668700	3201.014225
409.049661	3282.103705
409.430560	3354.184644
409.811399	3394.344996
410.192176	3524.661343
410.572891	3601.549022
410.953545	3736.039445
411.334138	3742.184611
411.714669	3873.060527
412.095139	3892.703383
412.475547	4051.797157
412.855894	4159.514012
413.236180	4318.257426
413.616405	4288.154176
413.996568	4463.707317
414.376670	4563.512081
414.756711	4608.022949
415.136691	4740.605295
415.516609	4924.335188
415.896466	5022.748593
416.276262	5212.290937
416.655997	5288.117453
417.035670	5497.247199
417.415283	5787.600017
417.794834	5909.608543
418.174324	5931.262819
418.553753	5975.781249
418.933121	6286.207941
419.312428	6442.700480
419.691674	6384.850719
420.070859	6809.167158
420.449983	6678.147570
420.829045	7020.391505
421.208047	6949.795186
421.586988	7260.194152
421.965867	7347.237235
422.344686	7518.805344
422.723444	7626.980944
423.102141	7173.866913
423.480777	7870.458593
423.859352	7517.507247
424.237866	8132.444837
424.616319	8068.321360
424.994712	8487.218560
425.373044	8173.076537
425.751314	8623.632183
426.129524	8548.448414
426.507673	8722.872337
426.885762	8908.646418
427.263789	8853.551648
427.641756	8820.534611
428.019662	8955.922359
428.397508	9204.138692
428.775292	8945.028426
429.153016	9335.397736
429.530679	9198.048978
429.908282	9271.125545
430.285824	9008.252057
430.663305	9686.834214
431.040726	9166.186366
431.418086	9174.234568
431.795385	9496.961675
432.172624	9588.526673
432.549802	9519.178040
432.926920	9618.987845
433.303977	9503.250515
433.680974	9709.766423
434.057910	9798.321852
434.434786	9866.778201
434.811601	9723.813598
435.188355	10290.283015
435.565050	10019.124391
435.941683	9956.460328
436.318257	10456.966246
436.694770	10568.849615
437.071222	10645.749896
437.447614	10505.938535
437.823946	10387.680628
438.200218	10550.298168
438.576429	10353.466317
438.952580	10586.972563
439.328670	10653.412450
439.704700	10431.142936
440.080670	10426.222769
440.456580	10997.062866
440.832429	10741.113403
441.208218	10342.915182
441.583947	10683.273725
441.959616	10812.017232
442.335224	10619.155289
442.710773	10779.509352
443.086261	10972.411624
443.461689	10264.142112
443.837057	10895.871785
444.212365	11190.960767
444.587612	10823.107771
444.962800	11061.317413
445.337927	10845.359424
445.712995	10410.943032
446.088002	11509.690239
446.462949	11155.541620
446.837837	11130.255192
447.212664	11130.983639
447.587431	11631.124074
447.962139	12336.966271
448.336786	14596.194655
448.711374	15160.382949
449.085901	13024.113348
449.460369	12623.787760
449.834776	12075.279974
450.209124	12935.903238
450.583412	13339.049353
450.957640	14303.593483
451.331808	13465.909989
451.705917	12437.328082
452.079965	11754.919689
452.453954	12658.060044
452.827883	12280.807817
453.201752	12566.537896
453.575562	12084.109555
453.949311	12505.807116
454.323001	12460.605610
454.696632	12690.993902
455.070202	12971.786172
455.443713	13217.224829
455.817164	13670.006144
456.190556	13672.980425
456.563888	14033.677503
456.937160	14207.093195
457.310373	13548.113564
457.683526	13627.231953
458.056619	13178.496164
458.429653	13320.739882
458.802628	12756.788522
459.175542	13122.746044
459.548398	14073.989090
459.921194	14414.478703
460.293930	14460.441423
460.666607	15360.158835
461.039224	16391.203346
461.411782	17095.185357
461.784280	16974.265720
462.156719	17022.658277
462.529099	16720.103346
462.901419	15642.987730
463.273680	15427.614515
463.645882	15287.835921
464.018024	15030.976530
464.390106	15255.438946
464.762130	15974.980479
465.134094	16735.877117
465.505999	18710.285350
465.877845	21972.829378
466.249631	24804.120339
466.621358	24503.690255
466.993026	23057.383217
467.364634	22508.000791
467.736184	21047.502905
468.107674	20240.028526
468.479105	20365.323884
468.850477	19834.828141
469.221790	19420.977137
469.593043	18739.208970
469.964238	18188.770423
470.335373	17839.967947
470.706449	18282.238456
471.077467	17821.356007
471.448425	19657.639145
471.819324	23680.941180
472.190164	25725.981020
472.560945	22172.900172
472.931667	19794.428334
473.302330	19153.014604
473.672934	18685.583696
474.043479	19015.958234
474.413965	18827.562753
474.784393	18449.065360
475.154761	19140.762080
475.525070	19127.166088
475.895321	18797.583011
476.265513	19380.413492
476.635645	19956.445978
477.005719	19746.335727
477.375734	19930.090825
477.745691	20411.642005
478.115588	20938.472829
478.485427	21462.185699
478.855207	22514.755937
479.224928	24277.723055
479.594591	26492.112896
479.964194	26538.685596
480.333739	26739.071461
480.703226	26307.334443
481.072653	25993.358778
481.442022	26558.686374
481.811333	27476.821641
482.180584	27397.410865
482.549777	26448.615300
482.918912	26102.477074
483.287988	26229.320067
483.657005	25884.608487
484.025964	25636.256043
484.394864	25556.789814
484.763706	25243.184675
485.132489	24671.233003
485.501213	24839.025288
485.869879	24756.365489
486.238487	24576.950823
486.607036	24721.266455
486.975527	24427.480612
487.343959	24745.774025
487.712333	24698.266191
488.080648	24351.147460
488.448905	24828.524565
488.817104	24577.863272
489.185244	25253.544246
489.553326	25220.628032
489.921350	26212.038991
490.289315	28500.400203
490.657222	30286.281886
491.025070	30783.095159
491.392861	30578.963716
491.760593	29708.096827
492.128267	28816.258739
492.495883	27779.202652
492.863440	26899.095328
493.230939	26025.072677
493.598380	25868.126435
493.965763	25467.919313
494.333088	25018.129923
494.700354	24949.509737
495.067563	24814.742050
495.434713	24589.271403
495.801805	24733.955039
496.168839	24533.274267
496.535815	24371.624627
496.902733	24590.047741
497.269593	24269.591673
497.636395	24437.086531
498.003139	24419.349231
498.369825	24165.527135
498.736453	24363.674728
499.103023	24233.426436
499.469535	24243.075204
499.835989	24463.948319
500.202385	24489.643080
500.568723	24000.555375
500.935003	24233.441559
501.301226	23869.480334
501.667390	24700.917838
502.033497	24924.656848
502.399546	24656.825386
502.765537	24218.224836
503.131470	24607.439722
503.497345	24742.111626
503.863163	23961.385610
504.228923	24546.592995
504.594625	24760.438741
504.960269	24299.694924
505.325856	24787.096363
505.691385	24191.027811
506.056856	24795.303361
506.422270	24776.605722
506.787625	24321.886083
507.152924	24752.292237
507.518164	24780.633603
507.883347	24593.657207
508.248472	24268.412043
508.613540	25056.435130
508.978550	24841.177861
509.343503	24832.582694
509.708398	25089.409318
510.073236	25253.909729
510.438016	25474.621527
510.802738	25122.431396
511.167403	25374.650405
511.532010	25093.543064
511.896561	25865.305909
512.261053	25825.745454
512.625488	25657.927963
512.989866	25551.761263
513.354186	25404.461268
513.718449	25506.935323
514.082655	25890.854477
514.446803	25628.933767
514.810894	26096.515910
515.174927	25565.556381
515.538904	25596.524189
515.902822	26093.216474
516.266684	25843.349163
516.630488	25765.186073
516.994235	25723.299126
517.357925	26037.146241
517.721558	26212.099485
518.085133	26318.888767
518.448651	26230.194707
518.812112	25956.006349
519.175516	26175.515832
519.538863	26334.092887
519.902152	26104.944719
520.265385	26388.814612
520.628560	26178.900966
520.991678	26182.074373
521.354739	26257.757215
521.717743	26317.711658
522.080690	26119.483407
522.443580	26437.197087
522.806413	26435.702384
523.169189	26539.217437
523.531908	26571.538795
523.894569	26195.622474
524.257174	26257.116989
524.619722	26454.790713
524.982213	26132.330787
525.344647	26197.394439
525.707025	26333.419893
526.069345	26308.574567
526.431608	26277.626923
526.793815	26457.792721
527.155964	25917.875061
527.518057	26096.631856
527.880093	26016.177561
528.242072	26236.047486
528.603995	25950.166172
528.965860	25753.782983
529.327669	25794.442409
529.689421	25786.492510
530.051117	25627.542408
530.412755	25793.396370
530.774337	25591.571255
531.135862	25468.451155
531.497331	25674.485633
531.858743	25232.341153
532.220098	25703.172319
532.581396	25392.826285
532.942638	25320.122765
533.303824	25426.339876
533.664953	25432.081750
534.026025	25083.571662
534.387040	25331.609034
534.747999	25399.110084
535.108902	25564.754837
535.469748	25038.944847
535.830537	25223.211623
536.191270	25353.984195
536.551947	25211.899274
536.912567	24855.638411
537.273131	25225.646500
537.633638	24928.967035
537.994089	25135.873633
538.354483	24658.393184
538.714821	25174.544324
539.075103	25198.991399
539.435328	24977.944365
539.795497	24553.370826
540.155609	24945.948162
540.515665	25250.186837
540.875665	24471.928465
541.235609	24778.216370
541.595496	24734.406223
541.955328	25093.285965
542.315102	25007.568706
542.674821	24558.497680
543.034483	24424.581948
543.394090	24598.511838
543.753640	24398.037753
544.113134	25031.602407
544.472571	24612.256544
544.831953	24917.170735
545.191278	24540.689804
545.550548	24444.234887
545.909761	24668.636809
546.268918	24893.794904
546.628019	24856.197979
546.987064	24557.922988
547.346053	24314.762933
547.704986	24423.127576
548.063863	24574.831018
548.422684	24590.647638
548.781449	24114.518219
549.140158	24532.167733
549.498811	24091.371762
549.857408	23853.086502
550.215949	24272.807930
550.574434	23957.612306
550.932864	24167.790613
551.291237	24334.851931
551.649555	24188.287944
552.007817	24238.336520
552.366022	24099.228400
552.724173	24150.585155
553.082267	24089.662810
553.440305	24575.614918
553.798288	23823.454599
554.156215	24327.224665
554.514086	24446.768067
554.871902	23811.078567
555.229661	24092.879067
555.587365	23951.474701
555.945014	23827.301000
556.302606	24064.792278
556.660143	24022.504559
557.017625	24273.947230
557.375050	23799.856958
557.732421	24190.695095
558.089735	24004.348843
558.446994	24068.648761
558.804197	24100.077834
559.161345	24021.745865
559.518437	23790.447644
559.875474	23985.941070
560.232455	24171.516025
560.589381	23985.452078
560.946251	23977.159380
561.303065	24287.707060
561.659825	24378.299115
562.016528	23973.280212
562.373177	23714.147260
562.729770	24070.491302
563.086307	23929.018881
563.442789	24103.697383
563.799216	23943.882723
564.155587	23940.391724
564.511904	23918.424897
564.868164	23858.374672
565.224370	23836.599408
565.580520	23764.253809
565.936615	23877.951993
566.292654	23573.804058
566.648638	23844.680377
567.004567	23681.203320
567.360441	23636.800837
567.716260	23349.288710
568.072023	23679.310367
568.427732	23448.450726
568.783385	23222.170974
569.138982	23459.611841
569.494525	23494.514270
569.850013	23259.215893
570.205445	23349.941539
570.560823	23151.902331
570.916145	22920.538575
571.271412	23095.063321
571.626625	22844.301205
571.981782	22966.836532
572.336884	22767.388321
572.691931	22913.299478
573.046923	22635.693218
573.401860	22517.289117
573.756743	22530.567516
574.111570	22436.451695
574.466342	22365.537783
574.821059	22444.071399
575.175722	22148.493425
575.530330	22124.235393
575.884882	22141.103094
576.239380	22064.139798
576.593823	21951.699382
576.948211	21933.117689
577.302544	21776.904934
577.656823	21641.489459
578.011047	21750.486767
578.365216	21614.829317
578.719330	21484.855768
579.073389	21386.976725
579.427394	21537.644211
579.781344	21299.081687
580.135239	21188.907270
580.489080	21149.268677
580.842866	20921.554717
581.196597	21117.532093
581.550273	21095.829926
581.903895	20976.750310
582.257463	21293.906943
582.610975	20820.640899
582.964434	21135.448354
583.317837	20841.297027
583.671186	20926.424472
584.024481	20897.352137
584.377721	20657.748616
584.730906	20730.467260
585.084037	20752.716392
585.437113	20654.688635
585.790135	20854.562823
586.143103	20326.111269
586.496016	20331.517906
586.848874	20579.378838
587.201679	20507.746562
587.554428	20183.587767
587.907124	20512.780154
588.259765	20287.493510
588.612352	20364.376147
588.964884	19932.896228
589.317362	20091.138047
589.669786	20160.723614
590.022155	20187.214877
590.374470	20393.259438
590.726731	20177.810605
591.078937	19950.930955
591.431090	20037.759789
591.783188	19797.793304
592.135232	19767.513614
592.487222	19872.422546
592.839157	19893.618077
593.191038	19766.419683
593.542866	19647.304780
593.894639	19365.710967
594.246358	19574.591177
594.598022	19477.120467
594.949633	19235.467716
595.301190	19206.783551
595.652692	19376.022647
596.004141	19617.478793
596.355535	18938.014434
596.706876	18955.887845
597.058162	18848.412965
597.409395	19075.227080
597.760573	19147.171907
598.111698	18916.188758
598.462768	18857.925623
598.813785	18821.949428
599.164748	18640.782962
599.515657	18671.153393
599.866511	18480.234815
600.217312	18834.005348
600.568060	18341.852621
600.918753	18651.870980
601.269392	18559.527123
601.619978	18345.230194
601.970510	18543.352581
602.320988	18489.485332
602.671412	18702.766469
603.021783	18622.244118
603.372100	18342.628959
603.722363	18483.705649
604.072572	18425.427390
604.422728	18571.711592
604.772830	18329.113625
605.122878	18268.130787
605.472872	18259.177698
605.822813	18249.115555
606.172701	18234.914624
606.522534	18412.615297
606.872314	18450.237429
607.222041	18274.941386
607.571714	18492.656218
607.921333	18316.356985
608.270899	18396.337412
608.620411	18566.015088
608.969870	18349.036265
609.319276	18345.651130
609.668627	18378.602633
610.017926	18509.312190
610.367171	18624.797463
610.716362	18678.470628
611.065500	18481.537953
611.414585	18622.458367
611.763616	18619.602554
612.112594	18540.383342
612.461518	18513.209002
612.810389	18704.488023
613.159207	18559.872443
613.507971	18478.178024
613.856682	18749.845805
614.205340	18676.703703
614.553945	18819.998502
614.902496	18571.162107
615.250994	18790.424573
615.599439	18735.319720
615.947830	18726.374192
616.296169	18781.625238
616.644454	18752.000898
616.992686	18709.514053
617.340864	18922.694367
617.688990	18681.601184
618.037063	18859.256487
618.385082	18711.306183
618.733048	18995.967538
619.080961	18866.160347
619.428821	18898.486746
619.776628	18788.183780
620.124382	18712.458087
620.472083	18754.738244
620.819731	18771.653836
621.167326	18457.539540
621.514868	18507.857817
621.862357	18276.070604
622.209793	18272.115819
622.557176	18123.618550
622.904506	17944.035006
623.251783	17864.072224
623.599007	17614.668699
623.946179	17561.345894
624.293297	17488.730594
624.640363	17244.348058
624.987376	17273.062471
625.334336	17064.739308
625.681243	16903.543373
626.028097	16921.925941
626.374899	16842.192531
626.721647	16706.340996
627.068343	16540.431582
627.414987	16482.211296
627.761577	16450.804908
628.108115	16491.323182
628.454600	16210.742641
628.801032	16317.904969
629.147412	16236.417238
629.493739	16250.958446
629.840014	16057.713375
630.186236	16159.869837
630.532405	15926.925680
630.878521	16132.319931
631.224585	16026.841349
631.570597	15846.599934
631.916556	15870.255549
632.262462	15852.984556
632.608316	15768.719148
632.954117	15711.431476
633.299866	15700.237594
633.645562	15607.739983
633.991206	15379.234561
634.336797	15254.589512
634.682336	15218.895622
635.027823	15105.169712
635.373257	14977.797398
635.718639	14884.775507
636.063968	14829.232074
636.409245	14589.421865
636.754470	14617.123005
637.099642	14460.385970
637.444762	14230.287544
637.789829	14269.830355
638.134845	14104.404891
638.479808	14142.788237
638.824719	14077.202825
639.169577	13943.206435
639.514383	13975.439573
639.859137	13809.245334
640.203839	13891.650555
640.548489	13728.743148
640.893086	13713.329820
641.237632	13596.758178
641.582125	13748.567485
641.926566	13572.575763
642.270955	13590.330707
642.615292	13543.611814
642.959576	13552.368298
643.303809	13583.230242
643.647990	13522.068443
643.992118	13575.348398
644.336195	13338.265453
644.680219	13561.792735
645.024192	13483.879182
645.368112	13714.517012
645.711981	13775.275518
646.055797	13948.267754
646.399562	13915.515377
646.743274	14190.790104
647.086935	14466.097597
647.430544	14431.643832
647.774101	14468.116580
648.117606	14611.272746
648.461059	14587.377677
648.804460	14560.319283
649.147810	14292.318942
649.491108	14195.682543
649.834354	14214.294483
650.177548	13901.291762
650.520690	13707.237586
650.863781	13631.685813
651.206820	13684.643134
651.549807	13514.337834
651.892742	13311.227225
652.235626	13244.290784
652.578458	13242.982604
652.921238	12937.203856
653.263967	13134.484371
653.606644	12961.172022
653.949269	12947.071915
654.291843	12743.247983
654.634365	12898.087023
654.976836	12758.288265
655.319255	12757.978234
655.661622	12718.987430
656.003938	12633.744039
656.346203	12560.513717
656.688416	12643.168476
657.030577	12601.999893
657.372687	12509.275430
657.714746	12486.973365
658.056753	12680.566276
658.398708	12495.445024
658.740612	12499.480468
659.082465	12598.987803
659.424266	12572.796489
659.766016	12601.273967
660.107715	12497.227072
660.449362	12585.507758
660.790958	12533.064635
661.132503	12483.081594
661.473996	12538.935058
661.815438	12564.281980
662.156829	12587.206627
662.498168	12560.223851
662.839456	12566.517732
663.180693	12579.118096
663.521879	12678.690966
663.863013	12645.207623
664.204097	12615.159825
664.545129	12739.595667
664.886110	12717.228067
665.227040	12804.066983
665.567918	12811.190133
665.908746	12835.823732
666.249522	12821.443840
666.590248	12881.874672
666.930922	12986.476094
667.271545	12971.355153
667.612118	13052.994119
667.952639	12949.370681
668.293109	12973.381697
668.633528	12923.996033
668.973896	12900.995769
669.314213	12972.519659
669.654480	12706.051829
669.994695	12789.482925
670.334859	12807.542859
670.674973	12758.300868
671.015035	12796.384265
671.355047	12732.459913
671.695008	12704.859596
672.034918	12716.005587
672.374777	12750.986154
672.714585	12665.712516
673.054342	12705.905635
673.394049	12654.639621
673.733705	12757.169129
674.073310	12670.589832
674.412864	12669.838700
674.752368	12536.243082
675.091820	12558.686299
675.431223	12542.801623
675.770574	12420.707398
676.109875	12334.569202
676.449125	12288.311574
676.788324	12240.990263
677.127473	12072.353585
677.466571	12066.311762
677.805619	11957.299330
678.144616	11877.540715
678.483562	11854.495080
678.822458	11721.141437
679.161303	11691.499453
679.500098	11687.741273
679.838842	11642.287709
680.177535	11669.346102
680.516179	11736.973181
680.854771	11674.556135
681.193314	11887.741490
681.531805	12056.103425
681.870247	12476.326448
682.208638	12882.222512
682.546978	13197.443341
682.885268	13241.659302
683.223508	12935.593208
683.561697	12784.943366
683.899836	12684.392511
684.237925	12477.712765
684.575963	12404.172413
684.913951	12311.488279
685.251889	12266.417843
685.589776	12367.278729
685.927614	12279.290429
686.265401	12257.807552
686.603137	12312.365440
686.940824	12454.097480
687.278460	12583.950042
687.616046	12625.915127
687.953582	12794.498873
688.291068	12731.181981
688.628504	12960.330149
688.965889	12969.018578
689.303224	12918.344900
689.640510	12823.543481
689.977745	12506.742250
690.314930	12280.407045
690.652065	12191.395392
690.989150	11899.686504
691.326185	11672.174189
691.663170	11469.424023
692.000105	11231.869730
692.336990	11114.488983
692.673825	10853.614313
693.010610	10740.392518
693.347345	10529.417709
693.684030	10336.860756
694.020665	10271.527402
694.357251	10080.654194
694.693786	10008.031332
695.030272	9856.186737
695.366707	9737.984282
695.703093	9667.173714
696.039429	9666.467953
696.375716	9591.097662
696.711952	9456.221590
697.048139	9501.002160
697.384276	9453.582546
697.720363	9471.879414
698.056400	9406.140247
698.392388	9362.123413
698.728326	9322.260489
699.064214	9258.373946
699.400053	9299.482035
699.735842	9108.253426
700.071581	9074.492818
700.407270	8998.726797
700.742910	8922.474303
701.078501	8825.618615
701.414042	8704.346097
701.749533	8637.074420
702.084974	8494.228284
702.420366	8617.282850
702.755709	8494.729879
703.091002	8360.748613
703.426246	8387.310452
703.761440	8336.810694
704.096584	8295.879045
704.431679	8225.378508
704.766725	8213.070531
705.101721	8165.837440
705.436668	8212.798309
705.771565	8104.282431
706.106413	8189.049433
706.441212	8228.781287
706.775961	8179.332609
707.110661	8225.892706
707.445311	8362.271041
707.779913	8265.571628
708.114465	8388.185093
708.448967	8423.780680
708.783421	8574.223834
709.117825	8753.187316
709.452180	8792.709962
709.786485	8879.995021
710.120742	9167.860029
710.454949	9167.882714
710.789107	9267.430379
711.123216	9485.787958
711.457275	9645.965580
711.791286	9811.668307
712.125247	9804.656062
712.459159	9790.888671
712.793023	10035.467811
713.126837	9618.289645
713.460602	9766.033262
713.794318	9592.345347
714.127985	9629.407910
714.461602	9292.552969
714.795171	9245.703006
715.128691	8989.249427
715.462162	8755.312162
715.795584	8690.644241
716.128957	8539.545737
716.462281	8371.579532
716.795556	8423.876462
717.128782	8215.906180
717.461960	7953.965306
717.795088	8022.472066
718.128167	7932.767254
718.461198	7767.160309
718.794180	7699.424845
719.127113	7694.479473
719.459997	7539.569857
719.792833	7312.213818
720.125619	7374.454424
720.458357	7231.076447
720.791046	7219.817030
721.123686	7214.370063
721.456278	7055.530868
721.788821	7071.992755
722.121315	6970.466437
722.453761	7037.327261
722.786158	6981.055381
723.118506	6985.594940
723.450805	6955.897503
723.783056	7022.513830
724.115259	6940.146418
724.447412	6927.510766
724.779518	6978.852397
725.111574	6983.452450
725.443582	7063.873977
725.775542	7042.411265
726.107453	7233.420584
726.439315	7137.762169
726.771129	7213.818057
727.102895	7384.100672
727.434612	7487.235118
727.766281	7523.881786
728.097901	7598.992458
728.429473	7602.027233
728.760996	7579.977226
729.092471	7550.390694
729.423897	7495.931109
729.755276	7503.944023
730.086606	7428.951818
730.417887	7528.121397
730.749120	7739.794405
731.080305	7925.197962
731.411442	8042.089716
731.742530	8036.088223
732.073570	8146.781879
732.404562	8227.326914
732.735506	8077.269408
733.066401	8219.369453
733.397249	8148.674832
733.728048	7906.162565
734.058798	7574.361380
734.389501	7337.767427
734.720156	7167.053793
735.050762	6936.211797
735.381320	6845.299629
735.711831	6792.370034
736.042293	6682.510689
736.372707	6698.781013
736.703073	6560.487039
737.033391	6601.655622
737.363661	6607.795748
737.693883	6649.985164
738.024056	6727.757565
738.354182	6767.597804
738.684260	6801.159286
739.014290	6917.698160
739.344272	7029.823503
739.674207	7061.481950
740.004093	7132.905017
740.333931	7145.044116
740.663722	7149.888665
740.993464	7236.546099
741.323159	7220.401804
741.652806	6964.558205
741.982405	6987.770198
742.311956	7041.403034
742.641460	6865.408791
742.970915	6679.846439
743.300323	6667.878740
743.629683	6619.823941
743.958996	6478.250697
744.288260	6393.574435
744.617477	6340.589388
744.946647	6343.503175
745.275768	6176.086456
745.604842	6134.996011
745.933869	6114.980109
746.262847	6074.353450
746.591778	6063.005813
746.920662	6017.048134
747.249498	6011.354151
747.578286	6062.506739
747.907027	6136.636906
748.235720	6198.159148
748.564365	6168.620507
748.892963	6207.316404
749.221514	6351.314443
749.550017	6179.741292
749.878473	6059.149330
750.206881	6115.655624
750.535242	6055.292848
750.863555	5987.196942
751.191821	6008.838615
751.520039	6002.774107
751.848210	5908.529736
752.176334	5933.985042
752.504411	5984.991437
752.832440	5906.266258
753.160421	5841.288305
753.488356	5887.853443
753.816243	5917.949132
754.144082	5769.426657
754.471875	5742.141412
754.799620	5783.655314
755.127318	5795.620493
755.454969	5749.572073
755.782572	5712.673347
756.110129	5760.498774
756.437638	5746.305405
756.765100	5681.813924
757.092515	5683.474984
757.419882	5741.823819
757.747203	5713.333738
758.074477	5782.193379
758.401703	5762.578250
758.728882	5716.789449
759.056014	5771.879178
759.383099	5898.076903
759.710138	5911.869500
760.037129	5899.516153
760.364073	5900.388272
760.690970	5986.274410
761.017820	5962.805319
761.344623	5924.303506
761.671379	6026.137334
761.998088	6149.015459
762.324751	6398.454272
762.651366	7013.212902
762.977935	8351.319134
763.304456	9989.661367
763.630931	10883.221010
763.957359	10462.020003
764.283740	9509.284776
764.610074	8665.093153
764.936362	7660.993609
765.262602	7069.247847
765.588796	6528.768099
765.914943	6193.962387
766.241044	6028.423498
766.567097	5824.491181
766.893104	5564.513836
767.219064	5384.849633
767.544978	5320.648018
767.870845	5243.704887
768.196665	5135.935100
768.522438	5063.859203
768.848165	5027.187329
769.173846	4965.476045
769.499479	4918.779837
769.825066	4867.972567
770.150607	4808.151715
770.476101	4785.078354
770.801548	4777.849340
771.126949	4697.382442
771.452303	4645.927385
771.777611	4607.680150
772.102872	4625.883757
772.428087	4586.973611
772.753256	4545.321077
773.078378	4500.505220
773.403453	4428.162141
773.728482	4418.982200
774.053465	4368.643758
774.378401	4356.671018
774.703291	4355.602293
775.028135	4285.620996
775.352932	4237.117534
775.677683	4224.595308
776.002388	4240.301023
776.327046	4254.690996
776.651658	4177.447917
776.976224	4112.588431
777.300743	4122.524545
777.625216	4140.894510
777.949643	4134.782111
778.274024	4094.667129
778.598359	4050.683062
778.922647	4075.233481
779.246889	4065.327614
779.571086	4057.818815
779.895236	4043.590158
780.219339	4028.088610
780.543397	4024.418650
780.867409	4077.524686
781.191374	4091.264350
781.515294	4025.520142
781.839167	4018.336498
782.162995	4037.944066
782.486776	4026.987118
782.810511	4037.634035
783.134201	4032.156822
783.457844	3983.272753
783.781441	3930.781738
784.104993	3939.056792
784.428498	3957.550265
784.751958	3953.650933
785.075372	3929.738219
785.398739	3894.402252
785.722061	3907.403387
786.045337	3949.585242
786.368568	3980.903410
786.691752	3891.254051
787.014891	3946.880663
787.337983	4073.902617
787.661030	4235.549735
787.984031	4398.000918
788.306987	4564.613573
788.629897	4650.461903
788.952760	4600.894757
789.275579	4535.258934
789.598351	4472.491528
789.921078	4328.228828
790.243759	4127.908498
790.566395	4110.750931
790.888984	4103.363120
791.211529	3993.738188
791.534027	3940.254066
791.856480	3921.783279
792.178888	3861.052498
792.501249	3816.473575
792.823566	3829.391532
793.145836	3852.580839
793.468062	3802.512099
793.790241	3757.038371
794.112375	3789.150521
794.434464	3850.634954
794.756507	3875.694530
795.078505	3851.691076
795.400457	3890.928897
795.722364	4032.938200
796.044226	4137.015342
796.366042	4209.403791
796.687812	4189.876881
797.009538	4190.131460
797.331218	4153.134432
797.652852	4125.506388
797.974442	4105.424952
798.295986	4104.527626
798.617484	4015.112680
798.938938	3933.241821
799.260346	3978.874346
799.581709	3967.055361
799.903026	3893.930904
800.224299	3860.119885
800.545526	3858.990666
800.866708	3815.445179
801.187845	3754.674070
801.508936	3791.194709
801.829983	3784.280766
802.150984	3709.931309
802.471940	3701.900751
802.792851	3709.013819
803.113717	3710.006926
803.434538	3710.798387
803.755314	3649.137514
804.076045	3627.354688
804.396731	3646.553923
804.717372	3675.026360
805.037967	3655.416271
805.358518	3646.095178
805.679024	3677.050383
805.999485	3690.238041
806.319901	3692.748536
806.640272	3704.864949
806.960598	3723.643247
807.280879	3695.463197
807.601115	3711.073130
807.921306	3724.500243
808.241453	3763.942231
808.561554	3739.480032
808.881611	3674.129034
809.201623	3712.091443
809.521590	3721.531004
809.841513	3692.803989
810.161390	3724.832960
810.481223	3700.191800
810.801011	3648.381341
811.120755	3643.234323
811.440453	3676.649611
811.760107	3673.148530
812.079716	3630.989360
812.399281	3604.329218
812.718801	3627.531129
813.038276	3599.406531
813.357707	3598.337807
813.677093	3613.380610
813.996434	3560.650141
814.315731	3570.147674
814.634983	3573.000967
814.954191	3593.092486
815.273354	3617.239613
815.592473	3612.879015
815.911547	3618.610807
816.230577	3662.879699
816.549562	3717.107391
816.868502	3756.831684
817.187399	3780.197432
817.506250	3777.225672
817.825058	3751.092330
818.143821	3845.868543
818.462539	3947.031898
818.781213	3990.133763
819.099843	4055.699010
819.418429	4303.658244
819.736970	4547.241757
820.055466	4799.516219
820.373919	5167.401983
820.692327	5582.266259
821.010691	6045.916302
821.329011	7466.271480
821.647286	10276.452609
821.965517	14905.928188
822.283704	18938.926883
822.601847	21039.837830
822.919945	19183.445529
823.237999	16565.753298
823.556010	14070.472885
823.873976	11942.173348
824.191897	9835.780146
824.509775	8486.855597
824.827609	7356.462546
825.145398	6815.584547
825.463144	6696.023502
825.780845	6810.850904
826.098502	7016.466966
826.416116	7922.989936
826.733685	9265.781922
827.051210	10373.313339
827.368692	10382.556295
827.686129	9083.246782
828.003522	7570.058755
828.320872	6553.240381
828.638177	5842.621690
828.955439	5281.206031
829.272656	4777.020070
829.589830	4494.160928
829.906960	4318.219617
830.224046	4134.996360
830.541088	4008.997761
830.858086	3959.228969
831.175041	3881.474212
831.491952	3867.290926
831.808819	3880.418091
832.125642	3952.557002
832.442421	4105.830764
832.759157	4388.306779
833.075849	4953.747800
833.392497	5833.320762
833.709101	6615.501151
834.025662	6938.288752
834.342179	6559.163736
834.658653	5882.240118
834.975083	5234.396397
835.291469	4650.005678
835.607811	4239.081063
835.924110	4100.603088
836.240366	3898.520874
836.556578	3693.363557
836.872746	3583.957915
837.188871	3543.923592
837.504952	3473.226451
837.820990	3394.425654
838.136984	3349.259436
838.452935	3372.849516
838.768842	3367.558825
839.084706	3390.329717
839.400526	3557.423802
839.716303	3904.466915
840.032037	4440.916261
840.347727	4696.820353
840.663373	4403.420158
840.978977	4016.509080
841.294537	3705.275803
841.610054	3478.703664
841.925527	3374.495453
842.240957	3301.912919
842.556344	3248.993407
842.871687	3189.187678
843.186987	3138.052734
843.502244	3103.664503
843.817458	3065.951631
844.132629	3034.545243
844.447756	3045.043446
844.762840	3029.410828
845.077881	2996.240035
845.392879	2978.815287
845.707833	2977.161789
846.022745	2972.465954
846.337613	2975.296562
846.652438	2962.277782
846.967221	2961.536732
847.281960	2943.176850
847.596656	2939.945470
847.911309	2942.498815
848.225919	2935.771395
848.540485	2928.943152
848.855009	2932.265273
849.169490	2920.668098
849.483928	2911.377252
849.798323	2913.923034
850.112675	2906.479771
850.426984	2918.830598
850.741251	2914.598549
851.055474	2906.005902
851.369654	2899.366703
851.683792	2905.239647
851.997887	2913.915473
852.311938	2913.043353
852.625947	2901.196641
852.939914	2907.682086
853.253837	2913.610483
853.567718	2895.414438
853.881555	2896.011815
854.195350	2914.157448
854.509103	2906.759555
854.822812	2901.357958
855.136479	2895.805127
855.450103	2896.513409
855.763685	2893.430744
856.077224	2889.619632
856.390720	2900.178328
856.704173	2910.774834
857.017584	2901.171436
857.330953	2900.203534
857.644278	2909.683424
857.957561	2921.711617
858.270802	2919.770773
858.584000	2922.445105
858.897155	2906.028587
859.210268	2906.769637
859.523339	2906.230233
859.836367	2904.463309
860.149352	2897.708163
860.462295	2893.516443
860.775195	2902.862743
861.088054	2901.166394
861.400869	2883.406409
861.713642	2884.112171
862.026373	2896.740261
862.339062	2900.773184
862.651708	2906.540264
862.964312	2907.142682
863.276873	2900.281672
863.589392	2913.088723
863.901869	2923.594488
864.214303	2948.117181
864.526696	2964.740386
864.839045	2958.741413
865.151353	2957.440795
865.463619	2955.878037
865.775842	2958.370888
866.088023	2976.645070
866.400162	2984.582367
866.712258	2952.298818
867.024313	2941.223403
867.336325	2951.318313
867.648296	2973.824545
867.960224	2966.557722
868.272110	2953.307049
868.583954	2958.191927
868.895755	2971.004019
869.207515	2956.500620
869.519233	2962.887762
869.830909	2973.375882
870.142542	2982.686893
870.454134	2979.352170
870.765684	2984.905001
871.077191	2984.358036
871.388657	2990.593943
871.700081	3004.724297
872.011463	3018.655526
872.322803	3019.580578
872.634101	3019.063859
872.945357	3035.155222
873.256571	3060.691187
873.567744	3056.121381
873.878874	3045.207283
874.189963	3071.512024
874.501010	3070.798701
874.812015	3059.650189
875.122979	3060.688667
875.433900	3058.513409
875.744780	3064.371230
876.055618	3072.449679
876.366415	3072.021181
876.677169	3081.387644
876.987882	3077.067376
877.298554	3068.857857
877.609183	3096.125458
877.919771	3118.283849
878.230317	3146.617655
878.540822	3199.269986
878.851285	3239.261459
879.161707	3280.046915
879.472087	3388.903070
879.782425	3624.398052
880.092722	4068.740475
880.402977	4609.550418
880.713191	5254.006485
881.023363	6441.155366
881.333494	7735.088488
881.643583	8272.241075
881.953631	7958.877910
882.263637	7311.008983
882.573602	6713.624690
882.883526	6130.895032
883.193408	5554.522269
883.503248	5091.956074
883.813048	4786.706647
884.122806	4468.990446
884.432522	4153.152076
884.742197	3912.575611
885.051831	3715.753842
885.361424	3583.844489
885.670975	3507.891945
885.980485	3420.700148
886.289954	3345.017305
886.599382	3297.824544
886.908768	3262.614605
887.218113	3216.051987
887.527417	3156.170641
887.836680	3107.445369
888.145901	3102.736931
888.455082	3090.323090
888.764221	3039.803166
889.073319	3010.882067
889.382376	3008.467354
889.691392	3011.297962
890.000366	3013.689989
890.309300	3000.207423
890.618193	3012.780061
890.927044	3028.841177
891.235855	3027.066691
891.544625	3014.055473
891.853353	3026.852442
892.162041	3043.974721
892.470687	3086.869899
892.779293	3135.648104
893.087858	3185.255578
893.396381	3258.090169
893.704864	3382.195815
894.013306	3629.345944
894.321707	3935.066719
894.630068	4142.091784
894.938387	4136.801093
895.246665	4086.737394
895.554903	3964.222232
895.863100	3761.522477
896.171256	3587.801795
896.479371	3449.855661
896.787446	3324.686332
897.095480	3220.205898
897.403473	3158.050992
897.711425	3120.048253
898.019336	3109.464351
898.327207	3081.617017
898.635038	3045.666028
898.942827	3031.538195
899.250576	3013.445493
899.558284	2986.750063
899.865952	2965.622588
900.173579	2946.098199
900.481165	2937.530758
900.788711	2924.131371
901.096216	2899.777557
901.403681	2891.946124
901.711105	2896.140364
902.018489	2896.200858
902.325832	2894.249931
902.633135	2904.546488
902.940397	2936.792229
903.247619	3024.765404
903.554800	3221.902246
903.861941	3578.584045
904.169041	4016.919934
904.476101	4312.225685
904.783121	4259.318776
905.090100	4008.176053
905.397039	3728.245821
905.703938	3473.617140
906.010796	3290.708955
906.317614	3175.800894
906.624391	3082.158941
906.931129	3007.348218
907.237826	2946.743466
907.544483	2898.489542
907.851099	2865.429655
908.157675	2846.711851
908.464211	2826.154025
908.770707	2813.793116
909.077163	2797.734520
909.383578	2782.386727
909.689954	2772.584204
909.996289	2771.213010
910.302584	2772.185953
910.608839	2775.187960
910.915054	2767.457350
911.221229	2759.242790
911.527363	2761.798655
911.833458	2769.259563
912.139513	2771.528082
912.445527	2778.459669
912.751502	2788.801596
913.057436	2796.751495
913.363331	2809.820687
913.669186	2830.242401
913.975000	2866.765561
914.280775	2931.022628
914.586510	3001.699605
914.892205	3082.529466
915.197859	3211.512428
915.503475	3412.805701
915.809050	3633.691419
916.114585	3775.793984
916.420081	3796.218219
916.725536	3736.397367
917.030952	3611.535547
917.336328	3482.003099
917.641665	3346.499405
917.946961	3248.012902
918.252218	3172.569515
918.557435	3093.244438
918.862612	3034.925850
919.167750	2984.312665
919.472848	2943.169288
919.777906	2916.602408
920.082925	2890.935373
920.387904	2860.837164
920.692843	2843.072137
920.997743	2832.077381
921.302603	2817.100113
921.607423	2806.407826
921.912204	2792.824437
922.216946	2783.064763
922.521647	2771.618823
922.826310	2764.639345
923.130932	2758.693304
923.435516	2748.767272
923.740059	2743.181674
924.044564	2734.896538
924.349028	2729.033676
924.653454	2722.429764
924.957840	2714.235369
925.262186	2708.664894
925.566493	2707.495346
925.870761	2701.564428
926.174989	2695.827595
926.479178	2692.331555
926.783328	2688.275947
927.087438	2690.483972
927.391509	2687.333251
927.695541	2682.304700
927.999533	2680.542817
928.303486	2677.760100
928.607400	2674.354801
928.911275	2676.391427
929.215110	2675.375634
929.518906	2674.684996
929.822663	2673.583504
930.126381	2673.570901
930.430060	2672.222393
930.733699	2675.272291
931.037299	2674.168278
931.340861	2675.973011
931.644383	2677.697086
931.947866	2677.167764
932.251309	2675.605007
932.554714	2674.138031
932.858080	2671.985458
933.161407	2669.074192
933.464694	2667.708039
933.767943	2664.219561
934.071153	2667.665189
934.374323	2667.030004
934.677455	2666.135199
934.980548	2665.142092
935.283602	2663.891886
935.586617	2666.147802
935.889593	2667.718122
936.192530	2666.616629
936.495428	2664.527071
936.798287	2667.924809
937.101108	2669.807680
937.403890	2676.449400
937.706632	2679.995852
938.009336	2685.810823
938.312002	2695.923377
938.614628	2705.526775
938.917216	2710.608258
939.219765	2711.651777
939.522275	2710.154555
939.824747	2708.851416
940.127179	2705.226827
940.429573	2701.067875
940.731929	2699.580734
941.034246	2696.409849
941.336524	2693.458253
941.638763	2688.475072
941.940964	2688.434743
942.243126	2685.894002
942.545250	2686.007428
942.847335	2680.449556
943.149381	2679.103567
943.451389	2676.383865
943.753359	2673.621313
944.055290	2671.015036
944.357182	2667.589572
944.659036	2667.075374
944.960851	2668.181908
945.262628	2667.418173
945.564367	2666.437668
945.866067	2667.818945
946.167729	2668.126455
946.469352	2667.398008
946.770937	2668.980931
947.072484	2665.537822
947.373992	2667.380364
947.675462	2664.920281
947.976893	2661.464570
948.278286	2657.207316
948.579641	2659.087666
948.880958	2657.749240
949.182236	2661.303253
949.483476	2656.546925
949.784678	2656.904847
950.085841	2655.614311
950.386967	2659.095228
950.688054	2660.365599
950.989103	2660.784014
951.290114	2662.397184
951.591087	2664.612771
951.892021	2666.896413
952.192917	2668.486897
952.493776	2670.021929
952.794596	2670.231137
953.095378	2671.067968
953.396122	2669.853050
953.696828	2667.453461
953.997496	2667.634942
954.298126	2664.529592
954.598718	2661.179745
954.899272	2659.516164
955.199788	2656.995587
955.500266	2653.144146
955.800706	2653.071049
956.101108	2649.771614
956.401472	2647.818167
956.701798	2646.139462
957.002087	2643.664256
957.302337	2641.476395
957.602550	2643.442445
957.902724	2640.687455
958.202861	2638.476909
958.502960	2637.871970
958.803022	2640.521097
959.103045	2640.606796
959.403031	2635.018677
959.702979	2636.921713
960.002889	2635.432052
960.302762	2635.122021
960.602596	2635.676548
960.902393	2633.695374
961.202153	2635.568163
961.501875	2635.779891
961.801559	2631.590692
962.101205	2633.569345
962.400814	2633.143368
962.700385	2631.058851
962.999918	2628.233284
963.299414	2628.997019
963.598873	2629.105404
963.898293	2626.113479
964.197677	2632.535909
964.497022	2632.820734
964.796331	2630.469036
965.095601	2629.717904
965.394835	2629.032307
965.694030	2631.605816
965.993189	2629.279323
966.292309	2628.709673
966.591393	2628.127420
966.890439	2630.471556
967.189447	2628.271093
967.488419	2629.453243
967.787353	2629.170939
968.086249	2628.873511
968.385108	2631.600775
968.683930	2631.323511
968.982714	2631.361320
969.281462	2628.903757
969.580172	2632.049437
969.878844	2630.133799
970.177480	2632.054479
970.476078	2630.743779
970.774639	2631.003398
971.073162	2630.721093
971.371649	2629.717904
971.670098	2630.484159
971.968510	2629.191103
972.266885	2629.579272
972.565223	2630.837040
972.863524	2628.487862
973.161788	2629.964920
973.460014	2630.743779
973.758204	2630.761423
974.056356	2628.255969
974.354471	2627.918212
974.652550	2630.451392
974.950591	2630.277472
975.248595	2630.786628
975.546563	2630.295116
975.844493	2630.514406
976.142386	2630.343007
976.440243	2628.208078
976.738062	2629.854015
977.035845	2628.487862
977.333590	2629.538943
977.631299	2627.088942
977.928971	2624.331431
978.226606	2623.154322
978.524204	2624.386884
978.821765	2624.749847
979.119290	2623.366050
979.416777	2626.136164
979.714228	2630.315281
980.011642	2629.090280
980.309020	2627.756895
980.606360	2627.570372
980.903664	2628.092132
981.200931	2626.378139
981.498162	2627.499796
981.795356	2628.916360
982.092513	2631.184880
982.389633	2635.479943
982.686717	2637.360293
982.983764	2639.079327
983.280775	2646.071407
983.577749	2646.141983
983.874686	2644.332209
984.171587	2641.970428
984.468451	2641.516724
984.765279	2638.602938
985.062070	2635.570683
985.358824	2635.374078
985.655543	2629.833850
985.952224	2630.443830
986.248869	2629.244035
986.545478	2631.399129
986.842050	2629.922071
987.138586	2629.044910
987.435086	2628.059364
987.731549	2625.768160
988.027975	2627.353603
988.324366	2623.086266
988.620719	2624.659106
988.917037	2621.702469
989.213318	2622.987963
989.509563	2622.725823
989.805772	2625.967285
990.101944	2625.311935
990.398080	2624.364198
990.694180	2623.660957
990.990244	2621.508385
991.286271	2622.859414
991.582262	2625.198509
991.878217	2624.991822
992.174136	2622.824126
992.470019	2625.241359
992.765865	2623.471914
993.061676	2620.898405
993.357450	2620.742129
993.653188	2622.113323
993.948890	2623.620628
994.244556	2624.848149
994.540186	2626.095835
994.835780	2624.714559
995.131337	2626.884775
995.426859	2623.078704
995.722345	2627.325876
996.017795	2626.176493
996.313208	2628.054323
996.608586	2626.824282
996.903928	2627.903088
997.199234	2626.766308
997.494504	2627.890486
997.789738	2627.456946
998.084936	2627.429220
998.380099	2627.404014
998.675225	2625.821092
998.970316	2626.831843
999.265371	2626.176493
999.560390	2625.735392
999.855373	2625.193468
1000.150320	2624.154991
1000.445232	2625.130454
1000.740108	2627.638428
1001.034948	2623.900412
1001.329752	2623.199692
1001.624521	2622.700618
1001.919254	2623.499641
1002.213951	2624.122223
1002.508613	2621.473097
1002.803239	2620.180041
1003.097829	2620.288426
1003.392384	2625.627007
1003.686903	2621.926801
1003.981386	2620.963940
1004.275834	2621.135339
1004.570246	2621.069804
1004.864623	2621.538632
1005.158964	2620.873199
1005.453270	2622.435957
1005.747540	2623.192130
1006.041775	2623.648355
1006.335974	2621.848663
1006.630138	2621.465535
1006.924266	2624.212964
1007.218359	2620.769856
1007.512416	2618.292129
1007.806438	2617.583847
1008.100425	2618.277005
1008.394376	2617.727519
1008.688292	2623.083745
1008.982172	2619.441512
1009.276017	2621.548714
1009.569827	2620.469907
1009.863602	2622.191461
1010.157341	2621.054681
1010.451045	2623.618108
1010.744714	2621.919239
1011.038347	2622.509054
1011.331945	2620.548045
1011.625508	2622.554424
1011.919036	2623.668519
1012.212528	2623.890330
1012.505986	2619.461676
1012.799408	2620.984105
1013.092795	2621.195833
1013.386147	2622.483848
1013.679464	2621.944445
1013.972745	2619.920421
1014.265992	2618.854217
1014.559204	2622.138529
1014.852380	2620.971502
1015.145521	2620.487551
1015.438628	2623.441667
1015.731699	2622.846811
1016.024736	2621.180710
1016.317737	2618.609721
1016.610703	2619.822119
1016.903635	2620.011162
1017.196531	2621.636934
1017.489393	2618.609721
1017.782219	2620.532922
1018.075011	2620.795062
1018.367768	2619.469238
1018.660490	2623.512243
1018.953177	2623.512243
1019.245829	2623.512243
