Dividing Wavelength (nm)	Counts (n)	Blue Motor Position (mm): 5.200000	Red Motor Position (mm): 0.000000	
326.493990	2158.813641
326.888308	2158.813641
327.282561	2158.813641
327.676750	2119.127157
328.070874	2113.465941
328.464933	2114.605242
328.858929	2118.033227
329.252859	2123.364247
329.646726	2133.194497
330.040528	2145.474748
330.434265	2159.610143
330.827938	2172.800322
331.221547	2192.687674
331.615091	2208.844572
332.008571	2228.374002
332.401986	2248.213463
332.795338	2263.677203
333.188625	2287.743671
333.581847	2302.544499
333.975006	2320.075111
334.368100	2341.031188
334.761129	2359.073477
335.154095	2373.607124
335.546996	2391.805689
335.939833	2407.201373
336.332606	2423.033117
336.725315	2435.441917
337.117960	2446.693772
337.510540	2458.631225
337.903056	2471.221506
338.295508	2481.107209
338.687896	2487.554845
339.080220	2496.767553
339.472480	2499.830054
339.864676	2509.040243
340.256807	2511.853206
340.648875	2519.316635
341.040879	2518.381501
341.432818	2522.346368
341.824694	2525.577748
342.216506	2525.247552
342.608253	2527.309384
342.999937	2525.771832
343.391557	2526.870804
343.783113	2526.868283
344.174605	2525.285361
344.566033	2522.568179
344.957397	2523.150432
345.348697	2521.645648
345.739934	2522.129598
346.131106	2520.085411
346.522215	2518.260513
346.913260	2515.850841
347.304241	2512.196005
347.695159	2515.719771
348.086012	2510.787002
348.476802	2508.034532
348.867528	2502.748883
349.258191	2501.271824
349.648789	2499.025990
350.039324	2497.440547
350.429796	2500.785353
350.820203	2499.020949
351.210548	2499.381392
351.600828	2497.990033
351.991045	2496.374343
352.381198	2496.250835
352.771288	2494.819147
353.161314	2493.347131
353.551276	2494.264621
353.941175	2490.723210
354.331010	2490.788745
354.720782	2491.106338
355.110490	2496.039107
355.500135	2489.334372
355.889717	2490.183807
356.279235	2492.880824
356.668689	2491.754126
357.058080	2490.725731
357.447408	2493.904178
357.836672	2492.399394
358.225873	2494.201606
358.615010	2493.823520
359.004084	2494.491472
359.393095	2490.955103
359.782043	2496.081957
360.170927	2493.513489
360.559748	2497.639673
360.948505	2497.453150
361.337199	2497.352327
361.725830	2495.454333
362.114398	2499.066320
362.502903	2496.089518
362.891344	2496.583551
363.279722	2499.436844
363.668037	2500.520692
364.056289	2499.139416
364.444478	2501.647390
364.832603	2500.066989
365.220665	2502.897597
365.608665	2501.720487
365.996601	2499.545229
366.384474	2505.584532
366.772284	2501.115549
367.160031	2503.053872
367.547715	2502.932885
367.935336	2503.915910
368.322893	2500.225785
368.710388	2500.185456
369.097820	2505.035046
369.485189	2504.687206
369.872495	2504.382216
370.259738	2508.228617
370.646918	2508.271467
371.034035	2504.200735
371.421090	2510.610562
371.808081	2504.629233
372.195010	2508.422701
372.581875	2507.142248
372.968678	2509.650222
373.355418	2508.820952
373.742096	2507.694254
374.128710	2507.033863
374.515262	2509.806498
374.901751	2507.207783
375.288177	2507.626199
375.674540	2508.468072
376.060841	2509.693072
376.447079	2508.279028
376.833254	2510.388751
377.219367	2512.304390
377.605417	2509.209121
377.991404	2510.454286
378.377329	2510.376148
378.763191	2513.098371
379.148991	2510.671056
379.534727	2510.383710
379.920402	2510.880264
380.306013	2510.618124
380.691563	2510.865140
381.077049	2511.144924
381.462474	2511.643998
381.847835	2513.973012
382.233134	2511.742301
382.618371	2512.354801
383.003545	2514.666170
383.388657	2514.409071
383.773706	2513.375635
384.158693	2515.654236
384.543618	2511.845645
384.928480	2517.509381
385.313280	2513.519308
385.698017	2513.670542
386.082692	2514.212466
386.467305	2514.265398
386.851856	2515.790348
387.236344	2514.585512
387.620770	2511.124760
388.005133	2512.841273
388.389435	2513.458814
388.773674	2510.764317
389.157851	2515.931500
389.541965	2513.194153
389.926018	2517.902591
390.310008	2517.216994
390.693936	2517.020389
391.077802	2518.706655
391.461606	2517.514422
391.845348	2515.848321
392.229027	2516.617097
392.612645	2519.039371
392.996200	2518.129443
393.379694	2518.106758
393.763125	2521.552386
394.146494	2519.286388
394.529801	2520.027437
394.913047	2518.943589
395.296230	2519.777900
395.679351	2519.765297
396.062410	2519.730009
396.445408	2519.155318
396.828343	2518.835204
397.211217	2520.287057
397.594028	2519.997190
397.976778	2519.379649
398.359466	2521.605318
398.742092	2520.203878
399.124656	2519.649351
399.507158	2524.395597
399.889598	2521.519619
400.271977	2520.297139
400.654294	2524.662778
401.036549	2521.996008
401.418742	2523.624301
401.800874	2524.622449
402.182944	2525.202182
402.564952	2523.301667
402.946898	2522.053981
403.328783	2523.715041
403.710606	2522.374094
404.092367	2522.437109
404.474067	2522.588343
404.855705	2525.156811
405.237282	2523.205885
405.618797	2523.049609
406.000250	2524.710669
406.381642	2522.119516
406.762972	2524.395597
407.144240	2519.820750
407.525447	2521.103724
407.906593	2521.154135
408.287677	2526.681760
408.668700	2525.187058
409.049661	2528.128572
409.430560	2526.170083
409.811399	2528.829292
410.192176	2526.102028
410.572891	2528.234436
410.953545	2524.090607
411.334138	2525.807120
411.714669	2524.493900
412.095139	2528.088242
412.475547	2526.434744
412.855894	2529.482121
413.236180	2527.392563
413.616405	2524.849301
413.996568	2526.457429
414.376670	2528.998171
414.756711	2529.683768
415.136691	2528.844415
415.516609	2529.056144
415.896466	2527.269055
416.276262	2531.072605
416.655997	2528.814168
417.035670	2528.854498
417.415283	2529.562780
417.794834	2526.558252
418.174324	2528.821730
418.553753	2528.078160
418.933121	2530.404652
419.312428	2528.219312
419.691674	2531.765764
420.070859	2528.471370
420.449983	2530.744930
420.829045	2527.042203
421.208047	2530.974303
421.586988	2531.496062
421.965867	2529.688809
422.344686	2529.630835
422.723444	2529.809796
423.102141	2530.865918
423.480777	2529.809796
423.859352	2528.741072
424.237866	2529.928263
424.616319	2531.047400
424.994712	2530.865918
425.373044	2531.725435
425.751314	2529.542615
426.129524	2526.175124
426.507673	2528.161339
426.885762	2526.452388
427.263789	2534.732483
427.641756	2532.436238
428.019662	2533.348686
428.397508	2534.482946
428.775292	2530.694519
429.153016	2532.307688
429.530679	2533.177287
429.908282	2534.233409
430.285824	2535.004705
430.663305	2535.652494
431.040726	2531.745599
431.418086	2532.310209
431.795385	2534.674510
432.172624	2534.475384
432.549802	2533.043697
432.926920	2534.775333
433.303977	2533.676361
433.680974	2534.936650
434.057910	2533.262987
434.434786	2534.412370
434.811601	2533.094108
435.188355	2536.315405
435.565050	2535.158461
435.941683	2537.726928
436.318257	2533.583100
436.694770	2533.847761
437.071222	2533.656197
437.447614	2535.531506
437.823946	2536.849768
438.200218	2535.776002
438.576429	2534.777853
438.952580	2535.075282
439.328670	2535.108049
439.704700	2535.546629
440.080670	2536.678368
440.456580	2537.064017
440.832429	2537.467309
441.208218	2535.271887
441.583947	2538.551157
441.959616	2538.430169
442.335224	2535.100487
442.710773	2538.105015
443.086261	2534.669469
443.461689	2534.946732
443.837057	2538.982176
444.212365	2538.079809
444.587612	2532.705939
444.962800	2533.855322
445.337927	2531.780888
445.712995	2533.424304
446.088002	2535.163502
446.462949	2536.242309
446.837837	2538.198276
447.212664	2536.612833
447.587431	2538.157947
447.962139	2537.386651
448.336786	2540.938143
448.711374	2538.851106
449.085901	2536.290200
449.460369	2538.064686
449.834776	2538.775488
450.209124	2538.074768
450.583412	2538.326826
450.957640	2538.878832
451.331808	2538.120138
451.705917	2537.895807
452.079965	2539.506456
452.453954	2538.525951
452.827883	2539.014943
453.201752	2536.688451
453.575562	2538.238606
453.949311	2538.949408
454.323001	2539.246836
454.696632	2538.906558
455.070202	2537.873122
455.443713	2539.171219
455.817164	2540.822197
456.190556	2539.647608
456.563888	2538.452855
456.937160	2541.918648
457.310373	2539.256919
457.683526	2539.128369
458.056619	2541.573329
458.429653	2539.733308
458.802628	2535.150899
459.175542	2541.711961
459.548398	2542.747918
459.921194	2540.718853
460.293930	2540.764224
460.666607	2540.189532
461.039224	2540.383617
461.411782	2540.338246
461.784280	2540.832279
462.156719	2541.417053
462.529099	2541.308668
462.901419	2541.661549
463.273680	2537.719367
463.645882	2536.864891
464.018024	2537.626105
464.390106	2537.197607
464.762130	2542.180788
465.134094	2541.535520
465.505999	2540.940664
465.877845	2541.296065
466.249631	2541.837989
466.621358	2540.663401
466.993026	2540.655839
467.364634	2544.711447
467.736184	2541.669111
468.107674	2540.426466
468.479105	2541.885880
468.850477	2540.744059
469.221790	2542.962167
469.593043	2541.177598
469.964238	2543.446118
470.335373	2542.994934
470.706449	2545.558361
471.077467	2540.779347
471.448425	2540.360931
471.819324	2543.093237
472.190164	2545.134904
472.560945	2542.669780
472.931667	2541.696837
473.302330	2542.079965
473.672934	2541.621220
474.043479	2543.310006
474.413965	2540.403781
474.784393	2543.887218
475.154761	2544.043494
475.525070	2544.512322
475.895321	2542.962167
476.265513	2542.246323
476.635645	2545.714637
477.005719	2544.776982
477.375734	2541.946374
477.745691	2544.671118
478.115588	2542.253885
478.485427	2543.935109
478.855207	2544.048535
479.224928	2543.262115
479.594591	2543.612476
479.964194	2545.817980
480.333739	2545.757487
480.703226	2545.560882
481.072653	2543.347815
481.442022	2546.488454
481.811333	2542.742877
482.180584	2541.079296
482.549777	2540.955787
482.918912	2539.645087
483.287988	2542.977290
483.657005	2543.337733
484.025964	2545.316386
484.394864	2544.020809
484.763706	2545.376879
485.132489	2542.521066
485.501213	2544.928217
485.869879	2544.053577
486.238487	2543.587270
486.607036	2547.544576
486.975527	2543.446117
487.343959	2544.482075
487.712333	2548.141952
488.080648	2543.917465
488.448905	2543.811601
488.817104	2549.777807
489.185244	2544.673638
489.553326	2543.428473
489.921350	2543.221786
490.289315	2546.543907
490.657222	2546.354863
491.025070	2544.630789
491.392861	2546.112888
491.760593	2543.703216
492.128267	2547.179092
492.495883	2543.478885
492.863440	2544.257743
493.230939	2543.022661
493.598380	2544.935778
493.965763	2543.052908
494.333088	2548.179761
494.700354	2545.127342
495.067563	2545.588608
495.434713	2545.079451
495.801805	2546.672456
496.168839	2546.052394
496.535815	2546.856458
496.902733	2546.133052
497.269593	2545.112219
497.636395	2544.885367
498.003139	2542.584080
498.369825	2549.477858
498.736453	2543.461241
499.103023	2544.101467
499.469535	2548.966181
499.835989	2545.051725
500.202385	2544.877805
500.568723	2541.313709
500.935003	2544.058618
501.301226	2542.367311
501.667390	2547.441232
502.033497	2550.491130
502.399546	2546.402754
502.765537	2544.915614
503.131470	2544.643392
503.497345	2546.639688
503.863163	2547.625234
504.228923	2544.446787
504.594625	2547.892415
504.960269	2546.064997
505.325856	2545.931406
505.691385	2546.942158
506.056856	2545.339071
506.422270	2547.970553
506.787625	2549.238403
507.152924	2543.771272
507.518164	2546.259081
507.883347	2547.312683
508.248472	2546.770758
508.613540	2549.508105
508.978550	2548.590615
509.343503	2546.851417
509.708398	2549.389638
510.073236	2546.044832
510.438016	2545.210521
510.802738	2546.559030
511.167403	2545.696993
511.532010	2545.409647
511.896561	2549.273691
512.261053	2545.273536
512.625488	2548.023485
512.989866	2546.556509
513.354186	2545.069369
513.718449	2543.728422
514.082655	2548.273022
514.446803	2547.156407
514.810894	2547.388300
515.174927	2548.010882
515.538904	2545.271015
515.902822	2545.555840
516.266684	2547.390820
516.630488	2549.616490
516.994235	2545.553320
517.357925	2547.325285
517.721558	2549.238403
518.085133	2548.721685
518.448651	2546.496016
518.812112	2541.858154
519.175516	2542.137938
519.538863	2544.197249
519.902152	2547.479041
520.265385	2548.177240
520.628560	2548.915769
520.991678	2547.547096
521.354739	2550.251675
521.717743	2546.866540
522.080690	2548.492312
522.443580	2544.592980
522.806413	2547.829401
523.169189	2548.499874
523.531908	2545.807898
523.894569	2547.675646
524.257174	2548.399051
524.619722	2551.050698
524.982213	2549.601366
525.344647	2547.441232
525.707025	2550.289484
526.069345	2548.053732
526.431608	2548.905687
526.793815	2547.910059
527.155964	2549.487940
527.518057	2548.056253
527.880093	2544.996272
528.242072	2547.189174
528.603995	2550.566747
528.965860	2549.435008
529.327669	2549.742519
529.689421	2550.871737
530.051117	2548.416695
530.412755	2548.038609
530.774337	2549.165307
531.135862	2547.670604
531.497331	2546.246478
531.858743	2550.947354
532.220098	2547.083310
532.581396	2550.556665
532.942638	2549.523228
533.303824	2548.358722
533.664953	2549.225800
534.026025	2548.867878
534.387040	2548.013403
534.747999	2546.483413
535.108902	2548.618341
535.469748	2548.860317
535.830537	2549.049360
536.191270	2547.955430
536.551947	2546.831252
536.912567	2546.284287
537.273131	2547.700851
537.633638	2541.520397
537.994089	2547.905018
538.354483	2547.496685
538.714821	2549.636654
539.075103	2551.065822
539.435328	2549.682025
539.795497	2548.119267
540.155609	2548.583053
540.515665	2548.298228
540.875665	2549.671943
541.235609	2546.745553
541.595496	2549.548434
541.955328	2551.257385
542.315102	2550.801161
542.674821	2551.111192
543.034483	2547.655481
543.394090	2549.024154
543.753640	2549.694628
544.113134	2549.112374
544.472571	2550.090358
544.831953	2551.330482
545.191278	2548.809905
545.550548	2551.204453
545.909761	2546.082641
546.268918	2548.890564
546.628019	2550.259237
546.987064	2550.067673
547.346053	2548.285625
547.704986	2549.770245
548.063863	2549.193033
548.422684	2548.966181
548.781449	2548.641027
549.140158	2548.603218
549.498811	2551.040616
549.857408	2548.638506
550.215949	2549.435008
550.574434	2549.326623
550.932864	2547.867209
551.291237	2549.500543
551.649555	2547.930224
552.007817	2551.806871
552.366022	2547.680687
552.724173	2549.818136
553.082267	2552.048847
553.440305	2548.313352
553.798288	2550.687735
554.156215	2548.429298
554.514086	2548.300749
554.871902	2545.971736
555.229661	2544.517363
555.587365	2545.747404
555.945014	2547.625234
556.302606	2548.086500
556.660143	2549.195553
557.017625	2551.025492
557.375050	2550.261757
557.732421	2547.252189
558.089735	2550.657488
558.446994	2548.101623
558.804197	2547.925183
559.161345	2550.571788
559.518437	2549.387117
559.875474	2548.900646
560.232455	2551.948023
560.589381	2547.937786
560.946251	2550.536500
561.303065	2546.274205
561.659825	2549.717313
562.016528	2547.804195
562.373177	2550.891902
562.729770	2550.483568
563.086307	2552.512633
563.442789	2549.999617
563.799216	2549.145142
564.155587	2550.193702
564.511904	2550.627241
564.868164	2548.971222
565.224370	2550.644885
565.580520	2552.943651
565.936615	2550.783517
566.292654	2552.026161
566.648638	2549.228321
567.004567	2550.279402
567.360441	2553.314176
567.716260	2550.004659
568.072023	2550.914587
568.427732	2552.575647
568.783385	2550.503733
569.138982	2550.024823
569.494525	2547.753783
569.850013	2549.679504
570.205445	2548.862837
570.560823	2547.244627
570.916145	2549.639175
571.271412	2549.306459
571.626625	2549.959288
571.981782	2549.442570
572.336884	2546.208670
572.691931	2544.489636
573.046923	2545.099616
573.401860	2546.566592
573.756743	2548.169679
574.111570	2549.331665
574.466342	2551.267468
574.821059	2549.815615
575.175722	2550.796120
575.530330	2549.508105
575.884882	2553.152859
576.239380	2549.893753
576.593823	2552.633620
576.948211	2552.918446
577.302544	2550.468445
577.656823	2547.640357
578.011047	2551.547252
578.365216	2548.908208
578.719330	2551.317879
579.073389	2550.062632
579.427394	2552.293342
579.781344	2549.256047
580.135239	2549.319062
580.489080	2553.122612
580.842866	2549.016592
581.196597	2549.336706
581.550273	2551.338044
581.903895	2549.787889
582.257463	2551.118754
582.610975	2551.522046
582.964434	2551.028013
583.317837	2551.186809
583.671186	2552.159752
584.024481	2550.612118
584.377721	2548.555327
584.730906	2549.984494
585.084037	2550.501212
585.437113	2549.258568
585.790135	2551.746377
586.143103	2550.574309
586.496016	2551.895091
586.848874	2549.671943
587.201679	2552.792417
587.554428	2551.297715
587.907124	2550.286963
588.259765	2553.286450
588.612352	2551.769063
588.964884	2550.695297
589.317362	2552.915925
589.669786	2549.926521
590.022155	2546.390151
590.374470	2545.986859
590.726731	2548.893084
591.078937	2545.124822
591.431090	2552.505071
591.783188	2552.232849
592.135232	2551.862324
592.487222	2550.181099
592.839157	2551.761501
593.191038	2551.809392
593.542866	2550.700338
593.894639	2548.608259
594.246358	2553.656975
594.598022	2550.029864
594.949633	2551.726213
595.301190	2547.978115
595.652692	2552.568085
596.004141	2549.135060
596.355535	2550.876778
596.706876	2551.272509
597.058162	2551.945503
597.409395	2549.515667
597.760573	2551.726213
598.111698	2549.435008
598.462768	2550.223949
598.813785	2550.657488
599.164748	2547.970553
599.515657	2549.959288
599.866511	2547.892415
600.217312	2548.978784
600.568060	2549.858465
600.918753	2554.602191
601.269392	2550.551624
601.619978	2548.618341
601.970510	2548.764535
602.320988	2550.828887
602.671412	2551.043136
603.021783	2549.349309
603.372100	2552.489947
603.722363	2549.649257
604.072572	2550.309648
604.422728	2551.363250
604.772830	2551.995914
605.122878	2551.927859
605.472872	2550.481048
605.822813	2551.302756
606.172701	2554.012376
606.522534	2554.554300
606.872314	2552.888199
607.222041	2551.481717
607.571714	2548.774617
607.921333	2546.614483
608.270899	2551.721172
608.620411	2545.167672
608.969870	2555.108827
609.319276	2554.100596
609.668627	2558.536812
610.017926	2561.939590
610.367171	2564.016546
610.716362	2563.910682
611.065500	2561.891699
611.414585	2561.206102
611.763616	2557.248797
612.112594	2555.358364
612.461518	2556.800134
612.810389	2554.070349
613.159207	2553.767880
613.507971	2553.599001
613.856682	2553.810730
614.205340	2553.178065
614.553945	2555.529763
614.902496	2553.183106
615.250994	2551.330482
615.599439	2550.261758
615.947830	2551.597663
616.296169	2550.050029
616.644454	2552.250493
616.992686	2550.052550
617.340864	2551.670760
617.688990	2548.540203
618.037063	2551.373332
618.385082	2550.586912
618.733048	2554.289639
619.080961	2551.461552
619.428821	2548.406613
619.776628	2548.509957
620.124382	2552.260575
620.472083	2550.942313
620.819731	2549.878630
621.167326	2550.627241
621.514868	2552.772252
621.862357	2550.823846
622.209793	2551.680842
622.557176	2552.419371
622.904506	2550.533980
623.251783	2550.904505
623.599007	2551.063301
623.946179	2550.602035
624.293297	2553.094886
624.640363	2547.594987
624.987376	2547.584905
625.334336	2547.547096
625.681243	2548.787220
626.028097	2547.214380
626.374899	2552.469783
626.721647	2551.784186
627.068343	2551.522046
627.414987	2551.481717
627.761577	2550.145811
628.108115	2551.595143
628.454600	2551.587581
628.801032	2550.919628
629.147412	2553.445246
629.493739	2551.643034
629.840014	2554.715617
630.186236	2552.250493
630.532405	2552.731923
630.878521	2552.673950
631.224585	2553.757798
631.570597	2550.775955
631.916556	2552.318548
632.262462	2549.326623
632.608316	2550.039947
632.954117	2548.215049
633.299866	2550.211346
633.645562	2547.045501
633.991206	2552.711758
634.336797	2549.490461
634.682336	2548.825029
635.027823	2550.909546
635.373257	2548.101623
635.718639	2549.530790
636.063968	2549.911397
636.409245	2551.133877
636.754470	2549.245965
637.099642	2551.353167
637.444762	2550.723023
637.789829	2550.092879
638.134845	2551.196892
638.479808	2546.100285
638.824719	2549.024154
639.169577	2551.075904
639.514383	2548.971222
639.859137	2549.019113
640.203839	2551.136398
640.548489	2550.904505
640.893086	2547.962991
641.237632	2550.753270
641.582125	2551.585060
641.926566	2548.585574
642.270955	2549.407282
642.615292	2544.287990
642.959576	2549.031716
643.303809	2545.530635
643.647990	2551.106151
643.992118	2551.552293
644.336195	2549.757642
644.680219	2551.272509
645.024192	2551.562375
645.368112	2549.452652
645.711981	2548.978784
646.055797	2550.859134
646.399562	2549.094730
646.743274	2548.525080
647.086935	2549.495502
647.430544	2547.335368
647.774101	2550.324772
648.117606	2550.201264
648.461059	2550.347457
648.804460	2553.344423
649.147810	2550.329813
649.491108	2550.690256
649.834354	2551.716130
650.177548	2551.022972
650.520690	2551.456511
650.863781	2548.182282
651.206820	2548.562889
651.549807	2549.513146
651.892742	2548.678835
652.235626	2550.102961
652.578458	2548.913249
652.921238	2550.972560
653.263967	2551.862324
653.606644	2552.752088
653.949269	2550.138249
654.291843	2549.563558
654.634365	2552.686552
654.976836	2548.928372
655.319255	2552.250493
655.661622	2549.961809
656.003938	2550.236552
656.346203	2551.423743
656.688416	2548.880481
657.030577	2550.108002
657.372687	2548.948537
657.714746	2550.075235
658.056753	2549.382076
658.398708	2548.741850
658.740612	2549.109854
659.082465	2550.468445
659.424266	2547.232024
659.766016	2544.731612
660.107715	2547.345450
660.449362	2545.636499
660.790958	2547.521890
661.132503	2549.011551
661.473996	2551.980791
661.815438	2546.801005
662.156829	2551.554813
662.498168	2551.670760
662.839456	2551.761501
663.180693	2550.302087
663.521879	2549.636654
663.863013	2547.204298
664.204097	2548.593136
664.545129	2545.896118
664.886110	2551.408620
665.227040	2549.029195
665.567918	2548.993907
665.908746	2551.297715
666.249522	2549.631613
666.590248	2547.111036
666.930922	2551.874927
667.271545	2548.572971
667.612118	2549.490461
667.952639	2548.709082
668.293109	2547.831921
668.633528	2548.946016
668.973896	2550.050029
669.314213	2550.012220
669.654480	2549.939124
669.994695	2551.441388
670.334859	2551.317879
670.674973	2549.319062
671.015035	2546.778320
671.355047	2549.240924
671.695008	2550.188661
672.034918	2550.612118
672.374777	2549.054401
672.714585	2549.429967
673.054342	2549.828218
673.394049	2550.390307
673.733705	2550.201264
674.073310	2549.480379
674.412864	2550.080276
674.752368	2548.101623
675.091820	2548.192364
675.431223	2550.002138
675.770574	2550.561706
676.109875	2549.921480
676.449125	2545.500388
676.788324	2547.509287
677.127473	2547.698331
677.466571	2544.653474
677.805619	2549.472817
678.144616	2548.363763
678.483562	2548.751932
678.822458	2549.412323
679.161303	2549.233362
679.500098	2549.596325
679.838842	2549.104813
680.177535	2548.618341
680.516179	2548.099102
680.854771	2548.953578
681.193314	2548.187323
681.531805	2550.949875
681.870247	2548.996428
682.208638	2550.443239
682.546978	2550.211346
682.885268	2548.189843
683.223508	2550.758311
683.561697	2547.582384
683.899836	2549.366953
684.237925	2546.380069
684.575963	2545.767569
684.913951	2551.373332
685.251889	2548.845193
685.589776	2548.676315
685.927614	2549.845862
686.265401	2547.915100
686.603137	2548.063814
686.940824	2546.803526
687.278460	2550.259237
687.616046	2548.681356
687.953582	2549.190512
688.291068	2548.953578
688.628504	2549.117416
688.965889	2547.342929
689.303224	2548.734288
689.640510	2550.740667
689.977745	2551.149001
690.314930	2546.533824
690.652065	2551.370811
690.989150	2548.497354
691.326185	2552.051367
691.663170	2546.798485
692.000105	2550.798640
692.336990	2550.970040
692.673825	2547.839483
693.010610	2548.247817
693.347345	2546.886705
693.684030	2543.602393
694.020665	2544.056097
694.357251	2543.683052
694.693786	2548.686397
695.030272	2548.351160
695.366707	2551.758980
695.703093	2547.658002
696.039429	2548.053732
696.375716	2546.828732
696.711952	2548.446942
697.048139	2547.773948
697.384276	2549.180430
697.720363	2547.872251
698.056400	2548.414175
698.392388	2548.479710
698.728326	2550.226469
699.064214	2543.877136
699.400053	2548.986346
699.735842	2546.964843
700.071581	2549.631613
700.407270	2546.987528
700.742910	2549.024154
701.078501	2547.484082
701.414042	2550.488609
701.749533	2548.169679
702.084974	2549.561037
702.420366	2548.479710
702.755709	2548.651109
703.091002	2546.609442
703.426246	2549.296377
703.761440	2548.076417
704.096584	2551.164124
704.431679	2546.102806
704.766725	2548.477189
705.101721	2549.780327
705.436668	2551.030533
705.771565	2551.045657
706.106413	2549.997097
706.441212	2550.052550
706.775961	2547.025337
707.110661	2548.953578
707.445311	2550.231511
707.779913	2550.775955
708.114465	2547.710934
708.448967	2549.961809
708.783421	2548.522559
709.117825	2549.989535
709.452180	2549.790410
709.786485	2548.794782
710.120742	2545.850748
710.454949	2547.368135
710.789107	2547.925183
711.123216	2545.087013
711.457275	2546.990049
711.791286	2550.090358
712.125247	2547.680687
712.459159	2550.004659
712.793023	2547.408464
713.126837	2549.576161
713.460602	2548.051212
713.794318	2547.350491
714.127985	2551.239741
714.461602	2548.716644
714.795171	2549.561037
715.128691	2547.163968
715.462162	2549.233362
715.795584	2548.149514
716.128957	2550.476007
716.462281	2547.552137
716.795556	2549.306459
717.128782	2549.024154
717.461960	2547.295038
717.795088	2548.068856
718.128167	2549.848383
718.461198	2548.194884
718.794180	2549.926521
719.127113	2549.661860
719.459997	2550.171017
719.792833	2546.342260
720.125619	2548.580533
720.458357	2547.451314
720.791046	2550.060111
721.123686	2546.501057
721.456278	2549.523228
721.788821	2546.422919
722.121315	2550.791079
722.453761	2546.707744
722.786158	2550.957437
723.118506	2549.981973
723.450805	2546.740512
723.783056	2547.857127
724.115259	2550.992725
724.447412	2547.380738
724.779518	2549.311500
725.111574	2551.592622
725.443582	2545.790254
725.775542	2546.304452
726.107453	2547.534493
726.439315	2548.837632
726.771129	2549.886192
727.102895	2544.340922
727.434612	2546.490974
727.766281	2543.577187
728.097901	2549.586243
728.429473	2548.230172
728.760996	2547.602549
729.092471	2546.455686
729.423897	2548.706562
729.755276	2547.806716
730.086606	2550.085317
730.417887	2550.725544
730.749120	2547.468958
731.080305	2548.479710
731.411442	2548.270502
731.742530	2549.770245
732.073570	2549.092210
732.404562	2547.642878
732.735506	2550.710420
733.066401	2546.899308
733.397249	2547.647919
733.728048	2549.440049
734.058798	2548.472148
734.389501	2549.077086
734.720156	2550.216387
735.050762	2548.325954
735.381320	2548.381407
735.711831	2548.751932
736.042293	2548.371325
736.372707	2547.955430
736.703073	2547.715975
737.033391	2550.029864
737.363661	2548.262940
737.693883	2548.174720
738.024056	2550.773435
738.354182	2548.184802
738.684260	2550.738147
739.014290	2548.693959
739.344272	2549.319062
739.674207	2546.793444
740.004093	2550.387786
740.333931	2548.000800
740.663722	2552.124464
740.993464	2549.064483
741.323159	2548.787220
741.652806	2547.957950
741.982405	2547.224462
742.311956	2549.160265
742.641460	2549.165307
742.970915	2549.127498
743.300323	2545.520552
743.629683	2543.546941
743.958996	2549.994576
744.288260	2540.257588
744.617477	2548.015923
744.946647	2547.879812
745.275768	2545.649102
745.604842	2549.520708
745.933869	2548.361243
746.262847	2546.193546
746.591778	2546.352343
746.920662	2549.863506
747.249498	2547.330327
747.578286	2546.687579
747.907027	2549.021634
748.235720	2545.780172
748.564365	2548.842673
748.892963	2547.105995
749.221514	2547.451314
749.550017	2547.022816
749.878473	2546.087682
750.206881	2549.319062
750.535242	2547.249668
750.863555	2549.324103
751.191821	2549.281253
751.520039	2548.857796
751.848210	2549.329144
752.176334	2546.702703
752.504411	2548.996428
752.832440	2545.659184
753.160421	2548.910728
753.488356	2547.189174
753.816243	2551.728733
754.144082	2550.133208
754.471875	2548.441901
754.799620	2547.978115
755.127318	2546.165820
755.454969	2545.452497
755.782572	2549.112374
756.110129	2548.963660
756.437638	2548.951057
756.765100	2547.471479
757.092515	2549.886192
757.419882	2546.359904
757.747203	2548.484751
758.074477	2547.526932
758.401703	2548.704041
758.728882	2545.545758
759.056014	2550.208825
759.383099	2549.157745
759.710138	2543.940151
760.037129	2542.465613
760.364073	2544.582898
760.690970	2541.802701
761.017820	2551.166645
761.344623	2544.474513
761.671379	2551.007848
761.998088	2547.163968
762.324751	2551.080945
762.651366	2547.844524
762.977935	2549.724875
763.304456	2546.765717
763.630931	2552.961295
763.957359	2547.443752
764.283740	2547.899977
764.610074	2549.024154
764.936362	2548.862837
765.262602	2550.203784
765.588796	2548.751932
765.914943	2548.807385
766.241044	2546.982487
766.567097	2548.772097
766.893104	2547.499205
767.219064	2550.385266
767.544978	2548.603218
767.870845	2544.789585
768.196665	2549.069525
768.522438	2548.436860
768.848165	2547.688248
769.173846	2548.020965
769.499479	2549.787889
769.825066	2548.981304
770.150607	2547.305121
770.476101	2548.388969
770.801548	2547.128680
771.126949	2548.789741
771.452303	2546.357384
771.777611	2548.893084
772.102872	2548.724206
772.428087	2549.881150
772.753256	2548.842673
773.078378	2547.723537
773.403453	2548.550286
773.728482	2548.303269
774.053465	2546.183464
774.378401	2547.960471
774.703291	2544.540048
775.028135	2548.174720
775.352932	2549.124977
775.677683	2546.261602
776.002388	2544.673638
776.327046	2542.127856
776.651658	2543.776313
776.976224	2540.895294
777.300743	2544.940820
777.625216	2546.828732
777.949643	2547.912580
778.274024	2549.893753
778.598359	2545.757487
778.922647	2547.743701
779.246889	2548.121788
779.571086	2545.621375
779.895236	2546.972405
780.219339	2548.658671
780.543397	2548.232693
780.867409	2548.136911
781.191374	2546.410316
781.515294	2546.493495
781.839167	2546.536345
782.162995	2548.923331
782.486776	2546.206149
782.810511	2545.744884
783.134201	2546.375028
783.457844	2546.196067
783.781441	2545.001313
784.104993	2545.502908
784.428498	2547.778989
784.751958	2548.487271
785.075372	2545.616334
785.398739	2549.767724
785.722061	2545.951571
786.045337	2546.737991
786.368568	2548.401572
786.691752	2546.236396
787.014891	2548.746891
787.337983	2544.671118
787.661030	2545.258412
787.984031	2546.312013
788.306987	2547.042981
788.629897	2547.567261
788.952760	2546.929555
789.275579	2548.769576
789.598351	2548.338557
789.921078	2547.300080
790.243759	2547.922662
790.566395	2546.185985
790.888984	2547.494164
791.211529	2546.251520
791.534027	2548.893084
791.856480	2545.795295
792.178888	2544.620706
792.501249	2541.898483
792.823566	2545.228165
793.145836	2543.834286
793.468062	2544.865202
793.790241	2546.979966
794.112375	2546.864020
794.434464	2547.582384
794.756507	2550.118085
795.078505	2547.244627
795.400457	2544.459389
795.722364	2547.748742
796.044226	2548.013403
796.366042	2546.556509
796.687812	2544.875285
797.009538	2545.548279
797.331218	2546.836293
797.652852	2548.711603
797.974442	2550.029864
798.295986	2548.986346
798.617484	2544.340922
798.938938	2547.073228
799.260346	2549.394679
799.581709	2549.676984
799.903026	2544.968546
800.224299	2546.271684
800.545526	2548.845193
800.866708	2545.502908
801.187845	2547.859648
801.508936	2546.170861
801.829983	2546.884184
802.150984	2547.358053
802.471940	2545.931406
802.792851	2547.884853
803.113717	2543.133566
803.434538	2546.992569
803.755314	2546.821170
804.076045	2543.781354
804.396731	2545.523073
804.717372	2546.498536
805.037967	2546.725388
805.358518	2543.889739
805.679024	2547.950388
805.999485	2543.869574
806.319901	2545.722198
806.640272	2545.694472
806.960598	2548.033567
807.280879	2547.257230
807.601115	2544.487116
807.921306	2546.680018
808.241453	2543.604914
808.561554	2541.686755
808.881611	2543.761190
809.201623	2541.943854
809.521590	2547.912580
809.841513	2546.531304
810.161390	2547.506767
810.481223	2546.380069
810.801011	2547.320244
811.120755	2545.512991
811.440453	2545.417209
811.760107	2545.041643
812.079716	2545.424770
812.399281	2547.264792
812.718801	2547.264792
813.038276	2546.758156
813.357707	2545.593649
813.677093	2545.452497
813.996434	2545.782692
814.315731	2545.729760
814.634983	2547.791592
814.954191	2545.618855
815.273354	2546.339740
815.592473	2544.847558
815.911547	2547.446273
816.230577	2547.912580
816.549562	2545.797816
816.868502	2545.301262
817.187399	2547.252189
817.506250	2547.461397
817.825058	2544.691282
818.143821	2544.242620
818.462539	2548.273022
818.781213	2544.935778
819.099843	2544.469472
819.418429	2547.826880
819.736970	2544.169523
820.055466	2548.154555
820.373919	2546.793444
820.692327	2548.855276
821.010691	2547.353012
821.329011	2553.107489
821.647286	2554.513971
821.965517	2559.028324
822.283704	2561.990002
822.601847	2566.713563
822.919945	2562.844478
823.237999	2565.654921
823.556010	2563.202399
823.873976	2556.275854
824.191897	2552.366439
824.509775	2550.228990
824.827609	2549.518187
825.145398	2546.816129
825.463144	2551.423743
825.780845	2551.269988
826.098502	2549.785368
826.416116	2555.192006
826.733685	2554.650082
827.051210	2556.716955
827.368692	2555.103786
827.686129	2551.587581
828.003522	2553.031872
828.320872	2553.170503
828.638177	2550.105482
828.955439	2548.399051
829.272656	2547.859648
829.589830	2547.259750
829.906960	2546.498536
830.224046	2545.318906
830.541088	2547.408464
830.858086	2547.486602
831.175041	2547.194215
831.491952	2548.986346
831.808819	2549.218239
832.125642	2545.273536
832.442421	2547.108516
832.759157	2545.069369
833.075849	2549.311500
833.392497	2548.567930
833.709101	2549.616490
834.025662	2550.077755
834.342179	2551.300235
834.658653	2550.120605
834.975083	2549.190512
835.291469	2554.980277
835.607811	2546.932075
835.924110	2547.920142
836.240366	2546.521221
836.556578	2544.903011
836.872746	2548.409133
837.188871	2544.502239
837.504952	2546.369987
837.820990	2546.594318
838.136984	2545.802857
838.452935	2546.685059
838.768842	2544.655994
839.084706	2545.339071
839.400526	2545.346632
839.716303	2545.439894
840.032037	2544.386293
840.347727	2546.102806
840.663373	2544.265305
840.978977	2543.065510
841.294537	2544.996272
841.610054	2545.021478
841.925527	2548.651109
842.240957	2545.223124
842.556344	2545.886036
842.871687	2545.288659
843.186987	2543.332692
843.502244	2545.684390
843.817458	2548.404092
844.132629	2544.524924
844.447756	2545.545758
844.762840	2542.500901
845.077881	2543.161292
845.392879	2545.477703
845.707833	2544.575336
846.022745	2544.280428
846.337613	2546.410316
846.652438	2545.180274
846.967221	2544.361087
847.281960	2544.663556
847.596656	2547.416026
847.911309	2546.700182
848.225919	2545.205480
848.540485	2545.959133
848.855009	2545.243289
849.169490	2542.662218
849.483928	2544.444266
849.798323	2542.954605
850.112675	2545.530635
850.426984	2543.458720
850.741251	2543.821683
851.055474	2544.600542
851.369654	2545.084492
851.683792	2549.104813
851.997887	2546.218752
852.311938	2541.369162
852.625947	2544.807229
852.939914	2544.895449
853.253837	2543.312527
853.567718	2545.323947
853.881555	2546.231355
854.195350	2543.471323
854.509103	2545.437373
854.822812	2547.133722
855.136479	2544.973587
855.450103	2544.527445
855.763685	2542.067362
856.077224	2541.202804
856.390720	2543.239430
856.704173	2541.351518
857.017584	2543.892260
857.330953	2545.392003
857.644278	2547.370656
857.957561	2546.879143
858.270802	2542.437887
858.584000	2545.001313
858.897155	2545.318906
859.210268	2543.862013
859.523339	2546.979966
859.836367	2544.313196
860.149352	2543.078113
860.462295	2545.326468
860.775195	2546.921993
861.088054	2545.512991
861.400869	2541.777496
861.713642	2543.176416
862.026373	2544.678680
862.339062	2546.536345
862.651708	2546.992569
862.964312	2543.267157
863.276873	2544.792106
863.589392	2546.523742
863.901869	2541.969059
864.214303	2544.340922
864.526696	2544.149358
864.839045	2545.775131
865.151353	2547.355532
865.463619	2542.616848
865.775842	2547.337888
866.088023	2543.153731
866.400162	2545.316386
866.712258	2546.122970
867.024313	2543.420912
867.336325	2541.921168
867.648296	2544.414019
867.960224	2542.637012
868.272110	2546.241437
868.583954	2542.072403
868.895755	2541.787578
869.207515	2544.093906
869.519233	2545.177754
869.830909	2544.492157
870.142542	2544.063659
870.454134	2546.594318
870.765684	2546.763197
871.077191	2543.284801
871.388657	2540.378575
871.700081	2538.649460
872.011463	2541.437218
872.322803	2541.608617
872.634101	2544.658515
872.945357	2544.887887
873.256571	2543.632640
873.567744	2546.170861
873.878874	2543.887218
874.189963	2545.245809
874.501010	2543.307486
874.812015	2544.897970
875.122979	2541.870757
875.433900	2544.706406
875.744780	2544.817311
876.055618	2544.557692
876.366415	2543.141128
876.677169	2543.854451
876.987882	2546.095244
877.298554	2545.051725
877.609183	2543.078113
877.919771	2545.054246
878.230317	2544.517363
878.540822	2550.181099
878.851285	2545.381921
879.161707	2543.337733
879.472087	2548.328475
879.782425	2546.475851
880.092722	2545.573484
880.402977	2547.960471
880.713191	2551.330482
881.023363	2551.111192
881.333494	2553.112530
881.643583	2550.660009
881.953631	2552.797458
882.263637	2552.686553
882.573602	2551.277550
882.883526	2550.909546
883.193408	2550.962478
883.503248	2550.753270
883.813048	2547.567261
884.122806	2550.985163
884.432522	2546.846376
884.742197	2547.610111
885.051831	2545.485264
885.361424	2546.619524
885.670975	2545.107178
885.980485	2543.136087
886.289954	2546.944678
886.599382	2546.705223
886.908768	2543.804039
887.218113	2539.813966
887.527417	2541.613658
887.836680	2540.093750
888.145901	2544.411498
888.455082	2543.700696
888.764221	2545.195398
889.073319	2542.649615
889.382376	2544.519883
889.691392	2544.797147
890.000366	2547.234545
890.309300	2543.241951
890.618193	2545.495347
890.927044	2544.535007
891.235855	2544.774462
891.544625	2544.842517
891.853353	2542.914276
892.162041	2542.400078
892.470687	2543.315048
892.779293	2546.488454
893.087858	2547.655481
893.396381	2540.897814
893.704864	2545.316386
894.013306	2545.628937
894.321707	2545.717157
894.630068	2545.540717
894.938387	2547.289997
895.246665	2549.563558
895.554903	2545.278577
895.863100	2545.311344
896.171256	2546.627086
896.479371	2544.673638
896.787446	2545.628937
897.095480	2545.855789
897.403473	2543.047866
897.711425	2545.180274
898.019336	2543.967877
898.327207	2542.921838
898.635038	2542.689944
898.942827	2545.107178
899.250576	2544.361087
899.558284	2543.035263
899.865952	2545.951571
900.173579	2547.660522
900.481165	2544.202291
900.788711	2544.154400
901.096216	2544.245140
901.403681	2540.713812
901.711105	2544.913093
902.018489	2542.072403
902.325832	2541.306148
902.633135	2538.651980
902.940397	2542.750438
903.247619	2541.548123
903.554800	2541.911086
903.861941	2545.490305
904.169041	2548.099102
904.476101	2548.146993
904.783121	2546.027188
905.090100	2545.817980
905.397039	2546.407795
905.703938	2545.777651
906.010796	2545.573484
906.317614	2543.178936
906.624391	2545.109698
906.931129	2545.049204
907.237826	2544.242620
907.544483	2543.572146
907.851099	2542.694986
908.157675	2546.417878
908.464211	2542.377393
908.770707	2544.552651
909.077163	2541.873278
909.383578	2541.790098
909.689954	2542.528627
909.996289	2542.107691
910.302584	2541.843031
910.608839	2544.328319
910.915054	2543.143648
911.221229	2544.658515
911.527363	2542.886549
911.833458	2540.592824
912.139513	2546.306972
912.445527	2543.773792
912.751502	2542.775644
913.057436	2543.173895
913.363331	2542.478216
913.669186	2541.744728
913.975000	2540.867567
914.280775	2545.147507
914.586510	2546.407795
914.892205	2543.562064
915.197859	2544.981149
915.503475	2544.666077
915.809050	2544.877805
916.114585	2545.034081
916.420081	2546.385110
916.725536	2545.119781
917.030952	2544.706406
917.336328	2545.288659
917.641665	2542.760521
917.946961	2540.693648
918.252218	2542.127856
918.557435	2540.953267
918.862612	2542.868905
919.167750	2544.330840
919.472848	2543.115922
919.777906	2543.753628
920.082925	2545.041643
920.387904	2542.488298
920.692843	2543.965356
920.997743	2540.718853
921.302603	2545.132383
921.607423	2541.429656
921.912204	2544.098947
922.216946	2541.797660
922.521647	2543.524255
922.826310	2543.088196
923.130932	2543.030222
923.435516	2542.117773
923.740059	2541.170037
924.044564	2541.293545
924.349028	2540.560057
924.653454	2543.589790
924.957840	2544.335881
925.262186	2543.854451
925.566493	2543.405788
925.870761	2544.073741
926.174989	2543.841848
926.479178	2542.790767
926.783328	2542.571477
927.087438	2541.475026
927.391509	2544.048535
927.695541	2540.340767
927.999533	2541.485109
928.303486	2541.255736
928.607400	2541.404450
928.911275	2544.030891
929.215110	2542.896632
929.518906	2541.858154
929.822663	2543.173895
930.126381	2544.411498
930.430060	2542.437887
930.733699	2542.659698
931.037299	2542.274049
931.340861	2543.065510
931.644383	2539.443441
931.947866	2544.550130
932.251309	2543.768751
932.554714	2540.701209
932.858080	2539.529141
933.161407	2535.110570
933.464694	2539.188863
933.767943	2540.839841
934.071153	2541.505273
934.374323	2539.902186
934.677455	2542.400078
934.980548	2541.170037
935.283602	2542.284132
935.586617	2540.630633
935.889593	2541.510314
936.192530	2539.652649
936.495428	2542.601724
936.798287	2541.530479
937.101108	2541.936292
937.403890	2541.583411
937.706632	2544.678680
938.009336	2543.798998
938.312002	2541.885880
938.614628	2539.302289
938.917216	2543.320089
939.219765	2542.261446
939.522275	2541.840510
939.824747	2540.824718
940.127179	2541.104502
940.429573	2539.012423
940.731929	2543.753628
941.034246	2542.493339
941.336524	2543.909904
941.638763	2538.480581
941.940964	2542.553833
942.243126	2541.033925
942.545250	2542.861344
942.847335	2541.664070
943.149381	2542.047197
943.451389	2543.292362
943.753359	2540.862526
944.055290	2542.344625
944.357182	2540.935623
944.659036	2541.137269
944.960851	2543.236910
945.262628	2541.883360
945.564367	2542.606765
945.866067	2542.468134
946.167729	2539.836651
946.469352	2541.230530
946.770937	2539.423277
947.072484	2541.890922
947.373992	2539.672814
947.675462	2543.738504
947.976893	2536.837165
948.278286	2536.905220
948.579641	2539.980324
948.880958	2535.395395
949.182236	2542.016950
949.483476	2540.174409
949.784678	2541.366642
950.085841	2541.444779
950.386967	2543.907383
950.688054	2540.993596
950.989103	2539.327495
951.290114	2543.304965
951.591087	2541.195242
951.892021	2542.768082
952.192917	2541.409491
952.493776	2542.190870
952.794596	2542.284132
953.095378	2541.044008
953.396122	2537.721887
953.696828	2541.323792
953.997496	2541.835469
954.298126	2542.611807
954.598718	2542.674821
954.899272	2543.579708
955.199788	2542.876467
955.500266	2542.808412
955.800706	2539.990407
956.101108	2542.090047
956.401472	2541.107022
956.701798	2542.100129
957.002087	2540.355890
957.302337	2538.856147
957.602550	2539.566950
957.902724	2538.319264
958.202861	2541.205325
958.502960	2540.688606
958.803022	2541.250695
959.103045	2540.018133
959.403031	2539.743390
959.702979	2541.540561
960.002889	2541.752290
960.302762	2537.915972
960.602596	2539.748431
960.902393	2540.882691
961.202153	2539.420756
961.501875	2538.977135
961.801559	2541.958977
962.101205	2540.683565
962.400814	2541.225489
962.700385	2539.778678
962.999918	2538.203317
963.299414	2535.249201
963.598873	2536.703574
963.898293	2537.951260
964.197677	2543.098278
964.497022	2540.857485
964.796331	2539.556867
965.095601	2542.442928
965.394835	2539.882022
965.694030	2544.807229
965.993189	2539.377906
966.292309	2539.796322
966.591393	2540.615510
966.890439	2540.870088
967.189447	2541.318751
967.488419	2541.419574
967.787353	2539.735828
968.086249	2539.521579
968.385108	2540.507125
968.683930	2541.515356
968.982714	2541.326312
969.281462	2539.549306
969.580172	2541.921168
969.878844	2541.147351
970.177480	2538.941847
970.476078	2539.476209
970.774639	2540.539892
971.073162	2541.235572
971.371649	2540.365972
971.670098	2541.144831
971.968510	2541.530479
972.266885	2538.092412
972.565223	2540.464275
972.863524	2539.203987
973.161788	2541.167516
973.460014	2540.484440
973.758204	2539.980324
974.056356	2540.814635
974.354471	2540.882691
974.652550	2542.377393
974.950591	2541.099460
975.248595	2538.089892
975.546563	2542.929399
975.844493	2541.336395
976.142386	2538.772968
976.440243	2537.311033
976.738062	2539.246836
977.035845	2539.864378
977.333590	2540.481919
977.631299	2538.286497
977.928971	2536.892618
978.226606	2536.179294
978.524204	2537.421939
978.821765	2536.663245
979.119290	2543.473844
979.416777	2540.098791
979.714228	2539.904707
980.011642	2537.525282
980.309020	2539.854295
980.606360	2538.780530
980.903664	2544.421581
981.200931	2541.394368
981.498162	2540.900335
981.795356	2539.904707
982.092513	2542.059800
982.389633	2540.771785
982.686717	2540.628112
982.983764	2538.793133
983.280775	2540.315561
983.577749	2542.589121
983.874686	2541.578370
984.171587	2539.181301
984.468451	2541.313709
984.765279	2541.802701
985.062070	2539.216589
985.358824	2538.566281
985.655543	2539.481250
985.952224	2540.071065
986.248869	2539.007382
986.545478	2541.175078
986.842050	2539.287166
987.138586	2542.848741
987.435086	2541.709440
987.731549	2539.866898
988.027975	2540.557536
988.324366	2541.880839
988.620719	2538.210879
988.917037	2541.671631
989.213318	2542.135418
989.509563	2540.645757
989.805772	2542.352187
990.101944	2540.015612
990.398080	2543.103319
990.694180	2539.995448
990.990244	2540.176929
991.286271	2542.412681
991.582262	2541.346477
991.878217	2540.121477
992.174136	2540.396219
992.470019	2540.713812
992.765865	2536.806918
993.061676	2534.621578
993.357450	2537.890766
993.653188	2534.591331
993.948890	2539.506456
994.244556	2540.958308
994.540186	2541.727084
994.835780	2536.073430
995.131337	2542.790768
995.426859	2538.014274
995.722345	2541.207845
996.017795	2539.466127
996.313208	2540.192053
996.608586	2538.843544
996.903928	2539.856816
997.199234	2539.322454
997.494504	2539.491332
997.789738	2538.478060
998.084936	2540.640715
998.380099	2541.356559
998.675225	2540.570139
998.970316	2540.678524
999.265371	2540.295396
999.560390	2537.845396
999.855373	2539.062834
1000.150320	2540.663401
1000.445232	2541.643905
1000.740108	2540.683565
1001.034948	2539.272042
1001.329752	2539.889583
1001.624521	2542.286652
1001.919254	2538.974614
1002.213951	2539.952598
1002.508613	2538.662063
1002.803239	2538.427649
1003.097829	2537.495035
1003.392384	2542.342105
1003.686903	2540.386137
1003.981386	2543.743546
1004.275834	2537.724408
1004.570246	2542.115253
1004.864623	2537.404295
1005.158964	2541.361600
1005.453270	2538.470499
1005.747540	2541.389327
1006.041775	2538.808256
1006.335974	2541.081816
1006.630138	2539.612320
1006.924266	2543.133566
1007.218359	2537.583256
1007.512416	2538.493184
1007.806438	2536.547298
1008.100425	2538.523431
1008.394376	2534.495549
1008.688292	2541.681714
1008.982172	2542.405119
1009.276017	2539.428318
1009.569827	2538.495704
1009.863602	2538.795653
1010.157341	2538.898997
1010.451045	2539.085519
1010.744714	2538.110056
1011.038347	2543.297403
1011.331945	2540.426466
1011.625508	2540.638195
1011.919036	2538.835982
1012.212528	2540.098791
1012.505986	2539.004861
1012.799408	2540.877650
1013.092795	2541.454862
1013.386147	2539.556867
1013.679464	2539.582073
1013.972745	2540.560057
1014.265992	2542.508463
1014.559204	2538.485622
1014.852380	2538.271373
1015.145521	2539.720705
1015.438628	2540.504604
1015.731699	2539.030067
1016.024736	2537.253060
1016.317737	2538.573842
1016.610703	2539.289686
1016.903635	2540.544933
1017.196531	2539.037628
1017.489393	2540.955788
1017.782219	2538.936805
1018.075011	2538.702392
1018.367768	2538.871270
1018.660490	2540.071065
1018.953177	2540.071065
1019.245829	2540.071065
