Dividing Wavelength (nm)	Counts (n)	Blue Motor Position (mm): 23.600000	Red Motor Position (mm): 0.000000	
326.493990	2193.968127
326.888308	2193.968127
327.282561	2193.968127
327.676750	2154.682415
328.070874	2149.401807
328.464933	2153.931283
328.858929	2155.554535
329.252859	2159.983188
329.646726	2169.256391
330.040528	2182.789368
330.434265	2194.827644
330.827938	2213.056456
331.221547	2228.477346
331.615091	2244.288925
332.008571	2263.357089
332.401986	2284.199740
332.795338	2301.843778
333.188625	2319.366829
333.581847	2339.107988
333.975006	2357.498117
334.368100	2374.748945
334.761129	2395.536143
335.154095	2413.785120
335.546996	2436.354366
335.939833	2471.118163
336.332606	2485.394710
336.725315	2501.508759
337.117960	2509.498988
337.510540	2524.065402
337.903056	2535.095446
338.295508	2542.445448
338.687896	2550.060111
339.080220	2559.066133
339.472480	2564.694581
339.864676	2573.947619
340.256807	2575.719584
340.648875	2578.615727
341.040879	2583.372056
341.432818	2585.965730
341.824694	2588.327510
342.216506	2590.336410
342.608253	2591.349682
342.999937	2590.986719
343.391557	2592.874631
343.783113	2589.960844
344.174605	2591.810947
344.566033	2588.975298
344.957397	2588.622418
345.348697	2586.794999
345.739934	2586.220308
346.131106	2582.179823
346.522215	2581.486664
346.913260	2580.513722
347.304241	2577.242013
347.695159	2574.925603
348.086012	2573.929975
348.476802	2570.365879
348.867528	2566.761454
349.258191	2564.089642
349.648789	2564.855898
350.039324	2560.591082
350.429796	2564.916392
350.820203	2564.608881
351.210548	2562.599982
351.600828	2561.448078
351.991045	2557.279044
352.381198	2560.318859
352.771288	2557.389949
353.161314	2556.301060
353.551276	2557.450443
353.941175	2555.169321
354.331010	2558.241904
354.720782	2554.483724
355.110490	2558.027655
355.500135	2554.166131
355.889717	2556.069167
356.279235	2554.854249
356.668689	2557.946997
357.058080	2557.039589
357.447408	2555.897767
357.836672	2556.096893
358.225873	2557.498334
358.615010	2554.629917
359.004084	2559.121585
359.393095	2558.335165
359.782043	2556.961451
360.170927	2559.141750
360.559748	2559.151832
360.948505	2561.080074
361.337199	2561.889179
361.725830	2561.929508
362.114398	2561.939590
362.502903	2560.202913
362.891344	2563.058727
363.279722	2561.836247
363.668037	2563.406566
364.056289	2563.227605
364.444478	2568.848492
364.832603	2566.247256
365.220665	2565.327246
365.608665	2563.252811
365.996601	2567.283213
366.384474	2569.637432
366.772284	2568.876218
367.160031	2569.161043
367.547715	2571.043914
367.935336	2568.261197
368.322893	2565.546536
368.710388	2565.927143
369.097820	2567.540312
369.485189	2563.421690
369.872495	2571.048955
370.259738	2570.076013
370.646918	2570.406208
371.034035	2571.565674
371.421090	2572.566343
371.808081	2569.035014
372.195010	2572.488205
372.581875	2571.878225
372.968678	2570.897721
373.355418	2572.231106
373.742096	2574.459296
374.128710	2572.924265
374.515262	2574.655901
374.901751	2572.878894
375.288177	2573.451065
375.674540	2572.311764
376.060841	2577.370562
376.447079	2572.863771
376.833254	2578.630851
377.219367	2575.475088
377.605417	2577.340315
377.991404	2575.311251
378.377329	2574.890315
378.763191	2575.550706
379.148991	2578.663618
379.534727	2574.650860
379.920402	2577.567167
380.306013	2575.036508
380.691563	2574.381158
381.077049	2575.286045
381.462474	2574.776889
381.847835	2578.676221
382.233134	2577.673032
382.618371	2576.543813
383.003545	2580.697724
383.388657	2579.419791
383.773706	2581.118660
384.158693	2577.552044
384.543618	2580.899370
384.928480	2579.762590
385.313280	2579.505491
385.698017	2580.470872
386.082692	2580.833835
386.467305	2582.010944
386.851856	2583.707293
387.236344	2582.492375
387.620770	2580.591860
388.005133	2578.199832
388.389435	2580.254102
388.773674	2579.258474
389.157851	2583.230904
389.541965	2581.249730
389.926018	2584.344999
390.310008	2584.594536
390.693936	2585.075966
391.077802	2583.346850
391.461606	2586.323652
391.845348	2584.627303
392.229027	2583.321644
392.612645	2584.745770
392.996200	2587.752819
393.379694	2585.068404
393.763125	2587.984712
394.146494	2586.157293
394.529801	2585.267530
394.913047	2588.819023
395.296230	2586.711820
395.679351	2587.105030
396.062410	2587.193251
396.445408	2587.132757
396.828343	2588.582088
397.211217	2589.013107
397.594028	2587.583940
397.976778	2589.794486
398.359466	2590.986719
398.742092	2589.280288
399.124656	2589.509661
399.507158	2591.148036
399.889598	2591.364805
400.271977	2589.912953
400.654294	2592.720876
401.036549	2592.201637
401.418742	2592.786411
401.800874	2591.311873
402.182944	2590.777511
402.564952	2590.384301
402.946898	2592.259610
403.328783	2592.627614
403.710606	2592.478900
404.092367	2593.726586
404.474067	2592.168869
404.855705	2592.627614
405.237282	2592.957810
405.618797	2592.423448
406.000250	2590.399424
406.381642	2593.514857
406.762972	2589.365988
407.144240	2591.810948
407.525447	2593.535022
407.906593	2591.904209
408.287677	2591.795824
408.668700	2596.652976
409.049661	2594.621391
409.430560	2596.123655
409.811399	2598.810590
410.192176	2597.230188
410.572891	2595.611977
410.953545	2597.552822
411.334138	2597.817482
411.714669	2597.862853
412.095139	2597.784715
412.475547	2600.050713
412.855894	2597.691453
413.236180	2598.843357
413.616405	2598.999633
413.996568	2598.646752
414.376670	2600.131372
414.756711	2598.394694
415.136691	2598.742534
415.516609	2600.534664
415.896466	2599.163470
416.276262	2600.184304
416.655997	2597.938470
417.035670	2600.829572
417.415283	2603.322422
417.794834	2602.084819
418.174324	2601.104315
418.553753	2600.890066
418.933121	2601.434510
419.312428	2602.165477
419.691674	2604.126486
420.070859	2605.588421
420.449983	2602.873760
420.829045	2604.759151
421.208047	2603.251846
421.586988	2606.689913
421.965867	2601.565580
422.344686	2603.259408
422.723444	2604.832248
423.102141	2603.352669
423.480777	2601.779829
423.859352	2602.505755
424.237866	2606.062289
424.616319	2605.752258
424.994712	2607.773761
425.373044	2604.852412
425.751314	2603.692947
426.129524	2602.629264
426.507673	2606.556322
426.885762	2601.888214
427.263789	2605.595983
427.641756	2605.573297
428.019662	2609.291148
428.397508	2607.400716
428.775292	2607.549430
429.153016	2609.152517
429.530679	2607.332660
429.908282	2611.186622
430.285824	2609.454986
430.663305	2608.502208
431.040726	2610.553957
431.418086	2607.892228
431.795385	2608.633278
432.172624	2610.937085
432.549802	2609.248299
432.926920	2611.831890
433.303977	2610.324585
433.680974	2611.665532
434.057910	2611.955398
434.434786	2610.377517
434.811601	2611.105964
435.188355	2613.258537
435.565050	2610.553957
435.941683	2612.028495
436.318257	2612.298197
436.694770	2614.115533
437.071222	2613.329113
437.447614	2614.934720
437.823946	2615.847169
438.200218	2613.785337
438.576429	2614.861623
438.952580	2614.357508
439.328670	2616.074021
439.704700	2613.908845
440.080670	2615.370780
440.456580	2614.947323
440.832429	2616.711727
441.208218	2618.599639
441.583947	2619.713734
441.959616	2619.446553
442.335224	2619.239866
442.710773	2619.219701
443.086261	2618.012345
443.461689	2620.298508
443.837057	2620.109465
444.212365	2619.640637
444.587612	2615.892539
444.962800	2620.162397
445.337927	2617.014196
445.712995	2615.769031
446.088002	2623.736575
446.462949	2619.713734
446.837837	2623.534929
447.212664	2626.181534
447.587431	2625.861421
447.962139	2625.226236
448.336786	2628.744961
448.711374	2631.852832
449.085901	2631.073974
449.460369	2631.257976
449.834776	2629.145733
450.209124	2631.328552
450.583412	2632.863584
450.957640	2633.145888
451.331808	2633.859212
451.705917	2632.157822
452.079965	2632.235960
452.453954	2633.665127
452.827883	2635.066568
453.201752	2637.307361
453.575562	2638.802063
453.949311	2639.953967
454.323001	2639.578401
454.696632	2641.799029
455.070202	2644.480923
455.443713	2646.499905
455.817164	2647.964360
456.190556	2651.846049
456.563888	2654.291008
456.937160	2659.780825
457.310373	2659.506082
457.683526	2663.617143
458.056619	2665.913388
458.429653	2669.490087
458.802628	2671.093174
459.175542	2674.571570
459.548398	2689.813499
459.921194	2695.893130
460.293930	2703.401929
460.666607	2717.769217
461.039224	2744.086561
461.411782	2758.136257
461.784280	2770.648401
462.156719	2778.368928
462.529099	2788.300001
462.901419	2787.458128
463.273680	2797.033800
463.645882	2809.999648
464.018024	2823.988850
464.390106	2846.351408
464.762130	2881.284084
465.134094	2930.614295
465.505999	3026.746578
465.877845	3187.304807
466.249631	3310.543375
466.621358	3329.120027
466.993026	3317.608552
467.364634	3332.956345
467.736184	3335.078671
468.107674	3355.676825
468.479105	3421.073193
468.850477	3460.411838
469.221790	3498.026407
469.593043	3524.777290
469.964238	3554.333575
470.335373	3597.934514
470.706449	3692.481355
471.077467	3722.728278
471.448425	3945.022998
471.819324	4391.013879
472.190164	4682.397612
472.560945	4467.682267
472.931667	4328.397707
473.302330	4360.401472
473.672934	4399.694746
474.043479	4543.458371
474.413965	4625.392244
474.784393	4683.337787
475.154761	4883.244743
475.525070	4994.835725
475.895321	5040.891706
476.265513	5248.584724
476.635645	5447.347338
477.005719	5544.255959
477.375734	5707.198654
477.745691	5938.133912
478.115588	6146.003370
478.485427	6414.084370
478.855207	6755.821668
479.224928	7290.693133
479.594591	8019.472580
479.964194	8192.782408
480.333739	8456.197820
480.703226	8471.177608
481.072653	8615.039536
481.442022	8991.838060
481.811333	9441.347666
482.180584	9652.745932
482.549777	9558.423423
482.918912	9704.561432
483.287988	9943.653276
483.657005	10062.553931
484.025964	10170.003605
484.394864	10368.632628
484.763706	10481.922478
485.132489	10542.948166
485.501213	10762.046795
485.869879	10992.629172
486.238487	11043.801924
486.607036	11391.228165
486.975527	11468.289763
487.343959	11805.051443
487.712333	12043.717310
488.080648	12061.948643
488.448905	12522.558870
488.817104	12625.647946
489.185244	13158.913802
489.553326	13409.335640
489.921350	14037.597000
490.289315	15368.436410
490.657222	16549.694702
491.025070	17088.770489
491.392861	17244.025424
491.760593	17059.965336
492.128267	16915.735404
492.495883	16556.349025
492.863440	16352.656163
493.230939	16059.150104
493.598380	16216.285390
493.965763	16176.500604
494.333088	16135.190868
494.700354	16293.367153
495.067563	16465.852752
495.434713	16508.962179
495.801805	16747.350783
496.168839	16888.921506
496.535815	16982.089591
496.902733	17306.376936
497.269593	17231.440184
497.636395	17607.664016
498.003139	17782.581972
498.369825	17832.149117
498.736453	18116.896172
499.103023	18208.451087
499.469535	18418.236184
499.835989	18745.097038
500.202385	18955.945818
500.568723	18754.324870
500.935003	19097.171222
501.301226	18956.182752
501.667390	19698.613644
502.033497	20101.598441
502.399546	19993.942080
502.765537	19896.065557
503.131470	20316.943930
503.497345	20578.690720
503.863163	20063.920857
504.228923	20742.603838
504.594625	21027.660923
504.960269	20727.361909
505.325856	21303.046555
505.691385	20941.933581
506.056856	21550.224410
506.422270	21682.269873
506.787625	21411.953122
507.152924	21904.047875
507.518164	22010.572497
507.883347	21944.916509
508.248472	21764.423037
508.613540	22556.698337
508.978550	22470.232467
509.343503	22562.480541
509.708398	22910.184045
510.073236	23131.795689
510.438016	23398.371904
510.802738	23198.573333
511.167403	23500.208253
511.532010	23287.181694
511.896561	24101.554892
512.261053	24149.289578
512.625488	24062.364962
512.989866	24025.786350
513.354186	23944.369195
513.718449	24104.975315
514.082655	24520.005950
514.446803	24349.456153
514.810894	24812.269364
515.174927	24367.299317
515.538904	24452.073881
515.902822	24959.859226
516.266684	24772.169506
516.630488	24720.036414
516.994235	24747.908953
517.357925	25059.648866
517.721558	25283.130778
518.085133	25398.580763
518.448651	25371.378696
518.812112	25111.550065
519.175516	25318.081097
519.538863	25516.195923
519.902152	25309.359901
520.265385	25646.837425
520.628560	25453.718383
520.991678	25493.432593
521.354739	25583.011376
521.717743	25643.948844
522.080690	25468.877132
522.443580	25815.385883
522.806413	25831.401629
523.169189	25940.129235
523.531908	26018.438519
523.894569	25627.421421
524.257174	25694.120927
524.619722	25922.182727
524.982213	25606.631702
525.344647	25699.860281
525.707025	25813.760111
526.069345	25831.129407
526.431608	25781.968074
526.793815	25989.209909
527.155964	25439.363697
527.518057	25613.139832
527.880093	25554.138167
528.242072	25785.892612
528.603995	25487.753733
528.965860	25301.369672
529.327669	25355.310018
529.689421	25354.289185
530.051117	25200.541554
530.412755	25366.826534
530.774337	25186.766601
531.135862	25054.277517
531.497331	25263.424907
531.858743	24799.865605
532.220098	25292.648476
532.581396	24967.166378
532.942638	24919.154429
533.303824	25015.296794
533.664953	25043.960795
534.026025	24703.640061
534.387040	24935.515494
534.747999	25000.163251
535.108902	25157.245604
535.469748	24656.258256
535.830537	24867.704413
536.191270	24966.808456
536.551947	24863.820204
536.912567	24536.626634
537.273131	24836.144269
537.633638	24561.540016
537.994089	24769.810246
538.354483	24333.193391
538.714821	24825.701519
539.075103	24862.113773
539.435328	24661.967362
539.795497	24197.732546
540.155609	24614.542708
540.515665	24897.391768
540.875665	24159.664273
541.235609	24422.497431
541.595496	24405.604525
541.955328	24758.356745
542.315102	24672.707541
542.674821	24248.156687
543.034483	24115.108034
543.394090	24281.743375
543.753640	24067.327978
544.113134	24698.893814
544.472571	24304.978053
544.831953	24587.809469
545.191278	24190.599313
545.550548	24135.101251
545.909761	24351.485218
546.268918	24577.812861
546.628019	24535.608321
546.987064	24241.593105
547.346053	24008.187682
547.704986	24127.620178
548.063863	24285.617502
548.422684	24283.230515
548.781449	23844.110727
549.140158	24242.961778
549.498811	23818.002591
549.857408	23554.398136
550.215949	23993.691844
550.574434	23670.150590
550.932864	23892.914138
551.291237	24031.616444
551.649555	23906.857969
552.007817	23968.649912
552.366022	23838.104192
552.724173	23879.847467
553.082267	23807.277537
553.440305	24290.709067
553.798288	23557.710174
554.156215	24080.233332
554.514086	24161.300127
554.871902	23533.603377
555.229661	23813.498320
555.587365	23693.566750
555.945014	23523.692468
556.302606	23800.247648
556.660143	23722.334094
557.017625	23991.614889
557.375050	23530.276215
557.732421	23915.095214
558.089735	23729.169899
558.446994	23792.653149
558.804197	23799.990549
559.161345	23759.290793
559.518437	23512.354913
559.875474	23710.469739
560.232455	23886.597572
560.589381	23717.323187
560.946251	23688.870915
561.303065	24004.280788
561.659825	24113.192396
562.016528	23707.631569
562.373177	23445.209264
562.729770	23796.595332
563.086307	23670.049767
563.442789	23839.319110
563.799216	23659.480988
564.155587	23673.306352
564.511904	23665.512729
564.868164	23592.214352
565.224370	23590.646553
565.580520	23486.188804
565.936615	23627.956133
566.292654	23294.733343
566.648638	23607.612556
567.004567	23423.917951
567.360441	23370.441391
567.716260	23101.591615
568.072023	23430.710906
568.427732	23186.403988
568.783385	22981.720539
569.138982	23211.072874
569.494525	23242.474221
569.850013	22988.682372
570.205445	23086.379934
570.560823	22892.129152
570.916145	22664.553824
571.271412	22836.348785
571.626625	22587.313265
571.981782	22709.586451
572.336884	22506.173373
572.691931	22641.805617
573.046923	22377.233260
573.401860	22261.306887
573.756743	22259.819746
574.111570	22175.574504
574.466342	22114.470678
574.821059	22198.088297
575.175722	21897.582595
575.530330	21887.888457
575.884882	21920.648395
576.239380	21817.156027
576.593823	21708.814069
576.948211	21693.521729
577.302544	21539.713604
577.656823	21423.220101
578.011047	21504.115497
578.365216	21378.862988
578.719330	21267.884507
579.073389	21172.105104
579.427394	21299.361471
579.781344	21086.556723
580.135239	20975.510187
580.489080	20949.843152
580.842866	20710.390865
581.196597	20889.319059
581.550273	20879.685414
581.903895	20769.853795
582.257463	21082.722926
582.610975	20615.261771
582.964434	20916.994993
583.317837	20630.667537
583.671186	20720.533666
584.024481	20676.655463
584.377721	20462.121599
584.730906	20507.416367
585.084037	20556.290353
585.437113	20450.920156
585.790135	20646.206894
586.143103	20123.043509
586.496016	20133.831579
586.848874	20367.567197
587.201679	20313.478137
587.554428	19982.354988
587.907124	20317.750515
588.259765	20102.321847
588.612352	20167.695530
588.964884	19749.720861
589.317362	19917.024155
589.669786	19958.525454
590.022155	20021.577685
590.374470	20187.875268
590.726731	19995.232615
591.078937	19743.437063
591.431090	19847.730974
591.783188	19595.310319
592.135232	19568.413243
592.487222	19666.138531
592.839157	19703.518686
593.191038	19581.510160
593.542866	19462.112952
593.894639	19187.624646
594.246358	19409.057328
594.598022	19320.383432
594.949633	19063.879442
595.301190	19023.933339
595.652692	19188.083391
596.004141	19434.316030
596.355535	18765.541437
596.706876	18773.254403
597.058162	18659.236105
597.409395	18883.363285
597.760573	18983.314242
598.111698	18758.440972
598.462768	18687.947997
598.813785	18644.379825
599.164748	18477.449577
599.515657	18507.106685
599.866511	18285.369013
600.217312	18658.605961
600.568060	18189.632460
600.918753	18500.832969
601.269392	18401.441580
601.619978	18170.529008
601.970510	18393.345487
602.320988	18330.530189
602.671412	18547.695535
603.021783	18442.557231
603.372100	18184.051903
603.722363	18316.883786
604.072572	18253.738293
604.422728	18386.784425
604.772830	18149.204927
605.122878	18100.842617
605.472872	18092.686030
605.822813	18076.025017
606.172701	18055.139517
606.522534	18246.388291
606.872314	18260.851361
607.222041	18100.550230
607.571714	18319.779929
607.921333	18147.616963
608.270899	18222.387357
608.620411	18412.169155
608.969870	18169.321651
609.319276	18182.249690
609.668627	18201.191826
610.017926	18347.150874
610.367171	18451.079301
610.716362	18491.915168
611.065500	18316.934197
611.414585	18439.056149
611.763616	18437.947096
612.112594	18381.662613
612.461518	18344.269854
612.810389	18543.947437
613.159207	18391.366834
613.507971	18306.085634
613.856682	18586.209951
614.205340	18508.104834
614.553945	18658.976486
614.902496	18395.603924
615.250994	18644.599115
615.599439	18579.046471
615.947830	18559.489315
616.296169	18615.826730
616.644454	18581.776256
616.992686	18543.138332
617.340864	18752.880579
617.688990	18521.327780
618.037063	18696.253298
618.385082	18540.557262
618.733048	18822.897165
619.080961	18684.971196
619.428821	18729.235047
619.776628	18624.805025
620.124382	18545.505154
620.472083	18580.019414
620.819731	18600.935161
621.167326	18296.225138
621.514868	18341.948403
621.862357	18098.548892
622.209793	18118.204351
622.557176	17943.810675
622.904506	17773.722144
623.251783	17679.046754
623.599007	17448.434131
623.946179	17393.677118
624.293297	17341.445723
624.640363	17086.842248
624.987376	17108.340248
625.334336	16909.567552
625.681243	16754.133655
626.028097	16762.532218
626.374899	16698.280191
626.721647	16551.469188
627.068343	16388.864251
627.414987	16319.308930
627.761577	16292.800023
628.108115	16339.849112
628.454600	16061.262347
628.801032	16156.101575
629.147412	16093.054384
629.493739	16104.948987
629.840014	15918.423774
630.186236	16021.485123
630.532405	15779.542506
630.878521	15969.687267
631.224585	15873.255035
631.570597	15698.206009
631.916556	15726.030658
632.262462	15717.596807
632.608316	15621.509894
632.954117	15565.709362
633.299866	15565.512758
633.645562	15489.282950
633.991206	15243.665331
634.336797	15106.785402
634.682336	15078.774230
635.027823	14971.669876
635.373257	14857.991856
635.718639	14749.029837
636.063968	14701.849678
636.409245	14450.757366
636.754470	14479.837262
637.099642	14324.912522
637.444762	14098.254684
637.789829	14148.698990
638.134845	13990.663858
638.479808	14004.814377
638.824719	13958.012304
639.169577	13812.864882
639.514383	13852.871479
639.859137	13673.003110
640.203839	13759.184155
640.548489	13598.525103
640.893086	13586.784256
641.237632	13465.962921
641.582125	13601.587604
641.926566	13441.120115
642.270955	13449.014562
642.615292	13414.157504
642.959576	13426.626798
643.303809	13458.451602
643.647990	13391.595820
643.992118	13445.382411
644.336195	13220.002505
644.680219	13426.619236
645.024192	13349.267772
645.368112	13577.490888
645.711981	13643.832473
646.055797	13825.598837
646.399562	13792.758240
646.743274	14058.984095
647.086935	14331.564325
647.430544	14300.127689
647.774101	14326.336648
648.117606	14470.017095
648.461059	14450.280977
648.804460	14449.764259
649.147810	14171.371579
649.491108	14067.415425
649.834354	14095.227471
650.177548	13788.518630
650.520690	13598.482253
650.863781	13515.449408
651.206820	13558.750399
651.549807	13394.408784
651.892742	13204.407695
652.235626	13136.508394
652.578458	13140.594249
652.921238	12822.124396
653.263967	13020.700487
653.606644	12845.064167
653.949269	12814.219867
654.291843	12623.208027
654.634365	12778.765432
654.976836	12633.320582
655.319255	12649.953869
655.661622	12601.853699
656.003938	12517.021163
656.346203	12454.478087
656.688416	12519.556863
657.030577	12482.441368
657.372687	12395.962894
657.714746	12368.619676
658.056753	12559.192935
658.398708	12381.522509
658.740612	12386.959393
659.082465	12485.947490
659.424266	12445.315790
659.766016	12467.454017
660.107715	12380.426058
660.449362	12448.794186
660.790958	12411.998804
661.132503	12356.505783
661.473996	12420.999785
661.815438	12440.960233
662.156829	12449.252931
662.498168	12429.789036
662.839456	12422.721339
663.180693	12443.395111
663.521879	12537.465562
663.863013	12514.614012
664.204097	12490.386226
664.545129	12609.415430
664.886110	12571.117784
665.227040	12666.347701
665.567918	12677.307170
665.908746	12711.226573
666.249522	12694.472298
666.590248	12744.019279
666.930922	12852.101618
667.271545	12834.976818
667.612118	12916.197368
667.952639	12824.478615
668.293109	12825.701095
668.633528	12788.852781
668.973896	12765.807146
669.314213	12853.263603
669.654480	12589.863315
669.994695	12648.015545
670.334859	12679.157273
670.674973	12624.249025
671.015035	12657.306392
671.355047	12594.574273
671.695008	12564.559243
672.034918	12573.729102
672.374777	12621.282306
672.714585	12522.810928
673.054342	12563.949264
673.394049	12516.806913
673.733705	12613.072787
674.073310	12524.552646
674.412864	12538.161241
674.752368	12412.588619
675.091820	12415.774629
675.431223	12409.412693
675.770574	12281.808486
676.109875	12211.005480
676.449125	12169.700786
676.788324	12106.600663
677.127473	11948.189965
677.466571	11932.769076
677.805619	11838.927997
678.144616	11757.553692
678.483562	11726.086809
678.822458	11594.923548
679.161303	11576.120044
679.500098	11566.993035
679.838842	11517.821620
680.177535	11540.272399
680.516179	11599.115267
680.854771	11541.376412
681.193314	11762.272212
681.531805	11905.088100
681.870247	12313.774442
682.208638	12718.405176
682.546978	13050.191237
682.885268	13094.636570
683.223508	12791.421249
683.561697	12631.183133
683.899836	12532.777289
684.237925	12341.150428
684.575963	12254.470308
684.913951	12185.701408
685.251889	12120.342849
685.589776	12221.531409
685.927614	12150.083136
686.265401	12115.054678
686.603137	12160.369610
686.940824	12304.256744
687.278460	12427.480188
687.616046	12472.621200
687.953582	12650.483190
688.291068	12572.554513
688.628504	12801.412816
688.965889	12799.802167
689.303224	12783.899847
689.640510	12678.842201
689.977745	12368.728060
690.314930	12150.877117
690.652065	12059.987634
690.989150	11771.535332
691.326185	11548.645756
691.663170	11341.653458
692.000105	11098.138001
692.336990	10997.632517
692.673825	10738.751623
693.010610	10619.336770
693.347345	10407.883052
693.684030	10217.818949
694.020665	10161.400876
694.357251	9961.365370
694.693786	9906.840250
695.030272	9738.402697
695.366707	9626.390780
695.703093	9553.188185
696.039429	9554.481241
696.375716	9478.760589
696.711952	9344.701185
697.048139	9386.336075
697.384276	9334.371861
697.720363	9351.839459
698.056400	9296.984143
698.392388	9247.807688
698.728326	9208.489208
699.064214	9146.125094
699.400053	9191.641672
699.735842	9005.582766
700.071581	8967.264955
700.407270	8893.480107
700.742910	8808.897107
701.078501	8717.964774
701.414042	8599.076723
701.749533	8525.732975
702.084974	8392.805310
702.420366	8501.265735
702.755709	8389.115185
703.091002	8262.506607
703.426246	8278.915562
703.761440	8234.744972
704.096584	8186.526336
704.431679	8122.380174
704.766725	8109.477340
705.101721	8060.144609
705.436668	8108.063297
705.771565	7999.411308
706.106413	8078.595232
706.441212	8124.961244
706.775961	8080.100016
707.110661	8110.425077
707.445311	8257.162983
707.779913	8153.665574
708.114465	8282.509905
708.448967	8322.456008
708.783421	8458.456257
709.117825	8639.521900
709.452180	8679.031943
709.786485	8763.287268
710.120742	9044.094661
710.454949	9041.798415
710.789107	9147.375300
711.123216	9355.262402
711.457275	9520.188792
711.791286	9677.908851
712.125247	9674.407770
712.459159	9667.153550
712.793023	9921.046222
713.126837	9496.734823
713.460602	9644.559098
713.794318	9471.274476
714.127985	9504.324280
714.461602	9189.554634
714.795171	9137.174525
715.128691	8893.074294
715.462162	8641.369483
715.795584	8586.667922
716.128957	8445.276160
716.462281	8265.085157
716.795556	8323.922984
717.128782	8119.189123
717.461960	7850.069646
717.795088	7917.651354
718.128167	7827.351686
718.461198	7660.973444
718.794180	7598.697550
719.127113	7593.260666
719.459997	7448.153573
719.792833	7218.574386
720.125619	7276.953468
720.458357	7133.895604
720.791046	7126.255735
721.123686	7123.881352
721.456278	6962.708102
721.788821	6980.924311
722.121315	6877.094186
722.453761	6935.256498
722.786158	6887.748665
723.118506	6902.259626
723.450805	6860.740683
723.783056	6936.247085
724.115259	6841.163362
724.447412	6835.028278
724.779518	6879.302211
725.111574	6878.972016
725.443582	6963.986034
725.775542	6948.260155
726.107453	7137.205122
726.439315	7048.410238
726.771129	7104.021726
727.102895	7265.084071
727.434612	7386.051599
727.766281	7412.651247
728.097901	7498.897828
728.429473	7483.781928
728.760996	7466.886501
729.092471	7438.978673
729.423897	7386.291054
729.755276	7402.044659
730.086606	7328.632857
730.417887	7425.705315
730.749120	7608.807584
731.080305	7803.698592
731.411442	7930.019825
731.742530	7925.472704
732.073570	8033.255094
732.404562	8116.973536
732.735506	7967.125238
733.066401	8105.671269
733.397249	8044.285139
733.728048	7807.265208
734.058798	7478.889488
734.389501	7253.509582
734.720156	7073.747077
735.050762	6845.307190
735.381320	6749.036275
735.711831	6694.130548
736.042293	6587.051399
736.372707	6611.039730
736.703073	6469.912628
737.033391	6506.090469
737.363661	6516.608836
737.693883	6545.824843
738.024056	6621.061544
738.354182	6672.539286
738.684260	6706.017589
739.014290	6815.342572
739.344272	6925.549757
739.674207	6958.095446
740.004093	7025.374685
740.333931	7041.806326
740.663722	7047.492748
740.993464	7129.971066
741.323159	7124.657690
741.652806	6867.543720
741.982405	6875.690225
742.311956	6934.333967
742.641460	6782.857377
742.970915	6588.306647
743.300323	6575.572692
743.629683	6526.781885
743.958996	6393.546709
744.288260	6306.281815
744.617477	6248.555563
744.946647	6258.731132
745.275768	6092.327684
745.604842	6043.247011
745.933869	6024.919896
746.262847	5986.884390
746.591778	5973.343851
746.920662	5936.548469
747.249498	5922.143372
747.578286	5972.035671
747.907027	6046.296909
748.235720	6104.134067
748.564365	6075.613739
748.892963	6097.603252
749.221514	6256.601244
749.550017	6097.139466
749.878473	5965.928313
750.206881	6020.279514
750.535242	5963.954702
750.863555	5899.122943
751.191821	5915.481487
751.520039	5917.152629
751.848210	5824.357590
752.176334	5838.492985
752.504411	5893.751593
752.832440	5824.259288
753.160421	5748.853708
753.488356	5797.667201
753.816243	5829.739022
754.144082	5682.353327
754.471875	5650.667155
754.799620	5695.029309
755.127318	5709.749478
755.454969	5657.076982
755.782572	5626.157065
756.110129	5669.687428
756.437638	5657.780223
756.765100	5595.191777
757.092515	5593.896201
757.419882	5637.343385
757.747203	5621.594821
758.074477	5685.831723
758.401703	5681.418193
758.728882	5623.901148
759.056014	5677.861659
759.383099	5811.895858
759.710138	5821.030428
760.037129	5803.252799
760.364073	5808.787986
760.690970	5890.376541
761.017820	5878.610488
761.344623	5827.566284
761.671379	5930.221821
761.998088	6042.241300
762.324751	6278.835253
762.651366	6861.214551
762.977935	8152.695152
763.304456	9769.186503
763.630931	10686.895794
763.957359	10315.443414
764.283740	9391.556189
764.610074	8563.029952
764.936362	7575.178047
765.262602	6975.399207
765.588796	6437.745025
765.914943	6099.899498
766.241044	5940.596515
766.567097	5742.915229
766.893104	5487.865612
767.219064	5303.528260
767.544978	5238.678857
767.870845	5165.307383
768.196665	5056.547009
768.522438	4984.430783
768.848165	4951.769147
769.173846	4886.536617
769.499479	4845.274772
769.825066	4791.498264
770.150607	4730.190271
770.476101	4706.428792
770.801548	4702.655489
771.126949	4631.658399
771.452303	4573.710335
771.777611	4535.649624
772.102872	4550.251326
772.428087	4514.300337
772.753256	4474.432372
773.078378	4430.624745
773.403453	4363.048078
773.728482	4347.866643
774.053465	4301.326711
774.378401	4283.571767
774.703291	4287.188795
775.028135	4219.642374
775.352932	4175.048327
775.677683	4153.968743
776.002388	4178.516641
776.327046	4189.760935
776.651658	4113.934419
776.976224	4049.899162
777.300743	4055.966191
777.625216	4078.759768
777.949643	4078.699274
778.274024	4032.602964
778.598359	3983.176971
778.922647	4004.801000
779.246889	4000.087521
779.571086	3994.857324
779.895236	3985.236282
780.219339	3964.242397
780.543397	3959.052529
780.867409	4008.153367
781.191374	4025.570554
781.515294	3962.727530
781.839167	3954.001293
782.162995	3974.775888
782.486776	3962.591419
782.810511	3973.248418
783.134201	3967.372953
783.457844	3926.159000
783.781441	3871.240670
784.104993	3872.677399
784.428498	3892.761356
784.751958	3889.842528
785.075372	3868.682285
785.398739	3829.383970
785.722061	3843.862164
786.045337	3886.659039
786.368568	3920.444852
786.691752	3830.687108
787.014891	3879.122514
787.337983	3999.109537
787.661030	4162.785721
787.984031	4322.678518
788.306987	4492.215042
788.629897	4573.344852
788.952760	4531.009242
789.275579	4463.956854
789.598351	4401.870003
789.921078	4266.479735
790.243759	4067.407090
790.566395	4045.772978
790.888984	4042.874315
791.211529	3931.996656
791.534027	3875.235785
791.856480	3866.484342
792.178888	3805.211637
792.501249	3753.532248
792.823566	3762.046757
793.145836	3795.000780
793.468062	3744.511104
793.790241	3696.630224
794.112375	3724.933783
794.434464	3789.619348
794.756507	3812.445693
795.078505	3794.839463
795.400457	3824.642765
795.722364	3965.066626
796.044226	4067.964137
796.366042	4138.275631
796.687812	4122.186788
797.009538	4131.780104
797.331218	4087.294442
797.652852	4055.492323
797.974442	4037.248387
798.295986	4039.355589
798.617484	3958.046819
798.938938	3871.288561
799.260346	3909.767688
799.581709	3908.895569
799.903026	3839.373016
800.224299	3802.428920
800.545526	3794.297539
800.866708	3756.751025
801.187845	3693.134184
801.508936	3731.139443
801.829983	3728.976788
802.150984	3650.309582
802.471940	3640.854898
802.792851	3648.272956
803.113717	3649.064417
803.434538	3654.521466
803.755314	3595.877724
804.076045	3569.978796
804.396731	3587.083431
804.717372	3614.240127
805.037967	3599.454422
805.358518	3586.017227
805.679024	3612.168212
805.999485	3629.676140
806.319901	3632.428610
806.640272	3647.622647
806.960598	3662.937673
807.280879	3635.077736
807.601115	3648.976197
807.921306	3664.911284
808.241453	3706.581462
808.561554	3683.109850
808.881611	3618.144500
809.201623	3649.770179
809.521590	3665.304494
809.841513	3635.937253
810.161390	3665.569155
810.481223	3645.202893
810.801011	3587.363215
811.120755	3578.377358
811.440453	3614.877832
811.760107	3621.441415
812.079716	3576.204621
812.399281	3544.372255
812.718801	3572.015422
813.038276	3542.580125
813.357707	3540.299002
813.677093	3557.118812
813.996434	3504.272397
814.315731	3514.100126
814.634983	3518.153214
814.954191	3531.517313
815.273354	3559.407496
815.592473	3558.888257
815.911547	3561.212229
816.230577	3601.145729
816.549562	3651.438801
816.868502	3691.130326
817.187399	3718.617217
817.506250	3720.318606
817.825058	3684.723019
818.143821	3774.553860
818.462539	3880.642422
818.781213	3928.566151
819.099843	3981.906600
819.418429	4216.894945
819.736970	4458.479641
820.055466	4700.230694
820.373919	5059.780910
820.692327	5464.701510
821.010691	5893.446603
821.329011	7234.186839
821.647286	9919.364997
821.965517	14407.247167
822.283704	18422.692564
822.601847	20643.905607
822.919945	18866.777889
823.237999	16337.444481
823.556010	13865.008057
823.873976	11797.774538
824.191897	9718.666580
824.509775	8358.422120
824.827609	7236.707416
825.145398	6685.769795
825.463144	6568.774696
825.780845	6682.238466
826.098502	6863.536003
826.416116	7708.788789
826.733685	9018.440229
827.051210	10133.626638
827.368692	10212.087157
827.686129	8986.312955
828.003522	7467.698127
828.320872	6458.030628
828.638177	5764.577067
828.955439	5205.926480
829.272656	4709.640007
829.589830	4426.702727
829.906960	4251.270573
830.224046	4064.581523
830.541088	3940.748099
830.858086	3897.437026
831.175041	3820.256961
831.491952	3797.826347
831.808819	3811.936536
832.125642	3881.040673
832.442421	4025.389072
832.759157	4295.877223
833.075849	4833.181044
833.392497	5685.501528
833.709101	6456.901410
834.025662	6803.773124
834.342179	6459.328726
834.658653	5804.198016
834.975083	5160.669522
835.291469	4588.392696
835.607811	4175.643183
835.924110	4036.116648
836.240366	3841.144982
836.556578	3633.938435
836.872746	3527.585212
837.188871	3487.583657
837.504952	3422.557813
837.820990	3343.847758
838.136984	3294.751960
838.452935	3318.037050
838.768842	3316.375990
839.084706	3337.231243
839.400526	3488.337309
839.716303	3817.388544
840.032037	4334.447091
840.347727	4609.696612
840.663373	4339.589068
840.978977	3961.258034
841.294537	3657.105058
841.610054	3428.150973
841.925527	3323.587360
842.240957	3252.963316
842.556344	3197.689584
842.871687	3141.347128
843.186987	3087.739498
843.502244	3054.024261
843.817458	3018.164013
844.132629	2988.118737
844.447756	2998.453102
844.762840	2983.740494
845.077881	2953.175979
845.392879	2935.506734
845.707833	2930.037083
846.022745	2928.761671
846.337613	2930.019438
846.652438	2917.812284
846.967221	2916.065525
847.281960	2901.531878
847.596656	2897.239336
847.911309	2896.190776
848.225919	2891.958727
848.540485	2884.747356
848.855009	2887.456977
849.169490	2876.772251
849.483928	2863.864377
849.798323	2868.857639
850.112675	2862.750282
850.426984	2874.150851
850.741251	2871.968031
851.055474	2859.052595
851.369654	2854.384487
851.683792	2861.457226
851.997887	2870.380068
852.311938	2873.757641
852.625947	2860.542256
852.939914	2859.493696
853.253837	2870.561549
853.567718	2854.699559
853.881555	2850.512881
854.195350	2866.087525
854.509103	2865.709439
854.822812	2856.063191
855.136479	2852.698221
855.450103	2852.017665
855.763685	2844.549196
856.077224	2843.253619
856.390720	2858.145187
856.704173	2865.419572
857.017584	2861.048892
857.330953	2854.752491
857.644278	2863.486290
857.957561	2875.955584
858.270802	2875.852240
858.584000	2879.023126
858.897155	2865.195241
859.210268	2861.963862
859.523339	2860.312884
859.836367	2858.493027
860.149352	2855.748119
860.462295	2850.152438
860.775195	2857.464632
861.088054	2857.767101
861.400869	2840.715398
861.713642	2839.344204
862.026373	2852.486492
862.339062	2856.484127
862.651708	2860.597709
862.964312	2868.177084
863.276873	2857.237780
863.589392	2868.900489
863.901869	2880.132180
864.214303	2900.538771
864.526696	2916.189033
864.839045	2912.793816
865.151353	2909.781726
865.463619	2908.060172
865.775842	2910.134607
866.088023	2928.093718
866.400162	2939.368258
866.712258	2908.067734
867.024313	2899.414593
867.336325	2903.419790
867.648296	2926.949376
867.960224	2918.613828
868.272110	2905.302661
868.583954	2912.030081
868.895755	2926.639345
869.207515	2911.311717
869.519233	2914.991759
869.830909	2926.099941
870.142542	2934.916919
870.454134	2936.250305
870.765684	2939.711057
871.077191	2937.966818
871.388657	2945.725153
871.700081	2960.977164
872.011463	2971.873618
872.322803	2973.466623
872.634101	2971.611478
872.945357	2987.450784
873.256571	3011.829804
873.567744	3004.396622
873.878874	2998.165756
874.189963	3020.936648
874.501010	3025.103162
874.812015	3011.638240
875.122979	3013.175792
875.433900	3011.350894
875.744780	3015.673683
876.055618	3024.062163
876.366415	3019.996473
876.677169	3031.104655
876.987882	3029.347813
877.298554	3020.306504
877.609183	3041.867519
877.919771	3067.204358
878.230317	3089.352668
878.540822	3142.425935
878.851285	3183.705423
879.161707	3218.862430
879.472087	3321.437308
879.782425	3537.831358
880.092722	3970.558963
880.402977	4491.559692
880.713191	5110.527685
881.023363	6242.009624
881.333494	7509.577512
881.643583	8078.910304
881.953631	7791.302395
882.263637	7174.938158
882.573602	6595.006340
882.883526	6024.095667
883.193408	5454.362103
883.503248	4989.658460
883.813048	4689.243499
884.122806	4393.317686
884.432522	4082.175150
884.742197	3850.183771
885.051831	3656.679080
885.361424	3518.294366
885.670975	3448.708799
885.980485	3361.912733
886.289954	3286.635703
886.599382	3243.352356
886.908768	3205.442879
887.218113	3161.504182
887.527417	3103.311622
887.836680	3052.612738
888.145901	3051.712892
888.455082	3040.481202
888.764221	2991.455980
889.073319	2962.340796
889.382376	2960.745271
889.691392	2961.798872
890.000366	2962.464305
890.309300	2949.647171
890.618193	2963.457412
890.927044	2977.030719
891.235855	2981.076245
891.544625	2965.952783
891.853353	2973.953094
892.162041	2991.846670
892.470687	3030.461908
892.779293	3083.487285
893.087858	3131.295067
893.396381	3198.249152
893.704864	3315.781134
894.013306	3550.262843
894.321707	3850.234182
894.630068	4055.167168
894.938387	4053.990059
895.246665	4010.820138
895.554903	3891.662384
895.863100	3692.693083
896.171256	3529.715100
896.479371	3395.927918
896.787446	3271.988630
897.095480	3167.006601
897.403473	3103.596448
897.711425	3067.000191
898.019336	3055.188768
898.327207	3028.135416
898.635038	2997.860766
898.942827	2981.572798
899.250576	2969.902527
899.558284	2940.066458
899.865952	2920.032913
900.173579	2897.325035
900.481165	2892.203223
900.788711	2878.481202
901.096216	2854.707121
901.403681	2844.168588
901.711105	2854.301308
902.018489	2847.954495
902.325832	2846.205215
902.633135	2857.872965
902.940397	2888.402193
903.247619	2967.497897
903.554800	3155.187616
903.861941	3493.179338
904.169041	3911.380858
904.476101	4214.772620
904.783121	4179.126621
905.090100	3939.061833
905.397039	3670.151564
905.703938	3420.730395
906.010796	3235.485635
906.317614	3126.369860
906.624391	3032.619522
906.931129	2960.649489
907.237826	2901.196641
907.544483	2856.511854
907.851099	2822.113540
908.157675	2801.800211
908.464211	2784.579629
908.770707	2770.585386
909.077163	2755.494692
909.383578	2743.181674
909.689954	2734.037021
909.996289	2729.852863
910.302584	2728.436299
910.608839	2729.532750
910.915054	2727.453274
911.221229	2718.931203
911.527363	2722.901112
911.833458	2728.912688
912.139513	2731.382853
912.445527	2734.972155
912.751502	2745.858527
913.057436	2754.025196
913.363331	2768.836106
913.669186	2786.641461
913.975000	2820.505412
914.280775	2878.745863
914.586510	2951.817388
914.892205	3025.070394
915.197859	3150.953047
915.503475	3341.087726
915.809050	3549.478944
916.114585	3695.503527
916.420081	3716.872978
916.725536	3662.723424
917.030952	3544.536092
917.336328	3418.706372
917.641665	3289.514202
917.946961	3191.158769
918.252218	3123.098151
918.557435	3041.260060
918.862612	2985.275526
919.167750	2935.168977
919.472848	2895.812689
919.777906	2873.293855
920.082925	2845.199504
920.387904	2812.888229
920.692843	2799.536733
920.997743	2788.612552
921.302603	2774.532610
921.607423	2763.782349
921.912204	2752.364136
922.216946	2744.562950
922.521647	2730.851012
922.826310	2725.207440
923.130932	2716.473641
923.435516	2710.482230
923.740059	2702.955787
924.044564	2692.255938
924.349028	2689.266534
924.653454	2681.735050
924.957840	2676.373783
925.262186	2672.061076
925.566493	2668.522186
925.870761	2664.058244
926.174989	2660.504230
926.479178	2657.386277
926.783328	2650.280770
927.087438	2648.609628
927.391509	2648.385297
927.695541	2645.592497
927.999533	2642.852630
928.303486	2638.940695
928.607400	2637.826600
928.911275	2637.440952
929.215110	2637.750982
929.518906	2634.370889
929.822663	2635.570683
930.126381	2634.186887
930.430060	2634.229737
930.733699	2636.926754
931.037299	2638.950777
931.340861	2638.340797
931.644383	2639.444810
931.947866	2636.977165
932.251309	2637.476240
932.554714	2634.819552
932.858080	2634.691002
933.161407	2634.128913
933.464694	2632.203193
933.767943	2627.638428
934.071153	2631.273100
934.374323	2629.576752
934.677455	2631.179838
934.980548	2627.189765
935.283602	2626.579786
935.586617	2626.786473
935.889593	2625.987450
936.192530	2625.158180
936.495428	2628.961731
936.798287	2629.223871
937.101108	2629.798562
937.403890	2636.886425
937.706632	2640.178298
938.009336	2651.034423
938.312002	2656.670433
938.614628	2663.586896
938.917216	2670.407577
939.219765	2669.691733
939.522275	2669.399346
939.824747	2667.798780
940.127179	2666.866167
940.429573	2665.686537
940.731929	2658.636483
941.034246	2657.257727
941.336524	2653.262613
941.638763	2649.373363
941.940964	2648.004689
942.243126	2648.523928
942.545250	2645.655512
942.847335	2643.576036
943.149381	2641.259626
943.451389	2636.649490
943.753359	2633.592031
944.055290	2630.821917
944.357182	2630.716052
944.659036	2632.125055
944.960851	2628.364354
945.262628	2629.680095
945.564367	2629.042389
945.866067	2629.975003
946.167729	2628.432410
946.469352	2628.475259
946.770937	2632.074643
947.072484	2627.472070
947.373992	2629.952317
947.675462	2624.923767
947.976893	2620.384207
948.278286	2618.992849
948.579641	2620.570730
948.880958	2617.795575
949.182236	2620.676594
949.483476	2621.014352
949.784678	2621.485700
950.085841	2619.285236
950.386967	2622.098200
950.688054	2624.210443
950.989103	2624.722120
951.290114	2625.967285
951.591087	2622.919908
951.892021	2628.702111
952.192917	2631.227729
952.493776	2634.121352
952.794596	2633.047586
953.095378	2632.558594
953.396122	2633.592031
953.696828	2631.797380
953.997496	2628.689508
954.298126	2627.522481
954.598718	2623.209774
954.899272	2624.233128
955.199788	2617.737602
955.500266	2617.031840
955.800706	2617.331789
956.101108	2611.282404
956.401472	2612.966150
956.701798	2609.704523
957.002087	2606.281580
957.302337	2603.133379
957.602550	2603.365272
957.902724	2601.258070
958.202861	2603.629933
958.502960	2602.548605
958.803022	2601.384099
959.103045	2601.900817
959.403031	2597.691453
959.702979	2599.213882
960.002889	2598.740013
960.302762	2597.242791
960.602596	2598.132554
960.902393	2595.095259
961.202153	2593.998808
961.501875	2593.013263
961.801559	2594.651638
962.101205	2596.524426
962.400814	2594.848243
962.700385	2596.100969
962.999918	2590.631318
963.299414	2593.280444
963.598873	2591.329517
963.898293	2587.788107
964.197677	2593.872779
964.497022	2592.889754
964.796331	2594.482759
965.095601	2591.667275
965.394835	2592.650300
965.694030	2593.053592
965.993189	2592.809096
966.292309	2592.758684
966.591393	2590.790114
966.890439	2592.957810
967.189447	2591.815989
967.488419	2592.957810
967.787353	2593.000660
968.086249	2591.357244
968.385108	2591.974785
968.683930	2591.243818
968.982714	2590.522933
969.281462	2590.575865
969.580172	2590.598550
969.878844	2591.047213
970.177480	2593.207347
970.476078	2592.977975
970.774639	2593.560228
971.073162	2592.128540
971.371649	2591.803386
971.670098	2593.751792
971.968510	2594.165166
972.266885	2594.613829
972.565223	2593.908067
972.863524	2594.840681
973.161788	2595.564087
973.460014	2591.105186
973.758204	2596.118613
974.056356	2592.166349
974.354471	2592.436051
974.652550	2594.379415
974.950591	2592.322625
975.248595	2593.771956
975.546563	2594.059302
975.844493	2589.592840
976.142386	2591.904209
976.440243	2592.161308
976.738062	2590.830443
977.035845	2592.181472
977.333590	2591.821030
977.631299	2592.872110
977.928971	2588.859352
978.226606	2589.378591
978.524204	2587.649475
978.821765	2586.598394
979.119290	2589.358426
979.416777	2588.380442
979.714228	2590.475042
980.011642	2589.817171
980.309020	2588.710638
980.606360	2590.185175
980.903664	2590.462439
981.200931	2590.769949
981.498162	2591.828592
981.795356	2592.458736
982.092513	2594.513006
982.389633	2597.013418
982.686717	2599.528954
982.983764	2602.936774
983.280775	2609.596138
983.577749	2607.133535
983.874686	2606.657146
984.171587	2602.974583
984.468451	2601.971393
984.765279	2598.314036
985.062070	2597.908223
985.358824	2595.496031
985.655543	2597.943511
985.952224	2593.713983
986.248869	2593.592995
986.545478	2593.426637
986.842050	2590.918663
987.138586	2591.155597
987.435086	2590.956472
987.731549	2587.823395
988.027975	2586.817685
988.324366	2587.185689
988.620719	2586.875658
988.917037	2585.953127
989.213318	2588.458580
989.509563	2588.032603
989.805772	2588.083014
990.101944	2586.971440
990.398080	2586.560586
990.694180	2587.697366
990.990244	2586.298446
991.286271	2589.605443
991.582262	2587.649475
991.878217	2586.558065
992.174136	2587.929259
992.470019	2586.449680
992.765865	2586.164855
993.061676	2584.009762
993.357450	2582.777200
993.653188	2582.429360
993.948890	2588.309866
994.244556	2584.312231
994.540186	2588.564444
994.835780	2585.239803
995.131337	2588.440936
995.426859	2587.944382
995.722345	2588.725761
996.017795	2590.404466
996.313208	2590.777511
996.608586	2593.512337
996.903928	2593.522419
997.199234	2592.068046
997.494504	2590.565782
997.789738	2592.453695
998.084936	2590.117120
998.380099	2591.730289
998.675225	2589.144177
998.970316	2589.897830
999.265371	2590.376739
999.560390	2591.936976
999.855373	2588.055288
1000.150320	2588.829105
1000.445232	2586.006059
1000.740108	2587.813312
1001.034948	2584.211408
1001.329752	2587.452870
1001.624521	2584.201326
1001.919254	2586.933631
1002.213951	2586.905905
1002.508613	2587.294074
1002.803239	2586.479927
1003.097829	2586.069073
1003.392384	2585.675863
1003.686903	2583.359453
1003.981386	2586.114444
1004.275834	2586.248034
1004.570246	2586.626121
1004.864623	2584.912128
1005.158964	2584.980184
1005.453270	2582.469689
1005.747540	2585.055801
1006.041775	2584.579412
1006.335974	2584.057653
1006.630138	2583.682087
1006.924266	2583.689649
1007.218359	2586.162335
1007.512416	2583.984556
1007.806438	2580.017168
1008.100425	2582.439442
1008.394376	2579.457600
1008.688292	2584.607139
1008.982172	2585.459094
1009.276017	2584.866758
1009.569827	2583.097313
1009.863602	2582.588157
1010.157341	2583.903898
1010.451045	2584.281984
1010.744714	2586.185020
1011.038347	2584.770976
1011.331945	2582.303331
1011.625508	2582.066397
1011.919036	2582.978846
1012.212528	2584.390369
1012.505986	2582.263002
1012.799408	2586.106882
1013.092795	2582.913311
1013.386147	2583.467838
1013.679464	2581.214442
1013.972745	2583.389700
1014.265992	2585.701069
1014.559204	2584.309711
1014.852380	2584.609659
1015.145521	2582.535224
1015.438628	2583.097313
1015.731699	2583.465317
1016.024736	2581.829463
1016.317737	2586.013621
1016.610703	2583.304000
1016.903635	2585.300297
1017.196531	2582.399113
1017.489393	2585.144022
1017.782219	2584.264340
1018.075011	2583.621593
1018.367768	2583.598908
1018.660490	2582.920873
1018.953177	2582.920873
1019.245829	2582.920873
