Dividing Wavelength (nm)	Counts (n)	Blue Motor Position (mm): 39.800000	Red Motor Position (mm): 0.000000	
326.493990	2246.809502
326.888308	2246.809502
327.282561	2246.809502
327.676750	2206.853316
328.070874	2202.585980
328.464933	2203.531196
328.858929	2209.434387
329.252859	2212.207022
329.646726	2222.238918
330.040528	2233.936915
330.434265	2245.551734
330.827938	2264.085536
331.221547	2283.579678
331.615091	2297.941925
332.008571	2317.342806
332.401986	2337.842658
332.795338	2356.729341
333.188625	2375.837834
333.581847	2396.987995
333.975006	2413.976684
334.368100	2434.663059
334.761129	2450.419185
335.154095	2470.790488
335.546996	2496.981803
335.939833	2534.636701
336.332606	2550.687735
336.725315	2562.857080
337.117960	2576.054821
337.510540	2588.824064
337.903056	2599.907041
338.295508	2607.607403
338.687896	2615.650564
339.080220	2622.299846
339.472480	2627.469549
339.864676	2635.588327
340.256807	2638.759213
340.648875	2642.212404
341.040879	2645.526962
341.432818	2648.619710
341.824694	2651.316728
342.216506	2653.403765
342.608253	2652.997952
342.999937	2653.280257
343.391557	2655.563900
343.783113	2653.502068
344.174605	2650.547952
344.566033	2650.905873
344.957397	2650.663898
345.348697	2647.238434
345.739934	2650.311017
346.131106	2648.556696
346.522215	2643.381951
346.913260	2643.520583
347.304241	2641.219296
347.695159	2639.739718
348.086012	2639.044038
348.476802	2634.960704
348.867528	2631.240332
349.258191	2625.939559
349.648789	2626.005094
350.039324	2626.269755
350.429796	2627.696401
350.820203	2628.626494
351.210548	2623.429064
351.600828	2624.225567
351.991045	2624.079373
352.381198	2623.976030
352.771288	2622.327572
353.161314	2620.074177
353.551276	2622.912346
353.941175	2622.400669
354.331010	2620.094341
354.720782	2619.338168
355.110490	2618.723147
355.500135	2619.580143
355.889717	2620.202726
356.279235	2617.828342
356.668689	2620.613580
357.058080	2621.004269
357.447408	2621.616770
357.836672	2623.363529
358.225873	2622.693056
358.615010	2621.107613
359.004084	2623.580299
359.393095	2623.219857
359.782043	2624.936369
360.170927	2625.511061
360.559748	2625.679940
360.948505	2627.295629
361.337199	2626.927625
361.725830	2627.361164
362.114398	2628.099693
362.502903	2624.649024
362.891344	2627.313273
363.279722	2626.743623
363.668037	2629.952317
364.056289	2628.205558
364.444478	2632.301495
364.832603	2629.498614
365.220665	2631.804942
365.608665	2632.324180
365.996601	2633.713018
366.384474	2632.094808
366.772284	2634.002885
367.160031	2635.989099
367.547715	2638.670993
367.935336	2634.786784
368.322893	2631.862915
368.710388	2633.402987
369.097820	2634.234778
369.485189	2634.365848
369.872495	2640.032105
370.259738	2639.853144
370.646918	2639.127217
371.034035	2639.880870
371.421090	2641.723412
371.808081	2639.916158
372.195010	2641.171405
372.581875	2644.821201
372.968678	2642.333391
373.355418	2641.146200
373.742096	2642.986221
374.128710	2641.582259
374.515262	2646.383958
374.901751	2645.942857
375.288177	2643.177785
375.674540	2647.384627
376.060841	2645.993269
376.447079	2645.670635
376.833254	2647.853455
377.219367	2649.217087
377.605417	2647.646767
377.991404	2649.748929
378.377329	2647.780358
378.763191	2648.221459
379.148991	2651.220946
379.534727	2650.401758
379.920402	2651.278919
380.306013	2653.136584
380.691563	2654.747233
381.077049	2651.972077
381.462474	2653.106337
381.847835	2653.043323
382.233134	2655.200937
382.618371	2655.105155
383.003545	2657.766884
383.388657	2654.951399
383.773706	2657.971051
384.158693	2657.905516
384.543618	2657.746719
384.928480	2662.165291
385.313280	2660.458860
385.698017	2662.971875
386.082692	2661.068840
386.467305	2661.341062
386.851856	2664.118738
387.236344	2664.930363
387.620770	2662.898778
388.005133	2667.985303
388.389435	2672.151816
388.773674	2672.809687
389.157851	2684.479958
389.541965	2691.419106
389.926018	2699.805066
390.310008	2713.063300
390.693936	2732.403687
391.077802	2752.003693
391.461606	2772.690068
391.845348	2803.211734
392.229027	2838.157012
392.612645	2871.232023
392.996200	2925.177410
393.379694	2977.290338
393.763125	3041.078578
394.146494	3096.783328
394.529801	3161.153822
394.913047	3239.440420
395.296230	3283.724436
395.679351	3371.327087
396.062410	3451.158800
396.445408	3502.835668
396.828343	3595.217333
397.211217	3685.930375
397.594028	3700.050647
397.976778	3819.394923
398.359466	3910.947318
398.742092	3992.109895
399.124656	4004.001977
399.507158	4134.605671
399.889598	4241.031990
400.271977	4384.543558
400.654294	4440.081950
401.036549	4534.228018
401.418742	4542.956776
401.800874	4746.909258
402.182944	4852.589487
402.564952	4996.383359
402.946898	5094.436322
403.328783	5034.406262
403.710606	5084.180094
404.092367	5405.248662
404.474067	5472.565710
404.855705	5436.110606
405.237282	5423.396816
405.618797	5679.328635
406.000250	5700.587181
406.381642	5918.145737
406.762972	5972.512060
407.144240	6061.362397
407.525447	6071.434622
407.906593	6129.491071
408.287677	6305.384490
408.668700	6238.115333
409.049661	6376.966354
409.430560	6417.023362
409.811399	6295.584487
410.192176	6580.694504
410.572891	6590.444096
410.953545	6804.216745
411.334138	6551.901954
411.714669	6726.252781
412.095139	6531.218100
412.475547	6779.202540
412.855894	6850.965886
413.236180	7034.358021
413.616405	6730.429377
413.996568	6944.582633
414.376670	6972.059442
414.756711	6882.445371
415.136691	6976.478013
415.516609	7177.710793
415.896466	7179.301277
416.276262	7367.230451
416.655997	7351.585230
417.035670	7549.879017
417.415283	7887.636324
417.794834	7933.946884
418.174324	7792.660986
418.553753	7713.051084
418.933121	8031.243674
419.312428	8128.411914
419.691674	7917.714369
420.070859	8383.529587
420.449983	8065.256339
420.829045	8428.824354
421.208047	8212.407620
421.586988	8497.305909
421.965867	8527.247842
422.344686	8638.806056
422.723444	8670.497270
423.102141	8039.516207
423.480777	8783.756873
423.859352	8309.316241
424.237866	8931.455119
424.616319	8799.628946
424.994712	9212.859888
425.373044	8776.202704
425.751314	9237.427952
426.129524	9104.749824
426.507673	9225.729954
426.885762	9381.859530
427.263789	9292.981467
427.641756	9217.573367
428.019662	9322.189913
428.397508	9554.841683
428.775292	9249.640147
429.153016	9626.085790
429.530679	9460.380542
429.908282	9495.817333
430.285824	9213.394251
430.663305	9892.198219
431.040726	9348.968522
431.418086	9329.234925
431.795385	9663.097941
432.172624	9742.869160
432.549802	9659.100306
432.926920	9740.691381
433.303977	9615.327968
433.680974	9825.274381
434.057910	9910.132124
434.434786	9982.303803
434.811601	9817.846241
435.188355	10386.029650
435.565050	10107.936918
435.941683	10041.479387
436.318257	10536.331652
436.694770	10670.693525
437.071222	10729.269212
437.447614	10572.524616
437.823946	10474.287651
438.200218	10608.838567
438.576429	10425.743860
438.952580	10670.970789
439.328670	10715.889990
439.704700	10496.872020
440.080670	10492.229117
440.456580	11038.085256
440.832429	10804.077415
441.208218	10407.245346
441.583947	10726.753677
441.959616	10882.789991
442.335224	10689.875116
442.710773	10819.974693
443.086261	11035.330265
443.461689	10309.827568
443.837057	10967.229318
444.212365	11233.180430
444.587612	10877.423683
444.962800	11107.443971
445.337927	10865.193843
445.712995	10470.947886
446.088002	11547.813965
446.462949	11215.612009
446.837837	11186.816938
447.212664	11158.878864
447.587431	11690.438290
447.962139	12423.739652
448.336786	14695.722155
448.711374	15229.305605
449.085901	13072.470617
449.460369	12697.270139
449.834776	12139.965540
450.209124	13030.117363
450.583412	13451.409110
450.957640	14390.886103
451.331808	13498.964835
451.705917	12514.840863
452.079965	11799.594394
452.453954	12705.507384
452.827883	12343.297960
453.201752	12634.694296
453.575562	12157.975062
453.949311	12573.799678
454.323001	12544.155173
454.696632	12775.037499
455.070202	13062.542064
455.443713	13286.691929
455.817164	13761.719856
456.190556	13740.158841
456.563888	14108.314306
456.937160	14274.513587
457.310373	13615.173513
457.683526	13707.771948
458.056619	13250.037699
458.429653	13421.978854
458.802628	12825.202021
459.175542	13214.230383
459.548398	14152.968847
459.921194	14503.644111
460.293930	14572.304627
460.666607	15438.760506
461.039224	16497.329717
461.411782	17200.122016
461.784280	17042.545629
462.156719	17112.962986
462.529099	16798.778114
462.901419	15727.593415
463.273680	15508.250291
463.645882	15388.122115
464.018024	15119.839469
464.390106	15339.742162
464.762130	16073.144347
465.134094	16830.580233
465.505999	18859.042238
465.877845	22108.517075
466.249631	24946.913542
466.621358	24599.870429
466.993026	23170.211802
467.364634	22610.371502
467.736184	21122.477465
468.107674	20339.039308
468.479105	20471.548557
468.850477	19930.393295
469.221790	19521.888434
469.593043	18840.284105
469.964238	18267.540972
470.335373	17915.451664
470.706449	18388.841216
471.077467	17946.958876
471.448425	19803.419232
471.819324	23890.401122
472.190164	25832.261146
472.560945	22219.104867
472.931667	19884.554083
473.302330	19244.947606
473.672934	18830.529472
474.043479	19105.627758
474.413965	18924.032793
474.784393	18532.796405
475.154761	19257.033773
475.525070	19222.834585
475.895321	18912.145753
476.265513	19494.091512
476.635645	20096.365723
477.005719	19866.479026
477.375734	20047.060718
477.745691	20534.245387
478.115588	21067.912016
478.485427	21602.914550
478.855207	22686.077030
479.224928	24469.901922
479.594591	26688.206219
479.964194	26670.378178
480.333739	26886.721816
480.703226	26463.738762
481.072653	26160.039489
481.442022	26748.511022
481.811333	27666.706783
482.180584	27578.421056
482.549777	26613.657636
482.918912	26270.271880
483.287988	26404.797591
483.657005	26055.564096
484.025964	25820.364022
484.394864	25719.979526
484.763706	25387.220522
485.132489	24832.207128
485.501213	25016.494068
485.869879	24916.598564
486.238487	24743.661781
486.607036	24885.895416
486.975527	24610.716472
487.343959	24922.116107
487.712333	24850.657751
488.080648	24510.982284
488.448905	25008.776062
488.817104	24766.180615
489.185244	25458.968744
489.553326	25403.117801
489.921350	26429.521930
490.289315	28755.046528
490.657222	30496.820635
491.025070	30995.615082
491.392861	30767.908683
491.760593	29905.331972
492.128267	29001.253962
492.495883	27947.564587
492.863440	27073.307523
493.230939	26214.176440
493.598380	26048.783744
493.965763	25654.729351
494.333088	25184.019172
494.700354	25136.218952
495.067563	25004.042418
495.434713	24741.012655
495.801805	24916.099490
496.168839	24704.854979
496.535815	24556.577000
496.902733	24780.772235
497.269593	24466.355470
497.636395	24629.749348
498.003139	24571.085441
498.369825	24325.886238
498.736453	24542.751636
499.103023	24400.795264
499.469535	24413.506533
499.835989	24630.276149
500.202385	24650.022348
500.568723	24157.602441
500.935003	24383.955290
501.301226	24036.332444
501.667390	24881.602874
502.033497	25091.241777
502.399546	24829.797456
502.765537	24367.697568
503.131470	24765.651294
503.497345	24901.651543
503.863163	24138.907322
504.228923	24720.043975
504.594625	24931.989207
504.960269	24474.905267
505.325856	24962.445337
505.691385	24353.516803
506.056856	24974.702903
506.422270	24927.368989
506.787625	24496.456199
507.152924	24907.196812
507.518164	24956.499297
507.883347	24756.753658
508.248472	24436.476551
508.613540	25219.203906
508.978550	25010.883264
509.343503	25025.689133
509.708398	25245.629634
510.073236	25417.222949
510.438016	25617.533197
510.802738	25282.808144
511.167403	25552.900564
511.532010	25264.390288
511.896561	26030.197010
512.261053	25995.849108
512.625488	25817.493085
512.989866	25713.781427
513.354186	25561.238632
513.718449	25675.267012
514.082655	26046.878188
514.446803	25785.007890
514.810894	26262.311898
515.174927	25747.542035
515.538904	25773.677897
515.902822	26277.102643
516.266684	26024.989498
516.630488	25929.804952
516.994235	25881.359463
517.357925	26214.037809
517.721558	26380.080813
518.085133	26494.678843
518.448651	26393.820478
518.812112	26133.437320
519.175516	26347.076379
519.538863	26490.845046
519.902152	26288.329293
520.265385	26559.099748
520.628560	26350.219539
520.991678	26348.767686
521.354739	26405.747848
521.717743	26492.236404
522.080690	26265.654183
522.443580	26606.143796
522.806413	26600.558198
523.169189	26703.266666
523.531908	26738.065751
523.894569	26354.260023
524.257174	26454.697452
524.619722	26594.266837
524.982213	26302.449565
525.344647	26339.151685
525.707025	26496.400397
526.069345	26464.547867
526.431608	26433.814472
526.793815	26614.595290
527.155964	26084.454949
527.518057	26253.963747
527.880093	26184.824322
528.242072	26407.492087
528.603995	26114.318744
528.965860	25917.489413
529.327669	25952.676667
529.689421	25945.379597
530.051117	25784.534022
530.412755	25972.069986
530.774337	25751.643013
531.135862	25636.858461
531.497331	25820.971482
531.858743	25396.927264
532.220098	25864.587545
532.581396	25553.699587
532.942638	25476.022968
533.303824	25590.986481
533.664953	25580.823515
534.026025	25249.939821
534.387040	25489.888662
534.747999	25543.239193
535.108902	25699.278028
535.469748	25198.769589
535.830537	25376.470262
536.191270	25508.490519
536.551947	25345.550345
536.912567	24981.475693
537.273131	25397.491873
537.633638	25069.703447
537.994089	25285.994153
538.354483	24802.461800
538.714821	25301.611648
539.075103	25340.781413
539.435328	25132.294413
539.795497	24704.386152
540.155609	25067.283693
540.515665	25377.612083
540.875665	24599.595687
541.235609	24922.867239
541.595496	24868.236254
541.955328	25233.452727
542.315102	25142.172554
542.674821	24665.657487
543.034483	24550.227667
543.394090	24722.430962
543.753640	24525.190776
544.113134	25147.619521
544.472571	24747.273768
544.831953	25037.581215
545.191278	24690.525499
545.550548	24589.442803
545.909761	24787.875221
546.268918	25027.224164
546.628019	24989.171015
546.987064	24686.510220
547.346053	24426.689151
547.704986	24532.876015
548.063863	24686.237998
548.422684	24716.091711
548.781449	24223.233223
549.140158	24638.047088
549.498811	24209.357447
549.857408	23972.040088
550.215949	24382.488314
550.574434	24067.058277
550.932864	24263.045735
551.291237	24444.217243
551.649555	24294.011023
552.007817	24354.948490
552.366022	24205.432908
552.724173	24228.755807
553.082267	24192.489746
553.440305	24682.666340
553.798288	23922.934209
554.156215	24432.647795
554.514086	24552.128182
554.871902	23925.479991
555.229661	24202.193967
555.587365	24056.577718
555.945014	23945.909267
556.302606	24164.534027
556.660143	24143.270440
557.017625	24382.198448
557.375050	23904.987701
557.732421	24287.656648
558.089735	24100.876857
558.446994	24172.809081
558.804197	24194.317164
559.161345	24110.104689
559.518437	23891.888263
559.875474	24067.706065
560.232455	24252.683643
560.589381	24057.512852
560.946251	24067.126332
561.303065	24371.420461
561.659825	24470.678259
562.016528	24073.331992
562.373177	23806.675119
562.729770	24164.407998
563.086307	24022.275186
563.442789	24189.739797
563.799216	24034.580643
564.155587	24023.177553
564.511904	24011.056098
564.868164	23958.121462
565.224370	23924.940588
565.580520	23854.742521
565.936615	23976.690553
566.292654	23676.943545
566.648638	23927.441000
567.004567	23763.926134
567.360441	23702.267781
567.716260	23428.240741
568.072023	23743.562393
568.427732	23543.088307
568.783385	23295.933137
569.138982	23533.787379
569.494525	23578.391508
569.850013	23330.505370
570.205445	23423.040790
570.560823	23257.196911
570.916145	23007.362368
571.271412	23202.492830
571.626625	22949.169808
571.981782	23054.265263
572.336884	22863.240820
572.691931	22998.016068
573.046923	22743.604157
573.401860	22615.445424
573.756743	22638.488538
574.111570	22529.967619
574.466342	22448.515176
574.821059	22534.050954
575.175722	22238.830902
575.530330	22223.210887
575.884882	22218.691493
576.239380	22156.970125
576.593823	22039.170963
576.948211	22004.291219
577.302544	21863.131350
577.656823	21720.265050
578.011047	21835.619253
578.365216	21703.162936
578.719330	21573.602761
579.073389	21478.609779
579.427394	21627.066718
579.781344	21375.258563
580.135239	21270.183273
580.489080	21220.159903
580.842866	21001.915750
581.196597	21200.766584
581.550273	21174.764313
581.903895	21049.577339
582.257463	21363.021162
582.610975	20888.464583
582.964434	21220.192671
583.317837	20897.221067
583.671186	20991.031899
584.024481	20964.633897
584.377721	20730.678988
584.730906	20802.976696
585.084037	20808.879887
585.437113	20725.244624
585.790135	20943.357707
586.143103	20391.605939
586.496016	20402.406612
586.848874	20643.303189
587.201679	20570.569422
587.554428	20256.283726
587.907124	20585.602142
588.259765	20346.969043
588.612352	20430.702608
588.964884	19991.396297
589.317362	20167.690488
589.669786	20226.498069
590.022155	20235.655325
590.374470	20462.424069
590.726731	20238.571632
591.078937	20011.976808
591.431090	20100.930488
591.783188	19864.386947
592.135232	19827.596606
592.487222	19927.565207
592.839157	19937.423184
593.191038	19821.801800
593.542866	19715.241890
593.894639	19434.069013
594.246358	19631.157964
594.598022	19528.905720
594.949633	19288.475449
595.301190	19258.180635
595.652692	19431.132541
596.004141	19657.893723
596.355535	18986.049068
596.706876	19012.535290
597.058162	18897.627230
597.409395	19137.462644
597.760573	19189.792342
598.111698	18966.824628
598.462768	18919.223533
598.813785	18881.966885
599.164748	18684.696453
599.515657	18738.780472
599.866511	18536.221869
600.217312	18890.131034
600.568060	18408.529442
600.918753	18717.660558
601.269392	18610.165514
601.619978	18407.601870
601.970510	18592.644984
602.320988	18542.765287
602.671412	18748.247759
603.021783	18673.575668
603.372100	18388.435403
603.722363	18532.952681
604.072572	18481.404362
604.422728	18631.030850
604.772830	18375.121716
605.122878	18334.502619
605.472872	18314.960586
605.822813	18301.800654
606.172701	18278.329041
606.522534	18470.669225
606.872314	18487.771340
607.222041	18328.566660
607.571714	18543.246717
607.921333	18370.209111
608.270899	18442.254762
608.620411	18612.219784
608.969870	18401.209687
609.319276	18399.354542
609.668627	18426.032328
610.017926	18560.868070
610.367171	18673.084155
610.716362	18722.507627
611.065500	18532.168782
611.414585	18686.712914
611.763616	18654.504983
612.112594	18608.900184
612.461518	18571.719154
612.810389	18755.791846
613.159207	18613.023848
613.507971	18541.346202
613.856682	18796.824317
614.205340	18717.665599
614.553945	18874.929434
614.902496	18606.992107
615.250994	18837.067848
615.599439	18780.750598
615.947830	18769.299617
616.296169	18843.414661
616.644454	18800.577456
616.992686	18757.941898
617.340864	18979.619076
617.688990	18728.793946
618.037063	18898.837107
618.385082	18758.627495
618.733048	19040.589312
619.080961	18914.038706
619.428821	18942.642213
619.776628	18821.183173
620.124382	18755.955683
620.472083	18807.173806
620.819731	18826.758689
621.167326	18515.089352
621.514868	18544.290236
621.862357	18329.400971
622.209793	18332.781065
622.557176	18164.716557
622.904506	18002.093975
623.251783	17924.069517
623.599007	17665.551586
623.946179	17606.144108
624.293297	17543.588430
624.640363	17280.420035
624.987376	17307.029765
625.334336	17112.763861
625.681243	16953.193697
626.028097	16966.514946
626.374899	16889.100467
626.721647	16759.726816
627.068343	16579.964311
627.414987	16524.534303
627.761577	16485.498129
628.108115	16522.938778
628.454600	16244.654483
628.801032	16358.292173
629.147412	16290.773479
629.493739	16302.060623
629.840014	16112.752693
630.186236	16208.282558
630.532405	15975.310674
630.878521	16175.691498
631.224585	16070.442288
631.570597	15892.013169
631.916556	15917.302117
632.262462	15901.833336
632.608316	15814.696992
632.954117	15753.003351
633.299866	15745.499594
633.645562	15665.975392
633.991206	15427.652323
634.336797	15292.821622
634.682336	15271.353869
635.027823	15139.189938
635.373257	15014.481875
635.718639	14921.936372
636.063968	14864.472260
636.409245	14628.947031
636.754470	14657.205219
637.099642	14500.543802
637.444762	14277.636582
637.789829	14315.125122
638.134845	14145.016427
638.479808	14181.894988
638.824719	14103.878091
639.169577	13969.559067
639.514383	14002.505528
639.859137	13838.191639
640.203839	13929.307974
640.548489	13775.363739
640.893086	13757.543260
641.237632	13633.233447
641.582125	13786.164411
641.926566	13600.289507
642.270955	13619.503865
642.615292	13577.518615
642.959576	13576.313779
643.303809	13617.179893
643.647990	13551.120613
643.992118	13617.026137
644.336195	13376.873130
644.680219	13600.324795
645.024192	13508.797606
645.368112	13760.068878
645.711981	13801.625630
646.055797	13984.891737
646.399562	13963.040855
646.743274	14223.202202
647.086935	14497.929963
647.430544	14470.044821
647.774101	14506.875491
648.117606	14653.643644
648.461059	14619.648623
648.804460	14598.306898
649.147810	14334.891486
649.491108	14241.521755
649.834354	14255.367284
650.177548	13936.962966
650.520690	13748.058329
650.863781	13667.475485
651.206820	13717.602198
651.549807	13547.813616
651.892742	13334.431656
652.235626	13268.153086
652.578458	13285.749233
652.921238	12976.366060
653.263967	13171.599866
653.606644	13012.148170
653.949269	12980.734220
654.291843	12782.032100
654.634365	12947.634003
654.976836	12788.777163
655.319255	12798.907362
655.661622	12759.621650
656.003938	12674.411027
656.346203	12602.632558
656.688416	12675.835153
657.030577	12629.375879
657.372687	12541.695090
657.714746	12528.996423
658.056753	12718.790825
658.398708	12520.696164
658.740612	12530.559181
659.082465	12636.993062
659.424266	12611.424330
659.766016	12630.963842
660.107715	12541.926983
660.449362	12618.519754
660.790958	12573.096437
661.132503	12510.422292
661.473996	12582.288981
661.815438	12601.722629
662.156829	12624.044859
662.498168	12589.081936
662.839456	12606.249586
663.180693	12613.518929
663.521879	12710.752705
663.863013	12684.039631
664.204097	12654.100218
664.545129	12780.769291
664.886110	12755.142585
665.227040	12852.154550
665.567918	12849.800331
665.908746	12871.328578
666.249522	12862.100746
666.590248	12912.487079
666.930922	13029.343546
667.271545	13007.351512
667.612118	13089.461826
667.952639	12986.675219
668.293109	13015.881144
668.633528	12953.065847
668.973896	12939.306017
669.314213	13005.645081
669.654480	12750.882810
669.994695	12837.366325
670.334859	12856.832740
670.674973	12794.372844
671.015035	12826.704284
671.355047	12778.372222
671.695008	12736.071900
672.034918	12763.445365
672.374777	12801.317034
672.714585	12709.260523
673.054342	12745.128333
673.394049	12702.207949
673.733705	12790.531485
674.073310	12694.381558
674.412864	12714.067263
674.752368	12566.003534
675.091820	12606.287394
675.431223	12586.052203
675.770574	12446.679422
676.109875	12374.210315
676.449125	12330.155672
676.788324	12275.333124
677.127473	12105.718461
677.466571	12097.193870
677.805619	11988.037766
678.144616	11924.163826
678.483562	11898.554765
678.822458	11767.242789
679.161303	11740.907802
679.500098	11724.713095
679.838842	11684.953514
680.177535	11713.546939
680.516179	11778.114037
680.854771	11724.594628
681.193314	11929.051225
681.531805	12098.328130
681.870247	12531.459027
682.208638	12946.288015
682.546978	13237.873395
682.885268	13272.475875
683.223508	12977.911173
683.561697	12825.050786
683.899836	12723.658059
684.237925	12524.648428
684.575963	12441.184565
684.913951	12353.644928
685.251889	12311.450470
685.589776	12405.888926
685.927614	12331.017709
686.265401	12299.162658
686.603137	12359.921165
686.940824	12504.917352
687.278460	12632.801343
687.616046	12674.804237
687.953582	12830.205366
688.291068	12765.333277
688.628504	12994.325170
688.965889	13007.054084
689.303224	12963.425418
689.640510	12847.272192
689.977745	12532.845344
690.314930	12317.648569
690.652065	12222.620298
690.989150	11927.851430
691.326185	11707.139633
691.663170	11506.138746
692.000105	11267.364494
692.336990	11148.932667
692.673825	10881.504497
693.010610	10774.158167
693.347345	10561.522297
693.684030	10366.716989
694.020665	10307.992588
694.357251	10115.785995
694.693786	10039.513337
695.030272	9886.204287
695.366707	9765.438406
695.703093	9710.371362
696.039429	9698.658241
696.375716	9614.881825
696.711952	9487.345674
697.048139	9526.558289
697.384276	9486.390376
697.720363	9510.666052
698.056400	9437.178632
698.392388	9385.983194
698.728326	9343.340073
699.064214	9287.506774
699.400053	9329.134102
699.735842	9143.745669
700.071581	9102.009957
700.407270	9032.779791
700.742910	8952.948078
701.078501	8856.989715
701.414042	8724.911484
701.749533	8671.634050
702.084974	8536.581538
702.420366	8657.052512
702.755709	8531.409314
703.091002	8391.207264
703.426246	8421.428982
703.761440	8370.979634
704.096584	8330.295002
704.431679	8265.324612
704.766725	8246.271571
705.101721	8201.816155
705.436668	8249.828105
705.771565	8144.435222
706.106413	8225.973365
706.441212	8263.252697
706.775961	8222.646203
707.110661	8263.545084
707.445311	8398.837051
707.779913	8294.976678
708.114465	8425.900485
708.448967	8461.042368
708.783421	8617.297973
709.117825	8794.239952
709.452180	8833.833175
709.786485	8921.198892
710.120742	9204.562149
710.454949	9205.104073
710.789107	9308.808170
711.123216	9539.677892
711.457275	9699.981543
711.791286	9852.632723
712.125247	9850.822949
712.459159	9839.450106
712.793023	10067.895033
713.126837	9647.593873
713.460602	9805.613881
713.794318	9634.854877
714.127985	9662.533332
714.461602	9325.670829
714.795171	9280.484447
715.128691	9024.658492
715.462162	8786.998335
715.795584	8729.884582
716.128957	8563.120693
716.462281	8398.554746
716.795556	8444.056201
717.128782	8237.699088
717.461960	7980.854821
717.795088	8051.554483
718.128167	7962.976368
718.461198	7797.576111
718.794180	7748.361846
719.127113	7729.500369
719.459997	7563.001140
719.792833	7340.913107
720.125619	7412.860455
720.458357	7265.094153
720.791046	7256.690550
721.123686	7245.670588
721.456278	7087.738799
721.788821	7104.719926
722.121315	7003.833835
722.453761	7071.264309
722.786158	7010.480596
723.118506	7021.213213
723.450805	6983.162583
723.783056	7042.494444
724.115259	6960.734490
724.447412	6962.750952
724.779518	7013.530494
725.111574	7012.242479
725.443582	7090.352638
725.775542	7067.624596
726.107453	7261.648525
726.439315	7171.510173
726.771129	7243.875937
727.102895	7418.337669
727.434612	7527.965121
727.766281	7563.293527
728.097901	7637.156513
728.429473	7645.202195
728.760996	7627.369113
729.092471	7601.646625
729.423897	7537.782768
729.755276	7536.827469
730.086606	7460.832075
730.417887	7562.640698
730.749120	7780.105992
731.080305	7969.315619
731.411442	8073.523831
731.742530	8061.329280
732.073570	8171.627206
732.404562	8260.623736
732.735506	8118.193495
733.066401	8249.613856
733.397249	8176.005448
733.728048	7932.588293
734.058798	7600.691327
734.389501	7371.139866
734.720156	7197.189811
735.050762	6970.131201
735.381320	6878.520833
735.711831	6820.933212
736.042293	6717.259362
736.372707	6732.345015
736.703073	6599.855930
737.033391	6634.166023
737.363661	6643.721530
737.693883	6681.842736
738.024056	6764.086640
738.354182	6800.952598
738.684260	6834.829152
739.014290	6959.123841
739.344272	7069.179792
739.674207	7093.233657
740.004093	7169.201325
740.333931	7184.617173
740.663722	7189.459202
740.993464	7269.091788
741.323159	7245.352995
741.652806	6996.773699
741.982405	7028.245622
742.311956	7073.820174
742.641460	6895.242340
742.970915	6708.853238
743.300323	6701.767896
743.629683	6652.818293
743.958996	6518.506831
744.288260	6427.783705
744.617477	6379.045830
744.946647	6373.881168
745.275768	6208.669953
745.604842	6166.740156
745.933869	6147.437578
746.262847	6112.842660
746.591778	6093.502273
746.920662	6046.380088
747.249498	6047.098452
747.578286	6095.097798
747.907027	6165.371483
748.235720	6229.681483
748.564365	6201.758532
748.892963	6241.611373
749.221514	6383.305605
749.550017	6203.590991
749.878473	6089.933136
750.206881	6147.495552
750.535242	6098.571153
750.863555	6024.012488
751.191821	6035.508839
751.520039	6034.601432
751.848210	5941.405621
752.176334	5969.356298
752.504411	6011.127299
752.832440	5941.390497
753.160421	5869.818715
753.488356	5920.895686
753.816243	5947.170180
754.144082	5796.437159
754.471875	5772.738695
754.799620	5814.479449
755.127318	5827.296583
755.454969	5784.227485
755.782572	5751.402012
756.110129	5791.895080
756.437638	5770.346668
756.765100	5711.831474
757.092515	5715.060333
757.419882	5775.801196
757.747203	5749.035190
758.074477	5809.276978
758.401703	5787.151354
758.728882	5748.369758
759.056014	5816.863915
759.383099	5934.075783
759.710138	5943.754798
760.037129	5932.818015
760.364073	5936.195588
760.690970	6012.488410
761.017820	5992.633826
761.344623	5956.781140
761.671379	6063.139404
761.998088	6181.823289
762.324751	6438.291991
762.651366	7071.912097
762.977935	8424.365454
763.304456	10080.031611
763.630931	10950.548140
763.957359	10507.390387
764.283740	9551.456548
764.610074	8688.756329
764.936362	7691.792538
765.262602	7096.596107
765.588796	6559.940074
765.914943	6231.955043
766.241044	6061.372479
766.567097	5850.107804
766.893104	5590.972332
767.219064	5419.137041
767.544978	5354.393502
767.870845	5270.296974
768.196665	5163.384183
768.522438	5097.128298
768.848165	5060.584974
769.173846	4993.479654
769.499479	4947.524496
769.825066	4900.220829
770.150607	4834.043082
770.476101	4811.741017
770.801548	4810.815965
771.126949	4723.001586
771.452303	4672.837064
771.777611	4634.582268
772.102872	4654.913241
772.428087	4614.500832
772.753256	4570.126075
773.078378	4524.173437
773.403453	4456.730360
773.728482	4442.877269
774.053465	4396.566710
774.378401	4383.931058
774.703291	4377.982496
775.028135	4305.480621
775.352932	4259.215432
775.677683	4244.424687
776.002388	4266.525105
776.327046	4279.417856
776.651658	4196.541287
776.976224	4139.034324
777.300743	4140.113131
777.625216	4166.664888
777.949643	4156.138959
778.274024	4119.363742
778.598359	4074.638625
778.922647	4101.477728
779.246889	4092.648147
779.571086	4082.447372
779.895236	4066.522367
780.219339	4056.024164
780.543397	4050.942681
780.867409	4104.608285
781.191374	4118.632775
781.515294	4049.730284
781.839167	4046.539233
782.162995	4069.504210
782.486776	4056.533321
782.810511	4064.054722
783.134201	4059.815112
783.457844	4006.207482
783.781441	3953.517342
784.104993	3962.195688
784.428498	3982.836693
784.751958	3975.159016
785.075372	3953.086323
785.398739	3920.732198
785.722061	3929.508847
786.045337	3974.627174
786.368568	4001.362933
786.691752	3914.123245
787.014891	3973.019046
787.337983	4103.146350
787.661030	4267.525774
787.984031	4425.996966
788.306987	4589.771451
788.629897	4672.048123
788.952760	4631.786948
789.275579	4566.511568
789.598351	4495.653109
789.921078	4346.692054
790.243759	4146.343997
790.566395	4139.150271
790.888984	4128.825988
791.211529	4020.973022
791.534027	3959.110502
791.856480	3948.554326
792.178888	3886.447311
792.501249	3842.012060
792.823566	3853.132846
793.145836	3874.872822
793.468062	3822.165038
793.790241	3779.675672
794.112375	3808.299344
794.434464	3876.770816
794.756507	3901.144795
795.078505	3875.830641
795.400457	3919.111467
795.722364	4059.464752
796.044226	4162.203467
796.366042	4237.422524
796.687812	4211.732804
797.009538	4215.117939
797.331218	4174.778626
797.652852	4152.547137
797.974442	4128.722644
798.295986	4125.582005
798.617484	4040.313408
798.938938	3959.463383
799.260346	4003.268489
799.581709	3998.837315
799.903026	3915.970828
800.224299	3887.460583
800.545526	3877.569839
800.866708	3837.101976
801.187845	3782.266825
801.508936	3815.770334
801.829983	3808.306906
802.150984	3732.601378
802.471940	3725.165676
802.792851	3730.965523
803.113717	3731.608270
803.434538	3733.047520
803.755314	3675.868232
804.076045	3650.680107
804.396731	3673.798839
804.717372	3696.605019
805.037967	3679.790250
805.358518	3669.803724
805.679024	3699.458312
805.999485	3712.504818
806.319901	3718.919686
806.640272	3729.674988
806.960598	3742.620671
807.280879	3718.765931
807.601115	3733.289495
807.921306	3747.306423
808.241453	3788.895943
808.561554	3759.581633
808.881611	3692.836756
809.201623	3732.949217
809.521590	3745.279880
809.841513	3714.574212
810.161390	3749.706013
810.481223	3722.561920
810.801011	3669.982685
811.120755	3666.584947
811.440453	3699.566697
811.760107	3701.187428
812.079716	3655.171775
812.399281	3628.640182
812.718801	3650.128101
813.038276	3625.736478
813.357707	3623.288998
813.677093	3638.422542
813.996434	3582.390117
814.315731	3595.953341
814.634983	3595.355964
814.954191	3613.763737
815.273354	3640.128972
815.592473	3634.578662
815.911547	3645.228099
816.230577	3689.655788
816.549562	3741.438520
816.868502	3782.201290
817.187399	3803.434630
817.506250	3801.334990
817.825058	3781.518214
818.143821	3874.275445
818.462539	3973.969303
818.781213	4014.074203
819.099843	4079.952001
819.418429	4341.923123
819.736970	4585.602417
820.055466	4834.486703
820.373919	5208.633580
820.692327	5621.133555
821.010691	6101.028716
821.329011	7553.450674
821.647286	10405.798535
821.965517	15100.143681
822.283704	19110.434498
822.601847	21140.368520
822.919945	19245.676053
823.237999	16612.933457
823.556010	14111.764976
823.873976	11968.157976
824.191897	9856.297642
824.509775	8515.827108
824.827609	7388.443626
825.145398	6856.299426
825.463144	6741.535038
825.780845	6852.357244
826.098502	7064.544451
826.416116	7992.562900
826.733685	9350.899284
827.051210	10443.460995
827.368692	10420.357387
827.686129	9110.476574
828.003522	7597.192766
828.320872	6580.747437
828.638177	5866.879723
828.955439	5296.362260
829.272656	4792.466165
829.589830	4521.872150
829.906960	4346.341694
830.224046	4154.982014
830.541088	4033.744785
830.858086	3984.167557
831.175041	3907.284920
831.491952	3893.328486
831.808819	3901.835433
832.125642	3985.226200
832.442421	4135.487873
832.759157	4425.855813
833.075849	4998.409903
833.392497	5886.762033
833.709101	6672.047774
834.025662	6985.342882
834.342179	6585.087870
834.658653	5905.308438
834.975083	5248.660341
835.291469	4669.716590
835.607811	4268.972585
835.924110	4122.769041
836.240366	3915.713729
836.556578	3715.080848
836.872746	3607.474898
837.188871	3567.100297
837.504952	3497.807117
837.820990	3415.535486
838.136984	3370.767519
838.452935	3397.112589
838.768842	3391.365674
839.084706	3414.519693
839.400526	3581.621341
839.716303	3938.862708
840.032037	4480.121314
840.347727	4729.174479
840.663373	4426.879168
840.978977	4037.104714
841.294537	3725.402610
841.610054	3499.493383
841.925527	3391.406003
842.240957	3321.641475
842.556344	3268.394287
842.871687	3208.911193
843.186987	3157.085611
843.502244	3123.559417
843.817458	3084.608942
844.132629	3056.504509
844.447756	3067.108576
844.762840	3048.484033
845.077881	3016.066893
845.392879	2996.333297
845.707833	2995.627535
846.022745	2993.512771
846.337613	2995.420848
846.652438	2982.586070
846.967221	2978.976604
847.281960	2968.407825
847.596656	2962.184521
847.911309	2961.824078
848.225919	2954.148921
848.540485	2949.579115
848.855009	2950.090793
849.169490	2939.491767
849.483928	2927.667740
849.798323	2928.890220
850.112675	2927.718152
850.426984	2938.415480
850.741251	2934.538833
851.055474	2922.306473
851.369654	2918.641554
851.683792	2923.995260
851.997887	2935.783998
852.311938	2934.977413
852.625947	2921.973757
852.939914	2929.671599
853.253837	2930.654624
853.567718	2915.591656
853.881555	2915.992428
854.195350	2931.640169
854.509103	2925.406783
854.822812	2918.714651
855.136479	2915.211049
855.450103	2917.106523
855.763685	2912.216604
856.077224	2908.007240
856.390720	2923.155908
856.704173	2930.092535
857.017584	2921.835125
857.330953	2920.839497
857.644278	2927.319901
857.957561	2941.122580
858.270802	2942.302210
858.584000	2938.591921
858.897155	2928.086156
859.210268	2926.447781
859.523339	2923.360074
859.836367	2925.429468
860.149352	2920.589960
860.462295	2913.691141
860.775195	2923.629776
861.088054	2922.213212
861.400869	2905.529513
861.713642	2904.632188
862.026373	2916.090730
862.339062	2921.613314
862.651708	2925.699170
862.964312	2928.416352
863.276873	2920.935279
863.589392	2933.825510
863.901869	2945.556275
864.214303	2967.281127
864.526696	2982.739825
864.839045	2976.811428
865.151353	2977.746563
865.463619	2977.083651
865.775842	2980.249495
866.088023	2998.624501
866.400162	3002.977538
866.712258	2969.673155
867.024313	2962.736527
867.336325	2973.322950
867.648296	2996.693739
867.960224	2986.787872
868.272110	2972.319760
868.583954	2974.595841
868.895755	2993.122082
869.207515	2978.018785
869.519233	2984.443735
869.830909	2994.374808
870.142542	3004.585666
870.454134	3001.003926
870.765684	3006.846623
871.077191	3006.551716
871.388657	3014.851975
871.700081	3029.057947
872.011463	3039.059596
872.322803	3039.392312
872.634101	3037.209493
872.945357	3056.786814
873.256571	3082.859661
873.567744	3074.166192
873.878874	3068.631005
874.189963	3091.318718
874.501010	3091.875765
874.812015	3083.683890
875.122979	3078.753642
875.433900	3079.310689
875.744780	3087.926021
876.055618	3095.820468
876.366415	3090.300404
876.677169	3102.656272
876.987882	3098.540170
877.298554	3091.623707
877.609183	3117.051287
877.919771	3138.657673
878.230317	3166.958710
878.540822	3220.364694
878.851285	3259.042947
879.161707	3306.064310
879.472087	3416.314344
879.782425	3658.942558
880.092722	4109.505766
880.402977	4648.755472
880.713191	5299.071880
881.023363	6504.348750
881.333494	7803.393602
881.643583	8332.155188
881.953631	8011.701641
882.263637	7350.372833
882.573602	6738.855665
882.883526	6153.623074
883.193408	5582.170477
883.503248	5126.984532
883.813048	4815.428621
884.122806	4491.968026
884.432522	4170.786032
884.742197	3930.179320
885.051831	3738.292840
885.361424	3608.397429
885.670975	3535.232643
885.980485	3444.968263
886.289954	3360.947352
886.599382	3320.794561
886.908768	3280.790485
887.218113	3239.016963
887.527417	3177.656039
887.836680	3126.390025
888.145901	3122.914149
888.455082	3111.710185
888.764221	3058.616753
889.073319	3032.750592
889.382376	3029.428472
889.691392	3032.052392
890.000366	3031.823020
890.309300	3018.529497
890.618193	3031.427289
890.927044	3046.563354
891.235855	3047.470761
891.544625	3036.838968
891.853353	3045.348436
892.162041	3064.111610
892.470687	3107.193311
892.779293	3159.825478
893.087858	3206.824155
893.396381	3282.801905
893.704864	3409.874270
894.013306	3658.733350
894.321707	3970.538798
894.630068	4170.314684
894.938387	4161.033920
895.246665	4114.995582
895.554903	3988.676870
895.863100	3784.300931
896.171256	3616.014613
896.479371	3470.005153
896.787446	3344.447655
897.095480	3242.994434
897.403473	3179.889270
897.711425	3142.105822
898.019336	3134.418062
898.327207	3100.619646
898.635038	3064.779563
898.942827	3050.916390
899.250576	3038.510110
899.558284	3007.706140
899.865952	2987.889364
900.173579	2964.788277
900.481165	2956.543469
900.788711	2943.020574
901.096216	2920.912594
901.403681	2908.889442
901.711105	2915.642068
902.018489	2913.991090
902.325832	2912.839186
902.633135	2926.951896
902.940397	2958.544808
903.247619	3048.791544
903.554800	3255.478851
903.861941	3617.128708
904.169041	4059.023651
904.476101	4349.265563
904.783121	4285.343732
905.090100	4027.995349
905.397039	3749.070827
905.703938	3494.870645
906.010796	3309.736790
906.317614	3197.142619
906.624391	3099.203082
906.931129	3023.825229
907.237826	2964.939511
907.544483	2915.614341
907.851099	2887.257851
908.157675	2864.348327
908.464211	2844.188753
908.770707	2829.871876
909.077163	2815.895277
909.383578	2801.427166
909.689954	2791.397790
909.996289	2790.518109
910.302584	2792.310239
910.608839	2791.274282
910.915054	2784.254475
911.221229	2778.016047
911.527363	2780.524021
911.833458	2787.556431
912.139513	2791.987605
912.445527	2794.820733
912.751502	2805.996972
913.057436	2816.480051
913.363331	2826.577482
913.669186	2849.192098
913.975000	2885.009496
914.280775	2953.158335
914.586510	3020.162831
914.892205	3103.631736
915.197859	3242.870926
915.503475	3442.409877
915.809050	3663.429185
916.114585	3810.454437
916.420081	3823.211077
916.725536	3758.109616
917.030952	3635.486069
917.336328	3505.777181
917.641665	3367.125286
917.946961	3269.543671
918.252218	3196.673792
918.557435	3114.641616
918.862612	3053.399158
919.167750	3001.099708
919.472848	2966.386322
919.777906	2934.760644
920.082925	2908.173598
920.387904	2877.664535
920.692843	2858.808099
920.997743	2851.304342
921.302603	2835.880932
921.607423	2826.380877
921.912204	2814.584577
922.216946	2799.967752
922.521647	2791.758232
922.826310	2782.106943
923.130932	2775.510594
923.435516	2768.251332
923.740059	2760.440064
924.044564	2751.761718
924.349028	2745.203177
924.653454	2740.330902
924.957840	2733.595920
925.262186	2729.071484
925.566493	2723.952193
925.870761	2719.382387
926.174989	2718.810216
926.479178	2708.919472
926.783328	2707.243288
927.087438	2707.349152
927.391509	2709.143803
927.695541	2699.250539
927.999533	2698.789273
928.303486	2695.588141
928.607400	2694.219467
928.911275	2694.320290
929.215110	2691.769467
929.518906	2691.953469
929.822663	2689.745443
930.126381	2691.456915
930.430060	2691.169569
930.733699	2693.664940
931.037299	2693.947245
931.340861	2694.985723
931.644383	2693.475897
931.947866	2693.911957
932.251309	2691.169569
932.554714	2690.728468
932.858080	2688.505319
933.161407	2687.282840
933.464694	2686.622448
933.767943	2681.261181
934.071153	2687.295442
934.374323	2684.084227
934.677455	2683.501974
934.980548	2685.684794
935.283602	2682.771007
935.586617	2683.166737
935.889593	2682.002231
936.192530	2686.372911
936.495428	2684.265709
936.798287	2685.800740
937.101108	2689.165711
937.403890	2693.632173
937.706632	2697.783563
938.009336	2704.866384
938.312002	2714.406768
938.614628	2722.273488
938.917216	2728.373285
939.219765	2728.549725
939.522275	2729.585682
939.824747	2721.129147
940.127179	2723.869014
940.429573	2718.285936
940.731929	2716.907180
941.034246	2715.258723
941.336524	2711.750080
941.638763	2707.344111
941.940964	2706.633309
942.243126	2703.376723
942.545250	2703.427135
942.847335	2700.573842
943.149381	2694.647965
943.451389	2693.480938
943.753359	2690.584795
944.055290	2687.867613
944.357182	2685.558765
944.659036	2685.132787
944.960851	2686.128415
945.262628	2686.088086
945.564367	2684.469876
945.866067	2686.004907
946.167729	2685.838549
946.469352	2685.644465
946.770937	2687.013138
947.072484	2682.955009
947.373992	2683.146573
947.675462	2683.935513
947.976893	2678.029802
948.278286	2674.120387
948.579641	2673.454955
948.880958	2675.799091
949.182236	2677.921417
949.483476	2674.548885
949.784678	2676.235151
950.085841	2676.595593
950.386967	2676.593073
950.688054	2676.635923
950.989103	2677.964267
951.290114	2680.726819
951.591087	2680.961233
951.892021	2684.298477
952.192917	2687.219825
952.493776	2687.058508
952.794596	2690.148736
953.095378	2690.000022
953.396122	2688.648992
953.696828	2686.067922
953.997496	2682.834021
954.298126	2681.286387
954.598718	2679.625327
954.899272	2677.127435
955.199788	2673.812877
955.500266	2673.946467
955.800706	2673.142403
956.101108	2665.908347
956.401472	2664.897596
956.701798	2663.357523
957.002087	2661.893068
957.302337	2659.725372
957.602550	2661.368788
957.902724	2658.578510
958.202861	2656.032727
958.502960	2658.404590
958.803022	2656.551966
959.103045	2656.438540
959.403031	2653.726399
959.702979	2653.444094
960.002889	2654.089362
960.302762	2651.815802
960.602596	2650.600884
960.902393	2652.420740
961.202153	2652.861841
961.501875	2651.137767
961.801559	2653.696152
962.101205	2649.496871
962.400814	2649.779176
962.700385	2651.702376
962.999918	2646.923362
963.299414	2643.369348
963.598873	2646.925883
963.898293	2645.209370
964.197677	2650.651295
964.497022	2648.402941
964.796331	2648.932262
965.095601	2647.805564
965.394835	2649.428815
965.694030	2647.671973
965.993189	2648.123157
966.292309	2647.006541
966.591393	2646.338588
966.890439	2647.215749
967.189447	2647.059473
967.488419	2646.625934
967.787353	2648.987714
968.086249	2644.798516
968.385108	2646.958650
968.683930	2649.774134
968.982714	2646.814977
969.281462	2646.008392
969.580172	2647.283804
969.878844	2646.678866
970.177480	2647.792961
970.476078	2647.911428
970.774639	2646.033598
971.073162	2646.857827
971.371649	2647.450162
971.670098	2651.034423
971.968510	2647.374545
972.266885	2649.877478
972.565223	2650.558034
972.863524	2647.515697
973.161788	2648.584422
973.460014	2647.462765
973.758204	2647.092241
974.056356	2648.844042
974.354471	2646.320944
974.652550	2647.848414
974.950591	2646.177271
975.248595	2649.847231
975.546563	2647.987045
975.844493	2649.491830
976.142386	2645.446304
976.440243	2648.208856
976.738062	2647.694658
977.035845	2646.678866
977.333590	2647.921510
977.631299	2649.310348
977.928971	2644.808598
978.226606	2644.856489
978.524204	2643.785244
978.821765	2641.057979
979.119290	2645.297590
979.416777	2643.923875
979.714228	2646.593166
980.011642	2644.604431
980.309020	2642.860192
980.606360	2643.875984
980.903664	2645.655512
981.200931	2647.523259
981.498162	2647.392189
981.795356	2646.991417
982.092513	2649.859834
982.389633	2652.864362
982.686717	2652.861841
982.983764	2658.417193
983.280775	2662.266114
983.577749	2665.759633
983.874686	2664.678306
984.171587	2659.760660
984.468451	2656.995587
984.765279	2654.752274
985.062070	2654.112047
985.358824	2651.843528
985.655543	2651.281439
985.952224	2647.273722
986.248869	2646.696510
986.545478	2644.062507
986.842050	2644.438073
987.138586	2643.893628
987.435086	2645.161479
987.731549	2642.754328
988.027975	2642.918165
988.324366	2640.309368
988.620719	2643.845737
988.917037	2640.886580
989.213318	2643.765079
989.509563	2642.378762
989.805772	2642.880357
990.101944	2642.963536
990.398080	2639.684265
990.694180	2642.482105
990.990244	2641.763741
991.286271	2643.293731
991.582262	2643.739873
991.878217	2640.737866
992.174136	2643.976807
992.470019	2642.877836
992.765865	2640.122845
993.061676	2639.664100
993.357450	2637.917341
993.653188	2633.569345
993.948890	2641.307517
994.244556	2643.500418
994.540186	2643.674338
994.835780	2643.513021
995.131337	2644.904380
995.426859	2645.526962
995.722345	2645.000162
996.017795	2644.029740
996.313208	2644.304482
996.608586	2647.256078
996.903928	2646.305821
997.199234	2644.927065
997.494504	2646.358753
997.789738	2647.855975
998.084936	2643.467651
998.380099	2646.391520
998.675225	2645.957981
998.970316	2644.458238
999.265371	2643.681900
999.560390	2643.891108
999.855373	2642.981180
1000.150320	2642.456900
1000.445232	2642.124183
1000.740108	2641.673000
1001.034948	2640.760551
1001.329752	2641.743576
1001.624521	2639.706950
1001.919254	2638.446662
1002.213951	2641.907414
1002.508613	2641.299955
1002.803239	2639.938843
1003.097829	2638.275262
1003.392384	2640.639564
1003.686903	2641.914976
1003.981386	2641.297434
1004.275834	2639.071765
1004.570246	2640.095119
1004.864623	2640.942033
1005.158964	2640.372382
1005.453270	2639.399440
1005.747540	2640.851292
1006.041775	2641.705768
1006.335974	2640.198463
1006.630138	2639.865747
1006.924266	2640.311889
1007.218359	2637.115797
1007.512416	2641.819194
1007.806438	2636.581435
1008.100425	2638.444141
1008.394376	2636.679737
1008.688292	2640.251395
1008.982172	2641.448669
1009.276017	2639.638895
1009.569827	2640.387506
1009.863602	2639.215438
1010.157341	2640.672331
1010.451045	2638.633184
1010.744714	2638.000520
1011.038347	2637.430869
1011.331945	2639.510345
1011.625508	2638.872639
1011.919036	2642.855151
1012.212528	2637.037659
1012.505986	2640.105201
1012.799408	2639.948926
1013.092795	2638.366003
1013.386147	2638.713843
1013.679464	2638.572691
1013.972745	2636.808287
1014.265992	2636.468009
1014.559204	2639.384316
1014.852380	2639.399440
1015.145521	2640.410191
1015.438628	2639.326343
1015.731699	2640.672331
1016.024736	2636.528503
1016.317737	2641.045377
1016.610703	2638.832310
1016.903635	2638.383647
1017.196531	2639.154944
1017.489393	2639.044038
1017.782219	2638.040849
1018.075011	2640.072434
1018.367768	2638.524800
1018.660490	2639.117135
1018.953177	2639.117135
1019.245829	2639.117135
