Dividing Wavelength (nm)	Counts (n)	Blue Motor Position (mm): 29.400000	Red Motor Position (mm): 0.000000	
326.493990	2215.461087
326.888308	2215.461087
327.282561	2215.461087
327.676750	2172.112205
328.070874	2168.099446
328.464933	2166.647594
328.858929	2174.998265
329.252859	2179.205108
329.646726	2186.844977
330.040528	2198.124558
330.434265	2211.458410
330.827938	2229.674620
331.221547	2248.987280
331.615091	2262.421955
332.008571	2282.021961
332.401986	2302.524334
332.795338	2319.810451
333.188625	2336.761330
333.581847	2359.507017
333.975006	2376.964532
334.368100	2395.841133
334.761129	2414.198495
335.154095	2428.041503
335.546996	2457.290278
335.939833	2494.554487
336.332606	2509.768689
336.725315	2522.008611
337.117960	2535.387833
337.510540	2545.452497
337.903056	2559.746688
338.295508	2566.675754
338.687896	2575.845613
339.080220	2582.885585
339.472480	2590.089393
339.864676	2595.717842
340.256807	2600.406115
340.648875	2604.980962
341.040879	2604.925509
341.432818	2611.433639
341.824694	2614.576798
342.216506	2611.809205
342.608253	2615.005296
342.999937	2612.162086
343.391557	2613.545882
343.783113	2613.969339
344.174605	2613.210646
344.566033	2613.319030
344.957397	2609.633947
345.348697	2609.084461
345.739934	2607.239399
346.131106	2605.689244
346.522215	2603.135900
346.913260	2602.886362
347.304241	2603.750920
347.695159	2599.712956
348.086012	2598.631629
348.476802	2595.750609
348.867528	2591.815989
349.258191	2587.336923
349.648789	2589.043354
350.039324	2583.866089
350.429796	2588.841708
350.820203	2587.969588
351.210548	2586.386666
351.600828	2582.809967
351.991045	2583.457756
352.381198	2579.873495
352.771288	2582.391552
353.161314	2581.121181
353.551276	2583.646799
353.941175	2580.493557
354.331010	2579.598752
354.720782	2579.818043
355.110490	2579.039184
355.500135	2577.554564
355.889717	2579.959195
356.279235	2581.993300
356.668689	2581.262333
357.058080	2578.530028
357.447408	2580.060018
357.836672	2579.379462
358.225873	2576.954667
358.615010	2582.326017
359.004084	2581.365677
359.393095	2581.025399
359.782043	2583.419947
360.170927	2585.998497
360.559748	2582.971284
360.948505	2582.280646
361.337199	2588.824064
361.725830	2583.936665
362.114398	2586.598394
362.502903	2586.558065
362.891344	2586.797520
363.279722	2589.986050
363.668037	2587.430185
364.056289	2588.594691
364.444478	2589.237438
364.832603	2590.669126
365.220665	2590.449836
365.608665	2592.693149
365.996601	2591.760536
366.384474	2590.787593
366.772284	2590.268354
367.160031	2591.735330
367.547715	2592.715835
367.935336	2593.393870
368.322893	2592.952769
368.710388	2589.050916
369.097820	2592.488983
369.485189	2588.158632
369.872495	2593.313211
370.259738	2593.857656
370.646918	2593.560228
371.034035	2598.193048
371.421090	2596.085846
371.808081	2596.375712
372.195010	2596.612647
372.581875	2594.402101
372.968678	2597.008377
373.355418	2594.815475
373.742096	2598.392174
374.128710	2597.830085
374.515262	2597.739344
374.901751	2599.425610
375.288177	2599.864191
375.674540	2598.326639
376.060841	2600.799325
376.447079	2598.462750
376.833254	2600.254880
377.219367	2601.063985
377.605417	2600.370827
377.991404	2600.549788
378.377329	2599.695312
378.763191	2601.303440
379.148991	2601.116917
379.534727	2602.596496
379.920402	2600.111207
380.306013	2600.738831
380.691563	2606.747886
381.077049	2601.608430
381.462474	2604.807042
381.847835	2604.877618
382.233134	2602.951898
382.618371	2602.092381
383.003545	2603.750920
383.388657	2604.582711
383.773706	2605.769902
384.158693	2605.447269
384.543618	2607.927516
384.928480	2605.550612
385.313280	2605.966508
385.698017	2606.042125
386.082692	2605.028853
386.467305	2607.483895
386.851856	2607.756117
387.236344	2607.960284
387.620770	2605.064141
388.005133	2602.946856
388.389435	2607.272166
388.773674	2606.392485
389.157851	2610.246447
389.541965	2606.584049
389.926018	2610.712754
390.310008	2610.581684
390.693936	2609.192846
391.077802	2609.359204
391.461606	2613.210646
391.845348	2609.838114
392.229027	2612.898094
392.612645	2612.116715
392.996200	2614.022271
393.379694	2611.617641
393.763125	2613.152672
394.146494	2614.866665
394.529801	2611.688217
394.913047	2616.081583
395.296230	2611.852055
395.679351	2615.126284
396.062410	2614.680142
396.445408	2614.423043
396.828343	2615.564864
397.211217	2617.001593
397.594028	2616.439505
397.976778	2618.246758
398.359466	2618.435802
398.742092	2618.876902
399.124656	2613.765172
399.507158	2621.619290
399.889598	2619.184413
400.271977	2619.736419
400.654294	2619.146604
401.036549	2616.973867
401.418742	2620.578292
401.800874	2621.037037
402.182944	2619.864969
402.564952	2618.397993
402.946898	2621.556276
403.328783	2621.001749
403.710606	2622.458642
404.092367	2623.361009
404.474067	2621.621811
404.855705	2622.771194
405.237282	2621.213477
405.618797	2622.844291
406.000250	2623.320680
406.381642	2626.194137
406.762972	2621.200874
407.144240	2619.517129
407.525447	2623.729013
407.906593	2622.935031
408.287677	2625.599281
408.668700	2627.703963
409.049661	2627.683798
409.430560	2628.036679
409.811399	2629.445682
410.192176	2627.212450
410.572891	2629.664972
410.953545	2632.422483
411.334138	2628.296298
411.714669	2632.351907
412.095139	2632.694705
412.475547	2630.887452
412.855894	2633.065230
413.236180	2633.760909
413.616405	2631.729324
413.996568	2633.476084
414.376670	2632.485497
414.756711	2634.441465
415.136691	2635.217803
415.516609	2636.843575
415.896466	2635.172432
416.276262	2638.277783
416.655997	2639.409522
417.035670	2637.519089
417.415283	2641.443628
417.794834	2640.816004
418.174324	2641.461272
418.553753	2640.412712
418.933121	2641.534368
419.312428	2643.850779
419.691674	2645.441263
420.070859	2643.218114
420.449983	2644.649802
420.829045	2649.171717
421.208047	2645.227014
421.586988	2647.364463
421.965867	2650.976450
422.344686	2652.229176
422.723444	2652.634989
423.102141	2650.028713
423.480777	2653.660864
423.859352	2653.479382
424.237866	2655.911739
424.616319	2656.269661
424.994712	2659.995074
425.373044	2664.569921
425.751314	2662.853408
426.129524	2662.974396
426.507673	2669.603513
426.885762	2673.356652
427.263789	2681.856037
427.641756	2687.272757
428.019662	2697.261804
428.397508	2706.207331
428.775292	2719.639486
429.153016	2732.663307
429.530679	2743.443814
429.908282	2761.712956
430.285824	2774.439348
430.663305	2809.429997
431.040726	2819.565237
431.418086	2844.365193
431.795385	2881.382386
432.172624	2915.387489
432.549802	2951.061215
432.926920	2993.671568
433.303977	3024.841022
433.680974	3089.549273
434.057910	3143.935761
434.434786	3205.382385
434.811601	3250.014241
435.188355	3357.365612
435.565050	3405.044845
435.941683	3464.346458
436.318257	3598.118517
436.694770	3687.757794
437.071222	3782.032412
437.447614	3845.671938
437.823946	3915.335643
438.200218	4030.836039
438.576429	4084.695727
438.952580	4218.782858
439.328670	4332.518850
439.704700	4387.164958
440.080670	4475.939677
440.456580	4715.606213
440.832429	4769.652423
441.208218	4763.383749
441.583947	4959.250220
441.959616	5113.713694
442.335224	5167.815357
442.710773	5325.210263
443.086261	5517.371485
443.461689	5375.616760
443.837057	5719.594851
444.212365	5957.486901
444.587612	5939.182472
444.962800	6163.037429
445.337927	6190.635226
445.712995	6121.677282
446.088002	6735.087403
446.462949	6701.092382
446.837837	6817.895916
447.212664	6956.172246
447.587431	7337.283477
447.962139	7842.195363
448.336786	9148.068459
448.711374	9693.392755
449.085901	8665.783791
449.460369	8578.130728
449.834776	8405.302330
450.209124	9049.503819
450.583412	9420.167258
450.957640	10180.839565
451.331808	9826.043157
451.705917	9291.753946
452.079965	8965.011560
452.453954	9715.067196
452.827883	9571.855577
453.201752	9895.762315
453.575562	9653.834821
453.949311	10079.913144
454.323001	10152.157920
454.696632	10440.718607
455.070202	10766.039388
455.443713	11053.536392
455.817164	11529.217149
456.190556	11646.131589
456.563888	12048.703011
456.937160	12306.857979
457.310373	11841.917401
457.683526	12009.218174
458.056619	11729.923127
458.429653	11909.622618
458.802628	11555.960470
459.175542	11913.564800
459.548398	12838.195595
459.921194	13218.096948
460.293930	13324.966889
460.666607	14200.632957
461.039224	15168.831923
461.411782	15869.953079
461.784280	15903.088584
462.156719	16027.446287
462.529099	15819.198742
462.901419	14878.597573
463.273680	14747.502367
463.645882	14654.780424
464.018024	14448.478765
464.390106	14696.014542
464.762130	15432.698518
465.134094	16168.858214
465.505999	18050.897386
465.877845	21210.546423
466.249631	24025.216700
466.621358	23868.051167
466.993026	22506.405266
467.364634	22031.493286
467.736184	20637.498301
468.107674	19868.061948
468.479105	20019.888899
468.850477	19510.051805
469.221790	19112.657647
469.593043	18467.359708
469.964238	17932.818439
470.335373	17622.739587
470.706449	18029.560702
471.077467	17579.514213
471.448425	19387.219050
471.819324	23330.306245
472.190164	25452.959689
472.560945	22021.577336
472.931667	19612.198184
473.302330	18980.100507
473.672934	18444.261141
474.043479	18849.806844
474.413965	18664.052928
474.784393	18307.857600
475.154761	18960.878587
475.525070	18992.589965
475.895321	18626.272000
476.265513	19207.149035
476.635645	19784.308218
477.005719	19590.899309
477.375734	19787.015317
477.745691	20264.939387
478.115588	20765.699884
478.485427	21270.820979
478.855207	22313.870998
479.224928	24056.940681
479.594591	26276.288497
479.964194	26368.891972
480.333739	26564.798773
480.703226	26134.301878
481.072653	25788.203982
481.442022	26348.404723
481.811333	27250.680521
482.180584	27198.197068
482.549777	26252.032985
482.918912	25881.117488
483.287988	25999.110735
483.657005	25708.377310
484.025964	25405.308182
484.394864	25363.557346
484.763706	25061.864453
485.132489	24490.835313
485.501213	24653.437730
485.869879	24569.315996
486.238487	24365.141703
486.607036	24517.175342
486.975527	24198.193812
487.343959	24542.113930
487.712333	24496.816642
488.080648	24157.579756
488.448905	24620.839109
488.817104	24368.809143
489.185244	25022.208216
489.553326	25012.730847
489.921350	25969.241898
490.289315	28232.465397
490.657222	30033.909121
491.025070	30533.041325
491.392861	30335.397848
491.760593	29503.355405
492.128267	28606.511451
492.495883	27572.157422
492.863440	26692.103031
493.230939	25822.289743
493.598380	25662.021380
493.965763	25259.898620
494.333088	24825.013401
494.700354	24743.192954
495.067563	24630.737414
495.434713	24377.182499
495.801805	24525.130283
496.168839	24349.375495
496.535815	24159.893645
496.902733	24370.876016
497.269593	24054.677203
497.636395	24243.188630
498.003139	24232.244285
498.369825	23971.462876
498.736453	24172.501571
499.103023	24043.604308
499.469535	24057.777512
499.835989	24268.223000
500.202385	24298.540499
500.568723	23796.184477
500.935003	24068.774789
501.301226	23656.967973
501.667390	24486.973789
502.033497	24737.796399
502.399546	24454.138233
502.765537	24044.531881
503.131470	24424.637401
503.497345	24558.858122
503.863163	23786.439927
504.228923	24390.221444
504.594625	24585.203192
504.960269	24103.193267
505.325856	24598.635347
505.691385	24010.909905
506.056856	24605.488795
506.422270	24576.900412
506.787625	24173.522405
507.152924	24573.361522
507.518164	24594.352887
507.883347	24406.060749
508.248472	24100.213945
508.613540	24878.847883
508.978550	24650.440764
509.343503	24645.359281
509.708398	24912.333748
510.073236	25070.187398
510.438016	25269.965804
510.802738	24951.342196
511.167403	25211.196033
511.532010	24897.905965
511.896561	25688.500041
512.261053	25660.637583
512.625488	25496.200186
512.989866	25385.020059
513.354186	25241.069911
513.718449	25333.012995
514.082655	25717.930297
514.446803	25457.290040
514.810894	25906.797126
515.174927	25397.343159
515.538904	25422.664875
515.902822	25924.113489
516.266684	25675.423288
516.630488	25577.340078
516.994235	25563.257615
517.357925	25856.093200
517.721558	26026.269951
518.085133	26119.730423
518.448651	26040.193618
518.812112	25778.524966
519.175516	25955.023324
519.538863	26122.898788
519.902152	25900.142803
520.265385	26196.761774
520.628560	25999.786250
520.991678	26006.407805
521.354739	26082.231800
521.717743	26143.292776
522.080690	25924.065598
522.443580	26260.035817
522.806413	26252.337975
523.169189	26350.847162
523.531908	26404.210296
523.894569	26013.780493
524.257174	26072.101602
524.619722	26265.830623
524.982213	25967.069161
525.344647	26034.166919
525.707025	26144.295966
526.069345	26141.568702
526.431608	26091.961227
526.793815	26288.994725
527.155964	25734.336732
527.518057	25904.765541
527.880093	25834.683420
528.242072	26066.092546
528.603995	25774.136642
528.965860	25566.476391
529.327669	25618.861542
529.689421	25608.688493
530.051117	25431.970845
530.412755	25614.725275
530.774337	25420.093887
531.135862	25277.058708
531.497331	25495.471739
531.858743	25042.914756
532.220098	25530.661514
532.581396	25200.380237
532.942638	25143.374870
533.303824	25233.661935
533.664953	25252.644400
534.026025	24918.872124
534.387040	25154.614122
534.747999	25225.638939
535.108902	25377.095365
535.469748	24868.563929
535.830537	25061.141048
536.191270	25169.430073
536.551947	25060.657097
536.912567	24703.340112
537.273131	25047.108996
537.633638	24764.549802
537.994089	24954.893689
538.354483	24510.561348
538.714821	25004.924620
539.075103	25037.462748
539.435328	24836.998745
539.795497	24392.726897
540.155609	24794.680779
540.515665	25087.481076
540.875665	24328.371527
541.235609	24614.572955
541.595496	24582.024745
541.955328	24933.269660
542.315102	24849.170611
542.674821	24413.652727
543.034483	24280.251193
543.394090	24439.433188
543.753640	24243.241562
544.113134	24879.596495
544.472571	24469.801098
544.831953	24756.839357
545.191278	24381.895978
545.550548	24308.947962
545.909761	24516.068808
546.268918	24739.323868
546.628019	24702.588980
546.987064	24403.877930
547.346053	24162.268029
547.704986	24279.341265
548.063863	24434.528145
548.422684	24438.180461
548.781449	23992.328212
549.140158	24399.847527
549.498811	23969.133863
549.857408	23711.581313
550.215949	24143.893023
550.574434	23806.352485
550.932864	24048.947931
551.291237	24192.217524
551.649555	24057.137286
552.007817	24103.901549
552.366022	23976.070491
552.724173	24024.642008
553.082267	23960.253871
553.440305	24433.136787
553.798288	23703.177710
554.156215	24216.951945
554.514086	24301.958402
554.871902	23671.347864
555.229661	23970.983967
555.587365	23828.326874
555.945014	23675.405993
556.302606	23936.275622
556.660143	23881.327045
557.017625	24137.445387
557.375050	23665.558099
557.732421	24056.456730
558.089735	23863.244427
558.446994	23935.022896
558.804197	23955.535351
559.161345	23908.085490
559.518437	23646.497496
559.875474	23850.651624
560.232455	24026.439179
560.589381	23864.827349
560.946251	23845.595347
561.303065	24168.677856
561.659825	24246.437654
562.016528	23849.852601
562.373177	23592.189146
562.729770	23941.110089
563.086307	23812.041427
563.442789	23977.794565
563.799216	23813.306757
564.155587	23813.891530
564.511904	23801.034067
564.868164	23732.192071
565.224370	23717.638259
565.580520	23613.218319
565.936615	23757.680144
566.292654	23442.232463
566.648638	23737.520570
567.004567	23567.817688
567.360441	23515.843392
567.716260	23242.867431
568.072023	23580.730603
568.427732	23329.812212
568.783385	23103.925670
569.138982	23341.568182
569.494525	23389.698599
569.850013	23126.895687
570.205445	23222.581828
570.560823	23018.755375
570.916145	22782.020270
571.271412	22966.939876
571.626625	22722.063307
571.981782	22836.220236
572.336884	22639.063229
572.691931	22767.027879
573.046923	22499.382939
573.401860	22389.878995
573.756743	22393.606928
574.111570	22297.202422
574.466342	22235.387794
574.821059	22324.207884
575.175722	22023.072038
575.530330	22015.797653
575.884882	22042.094832
576.239380	21949.589659
576.593823	21830.003408
576.948211	21814.282569
577.302544	21667.975682
577.656823	21532.640866
578.011047	21628.989918
578.365216	21502.381340
578.719330	21373.589941
579.073389	21275.594952
579.427394	21429.193868
579.781344	21189.398782
580.135239	21092.737178
580.489080	21053.580016
580.842866	20816.731484
581.196597	21006.956904
581.550273	20993.454174
581.903895	20880.297914
582.257463	21194.129905
582.610975	20730.371478
582.964434	21033.889269
583.317837	20746.130125
583.671186	20820.252730
584.024481	20802.500307
584.377721	20570.163609
584.730906	20629.442537
585.084037	20650.451545
585.437113	20557.875796
585.790135	20756.572875
586.143103	20229.966383
586.496016	20236.535006
586.848874	20480.519290
587.201679	20405.239740
587.554428	20088.577141
587.907124	20412.322561
588.259765	20188.462563
588.612352	20269.698237
588.964884	19843.009934
589.317362	20011.021509
589.669786	20069.945036
590.022155	20112.268043
590.374470	20287.266658
590.726731	20100.897721
591.078937	19860.787563
591.431090	19953.680905
591.783188	19702.074396
592.135232	19676.697227
592.487222	19765.262739
592.839157	19786.622107
593.191038	19670.922586
593.542866	19563.107428
593.894639	19281.770714
594.246358	19512.428709
594.598022	19405.296628
594.949633	19165.919958
595.301190	19117.577813
595.652692	19284.994532
596.004141	19528.076450
596.355535	18857.608030
596.706876	18873.994300
597.058162	18756.134644
597.409395	18980.637389
597.760573	19069.792716
598.111698	18843.752418
598.462768	18770.680893
598.813785	18737.159741
599.164748	18564.152382
599.515657	18594.787474
599.866511	18390.777019
600.217312	18748.368747
600.568060	18277.587992
600.918753	18588.919571
601.269392	18484.171956
601.619978	18268.808822
601.970510	18474.986973
602.320988	18414.359537
602.671412	18639.454618
603.021783	18532.241878
603.372100	18269.806971
603.722363	18401.048370
604.072572	18342.150049
604.422728	18478.682139
604.772830	18246.789062
605.122878	18194.245116
605.472872	18187.631122
605.822813	18165.850817
606.172701	18144.168814
606.522534	18333.882557
606.872314	18363.549747
607.222041	18197.534469
607.571714	18415.582017
607.921333	18239.638186
608.270899	18318.262542
608.620411	18502.486468
608.969870	18258.842461
609.319276	18262.494777
609.668627	18301.079769
610.017926	18429.286393
610.367171	18550.301812
610.716362	18584.569055
611.065500	18415.660154
611.414585	18542.064567
611.763616	18531.957053
612.112594	18466.134707
612.461518	18432.212783
612.810389	18626.788719
613.159207	18478.425040
613.507971	18396.720539
613.856682	18673.207663
614.205340	18607.859186
614.553945	18747.884796
614.902496	18489.757554
615.250994	18735.632271
615.599439	18668.592487
615.947830	18656.390374
616.296169	18705.765955
616.644454	18663.881529
616.992686	18635.434297
617.340864	18846.416668
617.688990	18605.479761
618.037063	18774.010576
618.385082	18626.892062
618.733048	18908.259023
619.080961	18778.081307
619.428821	18824.865736
619.776628	18707.996666
620.124382	18631.035891
620.472083	18662.817845
620.819731	18688.363892
621.167326	18390.918171
621.514868	18426.415456
621.862357	18189.685392
622.209793	18209.965954
622.557176	18038.042443
622.904506	17859.310854
623.251783	17770.833563
623.599007	17528.911111
623.946179	17480.248853
624.293297	17424.619720
624.640363	17173.769384
624.987376	17193.719750
625.334336	16985.638563
625.681243	16833.133577
626.028097	16847.427769
626.374899	16771.563445
626.721647	16635.674102
627.068343	16465.610777
627.414987	16399.848925
627.761577	16387.127573
628.108115	16417.712253
628.454600	16141.046169
628.801032	16238.078298
629.147412	16166.922411
629.493739	16185.075606
629.840014	16002.180024
630.186236	16096.200064
630.532405	15860.561410
630.878521	16065.408696
631.224585	15950.276304
631.570597	15776.747186
631.916556	15808.178780
632.262462	15779.817249
632.608316	15699.821699
632.954117	15641.573687
633.299866	15640.225178
633.645562	15558.129988
633.991206	15310.047245
634.336797	15185.394634
634.682336	15158.028730
635.027823	15046.442790
635.373257	14924.333441
635.718639	14823.263348
636.063968	14766.598258
636.409245	14522.099776
636.754470	14548.883426
637.099642	14402.621909
637.444762	14171.527855
637.789829	14215.111150
638.134845	14047.018917
638.479808	14080.293053
638.824719	14020.066388
639.169577	13882.773083
639.514383	13928.768571
639.859137	13750.168052
640.203839	13829.828365
640.548489	13661.224454
640.893086	13656.175738
641.237632	13529.100853
641.582125	13678.989480
641.926566	13509.921783
642.270955	13522.073484
642.615292	13476.166217
642.959576	13499.695802
643.303809	13526.018187
643.647990	13460.631901
643.992118	13513.896733
644.336195	13286.172690
644.680219	13488.635511
645.024192	13411.445363
645.368112	13663.303930
645.711981	13709.054922
646.055797	13893.742634
646.399562	13862.878169
646.743274	14134.069561
647.086935	14411.764041
647.430544	14378.590728
647.774101	14404.116611
648.117606	14557.914653
648.461059	14522.571123
648.804460	14513.187016
649.147810	14242.131735
649.491108	14142.881498
649.834354	14151.784176
650.177548	13853.133619
650.520690	13662.648580
650.863781	13580.966764
651.206820	13629.140030
651.549807	13454.723669
651.892742	13259.759564
652.235626	13191.383874
652.578458	13203.200339
652.921238	12884.813665
653.263967	13086.558121
653.606644	12917.341710
653.949269	12890.114438
654.291843	12690.610775
654.634365	12853.286289
654.976836	12697.116384
655.319255	12710.873693
655.661622	12659.821928
656.003938	12587.544384
656.346203	12510.994463
656.688416	12585.709404
657.030577	12546.075853
657.372687	12463.665590
657.714746	12443.279164
658.056753	12623.570990
658.398708	12446.974330
658.740612	12446.578599
659.082465	12544.631562
659.424266	12512.557221
659.766016	12539.756766
660.107715	12443.906788
660.449362	12523.975434
660.790958	12477.536325
661.132503	12426.570260
661.473996	12491.054179
661.815438	12511.700225
662.156829	12521.477543
662.498168	12497.653049
662.839456	12498.182371
663.180693	12519.680371
663.521879	12607.847631
663.863013	12582.848549
664.204097	12560.133110
664.545129	12688.271679
664.886110	12658.677586
665.227040	12750.078746
665.567918	12744.170514
665.908746	12782.808437
666.249522	12758.815066
666.590248	12820.410404
666.930922	12928.868308
667.271545	12909.076738
667.612118	12992.674192
667.952639	12898.966704
668.293109	12912.847521
668.633528	12868.523176
668.973896	12840.456552
669.314213	12923.164243
669.654480	12655.854539
669.994695	12728.832803
670.334859	12753.153850
670.674973	12700.095706
671.015035	12733.773134
671.355047	12673.133094
671.695008	12647.400524
672.034918	12656.903099
672.374777	12693.408615
672.714585	12598.327412
673.054342	12643.317190
673.394049	12589.951535
673.733705	12691.684540
674.073310	12602.161210
674.412864	12620.596709
674.752368	12480.455153
675.091820	12499.150272
675.431223	12486.466729
675.770574	12357.642563
676.109875	12281.921912
676.449125	12238.734347
676.788324	12184.930112
677.127473	12019.711336
677.466571	12002.470589
677.805619	11897.206256
678.144616	11818.788587
678.483562	11798.870988
678.822458	11662.464927
679.161303	11644.334417
679.500098	11630.756069
679.838842	11585.640263
680.177535	11607.889396
680.516179	11666.807881
680.854771	11615.385591
681.193314	11829.596821
681.531805	11984.566932
681.870247	12406.234245
682.208638	12814.623159
682.546978	13130.123773
682.885268	13179.280064
683.223508	12875.520298
683.561697	12717.414590
683.899836	12610.038013
684.237925	12417.770926
684.575963	12326.841113
684.913951	12249.958476
685.251889	12204.658667
685.589776	12297.751135
685.927614	12226.171791
686.265401	12194.415043
686.603137	12241.610325
686.940824	12392.126576
687.278460	12515.811286
687.616046	12562.315930
687.953582	12728.406826
688.291068	12656.424190
688.628504	12890.701733
688.965889	12905.878126
689.303224	12860.051517
689.640510	12760.062751
689.977745	12447.365019
690.314930	12225.312275
690.652065	12136.466979
690.989150	11848.007115
691.326185	11617.480191
691.663170	11410.553428
692.000105	11172.734475
692.336990	11054.010261
692.673825	10806.169494
693.010610	10690.333861
693.347345	10481.050359
693.684030	10281.715574
694.020665	10219.384227
694.357251	10024.893991
694.693786	9963.732192
695.030272	9801.830495
695.366707	9687.469400
695.703093	9618.697979
696.039429	9611.504252
696.375716	9539.730824
696.711952	9404.181759
697.048139	9446.298079
697.384276	9402.472808
697.720363	9420.643647
698.056400	9358.009831
698.392388	9301.201068
698.728326	9267.077498
699.064214	9207.569198
699.400053	9250.587884
699.735842	9064.811282
700.071581	9024.008183
700.407270	8944.052962
700.742910	8868.405408
701.078501	8779.892829
701.414042	8651.638313
701.749533	8585.460566
702.084974	8445.865975
702.420366	8562.082215
702.755709	8446.211294
703.091002	8312.386303
703.426246	8343.807815
703.761440	8293.754199
704.096584	8251.431192
704.431679	8178.790685
704.766725	8162.270824
705.101721	8121.140050
705.436668	8165.416504
705.771565	8055.103455
706.106413	8142.751476
706.441212	8176.517125
706.775961	8138.101012
707.110661	8169.063779
707.445311	8312.129204
707.779913	8211.911066
708.114465	8342.361004
708.448967	8382.735605
708.783421	8523.625773
709.117825	8710.740801
709.452180	8737.731138
709.786485	8830.115324
710.120742	9112.911452
710.454949	9116.815825
710.789107	9210.190598
711.123216	9425.357126
711.457275	9587.641951
711.791286	9752.752342
712.125247	9747.070962
712.459159	9734.253828
712.793023	9985.905707
713.126837	9558.262106
713.460602	9719.127846
713.794318	9533.512561
714.127985	9568.926667
714.461602	9244.384744
714.795171	9192.458339
715.128691	8946.155124
715.462162	8696.713790
715.795584	8640.235223
716.128957	8497.741968
716.462281	8324.409455
716.795556	8379.443732
717.128782	8169.872884
717.461960	7904.224241
717.795088	7980.312897
718.128167	7879.804892
718.461198	7717.925880
718.794180	7659.304822
719.127113	7652.539594
719.459997	7497.791294
719.792833	7271.259485
720.125619	7329.988927
720.458357	7190.114552
720.791046	7174.244999
721.123686	7175.492685
721.456278	7015.367995
721.788821	7035.094030
722.121315	6923.697133
722.453761	6992.239181
722.786158	6940.907632
723.118506	6943.347550
723.450805	6916.042141
723.783056	6980.248797
724.115259	6889.056844
724.447412	6882.110134
724.779518	6932.231806
725.111574	6935.571571
725.443582	7020.900661
725.775542	6995.067268
726.107453	7192.151178
726.439315	7097.430418
726.771129	7161.102711
727.102895	7324.496590
727.434612	7440.498581
727.766281	7467.567057
728.097901	7550.602422
728.429473	7543.617903
728.760996	7515.110178
729.092471	7491.250397
729.423897	7447.790610
729.755276	7460.816952
730.086606	7380.050105
730.417887	7483.093810
730.749120	7676.250661
731.080305	7870.390537
731.411442	7991.370667
731.742530	7987.980492
732.073570	8095.054599
732.404562	8182.760594
732.735506	8028.040021
733.066401	8174.364552
733.397249	8103.987524
733.728048	7863.136317
734.058798	7530.626850
734.389501	7301.894577
734.720156	7123.359592
735.050762	6894.818883
735.381320	6798.520242
735.711831	6748.872438
736.042293	6636.381610
736.372707	6658.928171
736.703073	6517.702767
737.033391	6558.178191
737.363661	6570.289563
737.693883	6597.181598
738.024056	6681.615884
738.354182	6724.836216
738.684260	6758.012050
739.014290	6873.220059
739.344272	6984.760629
739.674207	7013.018817
740.004093	7081.533139
740.333931	7096.011333
740.663722	7107.522808
740.993464	7184.367636
741.323159	7166.103536
741.652806	6919.845691
741.982405	6937.230110
742.311956	6993.171794
742.641460	6825.495456
742.970915	6630.770806
743.300323	6624.981041
743.629683	6573.137815
743.958996	6440.031189
744.288260	6348.325038
744.617477	6299.254447
744.946647	6306.367515
745.275768	6141.486496
745.604842	6089.880204
745.933869	6074.043419
746.262847	6035.602101
746.591778	6022.991654
746.920662	5980.915664
747.249498	5971.561803
747.578286	6019.392271
747.907027	6093.734166
748.235720	6157.255225
748.564365	6123.887828
748.892963	6153.857488
749.221514	6305.021527
749.550017	6139.001207
749.878473	6016.138206
750.206881	6078.096507
750.535242	6011.984295
750.863555	5944.526095
751.191821	5963.450586
751.520039	5962.124763
751.848210	5868.727306
752.176334	5891.084823
752.504411	5938.892605
752.832440	5865.841245
753.160421	5793.992200
753.488356	5846.135375
753.816243	5879.414552
754.144082	5729.213373
754.471875	5697.126429
754.799620	5743.603347
755.127318	5755.966776
755.454969	5706.598757
755.782572	5673.226318
756.110129	5715.940015
756.437638	5699.760432
756.765100	5641.963603
757.092515	5639.846318
757.419882	5690.633422
757.747203	5670.511657
758.074477	5731.854937
758.401703	5719.259615
758.728882	5672.056771
759.056014	5727.577518
759.383099	5855.093505
759.710138	5869.881730
760.037129	5855.509400
760.364073	5857.140213
760.690970	5939.275733
761.017820	5920.701602
761.344623	5872.732502
761.671379	5977.631352
761.998088	6091.077478
762.324751	6343.026786
762.651366	6944.537263
762.977935	8250.985049
763.304456	9884.467610
763.630931	10789.110229
763.957359	10395.315455
764.283740	9448.985014
764.610074	8616.251934
764.936362	7617.838812
765.262602	7020.918305
765.588796	6481.595502
765.914943	6150.421941
766.241044	5982.405325
766.567097	5783.872083
766.893104	5525.089492
767.219064	5342.249362
767.544978	5280.280979
767.870845	5205.896233
768.196665	5096.248617
768.522438	5025.647257
768.848165	4994.540817
769.173846	4925.293007
769.499479	4885.856061
769.825066	4830.083255
770.150607	4772.052013
770.476101	4748.560236
770.801548	4743.904730
771.126949	4664.791382
771.452303	4613.792549
771.777611	4570.274789
772.102872	4591.939147
772.428087	4553.185277
772.753256	4510.083412
773.078378	4465.567503
773.403453	4396.496133
773.728482	4382.922827
774.053465	4337.623018
774.378401	4324.286646
774.703291	4327.059280
775.028135	4256.228548
775.352932	4200.009601
775.677683	4190.388558
776.002388	4211.173236
776.327046	4219.985173
776.651658	4146.520438
776.976224	4088.214452
777.300743	4091.138322
777.625216	4108.726907
777.949643	4106.670117
778.274024	4064.062284
778.598359	4017.660984
778.922647	4044.041342
779.246889	4032.572717
779.571086	4025.646171
779.895236	4013.988503
780.219339	3997.882017
780.543397	3990.723578
780.867409	4043.300292
781.191374	4059.363929
781.515294	3996.465452
781.839167	3987.837517
782.162995	4007.162781
782.486776	3993.070235
782.810511	4006.900641
783.134201	4002.663551
783.457844	3957.797282
783.781441	3904.126637
784.104993	3904.676123
784.428498	3927.084052
784.751958	3922.652878
785.075372	3903.350300
785.398739	3864.906460
785.722061	3874.295609
786.045337	3916.192639
786.368568	3950.860654
786.691752	3867.764795
787.014891	3909.629057
787.337983	4038.869118
787.661030	4201.315259
787.984031	4358.639589
788.306987	4534.492679
788.629897	4611.955049
788.952760	4571.706477
789.275579	4504.210468
789.598351	4437.145477
789.921078	4297.500475
790.243759	4097.815330
790.566395	4077.007967
790.888984	4077.330601
791.211529	3968.610557
791.534027	3906.932039
791.856480	3895.435688
792.178888	3836.187007
792.501249	3784.525262
792.823566	3793.143115
793.145836	3824.327692
793.468062	3774.037142
793.790241	3726.020151
794.112375	3756.345212
794.434464	3821.880212
794.756507	3843.297554
795.078505	3826.185358
795.400457	3860.563506
795.722364	3995.908405
796.044226	4102.513685
796.366042	4177.780633
796.687812	4156.277591
797.009538	4160.749094
797.331218	4117.591776
797.652852	4091.750822
797.974442	4070.714087
798.295986	4072.168460
798.617484	3992.989577
798.938938	3905.260897
799.260346	3948.118266
799.581709	3938.731638
799.903026	3867.011142
800.224299	3831.788600
800.545526	3825.915656
800.866708	3781.092237
801.187845	3724.623752
801.508936	3761.953496
801.829983	3761.577930
802.150984	3678.887883
802.471940	3666.963034
802.792851	3681.075744
803.113717	3677.665404
803.434538	3680.518697
803.755314	3626.419554
804.076045	3598.541973
804.396731	3618.855303
804.717372	3646.553923
805.037967	3630.568424
805.358518	3618.356229
805.679024	3646.523676
805.999485	3657.425171
806.319901	3662.546983
806.640272	3677.753624
806.960598	3692.249462
807.280879	3664.087056
807.601115	3679.588604
807.921306	3692.798948
808.241453	3736.669589
808.561554	3710.390054
808.881611	3643.821617
809.201623	3684.934747
809.521590	3692.065460
809.841513	3664.505472
810.161390	3695.319524
810.481223	3674.421421
810.801011	3618.469655
811.120755	3613.108387
811.440453	3644.794560
811.760107	3648.812360
812.079716	3605.856688
812.399281	3574.505752
812.718801	3596.646500
813.038276	3570.818148
813.357707	3569.141964
813.677093	3584.618307
813.996434	3535.189793
814.315731	3543.878222
814.634983	3543.795043
814.954191	3560.279616
815.273354	3591.262547
815.592473	3584.083944
815.911547	3589.420006
816.230577	3632.506747
816.549562	3683.813091
816.868502	3727.716500
817.187399	3750.895725
817.506250	3748.758276
817.825058	3718.667628
818.143821	3811.692040
818.462539	3916.321188
818.781213	3959.281902
819.099843	4015.281559
819.418429	4262.098972
819.736970	4504.069315
820.055466	4751.476543
820.373919	5112.904589
820.692327	5524.217372
821.010691	5969.212625
821.329011	7345.064497
821.647286	10093.977963
821.965517	14651.801102
822.283704	18668.494184
822.601847	20827.204482
822.919945	19008.852727
823.237999	16442.063547
823.556010	13960.376605
823.873976	11864.741225
824.191897	9770.756823
824.509775	8418.868075
824.827609	7296.051879
825.145398	6751.955103
825.463144	6631.219469
825.780845	6745.547797
826.098502	6932.178874
826.416116	7813.007083
826.733685	9135.891552
827.051210	10249.003527
827.368692	10292.009610
827.686129	9035.174339
828.003522	7524.456478
828.320872	6503.816908
828.638177	5802.191637
828.955439	5241.532150
829.272656	4740.413731
829.589830	4458.325885
829.906960	4284.196870
830.224046	4100.288016
830.541088	3974.672544
830.858086	3928.566151
831.175041	3848.653780
831.491952	3835.103159
831.808819	3845.808049
832.125642	3916.036363
832.442421	4063.623704
832.759157	4343.861446
833.075849	4887.643150
833.392497	5758.182363
833.709101	6536.526435
834.025662	6873.474638
834.342179	6512.006263
834.658653	5844.577658
834.975083	5194.334347
835.291469	4617.956542
835.607811	4206.863049
835.924110	4067.265937
836.240366	3872.082543
836.556578	3664.298784
836.872746	3553.645457
837.188871	3518.987525
837.504952	3449.419602
837.820990	3368.456150
838.136984	3321.727175
838.452935	3347.144672
838.768842	3342.842048
839.084706	3361.539687
839.400526	3521.548431
839.716303	3862.222046
840.032037	4387.714443
840.347727	4650.635822
840.663373	4372.268348
840.978977	3989.987570
841.294537	3680.208666
841.610054	3454.778348
841.925527	3347.152234
842.240957	3277.322171
842.556344	3223.369222
842.871687	3164.702794
843.186987	3113.552727
843.502244	3076.611151
843.817458	3042.963970
844.132629	3011.759228
844.447756	3020.729961
844.762840	3005.160357
845.077881	2974.487457
845.392879	2955.633541
845.707833	2951.575412
846.022745	2952.671863
846.337613	2951.232614
846.652438	2941.099895
846.967221	2937.099739
847.281960	2923.067687
847.596656	2920.831936
847.911309	2919.004517
848.225919	2914.654002
848.540485	2910.616037
848.855009	2907.835841
849.169490	2899.573390
849.483928	2890.123747
849.798323	2887.381359
850.112675	2885.861451
850.426984	2896.324366
850.741251	2891.716752
851.055474	2883.048487
851.369654	2879.814587
851.683792	2883.081255
851.997887	2891.104251
852.311938	2893.213974
852.625947	2882.388096
852.939914	2885.407748
853.253837	2890.426216
853.567718	2876.074051
853.881555	2872.237733
854.195350	2890.456463
854.509103	2884.560834
854.822812	2876.973897
855.136479	2873.508104
855.450103	2877.543548
855.763685	2868.918133
856.077224	2867.098277
856.390720	2878.776110
856.704173	2889.334806
857.017584	2877.425080
857.330953	2876.366438
857.644278	2887.356153
857.957561	2895.638769
858.270802	2901.194121
858.584000	2898.320663
858.897155	2887.845145
859.210268	2883.877757
859.523339	2882.614948
859.836367	2885.173334
860.149352	2876.860471
860.462295	2874.251674
860.775195	2880.875750
861.088054	2883.217366
861.400869	2864.113914
861.713642	2861.119468
862.026373	2874.627240
862.339062	2878.256871
862.651708	2884.225597
862.964312	2887.338509
863.276873	2882.151162
863.589392	2890.844632
863.901869	2903.888618
864.214303	2923.027358
864.526696	2940.436983
864.839045	2937.369441
865.151353	2935.489090
865.463619	2932.086312
865.775842	2936.330963
866.088023	2953.556586
866.400162	2960.440281
866.712258	2929.172525
867.024313	2922.412337
867.336325	2929.308636
867.648296	2951.749332
867.960224	2941.034360
868.272110	2931.113369
868.583954	2935.892383
868.895755	2950.804116
869.207515	2937.931529
869.519233	2941.243568
869.830909	2950.882254
870.142542	2961.503965
870.454134	2958.532205
870.765684	2961.874490
871.077191	2960.047071
871.388657	2968.712815
871.700081	2984.214363
872.011463	2994.697442
872.322803	2997.165087
872.634101	2994.163080
872.945357	3012.054135
873.256571	3037.191849
873.567744	3027.974099
873.878874	3024.349509
874.189963	3045.983621
874.501010	3049.482182
874.812015	3038.842827
875.122979	3036.544060
875.433900	3032.206148
875.744780	3040.592107
876.055618	3051.201215
876.366415	3043.241233
876.677169	3054.538459
876.987882	3051.607028
877.298554	3045.882798
877.609183	3066.859039
877.919771	3088.851073
878.230317	3116.111112
878.540822	3168.483659
878.851285	3207.754248
879.161707	3252.471803
879.472087	3355.041640
879.782425	3580.963470
880.092722	4014.795088
880.402977	4548.401222
880.713191	5174.048744
881.023363	6330.328119
881.333494	7605.737522
881.643583	8155.331676
881.953631	7855.415789
882.263637	7232.477888
882.573602	6641.306818
882.883526	6065.927162
883.193408	5498.300800
883.503248	5042.275503
883.813048	4729.199684
884.122806	4432.177420
884.432522	4113.001806
884.742197	3880.831465
885.051831	3685.229655
885.361424	3550.167061
885.670975	3476.014209
885.980485	3392.119326
886.289954	3313.605876
886.599382	3272.170112
886.908768	3232.186200
887.218113	3186.480579
887.527417	3132.557877
887.836680	3081.566605
888.145901	3076.170050
888.455082	3063.388205
888.764221	3015.091430
889.073319	2986.296359
889.382376	2983.364928
889.691392	2987.619662
890.000366	2983.642192
890.309300	2973.960656
890.618193	2987.670074
890.927044	3002.833865
891.235855	3001.243381
891.544625	2987.864158
891.853353	3001.402177
892.162041	3019.550331
892.470687	3057.331258
892.779293	3113.101543
893.087858	3156.115188
893.396381	3228.576734
893.704864	3348.029395
894.013306	3586.672577
894.321707	3893.779669
894.630068	4097.349023
894.938387	4093.729475
895.246665	4051.383782
895.554903	3930.328034
895.863100	3729.274216
896.171256	3563.798341
896.479371	3420.198553
896.787446	3298.011066
897.095480	3198.896941
897.403473	3132.043679
897.711425	3091.507761
898.019336	3083.704055
898.327207	3054.992163
898.635038	3020.064528
898.942827	3004.454596
899.250576	2992.751557
899.558284	2961.020014
899.865952	2940.711726
900.173579	2923.539035
900.481165	2912.622417
900.788711	2904.412898
901.096216	2879.534803
901.403681	2868.414018
901.711105	2872.951056
902.018489	2870.133051
902.325832	2873.692106
902.633135	2881.185781
902.940397	2914.855648
903.247619	2996.240035
903.554800	3185.321113
903.861941	3531.739123
904.169041	3960.615287
904.476101	4262.545114
904.783121	4215.944688
905.090100	3971.494097
905.397039	3698.729865
905.703938	3450.037143
906.010796	3263.433792
906.317614	3151.893222
906.624391	3055.899571
906.931129	2984.063128
907.237826	2924.189344
907.544483	2877.417519
907.851099	2844.783609
908.157675	2825.029848
908.464211	2804.449337
908.770707	2789.340999
909.077163	2777.665687
909.383578	2760.750095
909.689954	2750.894639
909.996289	2746.619741
910.302584	2753.077459
910.608839	2750.940010
910.915054	2748.172416
911.221229	2740.260325
911.527363	2742.856520
911.833458	2747.882550
912.139513	2751.847417
912.445527	2757.501072
912.751502	2764.472987
913.057436	2773.010181
913.363331	2785.539969
913.669186	2810.155923
913.975000	2843.588856
914.280775	2903.301323
914.586510	2974.525265
914.892205	3050.931513
915.197859	3181.056297
915.503475	3376.423694
915.809050	3589.682146
916.114585	3735.739496
916.420081	3754.674070
916.725536	3696.514278
917.030952	3575.710588
917.336328	3447.564457
917.641665	3316.938078
917.946961	3218.007955
918.252218	3147.507418
918.557435	3070.019843
918.862612	3010.060359
919.167750	2961.445992
919.472848	2919.664908
919.777906	2893.460991
920.082925	2868.174563
920.387904	2834.489573
920.692843	2822.060608
920.997743	2807.847075
921.302603	2794.732513
921.607423	2784.451080
921.912204	2771.417177
922.216946	2762.554828
922.521647	2750.652664
922.826310	2745.608990
923.130932	2738.790829
923.435516	2728.877400
923.740059	2721.938252
924.044564	2716.261912
924.349028	2706.638350
924.653454	2700.296578
924.957840	2696.399766
925.262186	2692.165197
925.566493	2687.146728
925.870761	2682.818898
926.174989	2679.411078
926.479178	2673.497804
926.783328	2668.141578
927.087438	2667.950015
927.391509	2667.493790
927.695541	2662.833243
927.999533	2659.932059
928.303486	2657.986174
928.607400	2657.003149
928.911275	2659.012049
929.215110	2656.867038
929.518906	2657.073725
929.822663	2656.289826
930.126381	2653.993580
930.430060	2653.595329
930.733699	2657.287974
931.037299	2657.729075
931.340861	2657.519867
931.644383	2657.696308
931.947866	2656.446102
932.251309	2656.433499
932.554714	2653.633138
932.858080	2654.711945
933.161407	2649.824546
933.464694	2649.159114
933.767943	2646.890594
934.071153	2648.793630
934.374323	2649.040647
934.677455	2647.651809
934.980548	2648.339926
935.283602	2647.823208
935.586617	2648.186171
935.889593	2646.303300
936.192530	2648.259268
936.495428	2648.526449
936.798287	2650.048877
937.101108	2652.685401
937.403890	2655.654640
937.706632	2658.230670
938.009336	2666.732576
938.312002	2677.276149
938.614628	2687.013138
938.917216	2688.737212
939.219765	2690.398273
939.522275	2690.468849
939.824747	2687.923066
940.127179	2689.710155
940.429573	2684.043898
940.731929	2678.816222
941.034246	2678.024761
941.336524	2672.895387
941.638763	2670.949501
941.940964	2668.658297
942.243126	2665.505055
942.545250	2665.600837
942.847335	2665.805004
943.149381	2658.812923
943.451389	2653.814619
943.753359	2652.846718
944.055290	2652.579537
944.357182	2651.178096
944.659036	2651.321769
944.960851	2649.242293
945.262628	2647.450162
945.564367	2648.723054
945.866067	2650.563075
946.167729	2651.311686
946.469352	2649.320431
946.770937	2650.414361
947.072484	2647.152734
947.373992	2647.298928
947.675462	2644.569143
947.976893	2639.701909
948.278286	2637.105715
948.579641	2638.348359
948.880958	2637.168729
949.182236	2641.362969
949.483476	2640.193422
949.784678	2638.325674
950.085841	2637.733338
950.386967	2639.636374
950.688054	2639.878349
950.989103	2641.539410
951.290114	2639.767444
951.591087	2643.631488
951.892021	2647.324134
952.192917	2651.180616
952.493776	2650.437046
952.794596	2652.145997
953.095378	2652.687921
953.396122	2651.397386
953.696828	2648.753301
953.997496	2648.450832
954.298126	2646.845224
954.598718	2645.960502
954.899272	2639.533030
955.199788	2639.109573
955.500266	2635.220323
955.800706	2634.317957
956.101108	2631.618419
956.401472	2628.707152
956.701798	2626.748664
957.002087	2624.790176
957.302337	2624.626338
957.602550	2627.323356
957.902724	2622.115844
958.202861	2620.651389
958.502960	2618.917232
958.803022	2617.820781
959.103045	2617.926645
959.403031	2617.430091
959.702979	2617.896398
960.002889	2616.855400
960.302762	2614.886829
960.602596	2614.637292
960.902393	2615.370780
961.202153	2614.937241
961.501875	2614.670060
961.801559	2617.737602
962.101205	2613.019082
962.400814	2614.864144
962.700385	2613.808022
962.999918	2612.920779
963.299414	2608.582866
963.598873	2611.436159
963.898293	2607.438524
964.197677	2614.019751
964.497022	2613.724843
964.796331	2613.094699
965.095601	2612.812394
965.394835	2612.174688
965.694030	2612.777106
965.993189	2612.376335
966.292309	2611.685697
966.591393	2611.879781
966.890439	2612.041098
967.189447	2609.651591
967.488419	2610.327106
967.787353	2613.737446
968.086249	2610.599328
968.385108	2612.837600
968.683930	2609.631426
968.982714	2609.303751
969.281462	2609.757455
969.580172	2612.555296
969.878844	2611.610079
970.177480	2613.155193
970.476078	2613.503032
970.774639	2612.827518
971.073162	2609.281066
971.371649	2613.082096
971.670098	2612.293156
971.968510	2610.755604
972.266885	2610.193515
972.565223	2611.703341
972.863524	2613.152672
973.161788	2610.445573
973.460014	2612.615789
973.758204	2612.620831
974.056356	2612.462034
974.354471	2611.179061
974.652550	2612.164606
974.950591	2614.821294
975.248595	2609.646550
975.546563	2609.296190
975.844493	2611.479009
976.142386	2610.178392
976.440243	2608.124121
976.738062	2610.203597
977.035845	2610.067486
977.333590	2610.891715
977.631299	2608.265274
977.928971	2606.198401
978.226606	2606.846189
978.524204	2607.801487
978.821765	2604.300406
979.119290	2610.223762
979.416777	2608.638319
979.714228	2608.756786
980.011642	2611.010182
980.309020	2607.967846
980.606360	2607.461210
980.903664	2608.010695
981.200931	2610.700151
981.498162	2609.361725
981.795356	2613.061932
982.092513	2611.872219
982.389633	2614.589401
982.686717	2619.033178
982.983764	2622.239352
983.280775	2625.508540
983.577749	2628.235805
983.874686	2626.415948
984.171587	2623.474435
984.468451	2623.292953
984.765279	2616.578136
985.062070	2617.467900
985.358824	2616.043774
985.655543	2613.233331
985.952224	2613.298866
986.248869	2610.254009
986.545478	2609.633947
986.842050	2608.822321
987.138586	2607.859461
987.435086	2607.496498
987.731549	2607.894749
988.027975	2605.671600
988.324366	2606.947012
988.620719	2608.814759
988.917037	2605.384254
989.213318	2605.699326
989.509563	2605.613627
989.805772	2606.523555
990.101944	2606.858792
990.398080	2604.902824
990.694180	2607.211673
990.990244	2608.587907
991.286271	2605.411981
991.582262	2605.734614
991.878217	2605.958946
992.174136	2603.919799
992.470019	2605.646394
992.765865	2604.413832
993.061676	2602.399891
993.357450	2602.520879
993.653188	2602.324274
993.948890	2606.090016
994.244556	2606.508432
994.540186	2604.018102
994.835780	2606.049687
995.131337	2606.863833
995.426859	2607.068000
995.722345	2607.579677
996.017795	2608.303082
996.313208	2610.415326
996.608586	2610.964812
996.903928	2611.620162
997.199234	2608.940788
997.494504	2614.065121
997.789738	2610.092692
998.084936	2608.383741
998.380099	2610.927003
998.675225	2608.892897
998.970316	2608.356014
999.265371	2609.581015
999.560390	2606.788216
999.855373	2606.397526
1000.150320	2606.405088
1000.445232	2604.880139
1000.740108	2603.599686
1001.034948	2605.979110
1001.329752	2605.792588
1001.624521	2601.147164
1001.919254	2604.552464
1002.213951	2607.695623
1002.508613	2603.914758
1002.803239	2604.174377
1003.097829	2605.805191
1003.392384	2604.401229
1003.686903	2603.571959
1003.981386	2605.621188
1004.275834	2604.865015
1004.570246	2605.472474
1004.864623	2603.012391
1005.158964	2605.384254
1005.453270	2603.224120
1005.747540	2606.019440
1006.041775	2604.650766
1006.335974	2603.697988
1006.630138	2600.655652
1006.924266	2602.805704
1007.218359	2604.159254
1007.512416	2602.175560
1007.806438	2598.820672
1008.100425	2601.615992
1008.394376	2599.022318
1008.688292	2601.938626
1008.982172	2601.996599
1009.276017	2605.621188
1009.569827	2603.186311
1009.863602	2603.647577
1010.157341	2601.852926
1010.451045	2602.457864
1010.744714	2603.347628
1011.038347	2602.435179
1011.331945	2603.778647
1011.625508	2602.611620
1011.919036	2602.384768
1012.212528	2604.827207
1012.505986	2604.277721
1012.799408	2604.078595
1013.092795	2601.174891
1013.386147	2604.280242
1013.679464	2603.471136
1013.972745	2604.166816
1014.265992	2604.635643
1014.559204	2603.778647
1014.852380	2604.675972
1015.145521	2600.602720
1015.438628	2601.590786
1015.731699	2603.851743
1016.024736	2603.496342
1016.317737	2600.890066
1016.610703	2602.276383
1016.903635	2601.994078
1017.196531	2604.595314
1017.489393	2603.803852
1017.782219	2600.665734
1018.075011	2601.724377
1018.367768	2602.072216
1018.660490	2603.035077
1018.953177	2603.035077
1019.245829	2603.035077
