Dividing Wavelength (nm)	Counts (n)	Blue Motor Position (mm): 34.000000	Red Motor Position (mm): 0.000000	
326.493990	2224.325956
326.888308	2224.325956
327.282561	2224.325956
327.676750	2185.080573
328.070874	2181.050170
328.464933	2182.401200
328.858929	2187.112158
329.252859	2191.223219
329.646726	2201.040866
330.040528	2210.772813
330.434265	2224.676316
330.827938	2243.905797
331.221547	2260.418097
331.615091	2279.927362
332.008571	2295.108797
332.401986	2314.660912
332.795338	2333.920640
333.188625	2350.614421
333.581847	2372.389685
333.975006	2389.398538
334.368100	2408.244892
334.761129	2425.931780
335.154095	2445.962805
335.546996	2472.842237
335.939833	2511.331447
336.332606	2525.759229
336.725315	2537.800025
337.117960	2550.667570
337.510540	2562.857080
337.903056	2573.846796
338.295508	2583.992118
338.687896	2593.071236
339.080220	2598.729931
339.472480	2605.661518
339.864676	2612.467075
340.256807	2616.817591
340.648875	2621.596605
341.040879	2622.922428
341.432818	2625.369909
341.824694	2628.445012
342.216506	2628.651700
342.608253	2629.733027
342.999937	2631.275620
343.391557	2632.198152
343.783113	2628.767646
344.174605	2627.434261
344.566033	2626.312604
344.957397	2627.283027
345.348697	2624.961575
345.739934	2624.989302
346.131106	2621.944445
346.522215	2619.199536
346.913260	2617.833384
347.304241	2616.104268
347.695159	2616.505040
348.086012	2613.210646
348.476802	2611.007661
348.867528	2608.212342
349.258191	2606.826024
349.648789	2604.028184
350.039324	2600.557349
350.429796	2605.069182
350.820203	2602.790581
351.210548	2600.411156
351.600828	2600.517020
351.991045	2596.776484
352.381198	2597.603233
352.771288	2599.017277
353.161314	2597.814962
353.551276	2595.864035
353.941175	2594.981833
354.331010	2594.820516
354.720782	2596.390836
355.110490	2597.545260
355.500135	2598.223295
355.889717	2594.044179
356.279235	2596.907554
356.668689	2594.883531
357.058080	2594.656679
357.447408	2597.429313
357.836672	2597.426793
358.225873	2593.101483
358.615010	2595.521237
359.004084	2597.260435
359.393095	2598.238419
359.782043	2600.438882
360.170927	2601.184973
360.559748	2600.615323
360.948505	2600.368306
361.337199	2600.456526
361.725830	2602.717484
362.114398	2601.956270
362.502903	2603.047679
362.891344	2604.179418
363.279722	2603.697988
363.668037	2603.163626
364.056289	2603.277052
364.444478	2607.443566
364.832603	2605.038935
365.220665	2605.976590
365.608665	2606.682351
365.996601	2609.142434
366.384474	2606.324429
366.772284	2605.618668
367.160031	2608.265274
367.547715	2610.435490
367.935336	2606.735283
368.322893	2608.986159
368.710388	2606.334512
369.097820	2607.715788
369.485189	2604.920468
369.872495	2610.438011
370.259738	2610.823659
370.646918	2612.830038
371.034035	2614.559154
371.421090	2610.627054
371.808081	2613.719802
372.195010	2609.573453
372.581875	2612.330964
372.968678	2613.268619
373.355418	2615.093517
373.742096	2613.689555
374.128710	2611.660491
374.515262	2613.344236
374.901751	2616.817591
375.288177	2615.738784
375.674540	2616.202570
376.060841	2614.773403
376.447079	2615.867334
376.833254	2616.056377
377.219367	2617.762807
377.605417	2617.581326
377.991404	2619.547376
378.377329	2617.840945
378.763191	2617.868672
379.148991	2620.144753
379.534727	2619.880092
379.920402	2617.820781
380.306013	2618.372787
380.691563	2621.193313
381.077049	2621.833539
381.462474	2618.871861
381.847835	2621.999897
382.233134	2620.222891
382.618371	2622.040227
383.003545	2620.966461
383.388657	2621.452932
383.773706	2623.557614
384.158693	2623.870165
384.543618	2623.297994
384.928480	2623.388735
385.313280	2626.002573
385.698017	2625.619446
386.082692	2627.272944
386.467305	2629.977523
386.851856	2627.376288
387.236344	2628.845784
387.620770	2623.812192
388.005133	2624.301184
388.389435	2627.124230
388.773674	2625.430402
389.157851	2630.708491
389.541965	2630.539612
389.926018	2631.336114
390.310008	2631.668830
390.693936	2634.393574
391.077802	2633.491207
391.461606	2636.921713
391.845348	2634.834675
392.229027	2633.801238
392.612645	2637.047742
392.996200	2635.006074
393.379694	2635.089253
393.763125	2639.734677
394.146494	2638.572691
394.529801	2637.645118
394.913047	2640.372382
395.296230	2640.997486
395.679351	2640.233751
396.062410	2638.539923
396.445408	2641.741056
396.828343	2642.479585
397.211217	2642.250212
397.594028	2643.873464
397.976778	2643.669297
398.359466	2647.712302
398.742092	2645.695841
399.124656	2641.678041
399.507158	2644.556540
399.889598	2650.542910
400.271977	2649.975781
400.654294	2648.831439
401.036549	2649.121305
401.418742	2647.961840
401.800874	2651.709937
402.182944	2653.597850
402.564952	2654.250679
402.946898	2651.838487
403.328783	2655.021976
403.710606	2654.686739
404.092367	2654.900988
404.474067	2657.794610
404.855705	2657.845022
405.237282	2659.256545
405.618797	2661.537667
406.000250	2666.709891
406.381642	2671.040242
406.762972	2670.493277
407.144240	2675.075686
407.525447	2683.910308
407.906593	2685.916687
408.287677	2700.140302
408.668700	2708.435521
409.049661	2725.514950
409.430560	2740.673700
409.811399	2753.097624
410.192176	2782.248096
410.572891	2806.430511
410.953545	2843.036849
411.334138	2855.357429
411.714669	2902.461971
412.095139	2927.501382
412.475547	2985.469610
412.855894	3040.158568
413.236180	3111.760596
413.616405	3135.325470
413.996568	3218.668346
414.376670	3286.421454
414.756711	3337.432889
415.136691	3424.821291
415.516609	3529.299205
415.896466	3606.708643
416.276262	3722.945048
416.655997	3807.180208
417.035670	3938.527471
417.415283	4119.383907
417.794834	4227.015062
418.174324	4284.388434
418.553753	4359.952809
418.933121	4563.202050
419.312428	4693.536042
419.691674	4719.268611
420.070859	5008.187221
420.449983	4994.129963
420.829045	5251.899283
421.208047	5261.464872
421.586988	5516.096073
421.965867	5625.289986
422.344686	5796.830369
422.723444	5931.623262
423.102141	5690.749369
423.480777	6215.662034
423.859352	6040.093769
424.237866	6529.420929
424.616319	6545.625718
424.994712	6901.261478
425.373044	6746.208188
425.751314	7148.474621
426.129524	7156.157339
426.507673	7364.916561
426.885762	7573.441370
427.263789	7597.066737
427.641756	7636.518807
428.019662	7818.338103
428.397508	8085.423475
428.775292	7929.871111
429.153016	8328.109662
429.530679	8262.183973
429.908282	8381.346767
430.285824	8215.586067
430.663305	8859.933749
431.040726	8463.598233
431.418086	8515.244855
431.795385	8855.172379
432.172624	8987.787493
432.549802	8969.679668
432.926920	9098.713042
433.303977	9033.714925
433.680974	9266.873331
434.057910	9393.522239
434.434786	9485.465324
434.811601	9388.390345
435.188355	9955.399165
435.565050	9722.792765
435.941683	9684.606024
436.318257	10197.188027
436.694770	10326.596967
437.071222	10427.236041
437.447614	10314.024329
437.823946	10218.310461
438.200218	10391.809333
438.576429	10213.347445
438.952580	10459.038160
439.328670	10537.659996
439.704700	10324.078910
440.080670	10327.748870
440.456580	10906.591799
440.832429	10651.756431
441.208218	10271.983626
441.583947	10621.537234
441.959616	10751.528427
442.335224	10565.661085
442.710773	10718.478623
443.086261	10917.576473
443.461689	10224.916893
443.837057	10849.954435
444.212365	11147.132975
444.587612	10795.162134
444.962800	11031.551920
445.337927	10811.094701
445.712995	10376.189318
446.088002	11479.244191
446.462949	11124.967022
446.837837	11094.465520
447.212664	11103.829464
447.587431	11602.674322
447.962139	12301.244654
448.336786	14551.575402
448.711374	15119.463903
449.085901	12989.820899
449.460369	12595.958070
449.834776	12048.198896
450.209124	12900.698341
450.583412	13302.601810
450.957640	14254.810237
451.331808	13437.626596
451.705917	12409.856314
452.079965	11732.632748
452.453954	12621.856998
452.827883	12250.669278
453.201752	12538.347764
453.575562	12053.988661
453.949311	12476.102117
454.323001	12427.843151
454.696632	12650.377326
455.070202	12941.854321
455.443713	13192.659286
455.817164	13643.058656
456.190556	13647.237773
456.563888	14007.239172
456.937160	14182.499926
457.310373	13521.423175
457.683526	13597.441255
458.056619	13150.739571
458.429653	13288.219398
458.802628	12742.474165
459.175542	13102.536058
459.548398	14045.219225
459.921194	14379.722468
460.293930	14440.407878
460.666607	15336.233519
461.039224	16354.826380
461.411782	17057.205304
461.784280	16955.515149
462.156719	17006.214033
462.529099	16693.496136
462.901419	15607.235867
463.273680	15416.876857
463.645882	15272.052069
464.018024	15004.467623
464.390106	15221.935438
464.762130	15955.977849
465.134094	16697.645006
465.505999	18677.270833
465.877845	21939.124224
466.249631	24771.662870
466.621358	24473.022396
466.993026	23024.545141
467.364634	22473.983085
467.736184	21016.298162
468.107674	20213.083558
468.479105	20350.800320
468.850477	19812.334513
469.221790	19395.728518
469.593043	18716.065033
469.964238	18162.251433
470.335373	17829.003437
470.706449	18251.341224
471.077467	17798.275084
471.448425	19632.398088
471.819324	23627.136945
472.190164	25688.200092
472.560945	22170.500582
472.931667	19777.522825
473.302330	19139.774013
473.672934	18645.531729
474.043479	18994.374534
474.413965	18803.382858
474.784393	18434.418288
475.154761	19105.105998
475.525070	19110.653788
475.895321	18778.131719
476.265513	19361.105873
476.635645	19935.626012
477.005719	19717.091993
477.375734	19922.027500
477.745691	20392.556197
478.115588	20899.683671
478.485427	21428.412489
478.855207	22483.752841
479.224928	24234.863165
479.594591	26465.540974
479.964194	26520.376125
480.333739	26721.533287
480.703226	26285.692769
481.072653	25954.635155
481.442022	26527.708483
481.811333	27423.763497
482.180584	27364.189662
482.549777	26417.244200
482.918912	26054.462604
483.287988	26184.521853
483.657005	25843.770100
484.025964	25594.666524
484.394864	25518.940831
484.763706	25203.125146
485.132489	24626.152485
485.501213	24813.176772
485.869879	24731.200049
486.238487	24530.141189
486.607036	24676.067470
486.975527	24374.220822
487.343959	24701.449679
487.712333	24641.722089
488.080648	24308.050636
488.448905	24795.918382
488.817104	24544.803385
489.185244	25214.008997
489.553326	25178.070611
489.921350	26157.861711
490.289315	28441.738817
490.657222	30231.454296
491.025070	30729.832848
491.392861	30529.668793
491.760593	29668.105354
492.128267	28774.172666
492.495883	27733.270179
492.863440	26855.159152
493.230939	25991.612019
493.598380	25829.977503
493.965763	25422.475832
494.333088	24994.204607
494.700354	24909.001545
495.067563	24782.226608
495.434713	24547.833119
495.801805	24684.942421
496.168839	24501.303269
496.535815	24328.495036
496.902733	24549.156422
497.269593	24228.090374
497.636395	24410.297839
498.003139	24378.621749
498.369825	24125.520538
498.736453	24322.987575
499.103023	24198.191291
499.469535	24224.186001
499.835989	24425.882566
500.202385	24448.592964
500.568723	23966.179747
500.935003	24209.241500
501.301226	23820.934022
501.667390	24666.280070
502.033497	24888.219388
502.399546	24619.351968
502.765537	24191.854561
503.131470	24578.732871
503.497345	24699.040008
503.863163	23925.658952
504.228923	24527.013153
504.594625	24724.860798
504.960269	24259.527010
505.325856	24751.130251
505.691385	24152.954497
506.056856	24762.523258
506.422270	24725.974893
506.787625	24300.345233
507.152924	24712.454518
507.518164	24745.758901
507.883347	24561.172012
508.248472	24244.151491
508.613540	25010.308573
508.978550	24796.384689
509.343503	24802.431553
509.708398	25045.289139
510.073236	25213.018410
510.438016	25423.451295
510.802738	25086.346817
511.167403	25353.590985
511.532010	25048.029006
511.896561	25823.953324
512.261053	25798.324098
512.625488	25630.960311
512.989866	25524.755802
513.354186	25357.697005
513.718449	25469.035929
514.082655	25854.747212
514.446803	25588.276861
514.810894	26052.267182
515.174927	25539.831373
515.538904	25569.884211
515.902822	26063.060292
516.266684	25816.278167
516.630488	25725.260135
516.994235	25692.086822
517.357925	26001.447310
517.721558	26178.167478
518.085133	26278.902335
518.448651	26196.023245
518.812112	25925.698932
519.175516	26130.780632
519.538863	26287.452132
519.902152	26058.974437
520.265385	26353.587029
520.628560	26134.569059
520.991678	26159.026217
521.354739	26215.819857
521.717743	26282.158921
522.080690	26075.073362
522.443580	26414.186740
522.806413	26403.365903
523.169189	26503.468095
523.531908	26545.891925
523.894569	26157.649982
524.257174	26227.848050
524.619722	26409.634578
524.982213	26093.748316
525.344647	26162.431517
525.707025	26305.628012
526.069345	26277.180781
526.431608	26232.150674
526.793815	26430.439420
527.155964	25888.313735
527.518057	26059.022328
527.880093	25977.446376
528.242072	26213.619393
528.603995	25917.978405
528.965860	25710.202208
529.327669	25764.422338
529.689421	25742.773103
530.051117	25594.424548
530.412755	25764.714725
530.774337	25552.068774
531.135862	25438.541989
531.497331	25634.660518
531.858743	25188.064698
532.220098	25670.104870
532.581396	25353.913619
532.942638	25283.317300
533.303824	25386.330759
533.664953	25398.510186
534.026025	25061.335132
534.387040	25295.526975
534.747999	25355.247004
535.108902	25520.233887
535.469748	25017.477093
535.830537	25190.595358
536.191270	25314.254862
536.551947	25181.901888
536.912567	24835.191491
537.273131	25193.529309
537.633638	24884.672937
537.994089	25103.718633
538.354483	24637.631192
538.714821	25136.103005
539.075103	25174.231772
539.435328	24957.857888
539.795497	24513.086966
540.155609	24911.333079
540.515665	25220.065943
540.875665	24452.913233
541.235609	24745.983232
541.595496	24702.866244
541.955328	25065.327726
542.315102	24986.118596
542.674821	24518.115517
543.034483	24396.031374
543.394090	24582.496093
543.753640	24367.311920
544.113134	25001.358004
544.472571	24595.046045
544.831953	24897.757251
545.191278	24506.147818
545.550548	24428.269552
545.909761	24629.207424
546.268918	24873.718509
546.628019	24834.097561
546.987064	24540.475555
547.346053	24281.274547
547.704986	24397.586570
548.063863	24563.795933
548.422684	24573.172479
548.781449	24094.252781
549.140158	24506.611604
549.498811	24085.874383
549.857408	23827.164888
550.215949	24243.962447
550.574434	23928.605507
550.932864	24134.466065
551.291237	24309.797396
551.649555	24168.514018
552.007817	24215.379105
552.366022	24090.693726
552.724173	24117.202634
553.082267	24071.779317
553.440305	24550.267996
553.798288	23808.419358
554.156215	24316.252593
554.514086	24414.222377
554.871902	23793.346308
555.229661	24083.822634
555.587365	23930.954684
555.945014	23799.252020
556.302606	24051.733169
556.660143	23997.462627
557.017625	24245.578137
557.375050	23774.883082
557.732421	24162.046218
558.089735	23980.274813
558.446994	24038.832856
558.804197	24071.950716
559.161345	24007.308001
559.518437	23776.874338
559.875474	23957.133396
560.232455	24141.758094
560.589381	23966.610766
560.946251	23961.423418
561.303065	24273.027220
561.659825	24352.995043
562.016528	23954.920330
562.373177	23682.846736
562.729770	24063.131218
563.086307	23911.596654
563.442789	24089.136010
563.799216	23909.262599
564.155587	23921.124434
564.511904	23900.438060
564.868164	23840.385314
565.224370	23819.547705
565.580520	23736.696342
565.936615	23876.742116
566.292654	23556.787643
566.648638	23832.548841
567.004567	23666.425178
567.360441	23609.341672
567.716260	23341.883255
568.072023	23661.126925
568.427732	23434.199384
568.783385	23204.133726
569.138982	23442.497124
569.494525	23486.564370
569.850013	23238.045568
570.205445	23336.411082
570.560823	23135.516060
570.916145	22889.122104
571.271412	23081.479932
571.626625	22827.798988
571.981782	22953.784985
572.336884	22745.224888
572.691931	22889.969018
573.046923	22610.570628
573.401860	22498.493175
573.756743	22505.213033
574.111570	22415.092326
574.466342	22338.572652
574.821059	22425.537597
575.175722	22130.367957
575.530330	22126.854272
575.884882	22150.220020
576.239380	22047.287221
576.593823	21944.430038
576.948211	21925.177872
577.302544	21766.852873
577.656823	21629.231894
578.011047	21727.322665
578.365216	21604.119386
578.719330	21475.638018
579.073389	21378.222762
579.427394	21509.504490
579.781344	21298.743930
580.135239	21167.542860
580.489080	21132.736213
580.842866	20905.143241
581.196597	21103.225299
581.550273	21080.139335
581.903895	20954.511260
582.257463	21284.038884
582.610975	20819.783903
582.964434	21120.377825
583.317837	20830.571972
583.671186	20907.152140
584.024481	20879.241792
584.377721	20653.133439
584.730906	20716.919159
585.084037	20728.624718
585.437113	20636.497632
585.790135	20855.460149
586.143103	20316.253292
586.496016	20331.018832
586.848874	20573.659649
587.201679	20498.201137
587.554428	20174.218783
587.907124	20504.908393
588.259765	20281.723909
588.612352	20352.375680
588.964884	19918.644886
589.317362	20101.588359
589.669786	20143.457662
590.022155	20173.792805
590.374470	20381.526152
590.726731	20170.435397
591.078937	19942.648340
591.431090	20040.603000
591.783188	19786.072622
592.135232	19747.500233
592.487222	19861.737820
592.839157	19876.067300
593.191038	19761.106307
593.542866	19637.310692
593.894639	19352.485500
594.246358	19573.146886
594.598022	19472.722060
594.949633	19227.487570
595.301190	19198.745431
595.652692	19358.837354
596.004141	19597.566235
596.355535	18928.446324
596.706876	18940.167006
597.058162	18837.163630
597.409395	19058.674451
597.760573	19142.087903
598.111698	18912.087779
598.462768	18843.664198
598.813785	18815.453901
599.164748	18631.933216
599.515657	18671.299587
599.866511	18462.752093
600.217312	18824.848092
600.568060	18349.063992
600.918753	18655.354417
601.269392	18551.057985
601.619978	18334.023709
601.970510	18542.523312
602.320988	18486.889138
602.671412	18695.439152
603.021783	18607.251727
603.372100	18328.985076
603.722363	18471.566551
604.072572	18417.101924
604.422728	18567.035922
604.772830	18316.629208
605.122878	18273.053474
605.472872	18260.453110
605.822813	18242.249503
606.172701	18207.800778
606.522534	18400.077948
606.872314	18433.435263
607.222041	18263.926465
607.571714	18477.172314
607.921333	18311.996387
608.270899	18383.545484
608.620411	18563.282783
608.969870	18327.674376
609.319276	18331.099840
609.668627	18363.673255
610.017926	18491.728645
610.367171	18611.783724
610.716362	18662.573349
611.065500	18471.332137
611.414585	18605.678887
611.763616	18603.070090
612.112594	18528.027474
612.461518	18501.460593
612.810389	18701.987611
613.159207	18546.767963
613.507971	18454.285475
613.856682	18742.838601
614.205340	18659.533533
614.553945	18809.976688
614.902496	18556.721721
615.250994	18782.517523
615.599439	18729.431652
615.947830	18715.507985
616.296169	18777.730947
616.644454	18733.265450
616.992686	18708.001707
617.340864	18920.766126
617.688990	18670.845883
618.037063	18849.007821
618.385082	18688.232822
618.733048	18980.670157
619.080961	18851.541001
619.428821	18878.725423
619.776628	18770.421274
620.124382	18701.594401
620.472083	18745.192820
620.819731	18763.958515
621.167326	18450.456719
621.514868	18494.171084
621.862357	18259.956556
622.209793	18272.567002
622.557176	18109.016848
622.904506	17936.233821
623.251783	17845.908947
623.599007	17594.947705
623.946179	17553.592600
624.293297	17480.531157
624.640363	17232.821460
624.987376	17248.018018
625.334336	17049.136937
625.681243	16886.549643
626.028097	16897.952733
626.374899	16833.330182
626.721647	16691.222576
627.068343	16532.239707
627.414987	16455.830938
627.761577	16440.541119
628.108115	16471.534132
628.454600	16193.869899
628.801032	16295.683563
629.147412	16226.559261
629.493739	16242.580048
629.840014	16051.842951
630.186236	16145.031201
630.532405	15909.251394
630.878521	16112.939215
631.224585	16009.114131
631.570597	15830.400186
631.916556	15856.304155
632.262462	15834.728017
632.608316	15746.114615
632.954117	15702.032245
633.299866	15682.333936
633.645562	15599.832933
633.991206	15363.334762
634.336797	15234.137551
634.682336	15210.413881
635.027823	15098.853146
635.373257	14971.395133
635.718639	14875.799732
636.063968	14816.639271
636.409245	14571.979472
636.754470	14599.589872
637.099642	14444.617241
637.444762	14218.161048
637.789829	14262.409776
638.134845	14099.459519
638.479808	14122.749650
638.824719	14067.589345
639.169577	13919.918825
639.514383	13970.176608
639.859137	13792.831337
640.203839	13876.287639
640.548489	13714.426271
640.893086	13700.842882
641.237632	13572.331267
641.582125	13725.889855
641.926566	13554.425089
642.270955	13565.331625
642.615292	13521.405531
642.959576	13537.602759
643.303809	13574.740939
643.647990	13504.283252
643.992118	13560.492118
644.336195	13324.309019
644.680219	13543.538717
645.024192	13457.445892
645.368112	13706.859499
645.711981	13753.361623
646.055797	13940.416157
646.399562	13912.808278
646.743274	14176.924410
647.086935	14458.016628
647.430544	14420.245783
647.774101	14454.742398
648.117606	14595.796404
648.461059	14570.343618
648.804460	14550.388210
649.147810	14278.453248
649.491108	14178.252754
649.834354	14198.331670
650.177548	13885.202919
650.520690	13700.197614
650.863781	13617.484882
651.206820	13672.398171
651.549807	13503.615299
651.892742	13296.318012
652.235626	13232.595307
652.578458	13239.834404
652.921238	12926.080550
653.263967	13124.412145
653.606644	12952.748254
653.949269	12928.858226
654.291843	12720.751833
654.634365	12889.418759
654.976836	12744.621697
655.319255	12748.543715
655.661622	12696.307278
656.003938	12623.525620
656.346203	12557.332749
656.688416	12627.130045
657.030577	12583.103128
657.372687	12494.966114
657.714746	12477.228815
658.056753	12664.172443
658.398708	12473.891571
658.740612	12482.816934
659.082465	12586.820979
659.424266	12554.645814
659.766016	12577.721696
660.107715	12493.922596
660.449362	12560.725446
660.790958	12521.369158
661.132503	12466.397896
661.473996	12523.068027
661.815438	12545.788507
662.156829	12567.165520
662.498168	12540.598639
662.839456	12543.000749
663.180693	12563.442628
663.521879	12657.603820
663.863013	12624.475877
664.204097	12592.341042
664.545129	12727.953122
664.886110	12687.916278
665.227040	12783.541925
665.567918	12792.651290
665.908746	12820.654900
666.249522	12805.168475
666.590248	12851.307636
666.930922	12965.580511
667.271545	12953.270013
667.612118	13033.923434
667.952639	12930.680603
668.293109	12952.213892
668.633528	12905.298393
668.973896	12876.120195
669.314213	12958.149850
669.654480	12688.977441
669.994695	12768.630192
670.334859	12786.896813
670.674973	12739.109195
671.015035	12771.985080
671.355047	12713.104403
671.695008	12678.595184
672.034918	12694.084130
672.374777	12731.960839
672.714585	12649.424548
673.054342	12686.391329
673.394049	12636.509112
673.733705	12735.779513
674.073310	12635.599183
674.412864	12655.970486
674.752368	12513.678878
675.091820	12547.431923
675.431223	12527.872246
675.770574	12390.654559
676.109875	12313.038434
676.449125	12266.463213
676.788324	12222.290103
677.127473	12051.362220
677.466571	12042.240252
677.805619	11935.793768
678.144616	11859.553878
678.483562	11829.634630
678.822458	11703.744415
679.161303	11680.287927
679.500098	11659.830924
679.838842	11616.787032
680.177535	11647.432206
680.516179	11711.059130
680.854771	11659.001654
681.193314	11874.634490
681.531805	12028.921524
681.870247	12454.949435
682.208638	12866.156354
682.546978	13174.548941
682.885268	13221.673647
683.223508	12906.639340
683.561697	12752.601843
683.899836	12658.438131
684.237925	12453.338787
684.575963	12372.781148
684.913951	12291.555557
685.251889	12248.499062
685.589776	12344.820388
685.927614	12270.702824
686.265401	12228.997358
686.603137	12280.948969
686.940824	12429.632761
687.278460	12566.026219
687.616046	12601.762959
687.953582	12767.886622
688.291068	12702.109647
688.628504	12931.313268
688.965889	12938.189402
689.303224	12903.478537
689.640510	12801.800984
689.977745	12487.094353
690.314930	12257.540371
690.652065	12169.967967
690.989150	11873.422092
691.326185	11651.767599
691.663170	11446.665734
692.000105	11205.688498
692.336990	11088.640467
692.673825	10834.626807
693.010610	10728.807947
693.347345	10511.519092
693.684030	10310.971910
694.020665	10254.447973
694.357251	10059.947654
694.693786	9993.288477
695.030272	9832.100103
695.366707	9716.992917
695.703093	9654.200305
696.039429	9647.306527
696.375716	9567.910874
696.711952	9432.734855
697.048139	9482.420467
697.384276	9436.024208
697.720363	9450.711609
698.056400	9388.186178
698.392388	9337.005864
698.728326	9302.015215
699.064214	9238.526923
699.400053	9281.200291
699.735842	9093.989481
700.071581	9050.012975
700.407270	8979.572932
700.742910	8901.901355
701.078501	8812.471285
701.414042	8683.657202
701.749533	8619.470710
702.084974	8478.177250
702.420366	8596.246115
702.755709	8476.049883
703.091002	8342.197167
703.426246	8371.168678
703.761440	8323.343251
704.096584	8276.115201
704.431679	8210.169347
704.766725	8194.148560
705.101721	8147.956468
705.436668	8193.841050
705.771565	8090.981347
706.106413	8168.849530
706.441212	8204.833286
706.775961	8165.938263
707.110661	8208.311682
707.445311	8347.727312
707.779913	8243.103205
708.114465	8375.952733
708.448967	8411.339112
708.783421	8554.056698
709.117825	8737.998320
709.452180	8769.666848
709.786485	8864.422896
710.120742	9147.536617
710.454949	9143.019743
710.789107	9250.391279
711.123216	9469.595772
711.457275	9633.224064
711.791286	9789.083938
712.125247	9793.182396
712.459159	9775.908882
712.793023	10019.005923
713.126837	9599.929763
713.460602	9744.497452
713.794318	9570.386081
714.127985	9602.329352
714.461602	9278.420094
714.795171	9222.949758
715.128691	8978.673087
715.462162	8727.369047
715.795584	8677.900204
716.128957	8520.931276
716.462281	8352.385338
716.795556	8404.720077
717.128782	8196.167542
717.461960	7933.672141
717.795088	8005.811053
718.128167	7916.045747
718.461198	7745.929490
718.794180	7692.067281
719.127113	7680.202926
719.459997	7519.032196
719.792833	7291.817310
720.125619	7355.310643
720.458357	7217.919036
720.791046	7203.259360
721.123686	7198.946653
721.456278	7039.477313
721.788821	7058.086732
722.121315	6954.715352
722.453761	7022.160950
722.786158	6960.575694
723.118506	6971.885522
723.450805	6942.702283
723.783056	7005.220152
724.115259	6918.605567
724.447412	6916.652120
724.779518	6961.858667
725.111574	6961.568801
725.443582	7047.225567
725.775542	7024.863008
726.107453	7221.198306
726.439315	7127.311857
726.771129	7191.216044
727.102895	7362.537137
727.434612	7470.304403
727.766281	7507.467789
728.097901	7581.502175
728.429473	7578.187616
728.760996	7554.053092
729.092471	7534.667335
729.423897	7475.605176
729.755276	7489.213771
730.086606	7410.158397
730.417887	7511.505753
730.749120	7714.497895
731.080305	7904.998058
731.411442	8021.302518
731.742530	8019.031479
732.073570	8127.441492
732.404562	8211.507774
732.735506	8064.830361
733.066401	8202.022843
733.397249	8129.415104
733.728048	7888.803351
734.058798	7561.539205
734.389501	7332.509504
734.720156	7155.940570
735.050762	6921.559683
735.381320	6827.741290
735.711831	6771.749194
736.042293	6663.881105
736.372707	6680.660585
736.703073	6546.820471
737.033391	6583.167190
737.363661	6594.713953
737.693883	6625.606144
738.024056	6716.263734
738.354182	6754.924343
738.684260	6786.290402
739.014290	6907.905718
739.344272	7014.117789
739.674207	7047.994342
740.004093	7116.904395
740.333931	7127.049717
740.663722	7141.109495
740.993464	7213.185392
741.323159	7200.905142
741.652806	6947.330062
741.982405	6972.561037
742.311956	7022.055085
742.641460	6851.212902
742.970915	6663.140055
743.300323	6657.171329
743.629683	6605.706189
743.958996	6471.019161
744.288260	6380.396859
744.617477	6330.257543
744.946647	6331.454817
745.275768	6162.235885
745.604842	6117.931705
745.933869	6098.790444
746.262847	6061.158230
746.591778	6046.347320
746.920662	6007.666547
747.249498	6000.059446
747.578286	6047.111055
747.907027	6124.129803
748.235720	6183.635583
748.564365	6154.918651
748.892963	6189.122879
749.221514	6337.940262
749.550017	6162.901318
749.878473	6045.495365
750.206881	6103.062822
750.535242	6049.152722
750.863555	5973.321166
751.191821	5997.155741
751.520039	5991.834803
751.848210	5902.122429
752.176334	5919.932826
752.504411	5970.162883
752.832440	5894.351491
753.160421	5826.111912
753.488356	5872.059508
753.816243	5905.474797
754.144082	5756.740593
754.471875	5726.821345
754.799620	5768.549496
755.127318	5786.410304
755.454969	5732.535493
755.782572	5702.616245
756.110129	5743.595785
756.437638	5731.252520
756.765100	5670.720865
757.092515	5670.642727
757.419882	5722.324636
757.747203	5693.736253
758.074477	5758.641108
758.401703	5748.299181
758.728882	5701.015679
759.056014	5760.206387
759.383099	5884.485953
759.710138	5897.746708
760.037129	5883.397063
760.364073	5888.460902
760.690970	5971.042564
761.017820	5955.440193
761.344623	5906.195682
761.671379	6010.373646
761.998088	6133.644981
762.324751	6383.056068
762.651366	6988.211299
762.977935	8319.370822
763.304456	9960.856214
763.630931	10852.709426
763.957359	10431.599160
764.283740	9488.931117
764.610074	8642.266808
764.936362	7646.359139
765.262602	7050.179683
765.588796	6514.196644
765.914943	6179.249780
766.241044	6015.994533
766.567097	5809.420651
766.893104	5550.401125
767.219064	5373.542325
767.544978	5307.893899
767.870845	5229.277105
768.196665	5124.932782
768.522438	5053.832348
768.848165	5017.364641
769.173846	4951.038180
769.499479	4906.083691
769.825066	4855.336915
770.150607	4795.677380
770.476101	4771.484883
770.801548	4770.781642
771.126949	4688.923386
771.452303	4636.911281
771.777611	4597.827215
772.102872	4611.690388
772.428087	4578.161674
772.753256	4536.693142
773.078378	4492.078931
773.403453	4419.471192
773.728482	4404.181372
774.053465	4356.237479
774.378401	4347.619626
774.703291	4344.534440
775.028135	4273.983492
775.352932	4223.342581
775.677683	4215.712795
776.002388	4231.168973
776.327046	4244.853185
776.651658	4167.443747
776.976224	4107.708594
777.300743	4113.402578
777.625216	4133.917553
777.949643	4131.185248
778.274024	4079.500818
778.598359	4044.008574
778.922647	4066.358530
779.246889	4057.385276
779.571086	4049.881518
779.895236	4033.618756
780.219339	4025.139535
780.543397	4016.317516
780.867409	4065.831729
781.191374	4077.549891
781.515294	4016.781302
781.839167	4009.965662
782.162995	4030.596584
782.486776	4018.099564
782.810511	4028.481820
783.134201	4022.392107
783.457844	3978.186228
783.781441	3921.332095
784.104993	3930.368364
784.428498	3947.044501
784.751958	3943.298923
785.075372	3922.783948
785.398739	3886.200294
785.722061	3896.897623
786.045337	3942.578038
786.368568	3971.723469
786.691752	3886.003689
787.014891	3936.533695
787.337983	4065.506575
787.661030	4225.706882
787.984031	4388.379876
788.306987	4559.116195
788.629897	4640.160305
788.952760	4595.021813
789.275579	4534.033934
789.598351	4459.351760
789.921078	4315.081499
790.243759	4115.615644
790.566395	4100.950928
790.888984	4094.853652
791.211529	3988.427332
791.534027	3931.648817
791.856480	3919.020726
792.178888	3856.152497
792.501249	3806.270279
792.823566	3817.955674
793.145836	3844.421732
793.468062	3791.915594
793.790241	3747.508070
794.112375	3778.339767
794.434464	3845.989531
794.756507	3865.687839
795.078505	3846.276876
795.400457	3883.326837
795.722364	4020.920090
796.044226	4129.577120
796.366042	4200.266699
796.687812	4178.614944
797.009538	4180.099563
797.331218	4144.062875
797.652852	4117.584215
797.974442	4095.196450
798.295986	4095.156121
798.617484	4009.612782
798.938938	3926.285029
799.260346	3970.367399
799.581709	3965.321204
799.903026	3889.305645
800.224299	3853.331971
800.545526	3846.518852
800.866708	3808.836227
801.187845	3746.109149
801.508936	3784.013585
801.829983	3777.452523
802.150984	3698.056871
802.471940	3691.705017
802.792851	3697.913198
803.113717	3702.074671
803.434538	3697.789690
803.755314	3643.244405
804.076045	3619.271198
804.396731	3641.573263
804.717372	3667.452026
805.037967	3649.271105
805.358518	3639.140906
805.679024	3667.353723
805.999485	3684.491126
806.319901	3685.653112
806.640272	3696.209288
806.960598	3710.790826
807.280879	3688.491282
807.601115	3698.908826
807.921306	3718.518914
808.241453	3758.777569
808.561554	3729.788414
808.881611	3666.897499
809.201623	3704.073488
809.521590	3715.395920
809.841513	3686.570602
810.161390	3716.242833
810.481223	3695.427909
810.801011	3641.772388
811.120755	3632.239566
811.440453	3670.350689
811.760107	3669.833971
812.079716	3626.938793
812.399281	3595.338320
812.718801	3619.082155
813.038276	3591.441508
813.357707	3588.749532
813.677093	3607.106894
813.996434	3553.872309
814.315731	3563.274061
814.634983	3566.855801
814.954191	3584.169644
815.273354	3611.717029
815.592473	3605.294599
815.911547	3611.104529
816.230577	3653.805623
816.549562	3707.990465
816.868502	3747.969335
817.187399	3773.263325
817.506250	3768.690998
817.825058	3744.707709
818.143821	3835.781194
818.462539	3939.250877
818.781213	3983.855006
819.099843	4041.157802
819.418429	4294.306904
819.736970	4536.688101
820.055466	4787.611534
820.373919	5152.265918
820.692327	5562.285646
821.010691	6017.678278
821.329011	7433.108249
821.647286	10225.887316
821.965517	14830.051261
822.283704	18854.311115
822.601847	20983.182823
822.919945	19128.355800
823.237999	16526.379366
823.556010	14029.568963
823.873976	11915.561097
824.191897	9810.002206
824.509775	8467.202658
824.827609	7340.121646
825.145398	6793.244674
825.463144	6678.412231
825.780845	6795.596372
826.098502	6987.921433
826.416116	7884.573823
826.733685	9228.331190
827.051210	10328.588222
827.368692	10350.209731
827.686129	9069.091222
828.003522	7553.599388
828.320872	6540.556838
828.638177	5830.603580
828.955439	5264.479482
829.272656	4766.002628
829.589830	4486.115246
829.906960	4308.991785
830.224046	4123.031181
830.541088	3997.597191
830.858086	3950.769913
831.175041	3875.011453
831.491952	3859.378835
831.808819	3867.847974
832.125642	3944.662555
832.442421	4096.791976
832.759157	4374.471332
833.075849	4934.369605
833.392497	5809.219005
833.709101	6592.558860
834.025662	6920.405259
834.342179	6540.435850
834.658653	5873.468511
834.975083	5220.533223
835.291469	4644.498217
835.607811	4231.075711
835.924110	4089.547837
836.240366	3890.180285
836.556578	3686.391641
836.872746	3577.689241
837.188871	3535.802293
837.504952	3468.253352
837.820990	3384.275291
838.136984	3343.015967
838.452935	3365.822147
838.768842	3360.806199
839.084706	3385.984242
839.400526	3546.855023
839.716303	3891.541397
840.032037	4423.736008
840.347727	4686.445659
840.663373	4393.864651
840.978977	4009.312833
841.294537	3699.730534
841.610054	3472.568580
841.925527	3362.026158
842.240957	3296.975109
842.556344	3243.014598
842.871687	3180.259795
843.186987	3133.046868
843.502244	3094.978595
843.817458	3056.749005
844.132629	3030.802186
844.447756	3040.105636
844.762840	3020.679549
845.077881	2988.756443
845.392879	2975.722539
845.707833	2968.097794
846.022745	2971.233392
846.337613	2971.855974
846.652438	2956.992132
846.967221	2954.232100
847.281960	2938.813731
847.596656	2939.726180
847.911309	2940.096705
848.225919	2928.834767
848.540485	2922.452667
848.855009	2921.245310
849.169490	2913.461769
849.483928	2906.562950
849.798323	2904.463309
850.112675	2902.908113
850.426984	2913.194588
850.741251	2909.943043
851.055474	2895.013666
851.369654	2890.244735
851.683792	2899.137330
851.997887	2905.799215
852.311938	2909.791809
852.625947	2900.531209
852.939914	2900.483318
853.253837	2904.712846
853.567718	2891.817575
853.881555	2889.556617
854.195350	2904.342321
854.509103	2900.170767
854.822812	2892.356978
855.136479	2892.535939
855.450103	2894.698594
855.763685	2883.769372
856.077224	2882.851882
856.390720	2895.613563
856.704173	2903.639080
857.017584	2896.457957
857.330953	2895.832854
857.644278	2900.780746
857.957561	2912.294742
858.270802	2915.226173
858.584000	2914.596028
858.897155	2902.068761
859.210268	2902.754358
859.523339	2900.213616
859.836367	2896.740261
860.149352	2894.759088
860.462295	2890.595095
860.775195	2897.042731
861.088054	2895.737072
861.400869	2879.991028
861.713642	2878.113198
862.026373	2892.387225
862.339062	2895.510220
862.651708	2900.329563
862.964312	2905.635377
863.276873	2897.819068
863.589392	2903.898700
863.901869	2916.836821
864.214303	2944.202725
864.526696	2956.006587
864.839045	2950.458797
865.151353	2952.387038
865.463619	2948.643981
865.775842	2953.533901
866.088023	2969.910089
866.400162	2978.681697
866.712258	2947.376131
867.024313	2935.882300
867.336325	2948.802778
867.648296	2966.603092
867.960224	2959.409365
868.272110	2947.429063
868.583954	2951.666153
868.895755	2964.246353
869.207515	2953.836370
869.519233	2959.404324
869.830909	2967.873463
870.142542	2976.166161
870.454134	2977.149186
870.765684	2979.452993
871.077191	2976.493836
871.388657	2988.005311
871.700081	3002.019718
872.011463	3013.135463
872.322803	3010.166223
872.634101	3011.000534
872.945357	3029.466280
873.256571	3053.409241
873.567744	3047.561502
873.878874	3039.241078
874.189963	3066.806107
874.501010	3065.560942
874.812015	3056.910322
875.122979	3054.603994
875.433900	3051.722975
875.744780	3059.806465
876.055618	3066.836354
876.366415	3060.600447
876.677169	3074.637539
876.987882	3071.486818
877.298554	3065.107238
877.609183	3086.517018
877.919771	3108.753548
878.230317	3139.935605
878.540822	3188.401258
878.851285	3230.424317
879.161707	3274.007612
879.472087	3377.973849
879.782425	3613.627626
880.092722	4058.809402
880.402977	4587.830607
880.713191	5230.151745
881.023363	6401.224386
881.333494	7698.635905
881.643583	8237.835200
881.953631	7925.689474
882.263637	7290.239429
882.573602	6686.467994
882.883526	6106.271516
883.193408	5534.818919
883.503248	5075.433692
883.813048	4766.226959
884.122806	4458.527532
884.432522	4139.223368
884.742197	3904.582862
885.051831	3705.089281
885.361424	3572.123807
885.670975	3501.870287
885.980485	3416.009354
886.289954	3332.439627
886.599382	3287.563275
886.908768	3251.261926
887.218113	3207.524875
887.527417	3147.154537
887.836680	3099.203082
888.145901	3093.231835
888.455082	3082.756318
888.764221	3031.775129
889.073319	3002.165912
889.382376	3004.378978
889.691392	3008.908455
890.000366	3004.210100
890.309300	2993.555621
890.618193	3004.265552
890.927044	3020.563603
891.235855	3019.734333
891.544625	3006.942405
891.853353	3018.811802
892.162041	3037.854760
892.470687	3077.553847
892.779293	3128.459418
893.087858	3177.744259
893.396381	3246.717326
893.704864	3373.346069
894.013306	3620.239100
894.321707	3923.562806
894.630068	4128.803303
894.938387	4118.431128
895.246665	4080.846806
895.554903	3953.154379
895.863100	3752.708020
896.171256	3583.375662
896.479371	3444.484312
896.787446	3317.424550
897.095480	3215.111812
897.403473	3149.728047
897.711425	3114.107253
898.019336	3105.285234
898.327207	3071.741397
898.635038	3037.796787
898.942827	3022.355733
899.250576	3011.776872
899.558284	2981.310658
899.865952	2962.461784
900.173579	2939.973197
900.481165	2933.066816
900.788711	2919.576688
901.096216	2893.682802
901.403681	2882.375493
901.711105	2891.913357
902.018489	2891.131978
902.325832	2886.947820
902.633135	2900.425345
902.940397	2930.568924
903.247619	3016.875999
903.554800	3212.122408
903.861941	3565.081315
904.169041	3997.927387
904.476101	4293.361688
904.783121	4245.911827
905.090100	3994.912777
905.397039	3715.035477
905.703938	3468.114721
906.010796	3281.907100
906.317614	3171.273938
906.624391	3073.394895
906.931129	3001.697084
907.237826	2937.762651
907.544483	2890.814385
907.851099	2859.087883
908.157675	2839.215655
908.464211	2820.553303
908.770707	2806.415387
909.077163	2794.336783
909.383578	2776.649894
909.689954	2769.040273
909.996289	2765.403080
910.302584	2765.811414
910.608839	2767.807711
910.915054	2764.566249
911.221229	2755.678694
911.527363	2756.949065
911.833458	2762.693460
912.139513	2770.461878
912.445527	2771.472629
912.751502	2779.440173
913.057436	2791.112965
913.363331	2802.400108
913.669186	2824.193016
913.975000	2860.199458
914.280775	2920.728592
914.586510	2990.987153
914.892205	3072.706777
915.197859	3207.406408
915.503475	3399.176942
915.809050	3617.171557
916.114585	3763.725462
916.420081	3783.527114
916.725536	3722.113257
917.030952	3599.600616
917.336328	3469.127992
917.641665	3334.209072
917.946961	3236.229205
918.252218	3169.544822
918.557435	3087.769745
918.862612	3026.217257
919.167750	2977.557519
919.472848	2938.443207
919.777906	2908.990265
920.082925	2883.882798
920.387904	2855.664940
920.692843	2834.945797
920.997743	2825.654951
921.302603	2813.238589
921.607423	2801.149902
921.912204	2787.175824
922.216946	2776.579318
922.521647	2766.373502
922.826310	2761.153387
923.130932	2752.895977
923.435516	2744.318454
923.740059	2736.872670
924.044564	2727.770867
924.349028	2721.610577
924.653454	2716.738302
924.957840	2710.877960
925.262186	2706.451827
925.566493	2702.212217
925.870761	2698.917823
926.174989	2692.220650
926.479178	2688.230577
926.783328	2685.281502
927.087438	2679.234637
927.391509	2683.002900
927.695541	2675.942764
927.999533	2674.811025
928.303486	2672.860098
928.607400	2672.431600
928.911275	2674.584173
929.215110	2668.512103
929.518906	2667.854233
929.822663	2668.338183
930.126381	2668.786846
930.430060	2670.795746
930.733699	2669.069151
931.037299	2670.125272
931.340861	2672.673576
931.644383	2672.597958
931.947866	2672.325736
932.251309	2672.227434
932.554714	2672.560150
932.858080	2664.764005
933.161407	2666.288954
933.464694	2663.801145
933.767943	2660.292502
934.071153	2662.389622
934.374323	2661.061278
934.677455	2663.334838
934.980548	2660.705877
935.283602	2659.463232
935.586617	2661.250321
935.889593	2662.119920
936.192530	2660.327790
936.495428	2660.751247
936.798287	2663.143274
937.101108	2666.727535
937.403890	2669.467402
937.706632	2673.739780
938.009336	2680.530214
938.312002	2688.714527
938.614628	2700.488142
938.917216	2704.924357
939.219765	2704.359748
939.522275	2705.294882
939.824747	2703.278421
940.127179	2702.055941
940.429573	2697.410518
940.731929	2692.276102
941.034246	2690.425999
941.336524	2688.021369
941.638763	2685.533559
941.940964	2683.532221
942.243126	2679.567354
942.545250	2679.491736
942.847335	2677.908814
943.149381	2673.853206
943.451389	2668.933040
943.753359	2670.281548
944.055290	2668.171825
944.357182	2662.666885
944.659036	2667.153512
944.960851	2662.107317
945.262628	2662.127482
945.564367	2664.421207
945.866067	2663.864159
946.167729	2664.222081
946.469352	2664.025476
946.770937	2666.210817
947.072484	2660.610095
947.373992	2660.794097
947.675462	2658.916267
947.976893	2655.415186
948.278286	2654.507778
948.579641	2653.313024
948.880958	2653.189516
949.182236	2656.604898
949.483476	2651.306645
949.784678	2655.717655
950.085841	2654.245638
950.386967	2657.040958
950.688054	2656.662871
950.989103	2654.868220
951.290114	2657.618170
951.591087	2656.420896
951.892021	2661.290650
952.192917	2661.809889
952.493776	2667.518996
952.794596	2665.734427
953.095378	2665.890703
953.396122	2663.440702
953.696828	2663.773419
953.997496	2662.868532
954.298126	2658.870897
954.598718	2657.058602
954.899272	2658.215547
955.199788	2651.916625
955.500266	2650.348826
955.800706	2647.114926
956.101108	2646.807415
956.401472	2643.613844
956.701798	2642.038484
957.002087	2637.645118
957.302337	2639.414563
957.602550	2639.727115
957.902724	2637.206538
958.202861	2636.296610
958.502960	2633.660086
958.803022	2634.832154
959.103045	2632.432565
959.403031	2633.924747
959.702979	2631.338635
960.002889	2632.813172
960.302762	2629.445682
960.602596	2629.115486
960.902393	2630.274951
961.202153	2628.830661
961.501875	2626.768829
961.801559	2630.557256
962.101205	2629.596916
962.400814	2629.375105
962.700385	2627.472070
962.999918	2625.962244
963.299414	2621.500823
963.598873	2624.059209
963.898293	2621.934362
964.197677	2627.658592
964.497022	2627.635907
964.796331	2624.729682
965.095601	2624.412089
965.394835	2624.712038
965.694030	2622.919908
965.993189	2624.291102
966.292309	2625.543828
966.591393	2624.447378
966.890439	2626.090794
967.189447	2624.086935
967.488419	2628.258490
967.787353	2625.437964
968.086249	2624.160032
968.385108	2628.029117
968.683930	2625.458129
968.982714	2626.204220
969.281462	2627.272944
969.580172	2626.904940
969.878844	2627.242697
970.177480	2625.624487
970.476078	2623.275309
970.774639	2626.388222
971.073162	2625.208592
971.371649	2629.463326
971.670098	2627.081380
971.968510	2626.037862
972.266885	2625.553911
972.565223	2624.454939
972.863524	2625.891668
973.161788	2626.945269
973.460014	2628.235805
973.758204	2628.134982
974.056356	2624.454939
974.354471	2625.047275
974.652550	2624.603653
974.950591	2625.500979
975.248595	2627.978706
975.546563	2625.107769
975.844493	2625.392594
976.142386	2625.296812
976.440243	2625.407717
976.738062	2626.541977
977.035845	2625.997532
977.333590	2623.686163
977.631299	2623.348406
977.928971	2620.883282
978.226606	2621.382356
978.524204	2620.747171
978.821765	2617.394803
979.119290	2625.453088
979.416777	2620.840432
979.714228	2622.347737
980.011642	2625.246400
980.309020	2624.202882
980.606360	2624.313787
980.903664	2622.047788
981.200931	2625.702625
981.498162	2623.837398
981.795356	2623.474435
982.092513	2628.407204
982.389633	2629.922071
982.686717	2633.589510
982.983764	2637.942546
983.280775	2641.211735
983.577749	2642.855151
983.874686	2645.499236
984.171587	2638.073616
984.468451	2633.904582
984.765279	2631.835188
985.062070	2631.603295
985.358824	2630.136320
985.655543	2630.461474
985.952224	2628.107255
986.248869	2626.030300
986.545478	2624.873355
986.842050	2622.277161
987.138586	2622.483848
987.435086	2622.980402
987.731549	2620.979064
988.027975	2622.093159
988.324366	2621.899074
988.620719	2620.117026
988.917037	2619.413785
989.213318	2622.148611
989.509563	2618.735750
989.805772	2620.807664
990.101944	2622.463683
990.398080	2621.344547
990.694180	2619.154166
990.990244	2617.898919
991.286271	2618.403034
991.582262	2621.760442
991.878217	2621.029475
992.174136	2621.584002
992.470019	2617.903960
992.765865	2617.868672
993.061676	2618.024947
993.357450	2619.345730
993.653188	2617.772890
993.948890	2621.513426
994.244556	2620.449742
994.540186	2620.308590
994.835780	2622.289764
995.131337	2623.940742
995.426859	2621.115175
995.722345	2621.291615
996.017795	2621.208436
996.313208	2623.786986
996.608586	2626.443674
996.903928	2623.469394
997.199234	2627.918212
997.494504	2624.759929
997.789738	2623.272789
998.084936	2624.631380
998.380099	2622.302367
998.675225	2622.952675
998.970316	2624.686832
999.265371	2621.500823
999.560390	2622.564507
999.855373	2620.759773
1000.150320	2620.275823
1000.445232	2621.107613
1000.740108	2619.423868
1001.034948	2621.258848
1001.329752	2619.650720
1001.624521	2618.892026
1001.919254	2619.993518
1002.213951	2619.706172
1002.508613	2618.254320
1002.803239	2616.943620
1003.097829	2615.637961
1003.392384	2617.611573
1003.686903	2615.776593
1003.981386	2618.168620
1004.275834	2618.264402
1004.570246	2616.918414
1004.864623	2617.672067
1005.158964	2617.782972
1005.453270	2618.098044
1005.747540	2617.306583
1006.041775	2617.311624
1006.335974	2617.871192
1006.630138	2616.585698
1006.924266	2619.428909
1007.218359	2618.380349
1007.512416	2615.169134
1007.806438	2613.656788
1008.100425	2615.680811
1008.394376	2610.082610
1008.688292	2619.030658
1008.982172	2616.220214
1009.276017	2617.195678
1009.569827	2616.903291
1009.863602	2616.875564
1010.157341	2614.738115
1010.451045	2620.835391
1010.744714	2616.729371
1011.038347	2618.493775
1011.331945	2615.479165
1011.625508	2617.601491
1011.919036	2616.076542
1012.212528	2616.623507
1012.505986	2615.670729
1012.799408	2617.906480
1013.092795	2617.921604
1013.386147	2618.103085
1013.679464	2616.515122
1013.972745	2615.264916
1014.265992	2616.505040
1014.559204	2614.526387
1014.852380	2617.351953
1015.145521	2616.308435
1015.438628	2618.188785
1015.731699	2616.111830
1016.024736	2616.852879
1016.317737	2614.937241
1016.610703	2616.870523
1016.903635	2616.918414
1017.196531	2616.464710
1017.489393	2614.675101
1017.782219	2611.965481
1018.075011	2616.384052
1018.367768	2614.546551
1018.660490	2614.584360
1018.953177	2614.584360
1019.245829	2614.584360
