Dividing Wavelength (nm)	Counts (n)	Blue Motor Position (mm): 19.500000	Red Motor Position (mm): 0.000000	
326.493990	2185.226766
326.888308	2185.226766
327.282561	2185.226766
327.676750	2142.805457
328.070874	2141.053656
328.464933	2142.858389
328.858929	2141.648512
329.252859	2150.294091
329.646726	2156.315749
330.040528	2171.439211
330.434265	2183.253155
330.827938	2202.560774
331.221547	2217.709441
331.615091	2232.873232
332.008571	2251.651530
332.401986	2271.543923
332.795338	2290.584361
333.188625	2311.484985
333.581847	2327.742706
333.975006	2347.753566
334.368100	2364.974148
334.761129	2383.369318
335.154095	2403.072668
335.546996	2422.259300
335.939833	2454.515123
336.332606	2466.606330
336.725315	2485.482931
337.117960	2495.098932
337.510540	2509.136024
337.903056	2519.362005
338.295508	2527.742923
338.687896	2534.987061
339.080220	2541.618699
339.472480	2553.523384
339.864676	2553.992211
340.256807	2560.512944
340.648875	2563.078891
341.040879	2564.883624
341.432818	2570.544840
341.824694	2572.566343
342.216506	2571.477453
342.608253	2574.867629
342.999937	2575.790161
343.391557	2575.124728
343.783113	2574.192115
344.174605	2573.163719
344.566033	2570.161712
344.957397	2570.781774
345.348697	2568.430076
345.739934	2565.975034
346.131106	2567.925961
346.522215	2566.988306
346.913260	2563.792214
347.304241	2557.674774
347.695159	2560.487738
348.086012	2557.216029
348.476802	2555.809547
348.867528	2550.249155
349.258191	2548.255378
349.648789	2546.254040
350.039324	2544.729091
350.429796	2548.681356
350.820203	2545.152548
351.210548	2542.694986
351.600828	2543.919986
351.991045	2543.173895
352.381198	2541.185160
352.771288	2543.675490
353.161314	2540.829759
353.551276	2539.226672
353.941175	2538.341949
354.331010	2537.986548
354.720782	2539.312371
355.110490	2538.780530
355.500135	2537.021167
355.889717	2539.267001
356.279235	2540.184491
356.668689	2538.868750
357.058080	2539.032587
357.447408	2538.241126
357.836672	2542.054759
358.225873	2538.309182
358.615010	2539.793802
359.004084	2541.802701
359.393095	2538.490663
359.782043	2543.834286
360.170927	2544.318237
360.559748	2540.557536
360.948505	2544.837476
361.337199	2545.003834
361.725830	2545.046684
362.114398	2545.124822
362.502903	2541.623740
362.891344	2546.296890
363.279722	2546.548948
363.668037	2546.453166
364.056289	2546.067518
364.444478	2550.173537
364.832603	2549.843342
365.220665	2547.161448
365.608665	2549.061963
365.996601	2550.901984
366.384474	2550.859134
366.772284	2550.155893
367.160031	2550.768393
367.547715	2551.595143
367.935336	2552.936090
368.322893	2551.128836
368.710388	2549.165307
369.097820	2549.987015
369.485189	2545.500388
369.872495	2553.646892
370.259738	2552.525236
370.646918	2554.745864
371.034035	2551.441388
371.421090	2551.741336
371.808081	2552.762170
372.195010	2554.599670
372.581875	2555.781821
372.968678	2555.633107
373.355418	2553.694783
373.742096	2554.675288
374.128710	2555.368446
374.515262	2557.311811
374.901751	2555.237376
375.288177	2557.730227
375.674540	2557.420196
376.060841	2557.876420
376.447079	2557.707542
376.833254	2558.141081
377.219367	2558.123437
377.605417	2556.273333
377.991404	2558.136040
378.377329	2558.562017
378.763191	2559.401369
379.148991	2559.025803
379.534727	2559.638304
379.920402	2560.580999
380.306013	2560.197872
380.691563	2561.513613
381.077049	2560.076884
381.462474	2557.379867
381.847835	2560.177707
382.233134	2561.644683
382.618371	2562.400856
383.003545	2559.860114
383.388657	2562.294992
383.773706	2562.940259
384.158693	2561.100238
384.543618	2560.838098
384.928480	2563.530074
385.313280	2562.902451
385.698017	2563.023438
386.082692	2560.833057
386.467305	2560.744837
386.851856	2563.598130
387.236344	2563.686350
387.620770	2561.049827
388.005133	2560.742316
388.389435	2560.185269
388.773674	2558.710731
389.157851	2566.103583
389.541965	2566.033007
389.926018	2566.164077
390.310008	2565.750703
390.693936	2564.268603
391.077802	2567.358831
391.461606	2566.552246
391.845348	2568.735066
392.229027	2565.453275
392.612645	2566.153995
392.996200	2566.305230
393.379694	2567.237843
393.763125	2567.739438
394.146494	2567.321022
394.529801	2567.540312
394.913047	2566.612740
395.296230	2567.157185
395.679351	2568.099880
396.062410	2569.539130
396.445408	2568.631722
396.828343	2567.628532
397.211217	2571.482495
397.594028	2567.663821
397.976778	2568.483008
398.359466	2570.421332
398.742092	2569.455951
399.124656	2569.647515
399.507158	2570.852350
399.889598	2573.483833
400.271977	2569.017370
400.654294	2571.467371
401.036549	2571.558112
401.418742	2570.716239
401.800874	2573.715726
402.182944	2570.955694
402.564952	2571.560632
402.946898	2571.492577
403.328783	2571.560632
403.710606	2571.424521
404.092367	2573.952660
404.474067	2571.474933
404.855705	2573.425859
405.237282	2571.127093
405.618797	2574.106415
406.000250	2573.836713
406.381642	2577.141190
406.762972	2576.168247
407.144240	2571.369069
407.525447	2573.020047
407.906593	2570.174315
408.287677	2576.392578
408.668700	2574.945767
409.049661	2575.817887
409.430560	2576.679924
409.811399	2580.440625
410.192176	2576.412743
410.572891	2576.763103
410.953545	2575.033987
411.334138	2575.938875
411.714669	2578.101530
412.095139	2576.911817
412.475547	2579.649164
412.855894	2577.592373
413.236180	2577.683114
413.616405	2578.507343
413.996568	2576.523648
414.376670	2579.394586
414.756711	2578.943402
415.136691	2578.177147
415.516609	2576.909297
415.896466	2578.658577
416.276262	2577.930130
416.655997	2579.828125
417.035670	2579.205542
417.415283	2581.053125
417.794834	2579.689493
418.174324	2579.855851
418.553753	2579.538258
418.933121	2581.637899
419.312428	2579.485326
419.691674	2579.311407
420.070859	2579.303845
420.449983	2581.219483
420.829045	2582.668815
421.208047	2583.641758
421.586988	2580.833835
421.965867	2584.163517
422.344686	2583.611511
422.723444	2583.125039
423.102141	2579.394586
423.480777	2579.901222
423.859352	2583.974474
424.237866	2584.859196
424.616319	2581.867272
424.994712	2585.723754
425.373044	2583.714854
425.751314	2581.809298
426.129524	2579.429874
426.507673	2578.595563
426.885762	2577.594894
427.263789	2584.410534
427.641756	2583.341809
428.019662	2582.754515
428.397508	2584.166038
428.775292	2585.547314
429.153016	2584.871799
429.530679	2583.790472
429.908282	2585.297777
430.285824	2584.082859
430.663305	2581.549679
431.040726	2587.137798
431.418086	2586.116964
431.795385	2585.486820
432.172624	2586.815164
432.549802	2583.324165
432.926920	2585.335585
433.303977	2587.357088
433.680974	2584.816347
434.057910	2584.818867
434.434786	2586.270719
434.811601	2586.411872
435.188355	2588.607294
435.565050	2586.132088
435.941683	2584.718044
436.318257	2587.425144
436.694770	2590.333889
437.071222	2588.282140
437.447614	2585.038157
437.823946	2587.631831
438.200218	2587.273909
438.576429	2594.281113
438.952580	2586.668971
439.328670	2589.035792
439.704700	2587.767942
440.080670	2587.649475
440.456580	2589.338262
440.832429	2591.732810
441.208218	2591.087542
441.583947	2588.473704
441.959616	2591.077460
442.335224	2587.934300
442.710773	2588.882037
443.086261	2592.496544
443.461689	2590.661564
443.837057	2590.379260
444.212365	2591.369847
444.587612	2588.483786
444.962800	2586.835329
445.337927	2590.754826
445.712995	2589.219794
446.088002	2589.580237
446.462949	2592.075608
446.837837	2590.217943
447.212664	2593.789600
447.587431	2592.299939
447.962139	2593.290526
448.336786	2598.188007
448.711374	2596.053078
449.085901	2593.237594
449.460369	2592.811617
449.834776	2594.523088
450.209124	2593.487131
450.583412	2596.771443
450.957640	2597.449478
451.331808	2596.131216
451.705917	2596.032914
452.079965	2594.646597
452.453954	2598.550970
452.827883	2594.288675
453.201752	2598.356886
453.575562	2596.864704
453.949311	2594.298757
454.323001	2598.626588
454.696632	2598.775302
455.070202	2597.641042
455.443713	2595.876638
455.817164	2598.344283
456.190556	2599.302102
456.563888	2600.300251
456.937160	2598.762699
457.310373	2600.572473
457.683526	2598.873604
458.056619	2595.470825
458.429653	2600.527102
458.802628	2599.075250
459.175542	2596.751278
459.548398	2601.187494
459.921194	2599.014756
460.293930	2601.744541
460.666607	2601.537854
461.039224	2603.559357
461.411782	2603.488780
461.784280	2606.263936
462.156719	2605.963987
462.529099	2606.289141
462.901419	2603.438369
463.273680	2602.561208
463.645882	2600.098604
464.018024	2603.461054
464.390106	2600.829572
464.762130	2604.474326
465.134094	2607.768720
465.505999	2609.049173
465.877845	2612.099071
466.249631	2616.056377
466.621358	2615.552262
466.993026	2613.591253
467.364634	2618.713065
467.736184	2614.891870
468.107674	2609.659153
468.479105	2613.392127
468.850477	2611.899946
469.221790	2612.797271
469.593043	2610.390120
469.964238	2611.637806
470.335373	2611.589915
470.706449	2613.684514
471.077467	2610.921962
471.448425	2612.482199
471.819324	2616.747015
472.190164	2623.761781
472.560945	2617.016717
472.931667	2613.258537
473.302330	2614.254164
473.672934	2615.539659
474.043479	2614.244082
474.413965	2615.476644
474.784393	2613.732405
475.154761	2617.982098
475.525070	2617.871192
475.895321	2619.378497
476.265513	2617.281377
476.635645	2620.893364
477.005719	2620.374125
477.375734	2624.366719
477.745691	2624.623818
478.115588	2626.788993
478.485427	2626.796555
478.855207	2629.175980
479.224928	2628.457615
479.594591	2636.276445
479.964194	2638.174439
480.333739	2639.038997
480.703226	2639.112094
481.072653	2640.505973
481.442022	2640.465644
481.811333	2645.002682
482.180584	2642.777013
482.549777	2642.025881
482.918912	2644.163330
483.287988	2647.571150
483.657005	2650.089207
484.025964	2650.124495
484.394864	2651.813281
484.763706	2652.183806
485.132489	2655.097593
485.501213	2659.538849
485.869879	2659.163283
486.238487	2660.305105
486.607036	2663.377688
486.975527	2663.619663
487.343959	2668.247443
487.712333	2668.265087
488.080648	2674.145593
488.448905	2678.193639
488.817104	2678.508711
489.185244	2688.333920
489.553326	2688.780062
489.921350	2700.321784
490.289315	2716.796275
490.657222	2731.783625
491.025070	2741.755027
491.392861	2747.227200
491.760593	2750.879516
492.128267	2751.171903
492.495883	2752.215422
492.863440	2756.202974
493.230939	2758.032913
493.598380	2774.139400
493.965763	2777.849689
494.333088	2783.342026
494.700354	2797.167391
495.067563	2809.465285
495.434713	2818.602377
495.801805	2838.066272
496.168839	2847.788137
496.535815	2859.967565
496.902733	2882.279712
497.269593	2901.413411
497.636395	2918.465114
498.003139	2944.033846
498.369825	2959.595888
498.736453	2985.686380
499.103023	3010.405678
499.469535	3033.698329
499.835989	3063.912485
500.202385	3093.398193
500.568723	3111.569032
500.935003	3152.127636
501.301226	3175.074968
501.667390	3236.808938
502.033497	3288.304325
502.399546	3310.487922
502.765537	3339.774505
503.131470	3394.206364
503.497345	3443.110598
503.863163	3466.756130
504.228923	3540.135165
504.594625	3600.747478
504.960269	3625.383597
505.325856	3710.140517
505.691385	3747.457658
506.056856	3824.783917
506.422270	3892.998290
506.787625	3928.649330
507.152924	4030.634393
507.518164	4087.733022
507.883347	4136.657420
508.248472	4183.421684
508.613540	4319.099298
508.978550	4398.346237
509.343503	4473.625787
509.708398	4575.631015
510.073236	4663.354653
510.438016	4765.203605
510.802738	4835.424358
511.167403	4941.195327
511.532010	5001.338813
511.896561	5182.467471
512.261053	5293.758504
512.625488	5356.972052
512.989866	5442.170073
513.354186	5513.346124
513.718449	5653.933823
514.082655	5787.882321
514.446803	5882.759357
514.810894	6055.809566
515.174927	6087.999854
515.538904	6200.074786
515.902822	6387.610750
516.266684	6496.842472
516.630488	6576.495223
516.994235	6698.168512
517.357925	6868.914914
517.721558	7041.012344
518.085133	7184.032400
518.448651	7296.714791
518.812112	7391.372537
519.175516	7542.471041
519.538863	7736.878098
519.902152	7811.338461
520.265385	8032.166205
520.628560	8120.033517
520.991678	8272.793081
521.354739	8438.342053
521.717743	8608.584339
522.080690	8691.907050
522.443580	8948.282491
522.806413	9066.061488
523.169189	9281.744735
523.531908	9406.072192
523.894569	9491.950768
524.257174	9667.148508
524.619722	9878.420746
524.982213	9928.736502
525.344647	10137.069747
525.707025	10305.968565
526.069345	10490.048818
526.431608	10648.855247
526.793815	10881.633046
527.155964	10816.710546
527.518057	11060.679707
527.880093	11205.716224
528.242072	11393.968032
528.603995	11462.895729
528.965860	11556.333515
529.327669	11794.853189
529.689421	11910.812330
530.051117	12001.452276
530.412755	12277.097528
530.774337	12316.458857
531.135862	12450.220833
531.497331	12695.467926
531.858743	12659.826969
532.220098	13089.348400
532.581396	13033.880584
532.942638	13257.649842
533.303824	13412.972833
533.664953	13589.451026
534.026025	13618.162918
534.387040	13859.359444
534.747999	14108.127783
535.108902	14303.563236
535.469748	14229.027256
535.830537	14499.530530
536.191270	14685.717985
536.551947	14836.219113
536.912567	14763.805458
537.273131	15086.784624
537.633638	15070.166460
537.994089	15381.729932
538.354483	15257.704945
538.714821	15704.182297
539.075103	15914.872281
539.435328	15933.181752
539.795497	15809.612988
540.155609	16215.224227
540.515665	16534.611570
540.875665	16214.974690
541.235609	16517.413674
541.595496	16693.725509
541.955328	17044.010084
542.315102	17122.740304
542.674821	17014.426072
543.034483	17068.000935
543.394090	17276.402235
543.753640	17284.642001
544.113134	17862.345629
544.472571	17750.648783
544.831953	18120.092263
545.191278	17940.536446
545.550548	18071.031754
545.909761	18293.182801
546.268918	18631.716447
546.628019	18715.500423
546.987064	18693.158030
547.346053	18630.867012
547.704986	18824.681733
548.063863	19090.315253
548.422684	19152.669285
548.781449	18986.061671
549.140158	19384.232166
549.498811	19218.093380
549.857408	19086.683102
550.215949	19558.966120
550.574434	19403.872502
550.932864	19688.599392
551.291237	19894.049096
551.649555	19923.285268
552.007817	20063.081505
552.366022	20068.072247
552.724173	20187.638334
553.082267	20250.821636
553.440305	20731.062116
553.798288	20218.729651
554.156215	20753.555744
554.514086	20914.983573
554.871902	20465.133689
555.229661	20797.489400
555.587365	20789.194182
555.945014	20706.549505
556.302606	21045.609951
556.660143	21034.584948
557.017625	21348.452227
557.375050	21039.220289
557.732421	21435.646545
558.089735	21356.079493
558.446994	21482.995582
558.804197	21574.028739
559.161345	21618.985749
559.518437	21422.335378
559.875474	21701.864838
560.232455	21911.846540
560.589381	21850.457889
560.946251	21851.876974
561.303065	22223.798181
561.659825	22356.703161
562.016528	22058.723078
562.373177	21895.994632
562.729770	22254.594590
563.086307	22215.387016
563.442789	22425.630858
563.799216	22306.576448
564.155587	22366.036858
564.511904	22397.470973
564.868164	22363.982587
565.224370	22412.508734
565.580520	22356.148634
565.936615	22535.742261
566.292654	22241.890882
566.648638	22608.816306
567.004567	22460.820632
567.360441	22453.541206
567.716260	22223.621741
568.072023	22580.931164
568.427732	22383.224672
568.783385	22208.266386
569.138982	22445.278755
569.494525	22522.773893
569.850013	22315.642963
570.205445	22430.964399
570.560823	22255.711206
570.916145	22070.826888
571.271412	22246.715267
571.626625	22051.264691
571.981782	22173.626098
572.336884	21997.105055
572.691931	22150.187253
573.046923	21913.837796
573.401860	21827.228252
573.756743	21823.550731
574.111570	21765.267430
574.466342	21712.315150
574.821059	21821.960247
575.175722	21543.388606
575.530330	21557.561810
575.884882	21583.846386
576.239380	21503.366885
576.593823	21421.430491
576.948211	21414.685427
577.302544	21255.621900
577.656823	21158.362919
578.011047	21255.266499
578.365216	21148.701548
578.719330	21025.152949
579.073389	20947.385589
579.427394	21103.588262
579.781344	20894.307280
580.135239	20787.886002
580.489080	20765.646952
580.842866	20536.322343
581.196597	20728.765870
581.550273	20716.914118
581.903895	20617.132039
582.257463	20930.165008
582.610975	20459.162442
582.964434	20771.713981
583.317837	20503.295223
583.671186	20599.535892
584.024481	20554.175589
584.377721	20341.680872
584.730906	20381.223683
585.084037	20436.371386
585.437113	20325.518933
585.790135	20530.761950
586.143103	20017.244814
586.496016	20033.749551
586.848874	20275.876171
587.201679	20227.912112
587.554428	19876.732733
587.907124	20216.884588
588.259765	20002.837196
588.612352	20075.001313
588.964884	19652.345934
589.317362	19840.156641
589.669786	19875.066631
590.022155	19953.063363
590.374470	20107.320151
590.726731	19935.232802
591.078937	19664.119548
591.431090	19776.554923
591.783188	19520.857518
592.135232	19505.444190
592.487222	19597.556153
592.839157	19636.829262
593.191038	19509.809829
593.542866	19404.517769
593.894639	19129.066603
594.246358	19349.811168
594.598022	19262.667262
594.949633	19016.948821
595.301190	18966.877560
595.652692	19132.202200
596.004141	19384.700994
596.355535	18714.461946
596.706876	18722.805055
597.058162	18615.304970
597.409395	18829.604420
597.760573	18930.180481
598.111698	18704.508188
598.462768	18644.042068
598.813785	18604.963043
599.164748	18432.515252
599.515657	18457.794118
599.866511	18251.673940
600.217312	18617.462584
600.568060	18150.084608
600.918753	18457.433676
601.269392	18360.197380
601.619978	18130.416546
601.970510	18349.610957
602.320988	18293.865878
602.671412	18505.180964
603.021783	18392.168377
603.372100	18141.020613
603.722363	18275.024565
604.072572	18207.331951
604.422728	18335.866251
604.772830	18108.958875
605.122878	18051.245225
605.472872	18052.913847
605.822813	18042.294657
606.172701	17995.238006
606.522534	18205.978401
606.872314	18228.845075
607.222041	18056.614054
607.571714	18282.500596
607.921333	18106.355119
608.270899	18177.949586
608.620411	18371.482003
608.969870	18121.818858
609.319276	18132.065004
609.668627	18157.563160
610.017926	18304.913566
610.367171	18416.554959
610.716362	18449.135937
611.065500	18285.341286
611.414585	18407.982477
611.763616	18384.571359
612.112594	18347.521398
612.461518	18309.682498
612.810389	18498.430859
613.159207	18361.583697
613.507971	18257.945136
613.856682	18539.619607
614.205340	18476.398497
614.553945	18619.448799
614.902496	18353.843005
615.250994	18611.045195
615.599439	18534.442342
615.947830	18536.499133
616.296169	18562.859326
616.644454	18545.182520
616.992686	18510.043157
617.340864	18719.162822
617.688990	18488.053644
618.037063	18662.696858
618.385082	18500.800202
618.733048	18789.411301
619.080961	18647.054157
619.428821	18686.118058
619.776628	18584.402697
620.124382	18504.787754
620.472083	18536.458803
620.819731	18564.364111
621.167326	18261.312627
621.514868	18316.505699
621.862357	18059.815187
622.209793	18082.334021
622.557176	17907.156445
622.904506	17737.433398
623.251783	17639.554355
623.599007	17416.803411
623.946179	17357.229575
624.293297	17301.721430
624.640363	17068.908343
624.987376	17081.145744
625.334336	16869.508023
625.681243	16710.525154
626.028097	16715.745269
626.374899	16656.534396
626.721647	16535.302208
627.068343	16357.102461
627.414987	16291.885053
627.761577	16250.678662
628.108115	16314.638301
628.454600	16024.300607
628.801032	16123.376924
629.147412	16050.355811
629.493739	16075.579224
629.840014	15890.354629
630.186236	15985.566902
630.532405	15752.345481
630.878521	15955.100688
631.224585	15834.365054
631.570597	15661.907181
631.916556	15703.950404
632.262462	15679.112639
632.608316	15594.713641
632.954117	15536.906730
633.299866	15532.936821
633.645562	15460.374453
633.991206	15208.168047
634.336797	15073.435648
634.682336	15048.948243
635.027823	14939.708960
635.373257	14828.165870
635.718639	14714.692017
636.063968	14675.676007
636.409245	14431.152319
636.754470	14451.692500
637.099642	14309.844513
637.444762	14065.877873
637.789829	14112.891674
638.134845	13954.488538
638.479808	13978.139111
638.824719	13936.968008
639.169577	13780.392290
639.514383	13837.498480
639.859137	13646.171568
640.203839	13739.296803
640.548489	13572.787492
640.893086	13561.407087
641.237632	13437.137604
641.582125	13581.105396
641.926566	13418.044233
642.270955	13417.623297
642.615292	13384.447464
642.959576	13399.414649
643.303809	13435.257253
643.647990	13361.832847
643.992118	13419.518771
644.336195	13191.719111
644.680219	13381.768090
645.024192	13319.784583
645.368112	13559.690574
645.711981	13621.953865
646.055797	13795.810659
646.399562	13760.729269
646.743274	14027.156770
647.086935	14305.269666
647.430544	14269.679120
647.774101	14294.035455
648.117606	14453.406493
648.461059	14415.428960
648.804460	14421.513633
649.147810	14149.606397
649.491108	14046.789544
649.834354	14066.765116
650.177548	13772.081947
650.520690	13575.169437
650.863781	13496.368641
651.206820	13525.929967
651.549807	13361.346376
651.892742	13175.710927
652.235626	13108.010751
652.578458	13115.403603
652.921238	12794.168678
653.263967	12995.454389
653.606644	12817.733551
653.949269	12792.303451
654.291843	12602.803957
654.634365	12754.462029
654.976836	12610.224535
655.319255	12621.693160
655.661622	12564.902042
656.003938	12499.102381
656.346203	12430.197370
656.688416	12489.292296
657.030577	12453.036317
657.372687	12378.147456
657.714746	12348.802900
658.056753	12534.657639
658.398708	12358.645753
658.740612	12359.026360
659.082465	12455.125876
659.424266	12420.480546
659.766016	12437.779265
660.107715	12348.543280
660.449362	12420.241091
660.790958	12392.328222
661.132503	12334.397803
661.473996	12391.619940
661.815438	12410.675502
662.156829	12418.333014
662.498168	12402.818863
662.839456	12399.902556
663.180693	12420.110021
663.521879	12503.508350
663.863013	12492.077533
664.204097	12464.154582
664.545129	12585.638828
664.886110	12549.644990
665.227040	12644.012869
665.567918	12645.875575
665.908746	12680.964527
666.249522	12658.165908
666.590248	12706.845811
666.930922	12821.267400
667.271545	12809.234166
667.612118	12892.869429
667.952639	12787.564766
668.293109	12796.490129
668.633528	12753.105959
668.973896	12725.629150
669.314213	12817.015187
669.654480	12562.066393
669.994695	12620.032100
670.334859	12646.369608
670.674973	12593.152668
671.015035	12628.476033
671.355047	12566.449676
671.695008	12541.992518
672.034918	12546.947972
672.374777	12593.082092
672.714585	12507.238803
673.054342	12535.025643
673.394049	12487.132161
673.733705	12582.349475
674.073310	12491.664159
674.412864	12517.232891
674.752368	12388.338149
675.091820	12394.982390
675.431223	12382.739948
675.770574	12257.555495
676.109875	12179.208402
676.449125	12144.487455
676.788324	12073.349212
677.127473	11927.269177
677.466571	11906.333265
677.805619	11806.107565
678.144616	11725.449103
678.483562	11693.379803
678.822458	11563.955740
679.161303	11545.797504
679.500098	11536.945237
679.838842	11488.769451
680.177535	11511.782318
680.516179	11566.357850
680.854771	11507.043633
681.193314	11726.845503
681.531805	11873.054088
681.870247	12276.762291
682.208638	12687.563397
682.546978	13010.655988
682.885268	13071.701841
683.223508	12756.080240
683.561697	12597.462854
683.899836	12497.789161
684.237925	12300.639716
684.575963	12224.261194
684.913951	12150.284782
685.251889	12092.503077
685.589776	12185.227540
685.927614	12110.530243
686.265401	12076.184862
686.603137	12119.206068
686.940824	12274.798761
687.278460	12389.358983
687.616046	12437.945623
687.953582	12612.440123
688.291068	12535.252495
688.628504	12761.849840
688.965889	12768.075665
689.303224	12746.582706
689.640510	12646.026810
689.977745	12337.699758
690.314930	12118.177673
690.652065	12027.126873
690.989150	11742.500806
691.326185	11521.922599
691.663170	11319.187556
692.000105	11062.413864
692.336990	10960.509460
692.673825	10713.467716
693.010610	10586.019785
693.347345	10391.718592
693.684030	10181.215131
694.020665	10121.671542
694.357251	9930.173231
694.693786	9892.339371
695.030272	9707.384478
695.366707	9597.152087
695.703093	9524.199029
696.039429	9516.579325
696.375716	9449.844531
696.711952	9319.208070
697.048139	9354.841466
697.384276	9307.696595
697.720363	9324.027413
698.056400	9262.905943
698.392388	9216.111433
698.728326	9186.320734
699.064214	9109.773333
699.400053	9159.595057
699.735842	8975.572777
700.071581	8932.652393
700.407270	8853.264302
700.742910	8782.110936
701.078501	8695.519037
701.414042	8569.525479
701.749533	8502.659614
702.084974	8362.404632
702.420366	8474.754307
702.755709	8359.410186
703.091002	8229.895382
703.426246	8254.498734
703.761440	8206.358235
704.096584	8157.007859
704.431679	8101.862677
704.766725	8080.730161
705.101721	8033.250053
705.436668	8074.385868
705.771565	7967.072306
706.106413	8050.160604
706.441212	8098.999302
706.775961	8045.822691
707.110661	8076.848472
707.445311	8229.940753
707.779913	8121.676933
708.114465	8254.392869
708.448967	8290.492572
708.783421	8422.575844
709.117825	8607.301365
709.452180	8644.636150
709.786485	8734.482115
710.120742	9009.666100
710.454949	9013.464610
710.789107	9111.071431
711.123216	9320.425509
711.457275	9479.005085
711.791286	9654.162496
712.125247	9637.100711
712.459159	9624.462538
712.793023	9883.855109
713.126837	9463.223753
713.460602	9612.711609
713.794318	9439.321122
714.127985	9463.125451
714.461602	9160.270572
714.795171	9100.706818
715.128691	8854.907718
715.462162	8603.878422
715.795584	8549.769197
716.128957	8409.000017
716.462281	8238.518276
716.795556	8285.562324
717.128782	8083.359122
717.461960	7814.348030
717.795088	7887.028865
718.128167	7797.021584
718.461198	7624.838454
718.794180	7566.978610
719.127113	7560.841006
719.459997	7421.329593
719.792833	7187.021804
720.125619	7243.868375
720.458357	7102.756397
720.791046	7092.520334
721.123686	7096.996878
721.456278	6937.961078
721.788821	6957.707277
722.121315	6849.909764
722.453761	6910.017962
722.786158	6859.563573
723.118506	6871.359873
723.450805	6837.566499
723.783056	6907.149545
724.115259	6806.218083
724.447412	6805.449308
724.779518	6849.544280
725.111574	6852.722728
725.443582	6931.415139
725.775542	6911.459732
726.107453	7101.733042
726.439315	7017.470156
726.771129	7066.339101
727.102895	7233.662559
727.434612	7351.237390
727.766281	7379.727471
728.097901	7467.667880
728.429473	7455.783359
728.760996	7427.792353
729.092471	7403.400730
729.423897	7355.073708
729.755276	7370.882767
730.086606	7295.298227
730.417887	7392.106025
730.749120	7571.354332
731.080305	7761.983044
731.411442	7899.382213
731.742530	7889.451140
732.073570	7993.848395
732.404562	8083.419616
732.735506	7924.721572
733.066401	8070.141217
733.397249	8008.344232
733.728048	7771.162985
734.058798	7440.117974
734.389501	7225.720221
734.720156	7044.611728
735.050762	6808.179092
735.381320	6705.304266
735.711831	6661.398336
736.042293	6560.958387
736.372707	6578.385656
736.703073	6441.382218
737.033391	6470.578060
737.363661	6482.218085
737.693883	6512.969123
738.024056	6597.418532
738.354182	6642.239431
738.684260	6675.228742
739.014290	6784.742768
739.344272	6890.624643
739.674207	6922.104128
740.004093	6986.018397
740.333931	7000.070613
740.663722	7015.196596
740.993464	7095.383709
741.323159	7088.300888
741.652806	6837.679925
741.982405	6836.792682
742.311956	6901.077475
742.641460	6751.443426
742.970915	6554.170473
743.300323	6538.374018
743.629683	6493.477502
743.958996	6358.256112
744.288260	6268.697493
744.617477	6212.019800
744.946647	6228.953036
745.275768	6057.768054
745.604842	6015.765160
745.933869	5993.987376
746.262847	5949.030366
746.591778	5941.203974
746.920662	5907.178707
747.249498	5883.588627
747.578286	5938.456546
747.907027	6011.588564
748.235720	6074.471917
748.564365	6045.639038
748.892963	6064.782820
749.221514	6223.213682
749.550017	6070.905301
749.878473	5939.081649
750.206881	5992.137272
750.535242	5935.885557
750.863555	5860.180029
751.191821	5885.824379
751.520039	5886.247836
751.848210	5793.062107
752.176334	5810.043234
752.504411	5861.362180
752.832440	5791.844668
753.160421	5715.330035
753.488356	5763.016830
753.816243	5800.061749
754.144082	5655.055479
754.471875	5621.776302
754.799620	5664.250544
755.127318	5674.950393
755.454969	5625.161437
755.782572	5592.411581
756.110129	5638.520495
756.437638	5627.770234
756.765100	5568.927366
757.092515	5558.260284
757.419882	5605.707624
757.747203	5588.867650
758.074477	5653.273431
758.401703	5647.655065
758.728882	5592.930820
759.056014	5639.750536
759.383099	5776.096104
759.710138	5785.734790
760.037129	5768.549496
760.364073	5779.405621
760.690970	5856.608372
761.017820	5844.345765
761.344623	5791.390964
761.671379	5892.798815
761.998088	6005.468604
762.324751	6238.077524
762.651366	6809.532642
762.977935	8079.379131
763.304456	9698.607829
763.630931	10615.865936
763.957359	10267.002966
764.283740	9341.379065
764.610074	8527.235239
764.936362	7544.689149
765.262602	6944.333096
765.588796	6404.241517
765.914943	6059.774433
766.241044	5902.659312
766.567097	5710.893820
766.893104	5453.389161
767.219064	5268.804792
767.544978	5209.636769
767.870845	5140.262931
768.196665	5026.350498
768.522438	4954.761072
768.848165	4923.644550
769.173846	4859.967215
769.499479	4820.820135
769.825066	4765.110344
770.150607	4703.658678
770.476101	4681.139844
770.801548	4676.869987
771.126949	4605.557825
771.452303	4552.739135
771.777611	4505.047299
772.102872	4529.133932
772.428087	4486.987366
772.753256	4449.713074
773.078378	4405.129109
773.403453	4336.516485
773.728482	4322.615503
774.053465	4277.061117
774.378401	4265.557203
774.703291	4266.419241
775.028135	4198.358623
775.352932	4148.370541
775.677683	4133.731030
776.002388	4150.291221
776.327046	4164.487110
776.651658	4091.962550
776.976224	4027.266902
777.300743	4031.781256
777.625216	4054.216911
777.949643	4049.049728
778.274024	4005.907533
778.598359	3957.777117
778.922647	3982.808967
779.246889	3975.837051
779.571086	3969.984271
779.895236	3957.096561
780.219339	3941.786577
780.543397	3932.183179
780.867409	3984.376765
781.191374	4003.248325
781.515294	3940.493521
781.839167	3933.115792
782.162995	3949.547433
782.486776	3937.695681
782.810511	3946.184984
783.134201	3948.186322
783.457844	3903.950197
783.781441	3846.478522
784.104993	3853.881457
784.428498	3871.144888
784.751958	3868.437789
785.075372	3844.867874
785.398739	3810.933347
785.722061	3822.099503
786.045337	3862.753888
786.368568	3901.222933
786.691752	3809.940239
787.014891	3853.349615
787.337983	3977.477946
787.661030	4132.901761
787.984031	4291.995535
788.306987	4465.529694
788.629897	4547.597158
788.952760	4505.327083
789.275579	4437.286630
789.598351	4378.852095
789.921078	4243.882763
790.243759	4042.657545
790.566395	4019.483361
790.888984	4016.773741
791.211529	3913.573760
791.534027	3853.798278
791.856480	3844.767051
792.178888	3778.748100
792.501249	3729.042323
792.823566	3740.032038
793.145836	3772.693674
793.468062	3723.867579
793.790241	3669.395391
794.112375	3704.070967
794.434464	3760.733537
794.756507	3791.507260
795.078505	3771.700567
795.400457	3801.214002
795.722364	3937.347841
796.044226	4041.906413
796.366042	4110.599696
796.687812	4097.381791
797.009538	4104.744396
797.331218	4062.940627
797.652852	4033.573386
797.974442	4013.509593
798.295986	4013.378523
798.617484	3936.584106
798.938938	3847.995910
799.260346	3883.382289
799.581709	3884.892115
799.903026	3815.135148
800.224299	3777.825569
800.545526	3770.089918
800.866708	3734.214547
801.187845	3667.628466
801.508936	3702.384702
801.829983	3711.141186
802.150984	3626.653968
802.471940	3615.777678
802.792851	3626.172538
803.113717	3627.901653
803.434538	3633.920791
803.755314	3577.175043
804.076045	3543.724467
804.396731	3564.816654
804.717372	3590.614759
805.037967	3577.691761
805.358518	3571.165987
805.679024	3593.508381
805.999485	3606.413735
806.319901	3610.635702
806.640272	3622.356384
806.960598	3639.493787
807.280879	3614.875312
807.601115	3620.975108
807.921306	3640.368427
808.241453	3680.312009
808.561554	3660.081859
808.881611	3594.977878
809.201623	3627.573978
809.521590	3640.439003
809.841513	3613.947740
810.161390	3641.626195
810.481223	3624.559368
810.801011	3568.922674
811.120755	3555.198133
811.440453	3596.954010
811.760107	3601.148250
812.079716	3559.498237
812.399281	3522.932228
812.718801	3546.784447
813.038276	3517.714633
813.357707	3519.887371
813.677093	3536.069474
813.996434	3484.884119
814.315731	3489.915190
814.634983	3493.534739
814.954191	3505.656193
815.273354	3537.954866
815.592473	3537.879249
815.911547	3537.705329
816.230577	3577.235537
816.549562	3628.373001
816.868502	3664.157632
817.187399	3695.395142
817.506250	3689.791899
817.825058	3662.098321
818.143821	3750.318513
818.462539	3852.308617
818.781213	3897.837798
819.099843	3952.672949
819.418429	4182.920089
819.736970	4421.273405
820.055466	4660.342564
820.373919	5019.118963
820.692327	5418.002781
821.010691	5829.678528
821.329011	7138.483054
821.647286	9769.935115
821.965517	14199.793604
822.283704	18209.008135
822.601847	20467.036724
822.919945	18725.706239
823.237999	16221.001389
823.556010	13769.165640
823.873976	11717.436189
824.191897	9649.459100
824.509775	8299.682596
824.827609	7183.762698
825.145398	6629.268542
825.463144	6513.392580
825.780845	6630.508666
826.098502	6792.861546
826.416116	7624.087322
826.733685	8906.662724
827.051210	10022.229741
827.368692	10126.132963
827.686129	8924.049664
828.003522	7417.457987
828.320872	6411.130254
828.638177	5720.474533
828.955439	5171.029093
829.272656	4680.217313
829.589830	4391.439856
829.906960	4219.990214
830.224046	4040.315929
830.541088	3911.973193
830.858086	3864.914022
831.175041	3793.916932
831.491952	3772.711318
831.808819	3784.346301
832.125642	3849.243595
832.442421	3991.714165
832.759157	4256.278960
833.075849	4783.140031
833.392497	5626.010871
833.709101	6387.512448
834.025662	6741.514874
834.342179	6414.167549
834.658653	5762.895842
834.975083	5128.302793
835.291469	4559.839600
835.607811	4145.212258
835.924110	4007.903830
836.240366	3819.412568
836.556578	3613.191567
836.872746	3502.916326
837.188871	3462.145994
837.504952	3402.398239
837.820990	3320.555106
838.136984	3271.182046
838.452935	3295.392187
838.768842	3294.847742
839.084706	3313.741987
839.400526	3462.758495
839.716303	3782.292031
840.032037	4287.120739
840.347727	4567.350920
840.663373	4313.049914
840.978977	3939.679375
841.294537	3635.435658
841.610054	3405.997623
841.925527	3298.863021
842.240957	3231.198134
842.556344	3180.773992
842.871687	3122.200826
843.186987	3073.352045
843.502244	3037.806869
843.817458	3004.880573
844.132629	2970.580562
844.447756	2979.959629
844.762840	2963.636373
845.077881	2935.242074
845.392879	2918.664239
845.707833	2911.667118
846.022745	2910.038825
846.337613	2914.830442
846.652438	2902.212434
846.967221	2898.776888
847.281960	2883.918087
847.596656	2882.662839
847.911309	2880.172509
848.225919	2875.522045
848.540485	2868.086343
848.855009	2869.102135
849.169490	2859.445805
849.483928	2851.508508
849.798323	2846.779906
850.112675	2843.672035
850.426984	2855.430526
850.741251	2855.105372
851.055474	2844.135821
851.369654	2839.702126
851.683792	2845.239834
851.997887	2852.345340
852.311938	2855.425485
852.625947	2840.337312
852.939914	2847.160513
853.253837	2852.509178
853.567718	2836.901765
853.881555	2834.071157
854.195350	2850.661595
854.509103	2846.704289
854.822812	2838.600634
855.136479	2839.694564
855.450103	2838.756910
855.763685	2830.194510
856.077224	2826.771567
856.390720	2840.183556
856.704173	2849.849969
857.017584	2842.535255
857.330953	2838.759430
857.644278	2849.691172
857.957561	2854.462625
858.270802	2858.707276
858.584000	2859.080322
858.897155	2846.989114
859.210268	2846.784947
859.523339	2845.048270
859.836367	2843.878722
860.149352	2840.607013
860.462295	2833.004953
860.775195	2841.282528
861.088054	2843.178002
861.400869	2828.190651
861.713642	2820.986842
862.026373	2838.157012
862.339062	2836.468226
862.651708	2846.671521
862.964312	2849.202181
863.276873	2841.093485
863.589392	2852.743591
863.901869	2860.108717
864.214303	2885.659805
864.526696	2900.979872
864.839045	2895.210271
865.151353	2895.754716
865.463619	2891.643655
865.775842	2892.601474
866.088023	2910.696696
866.400162	2921.003335
866.712258	2892.059550
867.024313	2879.242416
867.336325	2887.572923
867.648296	2907.621592
867.960224	2902.197310
868.272110	2890.663150
868.583954	2894.292781
868.895755	2908.246695
869.207515	2894.242370
869.519233	2897.771177
869.830909	2910.580749
870.142542	2918.497881
870.454134	2919.722882
870.765684	2923.680188
871.077191	2920.922676
871.388657	2928.338214
871.700081	2937.954215
872.011463	2950.604990
872.322803	2953.435598
872.634101	2952.646658
872.945357	2966.073771
873.256571	2993.215343
873.567744	2986.508088
873.878874	2978.532983
874.189963	3001.409739
874.501010	3005.082219
874.812015	2995.990498
875.122979	2994.389932
875.433900	2988.259889
875.744780	2998.876559
876.055618	3000.867815
876.366415	2998.407732
876.677169	3012.422139
876.987882	3010.912314
877.298554	2999.872187
877.609183	3018.937831
877.919771	3042.411963
878.230317	3069.729976
878.540822	3118.883747
878.851285	3159.215498
879.161707	3194.637166
879.472087	3289.244500
879.782425	3502.253414
880.092722	3923.852672
880.402977	4434.163635
880.713191	5038.413979
881.023363	6144.453215
881.333494	7407.993221
881.643583	7981.941189
881.953631	7695.621295
882.263637	7093.548729
882.573602	6533.100971
882.883526	5963.579136
883.193408	5394.478237
883.503248	4934.548566
883.813048	4638.877331
884.122806	4353.835369
884.432522	4043.854819
884.742197	3816.282011
885.051831	3623.467959
885.361424	3488.165910
885.670975	3417.831732
885.980485	3336.817869
886.289954	3261.747526
886.599382	3219.520301
886.908768	3183.264322
887.218113	3138.382930
887.527417	3084.359405
887.836680	3032.780839
888.145901	3030.345962
888.455082	3022.350692
888.764221	2970.898155
889.073319	2939.983279
889.382376	2938.859102
889.691392	2943.204576
890.000366	2944.230451
890.309300	2930.793256
890.618193	2941.152827
890.927044	2959.507668
891.235855	2958.000363
891.544625	2943.907817
891.853353	2952.674384
892.162041	2972.629791
892.470687	3009.994824
892.779293	3063.892320
893.087858	3105.602827
893.396381	3173.161850
893.704864	3286.141670
894.013306	3511.070393
894.321707	3809.204231
894.630068	4010.560518
894.938387	4015.021940
895.246665	3968.338334
895.554903	3854.670398
895.863100	3659.635717
896.171256	3496.438443
896.479371	3365.834750
896.787446	3247.191194
897.095480	3145.206132
897.403473	3081.138107
897.711425	3047.339691
898.019336	3036.700336
898.327207	3010.962725
898.635038	2976.879484
898.942827	2960.387349
899.250576	2949.299331
899.558284	2920.199271
899.865952	2899.089439
900.173579	2882.667880
900.481165	2874.375182
900.788711	2858.170393
901.096216	2839.636591
901.403681	2826.766525
901.711105	2832.324397
902.018489	2833.163750
902.325832	2830.368430
902.633135	2838.426714
902.940397	2869.608771
903.247619	2946.589711
903.554800	3126.324490
903.861941	3455.615180
904.169041	3867.237994
904.476101	4169.316535
904.783121	4138.227740
905.090100	3904.527409
905.397039	3634.697129
905.703938	3388.961043
906.010796	3211.567881
906.317614	3101.814400
906.624391	3010.559433
906.931129	2942.337498
907.237826	2883.620658
907.544483	2836.087619
907.851099	2806.874132
908.157675	2785.207253
908.464211	2766.897782
908.770707	2753.034609
909.077163	2743.635378
909.383578	2727.594426
909.689954	2718.056563
909.996289	2714.129504
910.302584	2715.783003
910.608839	2716.085472
910.915054	2707.752445
911.221229	2702.877649
911.527363	2706.943340
911.833458	2711.540872
912.139513	2718.059084
912.445527	2720.176368
912.751502	2728.466546
913.057436	2737.676734
913.363331	2748.006058
913.669186	2767.918616
913.975000	2800.746610
914.280775	2858.679550
914.586510	2929.023811
914.892205	3001.850840
915.197859	3122.657050
915.503475	3302.419555
915.809050	3510.470495
916.114585	3653.694717
916.420081	3681.037936
916.725536	3623.364615
917.030952	3512.025691
917.336328	3386.067421
917.641665	3261.379522
917.946961	3162.542660
918.252218	3097.161415
918.557435	3022.784231
918.862612	2963.701908
919.167750	2916.302459
919.472848	2879.988507
919.777906	2850.522963
920.082925	2827.883141
920.387904	2796.872483
920.692843	2781.466717
920.997743	2773.325253
921.302603	2757.435537
921.607423	2747.900194
921.912204	2738.327043
922.216946	2725.013356
922.521647	2716.574464
922.826310	2708.967363
923.130932	2701.350179
923.435516	2697.750796
923.740059	2688.399455
924.044564	2680.409226
924.349028	2673.696930
924.653454	2669.326250
924.957840	2661.635969
925.262186	2658.424754
925.566493	2654.603560
925.870761	2649.764052
926.174989	2648.476037
926.479178	2643.591159
926.783328	2636.042031
927.087438	2636.440282
927.391509	2633.602113
927.695541	2632.059520
927.999533	2627.756895
928.303486	2624.679271
928.607400	2626.312604
928.911275	2623.187089
929.215110	2623.497120
929.518906	2620.331275
929.822663	2620.961420
930.126381	2622.614918
930.430060	2623.411420
930.733699	2622.806482
931.037299	2624.739764
931.340861	2625.284209
931.644383	2626.123561
931.947866	2625.611884
932.251309	2623.292953
932.554714	2622.957717
932.858080	2619.638117
933.161407	2618.513939
933.464694	2614.428084
933.767943	2613.911366
934.071153	2618.297170
934.374323	2615.340533
934.677455	2615.973198
934.980548	2612.643516
935.283602	2613.969339
935.586617	2614.415481
935.889593	2613.331633
936.192530	2612.076386
936.495428	2618.236676
936.798287	2615.955554
937.101108	2620.366563
937.403890	2621.289095
937.706632	2626.761267
938.009336	2633.687812
938.312002	2645.214411
938.614628	2650.699186
938.917216	2657.398880
939.219765	2657.741678
939.522275	2658.931390
939.824747	2653.330668
940.127179	2652.393014
940.429573	2653.139105
940.731929	2648.062663
941.034246	2643.949081
941.336524	2643.384472
941.638763	2642.025881
941.940964	2635.222844
942.243126	2635.182515
942.545250	2635.855509
942.847335	2632.165384
943.149381	2627.419138
943.451389	2622.935031
943.753359	2620.727006
944.055290	2620.958899
944.357182	2618.549227
944.659036	2615.766511
944.960851	2617.432612
945.262628	2616.406737
945.564367	2616.784824
945.866067	2618.652571
946.167729	2616.605863
946.469352	2615.527056
946.770937	2617.699793
947.072484	2615.622838
947.373992	2615.325410
947.675462	2615.043105
947.976893	2610.243927
948.278286	2607.609924
948.579641	2609.331478
948.880958	2604.315530
949.182236	2607.123452
949.483476	2609.611262
949.784678	2606.967177
950.085841	2607.935078
950.386967	2610.632095
950.688054	2607.509101
950.989103	2609.200408
951.290114	2610.995058
951.591087	2613.997066
951.892021	2613.772734
952.192917	2615.234669
952.493776	2619.247427
952.794596	2619.612911
953.095378	2619.038219
953.396122	2618.511419
953.696828	2619.993518
953.997496	2614.740636
954.298126	2614.609566
954.598718	2614.750718
954.899272	2610.886674
955.199788	2606.861312
955.500266	2604.849892
955.800706	2603.375354
956.101108	2603.284614
956.401472	2600.937957
956.701798	2598.603902
957.002087	2596.398397
957.302337	2594.341607
957.602550	2593.996288
957.902724	2593.371185
958.202861	2589.237438
958.502960	2589.751636
958.803022	2590.054105
959.103045	2591.155597
959.403031	2588.226687
959.702979	2587.561255
960.002889	2588.108220
960.302762	2583.523291
960.602596	2581.995821
960.902393	2584.851635
961.202153	2583.677046
961.501875	2586.401789
961.801559	2582.653692
962.101205	2584.110585
962.400814	2584.478589
962.700385	2582.298290
962.999918	2580.707806
963.299414	2579.510532
963.598873	2581.166551
963.898293	2576.722774
964.197677	2581.307703
964.497022	2580.251582
964.796331	2580.942220
965.095601	2580.622107
965.394835	2581.771490
965.694030	2581.133784
965.993189	2581.158989
966.292309	2578.351067
966.591393	2579.465162
966.890439	2581.363156
967.189447	2581.927765
967.488419	2580.228897
967.787353	2578.653536
968.086249	2581.015317
968.385108	2581.342992
968.683930	2582.184864
968.982714	2581.360636
969.281462	2579.419791
969.580172	2579.220666
969.878844	2579.465162
970.177480	2578.290573
970.476078	2582.560430
970.774639	2583.790472
971.073162	2580.680080
971.371649	2581.020358
971.670098	2584.362643
971.968510	2579.903742
972.266885	2581.277457
972.565223	2580.513722
972.863524	2580.680080
973.161788	2580.934658
973.460014	2579.056828
973.758204	2581.138825
974.056356	2579.883577
974.354471	2580.826273
974.652550	2578.892991
974.950591	2580.143197
975.248595	2582.434401
975.546563	2580.659915
975.844493	2581.214442
976.142386	2581.872313
976.440243	2578.091447
976.738062	2577.768813
977.035845	2579.944071
977.333590	2578.338464
977.631299	2579.427353
977.928971	2577.816704
978.226606	2578.058680
978.524204	2574.860068
978.821765	2575.041549
979.119290	2580.347364
979.416777	2577.173957
979.714228	2579.770152
980.011642	2576.347208
980.309020	2578.787127
980.606360	2577.947774
980.903664	2579.523135
981.200931	2579.349215
981.498162	2581.774010
981.795356	2579.276118
982.092513	2582.081521
982.389633	2584.203846
982.686717	2588.282140
982.983764	2592.158787
983.280775	2597.210023
983.577749	2592.995619
983.874686	2596.773963
984.171587	2591.833633
984.468451	2589.670978
984.765279	2586.336254
985.062070	2586.026223
985.358824	2586.179979
985.655543	2583.757704
985.952224	2580.485995
986.248869	2580.526325
986.545478	2579.006417
986.842050	2578.303176
987.138586	2578.628330
987.435086	2579.477765
987.731549	2576.238823
988.027975	2577.788978
988.324366	2575.127249
988.620719	2577.461303
988.917037	2576.059862
989.213318	2574.923082
989.509563	2574.915520
989.805772	2576.947105
990.101944	2575.928792
990.398080	2572.301682
990.694180	2575.452403
990.990244	2572.498287
991.286271	2573.929975
991.582262	2574.497105
991.878217	2576.153124
992.174136	2577.645305
992.470019	2574.960891
992.765865	2573.728329
993.061676	2570.930488
993.357450	2571.699264
993.653188	2570.859912
993.948890	2575.437280
994.244556	2574.529872
994.540186	2576.904256
994.835780	2577.118505
995.131337	2576.158165
995.426859	2575.782599
995.722345	2577.993145
996.017795	2576.866447
996.313208	2580.475913
996.608586	2577.302507
996.903928	2578.764441
997.199234	2579.843248
997.494504	2578.361149
997.789738	2578.383834
998.084936	2578.663618
998.380099	2578.318299
998.675225	2578.761921
998.970316	2576.563978
999.265371	2577.078175
999.560390	2575.984245
999.855373	2578.126735
1000.150320	2574.759245
1000.445232	2574.461817
1000.740108	2573.577094
1001.034948	2572.480643
1001.329752	2571.873184
1001.624521	2575.187743
1001.919254	2575.563309
1002.213951	2576.369893
1002.508613	2575.270922
1002.803239	2573.599779
1003.097829	2572.914182
1003.392384	2571.419480
1003.686903	2570.446537
1003.981386	2574.164388
1004.275834	2574.489543
1004.570246	2571.956363
1004.864623	2575.190263
1005.158964	2571.714388
1005.453270	2572.659604
1005.747540	2574.769327
1006.041775	2570.640622
1006.335974	2571.517783
1006.630138	2575.036508
1006.924266	2574.673545
1007.218359	2573.269584
1007.512416	2570.438976
1007.806438	2570.275138
1008.100425	2570.098698
1008.394376	2570.370920
1008.688292	2573.045252
1008.982172	2572.926785
1009.276017	2572.140365
1009.569827	2571.943760
1009.863602	2571.059038
1010.157341	2570.249933
1010.451045	2573.171281
1010.744714	2574.481981
1011.038347	2575.699420
1011.331945	2571.434604
1011.625508	2572.634398
1011.919036	2572.669686
1012.212528	2574.469378
1012.505986	2574.149265
1012.799408	2575.996848
1013.092795	2571.542988
1013.386147	2572.742783
1013.679464	2570.905282
1013.972745	2572.152968
1014.265992	2574.232444
1014.559204	2574.290417
1014.852380	2571.656414
1015.145521	2571.863102
1015.438628	2570.741445
1015.731699	2574.083730
1016.024736	2574.792012
1016.317737	2571.918554
1016.610703	2571.679100
1016.903635	2572.014336
1017.196531	2572.571384
1017.489393	2570.766651
1017.782219	2571.716908
1018.075011	2569.745817
1018.367768	2570.494428
1018.660490	2570.675910
1018.953177	2570.675910
1019.245829	2570.675910
