Dividing Wavelength (nm)	Counts (n)	Blue Motor Position (mm): 13.600000	Red Motor Position (mm): 0.000000	
326.493990	2171.928203
326.888308	2171.928203
327.282561	2171.928203
327.676750	2128.337345
328.070874	2125.030348
328.464933	2124.642179
328.858929	2129.577469
329.252859	2133.179373
329.646726	2141.540127
330.040528	2155.297436
330.434265	2167.428973
330.827938	2187.225584
331.221547	2201.965918
331.615091	2218.594164
332.008571	2241.047463
332.401986	2257.534557
332.795338	2274.666918
333.188625	2293.684671
333.581847	2313.246868
333.975006	2331.125320
334.368100	2351.053002
334.761129	2368.155116
335.154095	2383.833104
335.546996	2409.235479
335.939833	2430.395722
336.332606	2447.661674
336.725315	2458.790021
337.117960	2473.051445
337.510540	2482.364977
337.903056	2495.414004
338.295508	2504.399860
338.687896	2513.005110
339.080220	2520.803775
339.472480	2528.993129
339.864676	2529.824920
340.256807	2536.242309
340.648875	2542.059800
341.040879	2544.058618
341.432818	2547.884853
341.824694	2547.806716
342.216506	2551.501881
342.608253	2550.831408
342.999937	2552.169834
343.391557	2552.487427
343.783113	2551.547252
344.174605	2550.851573
344.566033	2550.206305
344.957397	2548.608259
345.348697	2549.286294
345.739934	2546.848896
346.131106	2542.687424
346.522215	2541.351518
346.913260	2541.449821
347.304241	2538.256250
347.695159	2537.013605
348.086012	2535.420601
348.476802	2531.886752
348.867528	2527.087573
349.258191	2526.550690
349.648789	2524.909795
350.039324	2522.590864
350.429796	2525.935670
350.820203	2523.674712
351.210548	2524.894671
351.600828	2519.979546
351.991045	2519.369567
352.381198	2518.278157
352.771288	2520.806296
353.161314	2518.119361
353.551276	2517.849659
353.941175	2517.665657
354.331010	2513.216838
354.720782	2517.711027
355.110490	2514.179699
355.500135	2515.939062
355.889717	2515.429905
356.279235	2514.509894
356.668689	2516.609535
357.058080	2516.717920
357.447408	2518.051305
357.836672	2516.702796
358.225873	2518.520132
358.615010	2515.984432
359.004084	2517.658095
359.393095	2518.283198
359.782043	2519.235976
360.170927	2520.105575
360.559748	2520.990298
360.948505	2521.305370
361.337199	2521.237314
361.725830	2522.331245
362.114398	2520.098013
362.502903	2521.070956
362.891344	2524.743437
363.279722	2525.171935
363.668037	2521.910308
364.056289	2523.369722
364.444478	2526.548170
364.832603	2529.320804
365.220665	2528.199148
365.608665	2527.919364
365.996601	2525.988602
366.384474	2525.847449
366.772284	2528.352903
367.160031	2529.913140
367.547715	2530.727286
367.935336	2529.928263
368.322893	2526.696884
368.710388	2526.296112
369.097820	2527.165711
369.485189	2524.834177
369.872495	2527.531195
370.259738	2531.632173
370.646918	2530.707122
371.034035	2531.123017
371.421090	2533.782226
371.808081	2532.400949
372.195010	2532.698378
372.581875	2531.392719
372.968678	2531.748120
373.355418	2531.319622
373.742096	2535.150899
374.128710	2532.312729
374.515262	2532.282482
374.901751	2532.133768
375.288177	2537.837834
375.674540	2534.830786
376.060841	2535.045035
376.447079	2536.080992
376.833254	2534.480425
377.219367	2535.614685
377.605417	2534.626619
377.991404	2535.597041
378.377329	2537.242978
378.763191	2536.320447
379.148991	2535.730632
379.534727	2536.902700
379.920402	2536.953111
380.306013	2535.604603
380.691563	2536.811959
381.077049	2538.205838
381.462474	2534.351876
381.847835	2539.085519
382.233134	2539.433359
382.618371	2537.389171
383.003545	2542.052238
383.388657	2540.784388
383.773706	2539.203987
384.158693	2537.865560
384.543618	2541.883360
384.928480	2536.791794
385.313280	2539.992927
385.698017	2539.571991
386.082692	2539.952598
386.467305	2541.621220
386.851856	2539.864378
387.236344	2538.276414
387.620770	2537.956301
388.005133	2536.590148
388.389435	2535.808769
388.773674	2536.023018
389.157851	2540.565098
389.541965	2542.493339
389.926018	2542.745397
390.310008	2543.226827
390.693936	2542.750438
391.077802	2544.096426
391.461606	2546.359904
391.845348	2541.437218
392.229027	2544.073741
392.612645	2544.605583
392.996200	2540.958308
393.379694	2542.856302
393.763125	2542.999975
394.146494	2542.831097
394.529801	2545.601211
394.913047	2545.465100
395.296230	2543.695655
395.679351	2544.192208
396.062410	2543.403268
396.445408	2544.519883
396.828343	2544.313196
397.211217	2543.476364
397.594028	2545.220604
397.976778	2545.893598
398.359466	2545.734801
398.742092	2547.048022
399.124656	2546.296890
399.507158	2545.480223
399.889598	2548.930893
400.271977	2545.255892
400.654294	2546.324616
401.036549	2548.126829
401.418742	2546.019627
401.800874	2547.579864
402.182944	2547.826880
402.564952	2549.319062
402.946898	2548.915769
403.328783	2547.884853
403.710606	2546.848896
404.092367	2549.661860
404.474067	2549.805533
404.855705	2548.436860
405.237282	2548.681356
405.618797	2548.799823
406.000250	2550.123126
406.381642	2550.624721
406.762972	2547.123639
407.144240	2547.050542
407.525447	2549.482899
407.906593	2547.857127
408.287677	2550.680173
408.668700	2548.381407
409.049661	2549.172868
409.430560	2551.370811
409.811399	2552.374001
410.192176	2552.502550
410.572891	2553.175544
410.953545	2552.313507
411.334138	2554.418189
411.714669	2552.772252
412.095139	2554.050185
412.475547	2550.602035
412.855894	2553.616645
413.236180	2551.968188
413.616405	2553.286450
413.996568	2553.977088
414.376670	2554.778631
414.756711	2553.679660
415.136691	2554.713096
415.516609	2553.311656
415.896466	2554.435833
416.276262	2553.276367
416.655997	2556.681667
417.035670	2552.742005
417.415283	2552.442057
417.794834	2551.640513
418.174324	2555.754095
418.553753	2553.306614
418.933121	2555.960782
419.312428	2555.733930
419.691674	2557.715103
420.070859	2555.623025
420.449983	2556.427089
420.829045	2557.977243
421.208047	2556.033879
421.586988	2555.481872
421.965867	2554.980278
422.344686	2556.497665
422.723444	2557.773077
423.102141	2557.982285
423.480777	2555.139074
423.859352	2557.649568
424.237866	2558.793910
424.616319	2556.923642
424.994712	2557.274002
425.373044	2558.027655
425.751314	2554.178734
426.129524	2552.981460
426.507673	2557.379867
426.885762	2551.617828
427.263789	2559.126627
427.641756	2557.639486
428.019662	2556.689229
428.397508	2556.500185
428.775292	2561.538819
429.153016	2557.578992
429.530679	2558.161246
429.908282	2559.512275
430.285824	2560.596123
430.663305	2560.487738
431.040726	2558.504044
431.418086	2557.253838
431.795385	2560.883469
432.172624	2557.379867
432.549802	2557.921791
432.926920	2561.944632
433.303977	2556.558159
433.680974	2557.412634
434.057910	2560.031514
434.434786	2558.771225
434.811601	2560.661658
435.188355	2557.463046
435.565050	2559.842470
435.941683	2560.853222
436.318257	2558.924980
436.694770	2558.612429
437.071222	2560.485217
437.447614	2557.213509
437.823946	2560.238201
438.200218	2562.458829
438.576429	2562.073181
438.952580	2559.129147
439.328670	2560.996895
439.704700	2558.546894
440.080670	2560.061761
440.456580	2559.040927
440.832429	2564.422359
441.208218	2560.500341
441.583947	2563.572924
441.959616	2561.556463
442.335224	2560.757440
442.710773	2562.534447
443.086261	2562.703325
443.461689	2563.867832
443.837057	2559.401369
444.212365	2564.752554
444.587612	2560.991853
444.962800	2561.939590
445.337927	2560.840619
445.712995	2558.196534
446.088002	2563.913202
446.462949	2563.464539
446.837837	2563.875393
447.212664	2565.286917
447.587431	2564.122410
447.962139	2563.519992
448.336786	2563.149467
448.711374	2563.497307
449.085901	2564.412276
449.460369	2563.058727
449.834776	2562.731052
450.209124	2566.070816
450.583412	2563.078891
450.957640	2564.863460
451.331808	2565.702812
451.705917	2563.552760
452.079965	2567.326063
452.453954	2563.625856
452.827883	2563.298181
453.201752	2566.983265
453.575562	2566.017884
453.949311	2564.099725
454.323001	2563.666186
454.696632	2562.844477
455.070202	2564.412276
455.443713	2565.077709
455.817164	2564.926474
456.190556	2565.279355
456.563888	2566.874880
456.937160	2567.071485
457.310373	2566.466547
457.683526	2566.012843
458.056619	2565.438151
458.429653	2564.868501
458.802628	2568.659448
459.175542	2567.106773
459.548398	2569.909655
459.921194	2565.735579
460.293930	2568.414952
460.666607	2566.421176
461.039224	2566.464026
461.411782	2567.026115
461.784280	2566.892524
462.156719	2569.002247
462.529099	2570.222206
462.901419	2566.343038
463.273680	2566.622822
463.645882	2563.966134
464.018024	2566.370765
464.390106	2563.300702
464.762130	2568.016701
465.134094	2569.982751
465.505999	2570.940571
465.877845	2569.234140
466.249631	2572.132803
466.621358	2573.100705
466.993026	2572.591548
467.364634	2576.377455
467.736184	2572.067268
468.107674	2574.446693
468.479105	2571.172464
468.850477	2571.210272
469.221790	2574.111456
469.593043	2570.804459
469.964238	2575.230592
470.335373	2570.007957
470.706449	2572.616754
471.077467	2572.546178
471.448425	2574.431570
471.819324	2575.712023
472.190164	2579.288721
472.560945	2577.093299
472.931667	2572.745304
473.302330	2574.071127
473.672934	2573.839234
474.043479	2574.605489
474.413965	2574.771847
474.784393	2574.902917
475.154761	2577.279822
475.525070	2573.932495
475.895321	2576.130438
476.265513	2573.015005
476.635645	2574.368555
477.005719	2574.038360
477.375734	2577.801581
477.745691	2576.231262
478.115588	2576.647157
478.485427	2576.332085
478.855207	2575.724626
479.224928	2576.667321
479.594591	2577.625141
479.964194	2577.673032
480.333739	2582.056315
480.703226	2579.800398
481.072653	2579.394586
481.442022	2577.249575
481.811333	2579.233269
482.180584	2576.584142
482.549777	2578.721592
482.918912	2574.623133
483.287988	2581.093454
483.657005	2582.333578
484.025964	2579.636561
484.394864	2578.656057
484.763706	2580.342323
485.132489	2579.714699
485.501213	2579.223186
485.869879	2584.546645
486.238487	2579.686972
486.607036	2580.412899
486.975527	2580.942220
487.343959	2579.744946
487.712333	2580.695203
488.080648	2580.135635
488.448905	2580.808629
488.817104	2579.510532
489.185244	2582.005903
489.553326	2581.688311
489.921350	2582.474731
490.289315	2582.530183
490.657222	2583.782910
491.025070	2586.573189
491.392861	2586.043867
491.760593	2585.408682
492.128267	2586.855493
492.495883	2584.380287
492.863440	2582.673856
493.230939	2583.054463
493.598380	2584.465986
493.965763	2583.056984
494.333088	2580.483475
494.700354	2584.453383
495.067563	2583.591346
495.434713	2584.103023
495.801805	2583.949268
496.168839	2582.310893
496.535815	2582.719227
496.902733	2583.767787
497.269593	2585.496902
497.636395	2582.852817
498.003139	2582.230235
498.369825	2581.716037
498.736453	2581.244689
499.103023	2585.375915
499.469535	2585.683425
499.835989	2583.785431
500.202385	2581.569843
500.568723	2579.533217
500.935003	2583.094792
501.301226	2579.250913
501.667390	2583.278795
502.033497	2588.088055
502.399546	2585.572520
502.765537	2587.233580
503.131470	2585.461614
503.497345	2584.206367
503.863163	2586.979002
504.228923	2588.193920
504.594625	2587.546131
504.960269	2586.605956
505.325856	2588.193920
505.691385	2587.379773
506.056856	2592.720876
506.422270	2589.665937
506.787625	2587.740216
507.152924	2586.923549
507.518164	2590.512850
507.883347	2587.997315
508.248472	2590.316245
508.613540	2591.405135
508.978550	2594.893613
509.343503	2589.010587
509.708398	2591.556369
510.073236	2589.754157
510.438016	2590.926225
510.802738	2594.109714
511.167403	2596.884869
511.532010	2593.870259
511.896561	2596.479056
512.261053	2596.577358
512.625488	2598.288830
512.989866	2597.651124
513.354186	2601.048862
513.718449	2600.574993
514.082655	2600.106166
514.446803	2602.112545
514.810894	2601.827720
515.174927	2605.616147
515.538904	2603.629933
515.902822	2602.273862
516.266684	2604.829727
516.630488	2605.404419
516.994235	2603.186311
517.357925	2606.100098
517.721558	2609.835593
518.085133	2609.787702
518.448651	2605.560695
518.812112	2605.437186
519.175516	2610.473299
519.538863	2605.354007
519.902152	2611.040429
520.265385	2614.690224
520.628560	2617.178034
520.991678	2615.211984
521.354739	2613.984463
521.717743	2615.131325
522.080690	2619.549897
522.443580	2620.134670
522.806413	2621.725154
523.169189	2619.237345
523.531908	2624.011318
523.894569	2619.214660
524.257174	2623.688684
524.619722	2622.554424
524.982213	2623.305556
525.344647	2626.859570
525.707025	2626.536936
526.069345	2630.038017
526.431608	2626.330248
526.793815	2627.618263
527.155964	2630.373254
527.518057	2627.257821
527.880093	2631.872997
528.242072	2632.402318
528.603995	2635.089253
528.965860	2635.981537
529.327669	2636.054634
529.689421	2637.375417
530.051117	2638.824748
530.412755	2634.138996
530.774337	2640.102681
531.135862	2637.103194
531.497331	2641.473875
531.858743	2640.974800
532.220098	2641.604945
532.581396	2645.889925
532.942638	2642.615696
533.303824	2645.577374
533.664953	2649.181799
534.026025	2647.571150
534.387040	2649.413692
534.747999	2651.498209
535.108902	2654.482572
535.469748	2650.033754
535.830537	2653.562562
536.191270	2657.683705
536.551947	2650.389155
536.912567	2655.155566
537.273131	2656.317552
537.633638	2655.561379
537.994089	2660.665547
538.354483	2661.144457
538.714821	2665.888183
539.075103	2662.503048
539.435328	2665.222750
539.795497	2665.298368
540.155609	2669.391785
540.515665	2668.000426
540.875665	2671.309944
541.235609	2669.296003
541.595496	2671.236847
541.955328	2671.907320
542.315102	2677.785306
542.674821	2677.233299
543.034483	2677.094668
543.394090	2681.293949
543.753640	2680.585667
544.113134	2687.126564
544.472571	2687.330731
544.831953	2690.615042
545.191278	2690.796524
545.550548	2692.213088
545.909761	2696.251052
546.268918	2699.253059
546.628019	2700.215920
546.987064	2701.360262
547.346053	2700.944367
547.704986	2704.780685
548.063863	2709.531972
548.422684	2709.232023
548.781449	2708.412836
549.140158	2715.725030
549.498811	2717.116388
549.857408	2716.080431
550.215949	2721.754250
550.574434	2721.121585
550.932864	2730.520816
551.291237	2730.898903
551.649555	2731.967627
552.007817	2739.927609
552.366022	2739.834348
552.724173	2740.025912
553.082267	2747.196953
553.440305	2750.501429
553.798288	2753.705083
554.156215	2759.898140
554.514086	2761.980137
554.871902	2757.967378
555.229661	2763.638676
555.587365	2767.495159
555.945014	2776.728032
556.302606	2784.269598
556.660143	2789.398972
557.017625	2795.629839
557.375050	2798.147895
557.732421	2806.717857
558.089735	2810.488640
558.446994	2814.493836
558.804197	2824.434992
559.161345	2828.672082
559.518437	2831.245591
559.875474	2841.728670
560.232455	2845.748990
560.589381	2855.629652
560.946251	2857.941021
561.303065	2871.370655
561.659825	2884.207953
562.016528	2885.957233
562.373177	2890.491751
562.729770	2896.856208
563.086307	2913.313055
563.442789	2924.776638
563.799216	2929.916095
564.155587	2938.198711
564.511904	2953.586833
564.868164	2956.356947
565.224370	2972.496201
565.580520	2975.442755
565.936615	2994.705004
566.292654	2993.353975
566.648638	3017.067563
567.004567	3022.393542
567.360441	3033.796632
567.716260	3042.172509
568.072023	3068.734348
568.427732	3076.903538
568.783385	3086.693459
569.138982	3107.712550
569.494525	3128.041003
569.850013	3141.180770
570.205445	3156.488234
570.560823	3160.652227
570.916145	3185.759694
571.271412	3196.570448
571.626625	3219.890826
571.981782	3237.239957
572.336884	3246.467789
572.691931	3266.017383
573.046923	3270.183897
573.401860	3296.367650
573.756743	3329.818227
574.111570	3339.892973
574.466342	3357.700848
574.821059	3384.330744
575.175722	3388.267885
575.530330	3419.202925
575.884882	3437.817386
576.239380	3463.615491
576.593823	3485.748677
576.948211	3501.343486
577.302544	3517.046680
577.656823	3534.743651
578.011047	3567.400246
578.365216	3590.314810
578.719330	3617.441259
579.073389	3635.634783
579.427394	3685.844676
579.781344	3682.688913
580.135239	3719.953123
580.489080	3738.691092
580.842866	3751.203235
581.196597	3816.801250
581.550273	3825.524967
581.903895	3876.687637
582.257463	3916.510232
582.610975	3929.244186
582.964434	3981.004233
583.317837	4001.108355
583.671186	4044.825241
584.024481	4091.392900
584.377721	4095.118312
584.730906	4141.128924
585.084037	4184.419832
585.437113	4205.355744
585.790135	4258.426491
586.143103	4260.324486
586.496016	4284.635450
586.848874	4365.051936
587.201679	4385.748393
587.554428	4396.274323
587.907124	4475.097804
588.259765	4492.419209
588.612352	4559.486720
588.964884	4556.605700
589.317362	4614.273980
589.669786	4661.111340
590.022155	4701.440571
590.374470	4774.565028
590.726731	4797.852638
591.078937	4811.567097
591.431090	4863.102813
591.783188	4870.639338
592.135232	4900.850973
592.487222	4978.308302
592.839157	5017.941853
593.191038	5062.112443
593.542866	5071.874638
593.894639	5100.145428
594.246358	5174.494886
594.598022	5200.529925
594.949633	5220.775199
595.301190	5245.091204
595.652692	5326.894008
596.004141	5404.031223
596.355535	5349.904355
596.706876	5397.631479
597.058162	5433.738743
597.409395	5499.954299
597.760573	5580.433799
598.111698	5584.905303
598.462768	5629.607735
598.813785	5666.839176
599.164748	5681.229150
599.515657	5735.081276
599.866511	5748.261373
600.217312	5854.428073
600.568060	5822.441952
600.918753	5945.788904
601.269392	5997.750597
601.619978	5985.656869
601.970510	6102.452842
602.320988	6125.637108
602.671412	6224.796605
603.021783	6255.819865
603.372100	6247.917857
603.722363	6344.650037
604.072572	6388.480349
604.422728	6449.082580
604.772830	6485.252859
605.122878	6489.739486
605.472872	6570.801240
605.822813	6630.828779
606.172701	6675.440470
606.522534	6780.921573
606.872314	6840.127405
607.222041	6836.709503
607.571714	6958.281969
607.921333	6986.020918
608.270899	7064.529327
608.620411	7191.241250
608.969870	7147.557131
609.319276	7216.177317
609.668627	7310.272974
610.017926	7401.409474
610.367171	7487.593040
610.716362	7596.061027
611.065500	7565.675472
611.414585	7674.546751
611.763616	7736.948674
612.112594	7797.311450
612.461518	7821.652662
612.810389	7948.117567
613.159207	7952.682332
613.507971	7987.615008
613.856682	8181.515429
614.205340	8212.528607
614.553945	8351.709824
614.902496	8282.295656
615.250994	8467.411866
615.599439	8497.931012
615.947830	8548.415647
616.296169	8607.903783
616.644454	8685.870268
616.992686	8699.816620
617.340864	8863.780149
617.688990	8855.976443
618.037063	8995.550870
618.385082	8994.724120
618.733048	9152.446701
619.080961	9158.569182
619.428821	9256.342361
619.776628	9298.816603
620.124382	9307.991503
620.472083	9397.703877
620.819731	9480.204880
621.167326	9395.165656
621.514868	9464.123599
621.862357	9436.561090
622.209793	9492.681736
622.557176	9484.615889
622.904506	9448.344787
623.251783	9469.920926
623.599007	9452.458369
623.946179	9481.830652
624.293297	9516.700313
624.640363	9459.629410
624.987376	9501.251697
625.334336	9450.048698
625.681243	9448.967370
626.028097	9488.248041
626.374899	9556.817815
626.721647	9506.721349
627.068343	9480.920724
627.414987	9504.319239
627.761577	9574.565198
628.108115	9652.884564
628.454600	9542.896669
628.801032	9622.592270
629.147412	9646.996496
629.493739	9707.208037
629.840014	9679.877422
630.186236	9762.199464
630.532405	9694.534577
630.878521	9845.746507
631.224585	9837.151340
631.570597	9807.980703
631.916556	9841.343059
632.262462	9878.017453
632.608316	9908.531558
632.954117	9915.866436
633.299866	9968.412903
633.645562	9980.085695
633.991206	9870.813644
634.336797	9822.368156
634.682336	9880.154903
635.027823	9843.649387
635.373257	9853.298155
635.718639	9808.058841
636.063968	9828.432664
636.409245	9739.917564
636.754470	9795.072828
637.099642	9753.125387
637.444762	9646.043718
637.789829	9733.245597
638.134845	9673.369292
638.479808	9726.820647
638.824719	9741.762627
639.169577	9677.956742
639.514383	9752.603628
639.859137	9672.257718
640.203839	9769.423438
640.548489	9684.580818
640.893086	9740.398994
641.237632	9657.182147
641.582125	9825.622221
641.926566	9756.571016
642.270955	9788.509246
642.615292	9805.157657
642.959576	9838.399025
643.303809	9914.086909
643.647990	9884.943999
643.992118	9984.776489
644.336195	9843.503193
644.680219	10006.168625
645.024192	10008.265745
645.368112	10185.820225
645.711981	10276.634091
646.055797	10415.969062
646.399562	10435.795921
646.743274	10621.348191
647.086935	10872.455626
647.430544	10873.327745
647.774101	10900.572661
648.117606	11065.809081
648.461059	11056.092257
648.804460	11124.586415
649.147810	10965.966509
649.491108	10898.309183
649.834354	10975.030503
650.177548	10795.114243
650.520690	10688.309837
650.863781	10659.698769
651.206820	10720.931144
651.549807	10622.948757
651.892742	10531.482062
652.235626	10508.411221
652.578458	10542.275172
652.921238	10333.505868
653.263967	10501.305715
653.606644	10409.750799
653.949269	10406.655531
654.291843	10316.307972
654.634365	10440.688360
654.976836	10362.863027
655.319255	10401.755529
655.661622	10396.185054
656.003938	10358.358756
656.346203	10323.794085
656.688416	10402.660416
657.030577	10397.157997
657.372687	10372.955417
657.714746	10368.189006
658.056753	10535.865345
658.398708	10437.151991
658.740612	10451.841913
659.082465	10559.057173
659.424266	10537.201251
659.766016	10587.764024
660.107715	10540.316684
660.449362	10610.630698
660.790958	10612.790832
661.132503	10591.779303
661.473996	10657.626854
661.815438	10701.767197
662.156829	10719.731349
662.498168	10738.010573
662.839456	10748.813766
663.180693	10786.718202
663.521879	10883.712522
663.863013	10893.888091
664.204097	10898.251210
664.545129	11001.252065
664.886110	10994.343164
665.227040	11074.346275
665.567918	11108.031265
665.908746	11167.201809
666.249522	11157.041363
666.590248	11214.709642
666.930922	11325.962867
667.271545	11335.500730
667.612118	11417.485015
667.952639	11361.399658
668.293109	11380.992102
668.633528	11373.097655
668.973896	11371.711338
669.314213	11478.873666
669.654480	11271.241142
669.994695	11335.445277
670.334859	11378.572348
670.674973	11357.366735
671.015035	11412.650548
671.355047	11375.862728
671.695008	11359.370593
672.034918	11384.130220
672.374777	11433.866244
672.714585	11375.114117
673.054342	11414.041907
673.394049	11388.901672
673.733705	11485.432207
674.073310	11422.485839
674.412864	11460.428084
674.752368	11368.797551
675.091820	11377.606967
675.431223	11399.276367
675.770574	11300.245420
676.109875	11248.850857
676.449125	11234.294525
676.788324	11185.102946
677.127473	11057.846579
677.466571	11059.989069
677.805619	10992.727474
678.144616	10924.712226
678.483562	10917.047152
678.822458	10801.748402
679.161303	10800.639348
679.500098	10807.792745
679.838842	10777.588672
680.177535	10796.795468
680.516179	10864.520849
680.854771	10827.917031
681.193314	11038.017200
681.531805	11173.515854
681.870247	11544.789273
682.208638	11902.867472
682.546978	12203.547093
682.885268	12292.180660
683.223508	12028.119980
683.561697	11885.795604
683.899836	11804.517081
684.237925	11633.049794
684.575963	11565.742829
684.913951	11518.666014
685.251889	11458.709050
685.589776	11560.830224
685.927614	11503.565237
686.265401	11466.759773
686.603137	11512.457833
686.940824	11661.184474
687.278460	11767.401586
687.616046	11821.533496
687.953582	11986.109525
688.291068	11905.866958
688.628504	12107.392124
688.965889	12126.815690
689.303224	12124.645473
689.640510	12042.167155
689.977745	11779.807865
690.314930	11574.499313
690.652065	11509.639828
690.989150	11247.351114
691.326185	11036.429237
691.663170	10859.431805
692.000105	10635.065170
692.336990	10557.514580
692.673825	10329.770373
693.010610	10215.205111
693.347345	10025.219146
693.684030	9834.010701
694.020665	9794.455287
694.357251	9613.765210
694.693786	9578.966125
695.030272	9410.016895
695.366707	9300.704515
695.703093	9241.791070
696.039429	9240.656811
696.375716	9179.857975
696.711952	9057.725941
697.048139	9085.598480
697.384276	9047.857882
697.720363	9062.436899
698.056400	9006.338939
698.392388	8966.327301
698.728326	8933.159029
699.064214	8869.280048
699.400053	8928.717773
699.735842	8749.789578
700.071581	8714.690545
700.407270	8649.926841
700.742910	8572.366169
701.078501	8494.407245
701.414042	8379.557158
701.749533	8312.172054
702.084974	8184.033485
702.420366	8286.769680
702.755709	8185.492899
703.091002	8061.659476
703.426246	8083.326355
703.761440	8040.912607
704.096584	7994.349989
704.431679	7932.646266
704.766725	7925.099659
705.101721	7880.576188
705.436668	7920.703773
705.771565	7820.266344
706.106413	7896.571769
706.441212	7950.736447
706.775961	7903.624344
707.110661	7931.703571
707.445311	8082.872651
707.779913	7982.228535
708.114465	8107.097916
708.448967	8155.598857
708.783421	8279.800285
709.117825	8461.995147
709.452180	8496.950507
709.786485	8585.891585
710.120742	8856.591464
710.454949	8858.370991
710.789107	8954.669633
711.123216	9149.240527
711.457275	9313.138521
711.791286	9473.568201
712.125247	9459.405079
712.459159	9460.214184
712.793023	9710.089057
713.126837	9299.666037
713.460602	9439.666441
713.794318	9272.095967
714.127985	9303.174680
714.461602	9008.738528
714.795171	8961.490314
715.128691	8728.770487
715.462162	8477.353022
715.795584	8421.154239
716.128957	8299.092781
716.462281	8125.200699
716.795556	8174.699789
717.128782	7983.768607
717.461960	7709.970939
717.795088	7778.545755
718.128167	7687.288267
718.461198	7531.549381
718.794180	7464.834751
719.127113	7465.734597
719.459997	7329.184863
719.792833	7094.839265
720.125619	7150.307080
720.458357	7016.625763
720.791046	7000.252095
721.123686	7007.841552
721.456278	6851.417069
721.788821	6872.479010
722.121315	6761.543378
722.453761	6821.553273
722.786158	6775.066273
723.118506	6784.888962
723.450805	6755.302430
723.783056	6830.357649
724.115259	6723.838068
724.447412	6724.198510
724.779518	6772.855727
725.111574	6773.138032
725.443582	6853.161308
725.775542	6832.986610
726.107453	7016.444281
726.439315	6932.090654
726.771129	6983.775084
727.102895	7144.726523
727.434612	7264.264884
727.766281	7283.980836
728.097901	7365.433280
728.429473	7353.826023
728.760996	7327.932136
729.092471	7305.650236
729.423897	7267.869309
729.755276	7279.431195
730.086606	7217.427523
730.417887	7312.329765
730.749120	7480.255641
731.080305	7667.116090
731.411442	7811.698903
731.742530	7805.510887
732.073570	7916.670850
732.404562	7991.330338
732.735506	7840.062955
733.066401	7983.085531
733.397249	7920.459277
733.728048	7690.320522
734.058798	7363.096705
734.389501	7143.773745
734.720156	6968.969215
735.050762	6733.070941
735.381320	6634.738194
735.711831	6594.207317
736.042293	6485.734289
736.372707	6511.456777
736.703073	6373.308997
737.033391	6407.982053
737.363661	6418.031593
737.693883	6435.771414
738.024056	6513.810996
738.354182	6569.109933
738.684260	6615.700277
739.014290	6708.702003
739.344272	6817.210319
739.674207	6842.942889
740.004093	6909.102992
740.333931	6931.331960
740.663722	6936.660460
740.993464	7013.757346
741.323159	7015.413365
741.652806	6764.391630
741.982405	6754.730259
742.311956	6819.443551
742.641460	6680.189237
742.970915	6487.286965
743.300323	6478.626262
743.629683	6417.247694
743.958996	6292.922758
744.288260	6205.945210
744.617477	6153.497045
744.946647	6163.846534
745.275768	5999.154558
745.604842	5951.888700
745.933869	5932.318941
746.262847	5887.200614
746.591778	5879.699377
746.920662	5841.454663
747.249498	5825.874977
747.578286	5875.918512
747.907027	5944.052226
748.235720	6006.580178
748.564365	5978.929449
748.892963	5995.144321
749.221514	6156.068034
749.550017	6010.446743
749.878473	5873.660075
750.206881	5917.790335
750.535242	5867.131780
750.863555	5803.063756
751.191821	5822.383978
751.520039	5828.047715
751.848210	5734.204115
752.176334	5750.139203
752.504411	5804.835722
752.832440	5729.576336
753.160421	5655.536909
753.488356	5704.993149
753.816243	5745.564355
754.144082	5596.318475
754.471875	5562.812446
754.799620	5607.310711
755.127318	5621.194049
755.454969	5566.139608
755.782572	5535.121388
756.110129	5578.339200
756.437638	5573.315690
756.765100	5512.426113
757.092515	5501.524618
757.419882	5544.177821
757.747203	5531.592580
758.074477	5597.389720
758.401703	5592.714050
758.728882	5535.978384
759.056014	5577.419189
759.383099	5720.963525
759.710138	5731.491974
760.037129	5708.501792
760.364073	5713.875662
760.690970	5801.412778
761.017820	5788.199914
761.344623	5734.151183
761.671379	5827.427653
761.998088	5938.635507
762.324751	6162.122459
762.651366	6723.512913
762.977935	7974.117318
763.304456	9562.660513
763.630931	10487.497994
763.957359	10161.907512
764.283740	9245.524045
764.610074	8441.482692
764.936362	7474.569219
765.262602	6878.858590
765.588796	6341.998390
765.914943	5999.336040
766.241044	5843.763512
766.567097	5657.780223
766.893104	5398.649792
767.219064	5217.778233
767.544978	5155.139376
767.870845	5088.666721
768.196665	4977.441223
768.522438	4904.841046
768.848165	4878.216192
769.173846	4811.793949
769.499479	4774.338176
769.825066	4715.424732
770.150607	4655.046832
770.476101	4628.568171
770.801548	4631.713851
771.126949	4563.953182
771.452303	4508.281199
771.777611	4465.597750
772.102872	4476.610150
772.428087	4444.009008
772.753256	4407.712701
773.078378	4363.093448
773.403453	4295.340340
773.728482	4285.744504
774.053465	4234.072677
774.378401	4225.570771
774.703291	4227.161255
775.028135	4160.673477
775.352932	4107.668265
775.677683	4094.248713
776.002388	4115.862661
776.327046	4128.372284
776.651658	4051.169533
776.976224	3992.021675
777.300743	3991.976305
777.625216	4013.222248
777.949643	4013.900283
778.274024	3971.289930
778.598359	3922.713372
778.922647	3935.003705
779.246889	3939.112245
779.571086	3934.285340
779.895236	3921.556427
780.219339	3906.027152
780.543397	3893.121798
780.867409	3946.878142
781.191374	3959.798620
781.515294	3900.507089
781.839167	3899.161101
782.162995	3912.434459
782.486776	3901.994229
782.810511	3905.565887
783.134201	3911.229623
783.457844	3871.631360
783.781441	3809.204231
784.104993	3811.409736
784.428498	3835.438396
784.751958	3830.649299
785.075372	3813.269922
785.398739	3776.633336
785.722061	3783.164151
786.045337	3826.409689
786.368568	3866.146584
786.691752	3773.628808
787.014891	3820.703103
787.337983	3935.245680
787.661030	4089.658743
787.984031	4249.460799
788.306987	4427.088376
788.629897	4503.025797
788.952760	4457.970484
789.275579	4392.349784
789.598351	4334.560517
789.921078	4205.857339
790.243759	4005.307636
790.566395	3979.955673
790.888984	3978.584480
791.211529	3871.495248
791.534027	3813.408553
791.856480	3811.071978
792.178888	3745.602513
792.501249	3692.433464
792.823566	3703.990309
793.145836	3736.505751
793.468062	3686.759645
793.790241	3636.433806
794.112375	3668.951769
794.434464	3727.640882
794.756507	3750.673914
795.078505	3740.992378
795.400457	3767.579424
795.722364	3899.193868
796.044226	3999.734641
796.366042	4073.559818
796.687812	4057.851583
797.009538	4069.869693
797.331218	4021.164586
797.652852	3989.256602
797.974442	3971.610043
798.295986	3974.899396
798.617484	3900.086152
798.938938	3810.658604
799.260346	3850.639995
799.581709	3848.242926
799.903026	3777.364303
800.224299	3741.451123
800.545526	3735.356368
800.866708	3697.328424
801.187845	3636.917757
801.508936	3669.130730
801.829983	3673.511493
802.150984	3595.545007
802.471940	3582.296855
802.792851	3597.868979
803.113717	3591.378494
803.434538	3596.775049
803.755314	3547.109601
804.076045	3513.596011
804.396731	3529.132847
804.717372	3557.708627
805.037967	3547.911145
805.358518	3535.545194
805.679024	3560.629976
805.999485	3571.962490
806.319901	3575.387954
806.640272	3591.796910
806.960598	3608.505814
807.280879	3581.172678
807.601115	3591.040737
807.921306	3604.251080
808.241453	3646.170795
808.561554	3627.851242
808.881611	3560.256931
809.201623	3595.204730
809.521590	3607.122017
809.841513	3581.492791
810.161390	3605.536574
810.481223	3594.569544
810.801011	3536.470246
811.120755	3521.117412
811.440453	3557.567475
811.760107	3565.061150
812.079716	3526.670243
812.399281	3491.145232
812.718801	3511.554343
813.038276	3486.255313
813.357707	3482.552585
813.677093	3500.761233
813.996434	3455.020323
814.315731	3456.923359
814.634983	3462.319914
814.954191	3471.595637
815.273354	3503.080164
815.592473	3505.351203
815.911547	3503.435565
816.230577	3538.199362
816.549562	3590.455963
816.868502	3636.529588
817.187399	3656.910973
817.506250	3654.488699
817.825058	3625.214718
818.143821	3710.768140
818.462539	3812.851506
818.781213	3857.906818
819.099843	3907.315167
819.418429	4132.132985
819.736970	4369.899006
820.055466	4603.425417
820.373919	4954.493891
820.692327	5353.907031
821.010691	5753.146251
821.329011	7017.003849
821.647286	9583.024254
821.965517	13928.456019
822.283704	17921.735462
822.601847	20218.873323
822.919945	18510.582561
823.237999	16049.715584
823.556010	13616.247279
823.873976	11609.179931
824.191897	9556.895953
824.509775	8211.777475
824.827609	7100.906293
825.145398	6541.827208
825.463144	6431.342760
825.780845	6544.131016
826.098502	6708.316355
826.416116	7498.615523
826.733685	8762.798276
827.051210	9884.006344
827.368692	10017.193629
827.686129	8845.238785
828.003522	7347.259920
828.320872	6347.848649
828.638177	5664.474875
828.955439	5120.289879
829.272656	4633.611846
829.589830	4343.042259
829.906960	4175.638142
830.224046	3998.464270
830.541088	3872.291751
830.858086	3823.304338
831.175041	3757.212291
831.491952	3733.327304
831.808819	3744.669900
832.125642	3809.519303
832.442421	3945.892597
832.759157	4203.475394
833.075849	4710.978434
833.392497	5540.812851
833.709101	6296.174302
834.025662	6657.710732
834.342179	6346.038875
834.658653	5701.325710
834.975083	5077.709773
835.291469	4517.463661
835.607811	4105.240949
835.924110	3970.427893
836.240366	3779.163995
836.556578	3574.818303
836.872746	3465.521047
837.188871	3435.800924
837.504952	3369.171994
837.820990	3293.262299
838.136984	3239.488311
838.452935	3262.725510
838.768842	3260.167124
839.084706	3281.055145
839.400526	3424.440684
839.716303	3734.940473
840.032037	4227.662850
840.347727	4517.403167
840.663373	4274.142288
840.978977	3904.403901
841.294537	3604.619084
841.610054	3378.588869
841.925527	3271.267745
842.240957	3203.796942
842.556344	3150.469096
842.871687	3098.295674
843.186987	3045.620658
843.502244	3010.756038
843.817458	2976.609782
844.132629	2942.067796
844.447756	2952.117336
844.762840	2940.865481
845.077881	2907.016653
845.392879	2891.477297
845.707833	2888.903788
846.022745	2883.900443
846.337613	2888.102244
846.652438	2875.723691
846.967221	2872.610778
847.281960	2856.519415
847.596656	2855.496061
847.911309	2854.926411
848.225919	2846.454752
848.540485	2843.752693
848.855009	2846.863085
849.169490	2835.699450
849.483928	2824.535815
849.798323	2824.906340
850.112675	2820.031544
850.426984	2832.722649
850.741251	2830.781804
851.055474	2821.198571
851.369654	2812.686583
851.683792	2820.114723
851.997887	2828.218378
852.311938	2828.954386
852.625947	2819.398879
852.939914	2820.880978
853.253837	2828.861125
853.567718	2814.145997
853.881555	2809.150213
854.195350	2824.624035
854.509103	2821.949703
854.822812	2815.494505
855.136479	2814.206491
855.450103	2814.529124
855.763685	2806.881694
856.077224	2798.790642
856.390720	2814.254382
856.704173	2826.486741
857.017584	2816.538024
857.330953	2814.768579
857.644278	2821.042295
857.957561	2833.882114
858.270802	2835.560818
858.584000	2835.891014
858.897155	2821.848880
859.210268	2823.520022
859.523339	2822.118582
859.836367	2819.711431
860.149352	2813.944351
860.462295	2810.528969
860.775195	2819.053560
861.088054	2821.017089
861.400869	2801.953966
861.713642	2795.483645
862.026373	2811.549802
862.339062	2814.481233
862.651708	2820.170176
862.964312	2827.805003
863.276873	2816.545586
863.589392	2825.183603
863.901869	2835.913699
864.214303	2855.501102
864.526696	2874.218907
864.839045	2871.489122
865.151353	2870.047352
865.463619	2866.483256
865.775842	2868.502238
866.088023	2881.757952
866.400162	2893.123233
866.712258	2865.860673
867.024313	2853.461956
867.336325	2861.268182
867.648296	2881.026985
867.960224	2874.854092
868.272110	2862.220960
868.583954	2867.814121
868.895755	2882.844321
869.207515	2868.093905
869.519233	2872.000799
869.830909	2880.164947
870.142542	2891.855383
870.454134	2889.773387
870.765684	2893.957544
871.077191	2892.067112
871.388657	2901.607495
871.700081	2914.351532
872.011463	2924.108686
872.322803	2924.693459
872.634101	2924.441402
872.945357	2940.444545
873.256571	2964.241311
873.567744	2958.476752
873.878874	2949.760597
874.189963	2974.376551
874.501010	2976.924854
874.812015	2963.545632
875.122979	2966.693833
875.433900	2962.171918
875.744780	2965.801548
876.055618	2970.560398
876.366415	2973.708598
876.677169	2981.603045
876.987882	2981.895432
877.298554	2971.132569
877.609183	2990.518326
877.919771	3013.279135
878.230317	3036.798639
878.540822	3088.092379
878.851285	3124.754170
879.161707	3160.110303
879.472087	3251.279570
879.782425	3455.229531
880.092722	3864.518292
880.402977	4369.241135
880.713191	4962.486640
881.023363	6045.661723
881.333494	7285.467977
881.643583	7860.189762
881.953631	7584.259686
882.263637	7007.080338
882.573602	6453.642304
882.883526	5890.633640
883.193408	5331.587322
883.503248	4872.968351
883.813048	4579.331222
884.122806	4300.885610
884.432522	3996.951924
884.742197	3769.757202
885.051831	3581.018923
885.361424	3446.447841
885.670975	3379.176164
885.980485	3302.737148
886.289954	3225.269737
886.599382	3186.309179
886.908768	3148.077069
887.218113	3104.130810
887.527417	3052.249775
887.836680	3001.560973
888.145901	2996.214830
888.455082	2991.569406
888.764221	2942.387909
889.073319	2912.345153
889.382376	2912.466141
889.691392	2913.746594
890.000366	2914.023857
890.309300	2902.131775
890.618193	2911.500760
890.927044	2931.241918
891.235855	2935.201745
891.544625	2913.227355
891.853353	2925.270672
892.162041	2943.202056
892.470687	2980.115905
892.779293	3029.557021
893.087858	3073.210893
893.396381	3137.273876
893.704864	3250.523397
894.013306	3469.654793
894.321707	3759.107765
894.630068	3965.820278
894.938387	3969.071822
895.246665	3921.140532
895.554903	3809.736073
895.863100	3621.186837
896.171256	3458.833956
896.479371	3330.844101
896.787446	3213.211297
897.095480	3113.794702
897.403473	3052.214487
897.711425	3014.375586
898.019336	3006.271932
898.327207	2981.582881
898.635038	2946.748508
898.942827	2930.679830
899.250576	2923.100455
899.558284	2891.328583
899.865952	2871.100953
900.173579	2850.565813
900.481165	2848.108250
900.788711	2837.047959
901.096216	2810.597024
901.403681	2796.965744
901.711105	2804.277938
902.018489	2805.240798
902.325832	2801.661579
902.633135	2809.853454
902.940397	2841.146417
903.247619	2914.404464
903.554800	3087.842842
903.861941	3399.902868
904.169041	3805.904796
904.476101	4114.788895
904.783121	4091.718054
905.090100	3859.693907
905.397039	3598.083228
905.703938	3358.033565
906.010796	3183.019827
906.317614	3071.451530
906.624391	2987.178561
906.931129	2916.320103
907.237826	2856.416072
907.544483	2811.325471
907.851099	2779.125101
908.157675	2762.481732
908.464211	2741.845768
908.770707	2731.047617
909.077163	2717.668394
909.383578	2705.758668
909.689954	2693.415403
909.996289	2690.158818
910.302584	2690.282326
910.608839	2692.550845
910.915054	2688.913653
911.221229	2679.400996
911.527363	2683.040709
911.833458	2691.139322
912.139513	2692.417255
912.445527	2695.535208
912.751502	2705.022660
913.057436	2716.347612
913.363331	2726.218191
913.669186	2742.183526
913.975000	2773.264760
914.280775	2831.366578
914.586510	2896.445354
914.892205	2969.050572
915.197859	3085.400403
915.503475	3265.851025
915.809050	3467.343424
916.114585	3608.712501
916.420081	3637.973879
916.725536	3584.351125
917.030952	3469.997592
917.336328	3352.526104
917.641665	3226.671178
917.946961	3129.066877
918.252218	3064.772001
918.557435	2991.438336
918.862612	2937.354317
919.167750	2888.397152
919.472848	2851.689990
919.777906	2826.252328
920.082925	2799.733338
920.387904	2771.492794
920.692843	2755.794641
920.997743	2746.733167
921.302603	2734.767988
921.607423	2727.095352
921.912204	2714.121943
922.216946	2701.801363
922.521647	2696.493028
922.826310	2684.051460
923.130932	2681.586336
923.435516	2671.441014
923.740059	2665.815086
924.044564	2657.416524
924.349028	2651.909063
924.653454	2646.951088
924.957840	2639.659059
925.262186	2635.961373
925.566493	2632.321660
925.870761	2627.731689
926.174989	2625.697584
926.479178	2620.815226
926.783328	2616.273147
927.087438	2612.948506
927.391509	2613.886160
927.695541	2610.478340
927.999533	2605.913575
928.303486	2604.416353
928.607400	2603.987855
928.911275	2604.464244
929.215110	2603.440889
929.518906	2601.089191
929.822663	2601.169850
930.126381	2599.851588
930.430060	2601.726897
930.733699	2601.994078
931.037299	2603.188832
931.340861	2602.425097
931.644383	2603.370313
931.947866	2602.185642
932.251309	2600.771598
932.554714	2601.401743
932.858080	2598.699684
933.161407	2595.995105
933.464694	2595.922008
933.767943	2590.906060
934.071153	2595.682554
934.374323	2594.981833
934.677455	2594.129878
934.980548	2593.817327
935.283602	2594.029055
935.586617	2590.590988
935.889593	2594.588623
936.192530	2591.758015
936.495428	2593.237594
936.798287	2593.734148
937.101108	2597.446957
937.403890	2603.975252
937.706632	2605.081785
938.009336	2611.683176
938.312002	2622.438478
938.614628	2627.882924
938.917216	2635.666465
939.219765	2634.993471
939.522275	2636.616723
939.824747	2630.390898
940.127179	2633.196300
940.429573	2627.197327
940.731929	2624.712038
941.034246	2621.110134
941.336524	2619.214660
941.638763	2616.439505
941.940964	2612.956067
942.243126	2614.433125
942.545250	2611.080758
942.847335	2610.538834
943.149381	2605.969028
943.451389	2600.159098
943.753359	2599.735641
944.055290	2597.333532
944.357182	2597.993923
944.659036	2598.150198
944.960851	2595.637183
945.262628	2593.184662
945.564367	2595.667430
945.866067	2596.554673
946.167729	2595.954776
946.469352	2594.155084
946.770937	2594.583582
947.072484	2593.610639
947.373992	2593.469487
947.675462	2594.155084
947.976893	2589.749116
948.278286	2584.730647
948.579641	2589.063519
948.880958	2585.398600
949.182236	2588.209043
949.483476	2586.860534
949.784678	2585.950606
950.085841	2585.927921
950.386967	2588.088055
950.688054	2590.482603
950.989103	2587.369691
951.290114	2588.846749
951.591087	2590.691811
951.892021	2593.840012
952.192917	2596.957966
952.493776	2597.993923
952.794596	2598.994592
953.095378	2599.909561
953.396122	2597.303285
953.696828	2593.855135
953.997496	2594.626432
954.298126	2591.662233
954.598718	2591.107707
954.899272	2589.204671
955.199788	2585.270050
955.500266	2584.387848
955.800706	2582.537745
956.101108	2579.034143
956.401472	2575.941395
956.701798	2574.610531
957.002087	2574.918041
957.302337	2575.182702
957.602550	2573.942578
957.902724	2572.135324
958.202861	2570.098698
958.502960	2569.357648
958.803022	2570.479305
959.103045	2567.079047
959.403031	2567.144582
959.702979	2565.082750
960.002889	2565.942267
960.302762	2563.378840
960.602596	2566.562328
960.902393	2567.348748
961.202153	2564.550908
961.501875	2566.111145
961.801559	2562.877245
962.101205	2565.332287
962.400814	2565.491083
962.700385	2565.423028
962.999918	2560.485217
963.299414	2561.201061
963.598873	2558.972871
963.898293	2556.255689
964.197677	2565.148285
964.497022	2560.170145
964.796331	2560.389436
965.095601	2562.189127
965.394835	2561.201061
965.694030	2559.837429
965.993189	2561.541339
966.292309	2559.940773
966.591393	2560.974209
966.890439	2561.964796
967.189447	2562.945301
967.488419	2560.074363
967.787353	2561.185938
968.086249	2557.692418
968.385108	2559.560166
968.683930	2560.034034
968.982714	2563.542677
969.281462	2559.358520
969.580172	2559.885320
969.878844	2559.807182
970.177480	2563.656103
970.476078	2562.685681
970.774639	2560.896072
971.073162	2561.947152
971.371649	2561.349775
971.670098	2561.208623
971.968510	2560.449929
972.266885	2562.037893
972.565223	2561.120403
972.863524	2560.971689
973.161788	2561.347255
973.460014	2558.733417
973.758204	2560.452450
974.056356	2561.538819
974.354471	2561.916905
974.652550	2560.810372
974.950591	2560.638973
975.248595	2561.306926
975.546563	2561.014539
975.844493	2561.470763
976.142386	2563.141906
976.440243	2561.848850
976.738062	2559.406411
977.035845	2560.162584
977.333590	2560.901113
977.631299	2560.896072
977.928971	2559.151832
978.226606	2556.837943
978.524204	2558.743499
978.821765	2556.139743
979.119290	2561.105279
979.416777	2559.819785
979.714228	2561.546380
980.011642	2558.085628
980.309020	2561.480845
980.606360	2558.541853
980.903664	2560.797769
981.200931	2559.187120
981.498162	2562.219374
981.795356	2562.035372
982.092513	2563.711556
982.389633	2563.698953
982.686717	2569.188770
982.983764	2573.309913
983.280775	2576.737897
983.577749	2575.157496
983.874686	2574.093812
984.171587	2573.929975
984.468451	2570.935529
984.765279	2566.511917
985.062070	2569.783626
985.358824	2565.097873
985.655543	2565.400342
985.952224	2561.715259
986.248869	2558.751061
986.545478	2559.787018
986.842050	2559.149312
987.138586	2561.082594
987.435086	2559.106462
987.731549	2558.435988
988.027975	2556.588406
988.324366	2556.296019
988.620719	2557.314332
988.917037	2559.033365
989.213318	2556.555638
989.509563	2556.853066
989.805772	2556.764846
990.101944	2557.447922
990.398080	2554.602191
990.694180	2556.782490
990.990244	2555.126471
991.286271	2555.673436
991.582262	2557.052192
991.878217	2555.784342
992.174136	2558.589744
992.470019	2557.909188
992.765865	2554.080432
993.061676	2552.459701
993.357450	2553.737633
993.653188	2551.910215
993.948890	2556.570762
994.244556	2557.218550
994.540186	2558.105793
994.835780	2558.861966
995.131337	2559.900444
995.426859	2557.921791
995.722345	2561.064950
996.017795	2559.603016
996.313208	2560.165104
996.608586	2560.770043
996.903928	2561.518654
997.199234	2561.503531
997.494504	2562.471432
997.789738	2560.828016
998.084936	2559.718962
998.380099	2559.194682
998.675225	2557.969682
998.970316	2560.195351
999.265371	2559.711400
999.560390	2556.595967
999.855373	2557.233673
1000.150320	2556.043961
1000.445232	2556.774928
1000.740108	2557.420196
1001.034948	2553.682180
1001.329752	2554.950031
1001.624521	2559.232491
1001.919254	2557.672254
1002.213951	2557.221070
1002.508613	2552.966337
1002.803239	2555.723848
1003.097829	2557.647048
1003.392384	2555.819630
1003.686903	2554.440874
1003.981386	2557.067315
1004.275834	2554.624876
1004.570246	2556.873231
1004.864623	2558.163766
1005.158964	2556.727037
1005.453270	2554.299722
1005.747540	2557.092521
1006.041775	2553.629248
1006.335974	2556.603529
1006.630138	2556.129661
1006.924266	2554.566903
1007.218359	2554.907181
1007.512416	2553.326779
1007.806438	2550.682694
1008.100425	2552.041285
1008.394376	2550.039947
1008.688292	2557.974723
1008.982172	2555.522202
1009.276017	2554.944989
1009.569827	2554.657644
1009.863602	2553.646892
1010.157341	2556.956410
1010.451045	2555.920453
1010.744714	2558.758622
1011.038347	2555.312994
1011.331945	2556.154866
1011.625508	2556.106975
1011.919036	2553.881306
1012.212528	2556.255689
1012.505986	2554.602191
1012.799408	2553.742674
1013.092795	2554.367777
1013.386147	2552.910884
1013.679464	2554.133364
1013.972745	2553.515822
1014.265992	2553.714948
1014.559204	2554.198899
1014.852380	2555.779300
1015.145521	2554.037582
1015.438628	2556.139743
1015.731699	2556.192675
1016.024736	2554.524053
1016.317737	2555.063457
1016.610703	2553.914073
1016.903635	2555.872562
1017.196531	2554.554300
1017.489393	2557.503375
1017.782219	2555.398693
1018.075011	2555.809547
1018.367768	2553.727551
1018.660490	2553.097407
1018.953177	2553.097407
1019.245829	2553.097407
