Dividing Wavelength (nm)	Counts (n)	Blue Motor Position (mm): 9.100000	Red Motor Position (mm): 0.000000	
326.493990	2159.673158
326.888308	2159.673158
327.282561	2159.673158
327.676750	2121.194030
328.070874	2114.786724
328.464933	2115.996601
328.858929	2120.458022
329.252859	2126.157046
329.646726	2133.290279
330.040528	2144.103554
330.434265	2159.965544
330.827938	2177.740653
331.221547	2194.459640
331.615091	2210.475385
332.008571	2229.964486
332.401986	2249.423340
332.795338	2269.414036
333.188625	2286.876593
333.581847	2306.189253
333.975006	2322.613332
334.368100	2340.398523
334.761129	2356.842767
335.154095	2376.069728
335.546996	2392.042623
335.939833	2414.601787
336.332606	2432.881011
336.725315	2443.590942
337.117960	2456.808847
337.510540	2467.755713
337.903056	2476.670994
338.295508	2484.832622
338.687896	2494.446102
339.080220	2504.311640
339.472480	2509.957732
339.864676	2516.251613
340.256807	2520.513909
340.648875	2523.740247
341.040879	2527.891637
341.432818	2529.416586
341.824694	2535.042514
342.216506	2534.276259
342.608253	2536.144006
342.999937	2533.683923
343.391557	2535.634850
343.783113	2534.641742
344.174605	2533.595703
344.566033	2533.807431
344.957397	2532.421114
345.348697	2531.095291
345.739934	2527.137985
346.131106	2528.713345
346.522215	2525.507172
346.913260	2523.868797
347.304241	2521.345699
347.695159	2518.787313
348.086012	2518.867972
348.476802	2515.039216
348.867528	2513.262209
349.258191	2509.930006
349.648789	2504.596465
350.039324	2505.206445
350.429796	2508.785664
350.820203	2507.074192
351.210548	2507.149810
351.600828	2504.493122
351.991045	2502.164109
352.381198	2502.877432
352.771288	2500.818121
353.161314	2499.542709
353.551276	2500.475322
353.941175	2497.261587
354.331010	2500.639160
354.720782	2500.016577
355.110490	2496.487769
355.500135	2497.939622
355.889717	2499.290651
356.279235	2500.770230
356.668689	2499.439365
357.058080	2497.256545
357.447408	2501.758296
357.836672	2499.152019
358.225873	2501.065137
358.615010	2498.446258
359.004084	2500.603872
359.393095	2505.244254
359.782043	2502.456496
360.170927	2503.535302
360.559748	2504.999758
360.948505	2503.928512
361.337199	2505.579490
361.725830	2505.957577
362.114398	2504.891373
362.502903	2506.519666
362.891344	2503.913389
363.279722	2508.432783
363.668037	2510.103926
364.056289	2506.272649
364.444478	2510.005623
364.832603	2510.663494
365.220665	2507.099398
365.608665	2506.227279
365.996601	2509.390603
366.384474	2509.486385
366.772284	2512.644667
367.160031	2512.475789
367.547715	2510.318175
367.935336	2511.396982
368.322893	2508.631909
368.710388	2510.003103
369.097820	2510.870181
369.485189	2508.543689
369.872495	2511.712054
370.259738	2512.793382
370.646918	2511.664163
371.034035	2514.217507
371.421090	2513.350429
371.808081	2513.879750
372.195010	2512.833711
372.581875	2515.213135
372.968678	2514.593073
373.355418	2513.831859
373.742096	2517.123733
374.128710	2514.676252
374.515262	2516.163393
374.901751	2517.690863
375.288177	2518.419309
375.674540	2515.450070
376.060841	2517.249762
376.447079	2516.859072
376.833254	2518.401665
377.219367	2517.045595
377.605417	2517.065759
377.991404	2516.677591
378.377329	2519.069618
378.763191	2515.155162
379.148991	2517.063239
379.534727	2518.212622
379.920402	2518.114319
380.306013	2518.895698
380.691563	2523.145391
381.077049	2519.808147
381.462474	2521.401152
381.847835	2520.970133
382.233134	2521.625483
382.618371	2519.041892
383.003545	2520.523991
383.388657	2520.337468
383.773706	2522.096831
384.158693	2520.549197
384.543618	2524.612367
384.928480	2521.799403
385.313280	2522.237983
385.698017	2523.730165
386.082692	2520.556758
386.467305	2521.116327
386.851856	2525.650844
387.236344	2522.376615
387.620770	2521.219670
388.005133	2518.968795
388.389435	2520.743281
388.773674	2517.529546
389.157851	2524.239321
389.541965	2523.480628
389.926018	2527.569003
390.310008	2525.111441
390.693936	2524.577079
391.077802	2524.806451
391.461606	2524.632531
391.845348	2524.491379
392.229027	2523.667150
392.612645	2527.448016
392.996200	2525.749147
393.379694	2525.562624
393.763125	2530.195445
394.146494	2528.743592
394.529801	2528.257121
394.913047	2527.379960
395.296230	2528.582275
395.679351	2525.597912
396.062410	2528.670496
396.445408	2526.467511
396.828343	2528.582275
397.211217	2527.866432
397.594028	2526.059178
397.976778	2528.057995
398.359466	2527.047244
398.742092	2526.061698
399.124656	2524.773684
399.507158	2528.935156
399.889598	2532.035466
400.271977	2531.879190
400.654294	2528.350382
401.036549	2533.399098
401.418742	2532.153933
401.800874	2531.123017
402.182944	2529.444313
402.564952	2529.903058
402.946898	2530.681916
403.328783	2528.700743
403.710606	2530.674354
404.092367	2531.100332
404.474067	2532.211906
404.855705	2530.999509
405.237282	2530.457585
405.618797	2529.598068
406.000250	2532.393388
406.381642	2530.876000
406.762972	2529.472039
407.144240	2529.456916
407.525447	2530.707122
407.906593	2526.538088
408.287677	2530.613860
408.668700	2532.521937
409.049661	2534.465302
409.430560	2533.530168
409.811399	2535.294572
410.192176	2536.164171
410.572891	2535.481094
410.953545	2532.158974
411.334138	2535.768440
411.714669	2534.649304
412.095139	2533.971269
412.475547	2536.189377
412.855894	2533.792308
413.236180	2534.402288
413.616405	2535.047555
413.996568	2533.222657
414.376670	2534.528316
414.756711	2534.732483
415.136691	2534.309026
415.516609	2538.107536
415.896466	2535.738193
416.276262	2536.264994
416.655997	2535.773481
417.035670	2533.078985
417.415283	2538.959491
417.794834	2537.094264
418.174324	2538.770447
418.553753	2538.664583
418.933121	2536.486805
419.312428	2536.007895
419.691674	2536.922864
420.070859	2536.708615
420.449983	2537.174922
420.829045	2536.055786
421.208047	2536.103677
421.586988	2533.736855
421.965867	2537.321116
422.344686	2535.549150
422.723444	2536.587628
423.102141	2537.159799
423.480777	2540.728936
423.859352	2535.397915
424.237866	2536.978317
424.616319	2542.097609
424.994712	2542.253885
425.373044	2536.005374
425.751314	2536.605272
426.129524	2534.450178
426.507673	2535.816331
426.885762	2534.437576
427.263789	2540.456713
427.641756	2538.805735
428.019662	2541.898483
428.397508	2540.791950
428.775292	2540.809594
429.153016	2539.335057
429.530679	2542.369831
429.908282	2540.076106
430.285824	2539.627443
430.663305	2540.917979
431.040726	2541.853113
431.418086	2539.824048
431.795385	2541.636343
432.172624	2538.034439
432.549802	2540.852444
432.926920	2539.503935
433.303977	2541.951415
433.680974	2540.761703
434.057910	2542.815973
434.434786	2540.383617
434.811601	2540.774306
435.188355	2543.650284
435.565050	2540.053421
435.941683	2541.674152
436.318257	2540.348328
436.694770	2545.502908
437.071222	2542.357228
437.447614	2541.217927
437.823946	2543.962836
438.200218	2542.120294
438.576429	2540.388658
438.952580	2542.914276
439.328670	2543.385624
439.704700	2541.835469
440.080670	2543.940151
440.456580	2541.343956
440.832429	2543.786395
441.208218	2540.292876
441.583947	2544.799667
441.959616	2542.072403
442.335224	2542.430325
442.710773	2540.313040
443.086261	2543.738504
443.461689	2542.221117
443.837057	2543.683052
444.212365	2545.210521
444.587612	2541.346477
444.962800	2539.047711
445.337927	2542.367311
445.712995	2537.537885
446.088002	2541.782537
446.462949	2545.263453
446.837837	2543.753628
447.212664	2546.750594
447.587431	2544.381252
447.962139	2543.897301
448.336786	2544.560213
448.711374	2542.445448
449.085901	2544.638350
449.460369	2544.605583
449.834776	2544.721529
450.209124	2543.388144
450.583412	2546.236396
450.957640	2545.787733
451.331808	2545.694472
451.705917	2543.199101
452.079965	2544.020809
452.453954	2546.170861
452.827883	2547.141283
453.201752	2547.181613
453.575562	2545.026519
453.949311	2543.531817
454.323001	2544.953422
454.696632	2544.429142
455.070202	2547.637837
455.443713	2545.820501
455.817164	2544.754297
456.190556	2548.215049
456.563888	2547.594987
456.937160	2546.690100
457.310373	2547.637837
457.683526	2548.494833
458.056619	2546.133052
458.429653	2546.422919
458.802628	2545.926365
459.175542	2544.595501
459.548398	2548.517518
459.921194	2546.511139
460.293930	2547.055584
460.666607	2546.944678
461.039224	2547.254709
461.411782	2548.262940
461.784280	2545.641540
462.156719	2547.537014
462.529099	2547.169010
462.901419	2547.211859
463.273680	2542.573998
463.645882	2542.667259
464.018024	2543.007537
464.390106	2542.876467
464.762130	2550.420554
465.134094	2549.876109
465.505999	2550.160934
465.877845	2548.270502
466.249631	2548.421736
466.621358	2546.932075
466.993026	2550.891902
467.364634	2552.986501
467.736184	2549.359391
468.107674	2549.311500
468.479105	2549.230842
468.850477	2547.441232
469.221790	2548.552806
469.593043	2550.075235
469.964238	2545.825542
470.335373	2547.486602
470.706449	2551.312838
471.077467	2548.305790
471.448425	2550.811243
471.819324	2548.172199
472.190164	2551.212015
472.560945	2552.240410
472.931667	2550.254196
473.302330	2548.986346
473.672934	2550.571788
474.043479	2551.143959
474.413965	2548.381407
474.784393	2552.217725
475.154761	2552.709238
475.525070	2550.216387
475.895321	2549.137580
476.265513	2548.204967
476.635645	2553.959444
477.005719	2552.182437
477.375734	2550.297046
477.745691	2549.873589
478.115588	2549.550955
478.485427	2549.571119
478.855207	2551.632951
479.224928	2553.687222
479.594591	2550.735626
479.964194	2552.391645
480.333739	2550.443239
480.703226	2553.069680
481.072653	2549.538352
481.442022	2549.797971
481.811333	2549.876109
482.180584	2549.122457
482.549777	2549.377035
482.918912	2546.425439
483.287988	2552.379042
483.657005	2552.290822
484.025964	2551.816953
484.394864	2552.757129
484.763706	2554.919784
485.132489	2554.861810
485.501213	2553.379711
485.869879	2552.903322
486.238487	2552.452139
486.607036	2553.954403
486.975527	2555.819630
487.343959	2553.215874
487.712333	2550.884340
488.080648	2552.525236
488.448905	2556.270813
488.817104	2557.382387
489.185244	2555.698642
489.553326	2556.182593
489.921350	2552.797458
490.289315	2556.391801
490.657222	2552.772252
491.025070	2554.571944
491.392861	2554.065308
491.760593	2553.964485
492.128267	2555.832232
492.495883	2554.266954
492.863440	2554.919784
493.230939	2557.029507
493.598380	2555.403734
493.965763	2555.950700
494.333088	2554.377860
494.700354	2552.552962
495.067563	2555.318035
495.434713	2555.786862
495.801805	2557.810885
496.168839	2555.403734
496.535815	2556.812737
496.902733	2556.394321
497.269593	2556.820299
497.636395	2555.726368
498.003139	2553.634289
498.369825	2555.842315
498.736453	2557.521019
499.103023	2556.742161
499.469535	2557.541184
499.835989	2554.471121
500.202385	2554.957592
500.568723	2551.983312
500.935003	2551.491799
501.301226	2551.390976
501.667390	2556.578323
502.033497	2557.137891
502.399546	2558.420865
502.765537	2554.566903
503.131470	2557.541184
503.497345	2557.102603
503.863163	2555.809547
504.228923	2557.710062
504.594625	2559.512275
504.960269	2556.117058
505.325856	2555.260062
505.691385	2556.326266
506.056856	2557.889023
506.422270	2554.050185
506.787625	2554.902140
507.152924	2556.880793
507.518164	2557.251317
507.883347	2557.427758
508.248472	2555.779300
508.613540	2556.265772
508.978550	2557.216029
509.343503	2557.445402
509.708398	2553.891388
510.073236	2558.859445
510.438016	2555.998591
510.802738	2555.638148
511.167403	2560.583520
511.532010	2556.966492
511.896561	2559.567727
512.261053	2557.576472
512.625488	2560.225598
512.989866	2556.858107
513.354186	2558.325083
513.718449	2556.480021
514.082655	2558.241904
514.446803	2557.195865
514.810894	2557.934394
515.174927	2560.104610
515.538904	2557.427758
515.902822	2559.383725
516.266684	2555.489434
516.630488	2559.119065
516.994235	2555.002963
517.357925	2560.591082
517.721558	2562.176525
518.085133	2557.372305
518.448651	2556.747202
518.812112	2556.195196
519.175516	2554.796275
519.538863	2554.665205
519.902152	2560.167625
520.265385	2559.739127
520.628560	2560.762481
520.991678	2558.050340
521.354739	2556.653941
521.717743	2557.241235
522.080690	2560.550752
522.443580	2559.625701
522.806413	2559.925649
523.169189	2559.703839
523.531908	2560.477656
523.894569	2561.085115
524.257174	2560.344065
524.619722	2559.557645
524.982213	2561.949673
525.344647	2562.373130
525.707025	2562.068140
526.069345	2563.608212
526.431608	2561.679971
526.793815	2560.434806
527.155964	2562.554611
527.518057	2563.356155
527.880093	2564.006463
528.242072	2565.022256
528.603995	2564.583676
528.965860	2566.375806
529.327669	2564.036710
529.689421	2565.460836
530.051117	2565.367575
530.412755	2568.364541
530.774337	2569.166084
531.135862	2565.937225
531.497331	2567.777247
531.858743	2566.698440
532.220098	2565.614592
532.581396	2568.485529
532.942638	2570.179356
533.303824	2571.953843
533.664953	2568.785477
534.026025	2571.190108
534.387040	2570.880077
534.747999	2571.759758
535.108902	2569.607185
535.469748	2569.382854
535.830537	2573.229254
536.191270	2572.417629
536.551947	2569.856722
536.912567	2570.514593
537.273131	2574.786971
537.633638	2571.331260
537.994089	2577.562126
538.354483	2575.769996
538.714821	2579.830645
539.075103	2579.089596
539.435328	2578.527507
539.795497	2581.219483
540.155609	2578.540110
540.515665	2581.743763
540.875665	2578.754359
541.235609	2579.903742
541.595496	2583.135122
541.955328	2584.435739
542.315102	2582.623445
542.674821	2586.011100
543.034483	2585.053281
543.394090	2585.668302
543.753640	2584.067735
544.113134	2588.256934
544.472571	2586.908425
544.831953	2588.362798
545.191278	2589.807089
545.550548	2588.493868
545.909761	2590.270875
546.268918	2591.576534
546.628019	2589.902871
546.987064	2591.294229
547.346053	2591.188365
547.704986	2591.301791
548.063863	2592.418407
548.422684	2592.362954
548.781449	2592.932604
549.140158	2594.205496
549.498811	2595.196082
549.857408	2595.508634
550.215949	2593.459405
550.574434	2596.509303
550.932864	2595.914447
551.291237	2594.334045
551.649555	2596.887389
552.007817	2594.724734
552.366022	2597.535178
552.724173	2596.688264
553.082267	2596.816813
553.440305	2597.719180
553.798288	2600.360744
554.156215	2600.166660
554.514086	2596.771443
554.871902	2594.812955
555.229661	2594.051740
555.587365	2595.077615
555.945014	2598.009046
556.302606	2599.521392
556.660143	2603.496342
557.017625	2597.245311
557.375050	2599.198758
557.732421	2600.368306
558.089735	2599.581886
558.446994	2599.372678
558.804197	2602.009202
559.161345	2601.338728
559.518437	2598.669437
559.875474	2601.129520
560.232455	2598.084663
560.589381	2599.639859
560.946251	2600.857298
561.303065	2601.414346
561.659825	2600.617843
562.016528	2600.940477
562.373177	2599.274376
562.729770	2599.745724
563.086307	2603.851743
563.442789	2602.808225
563.799216	2603.740838
564.155587	2601.537854
564.511904	2600.701022
564.868164	2603.168667
565.224370	2602.939295
565.580520	2599.125662
565.936615	2601.898296
566.292654	2600.612802
566.648638	2601.429469
567.004567	2594.961669
567.360441	2596.998295
567.716260	2599.559201
568.072023	2601.424428
568.427732	2600.698502
568.783385	2599.561722
569.138982	2598.974427
569.494525	2598.765219
569.850013	2602.442741
570.205445	2598.601382
570.560823	2601.069027
570.916145	2599.972576
571.271412	2597.141968
571.626625	2601.671444
571.981782	2600.333018
572.336884	2595.816144
572.691931	2596.690784
573.046923	2594.323963
573.401860	2590.570824
573.756743	2595.992585
574.111570	2595.153232
574.466342	2595.301947
574.821059	2597.545260
575.175722	2596.411000
575.530330	2595.987543
575.884882	2593.446802
576.239380	2594.117275
576.593823	2597.482246
576.948211	2595.110383
577.302544	2595.158274
577.656823	2594.538212
578.011047	2594.399580
578.365216	2592.983016
578.719330	2593.446802
579.073389	2592.541915
579.427394	2596.085846
579.781344	2592.587285
580.135239	2593.834971
580.489080	2590.719538
580.842866	2590.961513
581.196597	2593.872779
581.550273	2593.897985
581.903895	2593.887903
582.257463	2594.165166
582.610975	2593.083839
582.964434	2591.200968
583.317837	2588.572006
583.671186	2593.890423
584.024481	2592.453695
584.377721	2591.740371
584.730906	2591.919332
585.084037	2591.654672
585.437113	2591.964703
585.790135	2592.856987
586.143103	2591.266503
586.496016	2593.736668
586.848874	2593.106524
587.201679	2594.008891
587.554428	2589.860021
587.907124	2590.696853
588.259765	2592.068046
588.612352	2593.282964
588.964884	2594.079467
589.317362	2589.950762
589.669786	2591.437902
590.022155	2588.274578
590.374470	2586.396748
590.726731	2587.956985
591.078937	2587.243662
591.431090	2592.100814
591.783188	2592.320104
592.135232	2592.814137
592.487222	2593.461925
592.839157	2592.405804
593.191038	2590.676688
593.542866	2593.598037
593.894639	2592.388160
594.246358	2592.557038
594.598022	2591.498396
594.949633	2591.203488
595.301190	2588.435895
595.652692	2594.833119
596.004141	2592.620053
596.355535	2591.369847
596.706876	2589.660895
597.058162	2592.529312
597.409395	2591.052254
597.760573	2593.091401
598.111698	2595.145671
598.462768	2594.205496
598.813785	2594.316401
599.164748	2595.017121
599.515657	2593.434199
599.866511	2592.786411
600.217312	2595.468305
600.568060	2590.769949
600.918753	2598.215733
601.269392	2595.327152
601.619978	2592.859508
601.970510	2594.525609
602.320988	2593.096442
602.671412	2597.328490
603.021783	2596.186669
603.372100	2595.188521
603.722363	2595.780856
604.072572	2598.356886
604.422728	2597.121803
604.772830	2596.678182
605.122878	2595.871597
605.472872	2599.584407
605.822813	2598.427462
606.172701	2598.102307
606.522534	2599.284458
606.872314	2600.890066
607.222041	2601.391660
607.571714	2599.347472
607.921333	2598.127513
608.270899	2598.787904
608.620411	2600.227154
608.969870	2605.192690
609.319276	2607.907352
609.668627	2613.409771
610.017926	2616.205091
610.367171	2620.263220
610.716362	2618.992849
611.065500	2617.876233
611.414585	2614.095368
611.763616	2617.006634
612.112594	2614.702827
612.461518	2615.537138
612.810389	2613.298866
613.159207	2615.085955
613.507971	2616.832715
613.856682	2620.202726
614.205340	2618.483692
614.553945	2620.913529
614.902496	2618.055194
615.250994	2621.518467
615.599439	2620.215329
615.947830	2623.040896
616.296169	2622.002418
616.644454	2627.683798
616.992686	2619.686008
617.340864	2626.491565
617.688990	2625.969806
618.037063	2631.315950
618.385082	2629.720424
618.733048	2632.548512
619.080961	2630.537091
619.428821	2636.392392
619.776628	2636.682258
620.124382	2635.878194
620.472083	2637.297279
620.819731	2643.182826
621.167326	2641.090747
621.514868	2642.514873
621.862357	2637.995478
622.209793	2641.718371
622.557176	2641.262146
622.904506	2638.202166
623.251783	2640.644605
623.599007	2641.131076
623.946179	2645.068217
624.293297	2640.377424
624.640363	2642.721560
624.987376	2641.007568
625.334336	2640.445479
625.681243	2641.730973
626.028097	2640.483288
626.374899	2649.080976
626.721647	2648.362611
627.068343	2648.453352
627.414987	2648.486120
627.761577	2652.203971
628.108115	2656.055412
628.454600	2651.462921
628.801032	2654.928714
629.147412	2657.187151
629.493739	2661.613284
629.840014	2662.316525
630.186236	2662.261072
630.532405	2666.089829
630.878521	2668.887669
631.224585	2668.307937
631.570597	2673.586025
631.916556	2675.980573
632.262462	2673.951508
632.608316	2680.353774
632.954117	2682.203877
633.299866	2687.260154
633.645562	2691.492203
633.991206	2688.447346
634.336797	2683.837211
634.682336	2688.800227
635.027823	2689.410207
635.373257	2691.104034
635.718639	2691.310722
636.063968	2692.084539
636.409245	2690.582275
636.754470	2694.085877
637.099642	2691.943386
637.444762	2694.181659
637.789829	2697.942359
638.134845	2695.580579
638.479808	2699.142154
638.824719	2704.344625
639.169577	2703.374203
639.514383	2707.044163
639.859137	2711.578681
640.203839	2712.496171
640.548489	2710.182281
640.893086	2718.275853
641.237632	2713.549772
641.582125	2724.630228
641.926566	2724.194168
642.270955	2724.587378
642.615292	2729.739437
642.959576	2734.888976
643.303809	2737.840572
643.647990	2742.687641
643.992118	2746.614700
644.336195	2745.908938
644.680219	2753.392531
645.024192	2760.535846
645.368112	2768.803338
645.711981	2775.223248
646.055797	2781.764145
646.399562	2790.828140
646.743274	2798.319294
647.086935	2820.618838
647.430544	2827.830209
647.774101	2833.640139
648.117606	2852.287367
648.461059	2851.158148
648.804460	2861.958820
649.147810	2859.488655
649.491108	2850.858200
649.834354	2863.498893
650.177548	2859.738192
650.520690	2855.962368
650.863781	2866.299254
651.206820	2865.938811
651.549807	2867.710777
651.892742	2866.957124
652.235626	2870.344780
652.578458	2878.869371
652.921238	2877.115049
653.263967	2886.022768
653.606644	2890.189282
653.949269	2890.607698
654.291843	2898.091291
654.634365	2904.594379
654.976836	2910.409350
655.319255	2916.622572
655.661622	2923.909560
656.003938	2929.109510
656.346203	2930.087494
656.688416	2939.136365
657.030577	2942.186263
657.372687	2952.349229
657.714746	2955.978860
658.056753	2962.653348
658.398708	2973.431335
658.740612	2977.849906
659.082465	2985.288129
659.424266	2984.295021
659.766016	2999.002588
660.107715	3005.881242
660.449362	3013.107736
660.790958	3028.689943
661.132503	3034.807383
661.473996	3047.894218
661.815438	3057.338820
662.156829	3064.232598
662.498168	3068.353741
662.839456	3082.090885
663.180693	3090.350816
663.521879	3103.432610
663.863013	3117.283180
664.204097	3124.474386
664.545129	3135.416211
664.886110	3144.737304
665.227040	3161.302536
665.567918	3175.604289
665.908746	3193.328986
666.249522	3192.913091
666.590248	3210.403374
666.930922	3236.108218
667.271545	3242.152561
667.612118	3262.680140
667.952639	3264.840274
668.293109	3273.090122
668.633528	3281.438273
668.973896	3285.201494
669.314213	3315.980259
669.654480	3294.348668
669.994695	3304.529278
670.334859	3316.600321
670.674973	3330.478618
671.015035	3347.419415
671.355047	3352.306814
671.695008	3355.371835
672.034918	3369.524875
672.374777	3389.626476
672.714585	3392.210067
673.054342	3418.507246
673.394049	3419.061773
673.733705	3434.838064
674.073310	3449.928758
674.412864	3474.519507
674.752368	3461.944348
675.091820	3462.289667
675.431223	3496.798886
675.770574	3470.602530
676.109875	3483.991835
676.449125	3489.607680
676.788324	3487.404696
677.127473	3485.368070
677.466571	3494.598422
677.805619	3500.521778
678.144616	3499.407683
678.483562	3520.565406
678.822458	3503.788446
679.161303	3509.621061
679.500098	3538.516955
679.838842	3535.719114
680.177535	3544.034498
680.516179	3560.292219
680.854771	3573.860484
681.193314	3615.298769
681.531805	3627.518526
681.870247	3721.717527
682.208638	3769.295937
682.546978	3840.799663
682.885268	3867.616081
683.223508	3827.226356
683.561697	3823.301818
683.899836	3826.485306
684.237925	3806.298006
684.575963	3811.066937
684.913951	3842.261597
685.251889	3819.813339
685.589776	3873.834344
685.927614	3882.076630
686.265401	3866.328066
686.603137	3913.412443
686.940824	3952.693113
687.278460	3987.824915
687.616046	4024.970657
687.953582	4066.358530
688.291068	4050.138617
688.628504	4108.321094
688.965889	4126.660812
689.303224	4158.775483
689.640510	4152.065707
689.977745	4095.791307
690.314930	4083.790840
690.652065	4087.667487
690.989150	4030.321842
691.326185	4013.091178
691.663170	3985.856344
692.000105	3948.377886
692.336990	3964.149136
692.673825	3910.226433
693.010610	3902.679826
693.347345	3871.021380
693.684030	3845.356866
694.020665	3849.001620
694.357251	3828.116120
694.693786	3850.639995
695.030272	3796.092190
695.366707	3801.602171
695.703093	3802.507058
696.039429	3808.168274
696.375716	3826.598732
696.711952	3785.432670
697.048139	3819.709996
697.384276	3829.439423
697.720363	3829.983867
698.056400	3824.216787
698.392388	3841.893593
698.728326	3839.017615
699.064214	3829.638548
699.400053	3871.439796
699.735842	3830.326666
700.071581	3828.894978
700.407270	3823.871468
700.742910	3816.866785
701.078501	3822.475068
701.414042	3788.538021
701.749533	3788.452321
702.084974	3760.115995
702.420366	3789.205974
702.755709	3787.355870
703.091002	3765.525153
703.426246	3778.801032
703.761440	3780.908234
704.096584	3777.134931
704.431679	3766.752674
704.766725	3786.166158
705.101721	3783.937968
705.436668	3792.389462
705.771565	3778.564098
706.106413	3808.344714
706.441212	3843.095908
706.775961	3828.373218
707.110661	3843.305116
707.445311	3900.131523
707.779913	3872.579097
708.114465	3923.207405
708.448967	3947.296558
708.783421	3970.503510
709.117825	4044.590827
709.452180	4058.638003
709.786485	4078.633739
710.120742	4174.718132
710.454949	4180.260880
710.789107	4205.038152
711.123216	4263.349178
711.457275	4339.354655
711.791286	4394.555289
712.125247	4380.656828
712.459159	4423.766255
712.793023	4490.375021
713.126837	4381.629771
713.460602	4431.136422
713.794318	4367.244838
714.127985	4428.993932
714.461602	4364.157132
714.795171	4334.177390
715.128691	4298.531391
715.462162	4230.153180
715.795584	4243.507197
716.128957	4202.890620
716.462281	4128.223570
716.795556	4201.678223
717.128782	4135.588696
717.461960	4042.828944
717.795088	4085.971139
718.128167	4077.554932
718.461198	4030.344527
718.794180	4017.809698
719.127113	4047.582752
719.459997	4003.422245
719.792833	3923.608176
720.125619	3963.508909
720.458357	3914.178698
720.791046	3923.257816
721.123686	3959.720482
721.456278	3901.779980
721.788821	3912.406732
722.121315	3883.082341
722.453761	3920.185233
722.786158	3920.893515
723.118506	3921.195984
723.450805	3922.229421
723.783056	3951.087506
724.115259	3908.993871
724.447412	3922.771345
724.779518	3938.156946
725.111574	3941.731124
725.443582	3979.481805
725.775542	3970.969817
726.107453	4047.492012
726.439315	4025.802447
726.771129	4033.217984
727.102895	4094.316769
727.434612	4147.314419
727.766281	4154.026716
728.097901	4191.868137
728.429473	4184.876057
728.760996	4193.592212
729.092471	4201.068243
729.423897	4204.375240
729.755276	4234.070157
730.086606	4213.237588
730.417887	4235.126278
730.749120	4298.896874
731.080305	4410.296292
731.411442	4452.919248
731.742530	4436.006177
732.073570	4527.329199
732.404562	4568.787648
732.735506	4471.969768
733.066401	4550.256367
733.397249	4534.394376
733.728048	4464.861741
734.058798	4349.865460
734.389501	4302.279489
734.720156	4241.263883
735.050762	4138.623470
735.381320	4107.083491
735.711831	4111.071044
736.042293	4072.140733
736.372707	4104.446968
736.703073	4041.805590
737.033391	4053.478382
737.363661	4060.977098
737.693883	4082.911158
738.024056	4131.364209
738.354182	4149.570336
738.684260	4156.370852
739.014290	4204.276937
739.344272	4253.334926
739.674207	4245.233792
740.004093	4282.566057
740.333931	4298.440650
740.663722	4304.028769
740.993464	4362.453222
741.323159	4386.096233
741.652806	4242.897217
741.982405	4244.694388
742.311956	4344.095860
742.641460	4271.498203
742.970915	4170.465918
743.300323	4207.906568
743.629683	4182.952857
743.958996	4134.588027
744.288260	4107.915282
744.617477	4102.919498
744.946647	4121.249133
745.275768	4040.691495
745.604842	4037.505486
745.933869	4035.483983
746.262847	4006.535157
746.591778	4022.944113
746.920662	4008.763347
747.249498	4004.319570
747.578286	4036.328376
747.907027	4081.177002
748.235720	4112.714460
748.564365	4072.158377
748.892963	4079.415118
749.221514	4195.558262
749.550017	4120.944144
749.878473	4041.132596
750.206881	4101.737347
750.535242	4077.660797
750.863555	4041.001526
751.191821	4074.119386
751.520039	4082.664142
751.848210	4031.980381
752.176334	4040.126886
752.504411	4095.660237
752.832440	4054.771438
753.160421	3988.228207
753.488356	4038.370044
753.816243	4086.109771
754.144082	3996.750277
754.471875	3969.381853
754.799620	4012.027494
755.127318	4024.537117
755.454969	3995.316069
755.782572	3975.824448
756.110129	4017.539996
756.437638	4036.348541
756.765100	3979.973317
757.092515	3978.155982
757.419882	4013.297865
757.747203	4007.082122
758.074477	4055.779668
758.401703	4058.454001
758.728882	4006.676309
759.056014	4030.788148
759.383099	4134.663644
759.710138	4131.376812
760.037129	4105.929067
760.364073	4107.753965
760.690970	4180.717105
761.017820	4184.528217
761.344623	4133.234477
761.671379	4190.121377
761.998088	4261.536883
762.324751	4376.790263
762.651366	4661.859951
762.977935	5251.669910
763.304456	6000.702193
763.630931	6438.402896
763.957359	6308.933462
764.283740	5952.007167
764.610074	5635.725175
764.936362	5122.858347
765.262602	4814.639680
765.588796	4533.043347
765.914943	4350.477961
766.241044	4304.376609
766.567097	4214.306313
766.893104	4059.613466
767.219064	3960.413641
767.544978	3951.190850
767.870845	3923.003238
768.196665	3852.785006
768.522438	3809.723470
768.848165	3803.911019
769.173846	3787.292856
769.499479	3765.573044
769.825066	3727.653485
770.150607	3702.409907
770.476101	3692.262065
770.801548	3703.881924
771.126949	3674.202131
771.452303	3642.674755
771.777611	3624.337558
772.102872	3630.510451
772.428087	3615.018985
772.753256	3607.908437
773.078378	3586.186105
773.403453	3547.139848
773.728482	3549.683110
774.053465	3520.540200
774.378401	3516.043491
774.703291	3532.959083
775.028135	3491.488030
775.352932	3451.410857
775.677683	3448.842389
776.002388	3476.162923
776.327046	3490.139522
776.651658	3426.442022
776.976224	3382.306720
777.300743	3397.047054
777.625216	3420.047319
777.949643	3425.915222
778.274024	3392.441960
778.598359	3360.067670
778.922647	3375.571739
779.246889	3377.452089
779.571086	3379.130793
779.895236	3373.797253
780.219339	3356.312011
780.543397	3344.946729
780.867409	3383.808984
781.191374	3397.435223
781.515294	3364.292157
781.839167	3357.607587
782.162995	3374.019063
782.486776	3370.742313
782.810511	3379.403016
783.134201	3391.496744
783.457844	3364.766026
783.781441	3320.933193
784.104993	3325.886127
784.428498	3347.404292
784.751958	3357.678163
785.075372	3337.024556
785.398739	3308.441214
785.722061	3318.263902
786.045337	3354.134232
786.368568	3386.700086
786.691752	3319.279694
787.014891	3347.608458
787.337983	3419.538162
787.661030	3505.315915
787.984031	3594.070470
788.306987	3695.682487
788.629897	3743.074375
788.952760	3720.343812
789.275579	3704.925443
789.598351	3697.028476
789.921078	3617.000158
790.243759	3481.481340
790.566395	3472.863487
790.888984	3482.880260
791.211529	3410.844692
791.534027	3379.529045
791.856480	3388.386352
792.178888	3339.136799
792.501249	3297.212043
792.823566	3308.405926
793.145836	3340.414732
793.468062	3308.781492
793.790241	3269.815893
794.112375	3290.172072
794.434464	3336.079340
794.756507	3357.496682
795.078505	3341.715350
795.400457	3345.370186
795.722364	3424.508740
796.044226	3492.423164
796.366042	3532.666696
796.687812	3538.098539
797.009538	3546.154303
797.331218	3512.731453
797.652852	3495.863752
797.974442	3498.767457
798.295986	3512.373531
798.617484	3456.797330
798.938938	3396.676529
799.260346	3431.727672
799.581709	3438.606327
799.903026	3388.721589
800.224299	3362.069008
800.545526	3364.823999
800.866708	3338.685616
801.187845	3288.155611
801.508936	3325.523163
801.829983	3334.138495
802.150984	3268.898403
802.471940	3258.954727
802.792851	3271.814710
803.113717	3273.092643
803.434538	3282.196967
803.755314	3240.012591
804.076045	3209.407746
804.396731	3227.324007
804.717372	3251.256885
805.037967	3242.898652
805.358518	3231.798031
805.679024	3246.823190
805.999485	3253.149838
806.319901	3254.480703
806.640272	3266.387908
806.960598	3278.872326
807.280879	3260.885489
807.601115	3262.055037
807.921306	3276.475257
808.241453	3313.005978
808.561554	3302.888383
808.881611	3250.964498
809.201623	3276.699588
809.521590	3292.317083
809.841513	3273.130452
810.161390	3297.086015
810.481223	3290.721558
810.801011	3246.878643
811.120755	3234.605954
811.440453	3270.695574
811.760107	3282.751494
812.079716	3253.543048
812.399281	3227.127402
812.718801	3245.583066
813.038276	3227.727299
813.357707	3230.257959
813.677093	3249.532810
813.996434	3212.296327
814.315731	3211.988817
814.634983	3215.668859
814.954191	3223.946434
815.273354	3255.471290
815.592473	3256.192175
815.911547	3250.538521
816.230577	3275.227572
816.549562	3317.563182
816.868502	3355.487782
817.187399	3378.016698
817.506250	3371.506048
817.825058	3347.953778
818.143821	3422.872885
818.462539	3510.742717
818.781213	3545.171278
819.099843	3576.549940
819.418429	3739.389291
819.736970	3908.971186
820.055466	4070.777101
820.373919	4353.565667
820.692327	4678.636911
821.010691	4954.143531
821.329011	5843.191341
821.647286	7489.034810
821.965517	9961.415782
822.283704	12033.216587
822.601847	13460.281541
822.919945	12862.146117
823.237999	11757.725091
823.556010	10407.492362
823.873976	9199.619298
824.191897	7768.443283
824.509775	6793.622761
824.827609	5998.733622
825.145398	5588.895376
825.463144	5519.418194
825.780845	5602.957675
826.098502	5658.334750
826.416116	6174.001938
826.733685	7022.266814
827.051210	7852.784307
827.368692	8043.445787
827.686129	7251.742657
828.003522	6186.372930
828.320872	5470.493796
828.638177	4975.336542
828.955439	4568.762443
829.272656	4186.227086
829.589830	3955.561530
829.906960	3832.794310
830.224046	3687.798123
830.541088	3590.544183
830.858086	3562.192734
831.175041	3508.527130
831.491952	3491.631703
831.808819	3502.250894
832.125642	3555.929100
832.442421	3666.786594
832.759157	3864.871172
833.075849	4248.581118
833.392497	4845.536912
833.709101	5361.123442
834.025662	5655.821735
834.342179	5487.263194
834.658653	5027.736815
834.975083	4560.764652
835.291469	4128.954537
835.607811	3796.813075
835.924110	3698.492931
836.240366	3542.950649
836.556578	3373.646018
836.872746	3287.018830
837.188871	3264.499996
837.504952	3215.250444
837.820990	3148.167809
838.136984	3105.252467
838.452935	3126.684932
838.768842	3127.599902
839.084706	3148.371976
839.400526	3252.718820
839.716303	3478.350783
840.032037	3842.712781
840.347727	4083.216148
840.663373	3932.556224
840.978977	3652.716733
841.294537	3411.653798
841.610054	3225.869634
841.925527	3137.737662
842.240957	3083.729260
842.556344	3040.007333
842.871687	2995.919922
843.186987	2954.020372
843.502244	2922.319076
843.817458	2896.092473
844.132629	2865.656507
844.447756	2877.417519
844.762840	2868.051055
845.077881	2842.598269
845.392879	2826.108655
845.707833	2824.926504
846.022745	2819.313179
846.337613	2823.439364
846.652438	2813.939309
846.967221	2812.875626
847.281960	2800.449182
847.596656	2794.545991
847.911309	2794.951803
848.225919	2786.608694
848.540485	2783.369752
848.855009	2788.030299
849.169490	2780.415636
849.483928	2772.291817
849.798323	2769.846857
850.112675	2764.205806
850.426984	2774.436828
850.741251	2776.423042
851.055474	2768.407608
851.369654	2760.984509
851.683792	2765.045158
851.997887	2772.100253
852.311938	2773.778957
852.625947	2768.190838
852.939914	2770.381220
853.253837	2775.238371
853.567718	2761.652462
853.881555	2757.858993
854.195350	2772.400202
854.509103	2771.772578
854.822812	2764.793101
855.136479	2762.438882
855.450103	2761.256731
855.763685	2756.664240
856.077224	2752.059146
856.390720	2763.431989
856.704173	2776.838938
857.017584	2768.503390
857.330953	2763.154726
857.644278	2769.128493
857.957561	2783.072324
858.270802	2783.253806
858.584000	2786.437295
858.897155	2775.182919
859.210268	2774.615789
859.523339	2772.145623
859.836367	2772.241405
860.149352	2768.931888
860.462295	2764.830909
860.775195	2771.742331
861.088054	2772.725356
861.400869	2755.497213
861.713642	2747.002869
862.026373	2767.144799
862.339062	2766.313008
862.651708	2771.129831
862.964312	2776.647374
863.276873	2770.378699
863.589392	2774.610748
863.901869	2786.311266
864.214303	2802.700057
864.526696	2818.128508
864.839045	2813.563743
865.151353	2812.227838
865.463619	2811.181798
865.775842	2811.108702
866.088023	2825.705362
866.400162	2837.806652
866.712258	2812.129535
867.024313	2802.732824
867.336325	2808.416725
867.648296	2828.475477
867.960224	2821.375011
868.272110	2808.998979
868.583954	2813.556182
868.895755	2831.238029
869.207515	2816.384269
869.519233	2817.243786
869.830909	2827.547904
870.142542	2836.886642
870.454134	2836.821107
870.765684	2837.554595
871.077191	2839.563494
871.388657	2843.742611
871.700081	2853.862727
872.011463	2864.323122
872.322803	2865.739686
872.634101	2864.449150
872.945357	2876.273177
873.256571	2898.398801
873.567744	2897.002401
873.878874	2883.061090
874.189963	2903.069430
874.501010	2912.559402
874.812015	2903.195459
875.122979	2901.725963
875.433900	2899.346538
875.744780	2903.379461
876.055618	2909.234761
876.366415	2905.879873
876.677169	2918.202974
876.987882	2918.530649
877.298554	2913.900349
877.609183	2926.717483
877.919771	2949.684980
878.230317	2972.138279
878.540822	3021.395393
878.851285	3054.619118
879.161707	3085.697831
879.472087	3164.987619
879.782425	3344.818180
880.092722	3701.126934
880.402977	4124.442704
880.713191	4559.998397
881.023363	5319.347401
881.333494	6185.223547
881.643583	6591.621205
881.953631	6479.271530
882.263637	6151.231047
882.573602	5795.731398
882.883526	5373.781780
883.193408	4911.303805
883.503248	4519.795195
883.813048	4284.007827
884.122806	4063.921132
884.432522	3812.170950
884.742197	3611.659056
885.051831	3444.133952
885.361424	3322.443018
885.670975	3262.738113
885.980485	3199.340562
886.289954	3136.363948
886.599382	3099.992023
886.908768	3067.955490
887.218113	3030.426620
887.527417	2982.447438
887.836680	2942.027467
888.145901	2935.899944
888.455082	2933.540684
888.764221	2890.965620
889.073319	2862.790611
889.382376	2867.521734
889.691392	2866.208513
890.000366	2866.566435
890.309300	2852.723427
890.618193	2864.169366
890.927044	2881.800802
891.235855	2886.552089
891.544625	2868.356045
891.853353	2872.401571
892.162041	2887.693911
892.470687	2921.502409
892.779293	2966.769450
893.087858	3008.883249
893.396381	3062.004408
893.704864	3156.062256
894.013306	3347.414374
894.321707	3593.258844
894.630068	3772.754168
894.938387	3783.910242
895.246665	3753.675921
895.554903	3663.764422
895.863100	3494.232939
896.171256	3349.196422
896.479371	3236.839185
896.787446	3136.222795
897.095480	3047.127963
897.403473	2989.920949
897.711425	2950.340330
898.019336	2944.459824
898.327207	2923.533994
898.635038	2894.381001
898.942827	2881.193343
899.250576	2870.243957
899.558284	2844.786130
899.865952	2823.459528
900.173579	2807.821869
900.481165	2803.665438
900.788711	2793.870476
901.096216	2772.440531
901.403681	2758.068201
901.711105	2768.851229
902.018489	2764.828389
902.325832	2767.538009
902.633135	2775.979421
902.940397	2801.714511
903.247619	2862.019314
903.554800	3015.953468
903.861941	3286.628141
904.169041	3638.288951
904.476101	3907.771392
904.783121	3901.354003
905.090100	3704.365875
905.397039	3478.383551
905.703938	3263.385901
906.010796	3100.803648
906.317614	3006.639936
906.624391	2928.887699
906.931129	2866.997454
907.237826	2815.197077
907.544483	2769.224275
907.851099	2741.432394
908.157675	2725.882955
908.464211	2709.942826
908.770707	2697.733152
909.077163	2687.708817
909.383578	2675.683145
909.689954	2665.731907
909.996289	2664.491783
910.302584	2663.700322
910.608839	2665.363903
910.915054	2660.859632
911.221229	2653.207160
911.527363	2656.791421
911.833458	2659.488438
912.139513	2664.685868
912.445527	2666.941784
912.751502	2677.140038
913.057436	2683.539783
913.363331	2695.255424
913.669186	2708.382589
913.975000	2738.238823
914.280775	2788.539456
914.586510	2846.104392
914.892205	2914.260792
915.197859	3014.380628
915.503475	3166.749502
915.809050	3338.819207
916.114585	3464.759833
916.420081	3494.910974
916.725536	3458.859162
917.030952	3363.372147
917.336328	3254.609252
917.641665	3140.691778
917.946961	3055.092986
918.252218	3000.905623
918.557435	2934.863987
918.862612	2885.112840
919.167750	2839.684482
919.472848	2809.971921
919.777906	2784.098199
920.082925	2762.595157
920.387904	2738.972311
920.692843	2724.579816
920.997743	2713.206973
921.302603	2703.119624
921.607423	2692.485310
921.912204	2683.287725
922.216946	2675.947805
922.521647	2668.628050
922.826310	2658.384425
923.130932	2653.086172
923.435516	2643.984369
923.740059	2640.339615
924.044564	2632.762761
924.349028	2630.040538
924.653454	2621.684825
924.957840	2616.225256
925.262186	2615.469082
925.566493	2608.819801
925.870761	2604.229830
926.174989	2605.210334
926.479178	2599.022318
926.783328	2593.325814
927.087438	2593.083839
927.391509	2590.958992
927.695541	2586.389187
927.999533	2585.315421
928.303486	2580.790985
928.607400	2580.571695
928.911275	2581.973136
929.215110	2582.832653
929.518906	2579.936510
929.822663	2580.188567
930.126381	2578.411561
930.430060	2580.291911
930.733699	2580.483475
931.037299	2580.143197
931.340861	2583.422467
931.644383	2580.543969
931.947866	2583.573702
932.251309	2580.400296
932.554714	2580.624627
932.858080	2579.644123
933.161407	2578.391396
933.464694	2576.952147
933.767943	2574.686148
934.071153	2575.654049
934.374323	2576.841241
934.677455	2576.377455
934.980548	2573.105746
935.283602	2573.141034
935.586617	2574.638257
935.889593	2573.035170
936.192530	2571.341342
936.495428	2574.003072
936.798287	2575.596076
937.101108	2577.645305
937.403890	2580.836356
937.706632	2584.692838
938.009336	2591.178283
938.312002	2598.553491
938.614628	2606.213524
938.917216	2611.602517
939.219765	2614.750718
939.522275	2613.548403
939.824747	2609.349122
940.127179	2608.416508
940.429573	2605.825355
940.731929	2605.752258
941.034246	2602.379727
941.336524	2599.196238
941.638763	2593.217429
941.940964	2593.149374
942.243126	2594.359251
942.545250	2592.020155
942.847335	2591.369847
943.149381	2587.271388
943.451389	2581.620255
943.753359	2580.624627
944.055290	2581.068249
944.357182	2580.261664
944.659036	2578.809812
944.960851	2579.444997
945.262628	2574.981055
945.564367	2576.667321
945.866067	2574.169430
946.167729	2579.508012
946.469352	2578.212435
946.770937	2577.811663
947.072484	2575.525500
947.373992	2574.182032
947.675462	2574.494584
947.976893	2568.518296
948.278286	2567.981413
948.579641	2570.953173
948.880958	2563.303222
949.182236	2567.547874
949.483476	2569.082905
949.784678	2567.641135
950.085841	2570.005437
950.386967	2568.011660
950.688054	2568.863615
950.989103	2571.379151
951.290114	2569.995354
951.591087	2570.943091
951.892021	2572.190777
952.192917	2577.274780
952.493776	2583.165369
952.794596	2580.042374
953.095378	2580.115471
953.396122	2579.933989
953.696828	2577.305027
953.997496	2577.206725
954.298126	2572.858730
954.598718	2571.941240
954.899272	2572.374779
955.199788	2568.561146
955.500266	2564.820610
955.800706	2566.138872
956.101108	2562.095866
956.401472	2561.558983
956.701798	2559.139229
957.002087	2557.833571
957.302337	2556.911039
957.602550	2553.316697
957.902724	2552.419371
958.202861	2554.728220
958.502960	2553.651933
958.803022	2552.941131
959.103045	2551.970709
959.403031	2550.085317
959.702979	2549.006510
960.002889	2548.772097
960.302762	2550.470965
960.602596	2548.625903
960.902393	2546.793444
961.202153	2548.333516
961.501875	2547.605069
961.801559	2545.296221
962.101205	2550.125646
962.400814	2547.562220
962.700385	2546.672456
962.999918	2546.937117
963.299414	2545.079451
963.598873	2545.800336
963.898293	2540.454193
964.197677	2545.092054
964.497022	2544.230017
964.796331	2547.305121
965.095601	2542.493339
965.394835	2543.320089
965.694030	2544.744215
965.993189	2545.981818
966.292309	2545.386962
966.591393	2548.421736
966.890439	2545.754966
967.189447	2546.022147
967.488419	2544.948381
967.787353	2545.817980
968.086249	2544.529966
968.385108	2546.710265
968.683930	2544.388813
968.982714	2545.780172
969.281462	2547.688248
969.580172	2546.657333
969.878844	2543.990562
970.177480	2548.353681
970.476078	2547.748742
970.774639	2547.907539
971.073162	2543.708258
971.371649	2545.742363
971.670098	2547.443752
971.968510	2546.001983
972.266885	2546.211190
972.565223	2545.848227
972.863524	2546.231355
973.161788	2547.786551
973.460014	2546.327137
973.758204	2546.569112
974.056356	2545.661705
974.354471	2547.373176
974.652550	2543.211704
974.950591	2547.262271
975.248595	2547.398382
975.546563	2547.279915
975.844493	2545.449976
976.142386	2545.691952
976.440243	2545.611293
976.738062	2546.191026
977.035845	2548.482230
977.333590	2548.429298
977.631299	2547.242106
977.928971	2541.906045
978.226606	2542.652136
978.524204	2543.579708
978.821765	2537.737011
979.119290	2544.998793
979.416777	2546.586756
979.714228	2543.315047
980.011642	2541.417053
980.309020	2545.631458
980.606360	2547.191695
980.903664	2545.911242
981.200931	2542.475695
981.498162	2547.257230
981.795356	2546.453166
982.092513	2546.730429
982.389633	2548.396531
982.686717	2552.353836
982.983764	2553.788045
983.280775	2560.694425
983.577749	2559.613098
983.874686	2563.305743
984.171587	2559.073694
984.468451	2553.719989
984.765279	2554.685370
985.062070	2552.121943
985.358824	2550.465924
985.655543	2550.024823
985.952224	2548.215049
986.248869	2546.571633
986.545478	2545.765048
986.842050	2547.211859
987.138586	2543.821683
987.435086	2544.484595
987.731549	2544.330840
988.027975	2545.359235
988.324366	2542.982331
988.620719	2543.620037
988.917037	2543.685572
989.213318	2543.713299
989.509563	2545.379400
989.805772	2543.708257
990.101944	2544.603062
990.398080	2543.882177
990.694180	2539.851775
990.990244	2545.520552
991.286271	2541.250695
991.582262	2543.317568
991.878217	2545.502908
992.174136	2543.123484
992.470019	2541.870757
992.765865	2539.624923
993.061676	2540.227341
993.357450	2541.109543
993.653188	2539.604758
993.948890	2542.546272
994.244556	2545.921324
994.540186	2544.910573
994.835780	2542.863864
995.131337	2544.426622
995.426859	2543.993083
995.722345	2545.429812
996.017795	2548.469627
996.313208	2545.119781
996.608586	2547.373176
996.903928	2545.651622
997.199234	2547.335368
997.494504	2545.742363
997.789738	2546.236396
998.084936	2548.819988
998.380099	2543.531817
998.675225	2544.570295
998.970316	2542.914276
999.265371	2544.522404
999.560390	2545.467620
999.855373	2547.158927
1000.150320	2543.322609
1000.445232	2546.407795
1000.740108	2544.655994
1001.034948	2543.446117
1001.329752	2544.865202
1001.624521	2541.878319
1001.919254	2545.384441
1002.213951	2540.963349
1002.508613	2542.944523
1002.803239	2543.456200
1003.097829	2541.333874
1003.392384	2542.324461
1003.686903	2543.062990
1003.981386	2543.194060
1004.275834	2541.674152
1004.570246	2542.896632
1004.864623	2542.619368
1005.158964	2544.494678
1005.453270	2542.649615
1005.747540	2543.143648
1006.041775	2542.364790
1006.335974	2540.892773
1006.630138	2541.482588
1006.924266	2542.896632
1007.218359	2541.802701
1007.512416	2536.887576
1007.806438	2537.898328
1008.100425	2540.832279
1008.394376	2535.203831
1008.688292	2540.776827
1008.982172	2541.853113
1009.276017	2544.141797
1009.569827	2542.982331
1009.863602	2543.433515
1010.157341	2542.838658
1010.451045	2542.127856
1010.744714	2540.635674
1011.038347	2544.819832
1011.331945	2542.158103
1011.625508	2540.154244
1011.919036	2541.497712
1012.212528	2543.841848
1012.505986	2536.973276
1012.799408	2541.404450
1013.092795	2541.928730
1013.386147	2542.503422
1013.679464	2542.468134
1013.972745	2543.254554
1014.265992	2541.369162
1014.559204	2543.032743
1014.852380	2540.434028
1015.145521	2540.066024
1015.438628	2539.347659
1015.731699	2541.119625
1016.024736	2539.604758
1016.317737	2540.396219
1016.610703	2541.505273
1016.903635	2539.584594
1017.196531	2542.183308
1017.489393	2540.781868
1017.782219	2540.912938
1018.075011	2540.759183
1018.367768	2541.406971
1018.660490	2542.742877
1018.953177	2542.742877
1019.245829	2542.742877
