Dividing Wavelength (nm)	Counts (n)	Blue Motor Position (mm): 11.800000	Red Motor Position (mm): 0.000000	
326.493990	2160.071409
326.888308	2160.071409
327.282561	2160.071409
327.676750	2123.689401
328.070874	2117.856786
328.464933	2118.955758
328.858929	2119.527929
329.252859	2129.043107
329.646726	2136.438479
330.040528	2147.881899
330.434265	2161.309012
330.827938	2180.745181
331.221547	2195.866122
331.615091	2212.416230
332.008571	2233.760475
332.401986	2252.808475
332.795338	2270.661721
333.188625	2287.335338
333.581847	2306.741259
333.975006	2324.385298
334.368100	2343.743328
334.761129	2361.024404
335.154095	2378.681045
335.546996	2398.346586
335.939833	2425.115113
336.332606	2437.110539
336.725315	2451.692076
337.117960	2461.345886
337.510540	2473.858030
337.903056	2485.112406
338.295508	2494.257059
338.687896	2504.074706
339.080220	2513.400841
339.472480	2515.515605
339.864676	2521.996008
340.256807	2528.849457
340.648875	2533.086546
341.040879	2535.697864
341.432818	2537.999151
341.824694	2540.401261
342.216506	2539.332536
342.608253	2542.531148
342.999937	2542.579039
343.391557	2543.776313
343.783113	2543.783875
344.174605	2541.202804
344.566033	2541.999306
344.957397	2536.605272
345.348697	2540.202135
345.739934	2536.451517
346.131106	2536.292720
346.522215	2532.496731
346.913260	2528.599919
347.304241	2526.354085
347.695159	2525.993643
348.086012	2527.251411
348.476802	2525.441637
348.867528	2519.057015
349.258191	2515.891171
349.648789	2516.901922
350.039324	2513.655419
350.429796	2514.966119
350.820203	2515.767662
351.210548	2513.746160
351.600828	2514.053670
351.991045	2511.202898
352.381198	2509.181395
352.771288	2506.749038
353.161314	2512.584174
353.551276	2505.957577
353.941175	2508.369769
354.331010	2506.060921
354.720782	2508.029491
355.110490	2508.989831
355.500135	2506.786847
355.889717	2506.257526
356.279235	2508.936899
356.668689	2506.202073
357.058080	2507.081754
357.447408	2509.425891
357.836672	2509.498988
358.225873	2508.437825
358.615010	2509.972856
359.004084	2510.355984
359.393095	2512.813546
359.782043	2509.728360
360.170927	2510.676097
360.559748	2513.471417
360.948505	2513.592404
361.337199	2510.645850
361.725830	2512.727847
362.114398	2514.635923
362.502903	2512.175840
362.891344	2513.463855
363.279722	2513.665501
363.668037	2517.229597
364.056289	2514.361180
364.444478	2518.215143
364.832603	2517.141377
365.220665	2518.378980
365.608665	2516.047446
365.996601	2518.424350
366.384474	2517.597601
366.772284	2520.138343
367.160031	2518.230266
367.547715	2520.687828
367.935336	2519.346882
368.322893	2516.425533
368.710388	2516.213804
369.097820	2518.900739
369.485189	2513.652898
369.872495	2519.387211
370.259738	2524.597243
370.646918	2520.914680
371.034035	2521.244876
371.421090	2524.171266
371.808081	2521.668333
372.195010	2521.633045
372.581875	2524.201513
372.968678	2521.859897
373.355418	2523.906605
373.742096	2524.322500
374.128710	2522.956348
374.515262	2523.654548
374.901751	2524.811492
375.288177	2527.178314
375.674540	2523.851153
376.060841	2524.856863
376.447079	2524.776204
376.833254	2526.888448
377.219367	2524.793848
377.605417	2529.562780
377.991404	2523.188241
378.377329	2524.849301
378.763191	2524.645134
379.148991	2526.764939
379.534727	2528.065557
379.920402	2528.277286
380.306013	2529.633356
380.691563	2529.212420
381.077049	2527.977337
381.462474	2528.920033
381.847835	2528.158818
382.233134	2528.642769
382.618371	2529.986237
383.003545	2528.652852
383.388657	2529.222502
383.773706	2529.945908
384.158693	2530.795342
384.543618	2531.480939
384.928480	2532.164015
385.313280	2528.045393
385.698017	2529.910619
386.082692	2532.330373
386.467305	2532.428676
386.851856	2531.601927
387.236344	2535.072761
387.620770	2527.304343
388.005133	2527.387522
388.389435	2532.290044
388.773674	2526.480114
389.157851	2533.459592
389.541965	2529.961031
389.926018	2535.037473
390.310008	2534.470343
390.693936	2534.767771
391.077802	2534.729963
391.461606	2530.760054
391.845348	2531.778367
392.229027	2535.675179
392.612645	2534.767771
392.996200	2534.087215
393.379694	2537.237937
393.763125	2533.404139
394.146494	2538.052083
394.529801	2532.640404
394.913047	2537.270704
395.296230	2535.239119
395.679351	2535.312216
396.062410	2535.738193
396.445408	2535.458409
396.828343	2536.078471
397.211217	2539.342618
397.594028	2536.171732
397.976778	2536.708615
398.359466	2538.697351
398.742092	2536.282638
399.124656	2536.363296
399.507158	2536.995961
399.889598	2539.506456
400.271977	2536.728780
400.654294	2537.416897
401.036549	2534.808100
401.418742	2539.672814
401.800874	2537.454706
402.182944	2539.498894
402.564952	2537.311033
402.946898	2538.931764
403.328783	2536.038142
403.710606	2541.482588
404.092367	2540.232382
404.474067	2539.834131
404.855705	2540.058462
405.237282	2537.464788
405.618797	2539.617361
406.000250	2538.410005
406.381642	2542.566436
406.762972	2536.335570
407.144240	2536.501928
407.525447	2539.594676
407.906593	2536.191897
408.287677	2538.964532
408.668700	2540.870088
409.049661	2540.799512
409.430560	2542.505942
409.811399	2543.100798
410.192176	2540.986034
410.572891	2540.991076
410.953545	2541.893442
411.334138	2541.860675
411.714669	2543.965356
412.095139	2542.473175
412.475547	2539.929913
412.855894	2544.043494
413.236180	2542.952084
413.616405	2543.620037
413.996568	2544.648433
414.376670	2545.208001
414.756711	2543.660367
415.136691	2542.233720
415.516609	2544.877805
415.896466	2546.364946
416.276262	2546.158258
416.655997	2546.223793
417.035670	2543.524255
417.415283	2546.438042
417.794834	2545.538196
418.174324	2545.860830
418.553753	2544.275387
418.933121	2545.664225
419.312428	2545.230686
419.691674	2546.722868
420.070859	2548.111705
420.449983	2545.001313
420.829045	2543.846889
421.208047	2544.837476
421.586988	2545.979297
421.965867	2546.327137
422.344686	2545.797816
422.723444	2548.729247
423.102141	2549.573640
423.480777	2547.350491
423.859352	2546.163299
424.237866	2547.257230
424.616319	2547.665563
424.994712	2548.474668
425.373044	2550.649926
425.751314	2544.383772
426.129524	2543.418391
426.507673	2543.854451
426.885762	2541.835469
427.263789	2548.469627
427.641756	2549.271171
428.019662	2549.989535
428.397508	2547.786551
428.775292	2549.324103
429.153016	2550.135729
429.530679	2548.003321
429.908282	2547.819318
430.285824	2549.548434
430.663305	2548.900646
431.040726	2547.836963
431.418086	2549.941644
431.795385	2548.378887
432.172624	2550.743188
432.549802	2548.683876
432.926920	2550.226469
433.303977	2551.254865
433.680974	2549.437529
434.057910	2546.927034
434.434786	2551.474155
434.811601	2552.900802
435.188355	2551.083466
435.565050	2554.145967
435.941683	2550.851572
436.318257	2549.777807
436.694770	2551.890050
437.071222	2552.273178
437.447614	2547.864689
437.823946	2551.464073
438.200218	2552.147149
438.576429	2554.899619
438.952580	2550.259237
439.328670	2549.137580
439.704700	2550.188661
440.080670	2552.469783
440.456580	2550.453321
440.832429	2551.864844
441.208218	2551.527087
441.583947	2551.839639
441.959616	2551.058260
442.335224	2550.412992
442.710773	2553.246121
443.086261	2550.092879
443.461689	2551.758980
443.837057	2553.213353
444.212365	2553.457849
444.587612	2551.101110
444.962800	2548.144473
445.337927	2549.724875
445.712995	2549.021634
446.088002	2551.330482
446.462949	2551.721172
446.837837	2553.533466
447.212664	2551.312838
447.587431	2553.818292
447.962139	2553.699824
448.336786	2554.219063
448.711374	2553.858621
449.085901	2553.306614
449.460369	2554.423230
449.834776	2552.638662
450.209124	2554.382901
450.583412	2554.009855
450.957640	2552.003476
451.331808	2554.355174
451.705917	2554.786193
452.079965	2554.924825
452.453954	2554.264434
452.827883	2557.067315
453.201752	2554.526574
453.575562	2553.815771
453.949311	2555.252500
454.323001	2552.673950
454.696632	2551.201933
455.070202	2555.078580
455.443713	2555.746533
455.817164	2554.902140
456.190556	2554.735782
456.563888	2554.642520
456.937160	2554.755946
457.310373	2557.029507
457.683526	2553.593960
458.056619	2556.106975
458.429653	2553.422561
458.802628	2556.520350
459.175542	2555.673436
459.548398	2557.717624
459.921194	2557.740309
460.293930	2556.512788
460.666607	2557.160577
461.039224	2557.536143
461.411782	2558.516647
461.784280	2557.775597
462.156719	2555.638148
462.529099	2558.065464
462.901419	2557.793241
463.273680	2555.776780
463.645882	2553.775442
464.018024	2556.903478
464.390106	2551.529608
464.762130	2559.177038
465.134094	2557.694939
465.505999	2558.294836
465.877845	2559.983623
466.249631	2558.909857
466.621358	2561.075032
466.993026	2559.875238
467.364634	2564.495455
467.736184	2560.165104
468.107674	2558.007490
468.479105	2561.649724
468.850477	2558.302398
469.221790	2561.246432
469.593043	2562.053016
469.964238	2560.306257
470.335373	2560.545711
470.706449	2559.643345
471.077467	2557.914229
471.448425	2559.154353
471.819324	2559.908005
472.190164	2565.002091
472.560945	2561.437996
472.931667	2562.567214
473.302330	2561.566545
473.672934	2558.274672
474.043479	2561.012018
474.413965	2560.911195
474.784393	2559.910526
475.154761	2563.388922
475.525070	2565.942267
475.895321	2562.002605
476.265513	2561.140567
476.635645	2562.335321
477.005719	2562.365568
477.375734	2563.363716
477.745691	2562.267265
478.115588	2563.656103
478.485427	2563.709035
478.855207	2564.681978
479.224928	2563.676268
479.594591	2562.922615
479.964194	2563.938408
480.333739	2566.012843
480.703226	2569.022412
481.072653	2567.144582
481.442022	2564.956721
481.811333	2567.003429
482.180584	2563.535116
482.549777	2562.645352
482.918912	2560.359189
483.287988	2565.319684
483.657005	2566.829510
484.025964	2562.867163
484.394864	2568.356979
484.763706	2564.986968
485.132489	2567.535271
485.501213	2563.230126
485.869879	2566.998388
486.238487	2569.007288
486.607036	2568.208265
486.975527	2568.230950
487.343959	2568.336815
487.712333	2566.401012
488.080648	2565.591906
488.448905	2566.978224
488.817104	2569.259346
489.185244	2565.554098
489.553326	2568.974521
489.921350	2567.794891
490.289315	2568.503173
490.657222	2568.908986
491.025070	2567.550395
491.392861	2571.805128
491.760593	2571.250602
492.128267	2569.745817
492.495883	2569.060220
492.863440	2567.623491
493.230939	2568.210786
493.598380	2568.125086
493.965763	2567.268090
494.333088	2570.040725
494.700354	2571.646332
495.067563	2569.755899
495.434713	2570.580128
495.801805	2569.327401
496.168839	2570.224727
496.535815	2570.048286
496.902733	2570.101218
497.269593	2569.513924
497.636395	2567.399160
498.003139	2569.327401
498.369825	2569.435786
498.736453	2571.361507
499.103023	2571.847978
499.469535	2570.630540
499.835989	2569.781105
500.202385	2567.174829
500.568723	2567.144582
500.935003	2567.220199
501.301226	2563.015877
501.667390	2569.468554
502.033497	2568.314129
502.399546	2572.218503
502.765537	2568.606516
503.131470	2568.641804
503.497345	2570.489387
503.863163	2570.232288
504.228923	2569.486198
504.594625	2570.381002
504.960269	2568.808163
505.325856	2570.292782
505.691385	2570.426373
506.056856	2570.002916
506.422270	2570.370920
506.787625	2571.593400
507.152924	2571.043914
507.518164	2569.944943
507.883347	2572.130283
508.248472	2572.480643
508.613540	2572.699933
508.978550	2569.430745
509.343503	2572.299162
509.708398	2574.497105
510.073236	2574.960891
510.438016	2575.976683
510.802738	2574.315623
511.167403	2575.056673
511.532010	2574.855027
511.896561	2575.815366
512.261053	2576.939544
512.625488	2574.968453
512.989866	2576.521128
513.354186	2576.664801
513.718449	2578.197312
514.082655	2576.695048
514.446803	2577.569688
514.810894	2579.369380
515.174927	2581.083372
515.538904	2580.997672
515.902822	2581.622776
516.266684	2583.707293
516.630488	2581.093454
516.994235	2579.606314
517.357925	2581.408527
517.721558	2583.553537
518.085133	2584.145873
518.448651	2579.485326
518.812112	2583.208218
519.175516	2581.539597
519.538863	2581.723599
519.902152	2585.176789
520.265385	2587.515884
520.628560	2586.784917
520.991678	2587.926738
521.354739	2590.343972
521.717743	2587.904053
522.080690	2589.572675
522.443580	2591.730289
522.806413	2591.589137
523.169189	2592.763726
523.531908	2594.223140
523.894569	2590.280957
524.257174	2592.420927
524.619722	2594.409662
524.982213	2597.000815
525.344647	2596.405959
525.707025	2597.061309
526.069345	2598.016608
526.431608	2598.636670
526.793815	2600.033069
527.155964	2600.917792
527.518057	2597.439396
527.880093	2598.505600
528.242072	2604.474326
528.603995	2601.522730
528.965860	2604.464244
529.327669	2604.617999
529.689421	2607.945160
530.051117	2606.954574
530.412755	2605.691765
530.774337	2609.553288
531.135862	2604.754110
531.497331	2608.603031
531.858743	2609.979266
532.220098	2610.571602
532.581396	2612.225100
532.942638	2612.855244
533.303824	2613.533279
533.664953	2614.402878
534.026025	2612.913218
534.387040	2617.394803
534.747999	2616.094186
535.108902	2618.453446
535.469748	2615.146449
535.830537	2616.056377
536.191270	2619.723816
536.551947	2614.891870
536.912567	2619.353292
537.273131	2620.222891
537.633638	2618.622324
537.994089	2622.130967
538.354483	2620.941255
538.714821	2626.078191
539.075103	2623.988632
539.435328	2623.802110
539.795497	2626.131123
540.155609	2626.814199
540.515665	2623.756739
540.875665	2626.352934
541.235609	2627.028448
541.595496	2629.188583
541.955328	2626.428551
542.315102	2632.304016
542.674821	2627.194806
543.034483	2629.168418
543.394090	2628.145064
543.753640	2632.125055
544.113134	2635.232926
544.472571	2633.904582
544.831953	2634.249901
545.191278	2636.276445
545.550548	2636.316774
545.909761	2637.652680
546.268918	2638.582773
546.628019	2638.373565
546.987064	2637.413225
547.346053	2636.813328
547.704986	2638.103863
548.063863	2639.243164
548.422684	2639.759882
548.781449	2637.138482
549.140158	2639.283493
549.498811	2639.737197
549.857408	2641.252064
550.215949	2640.957156
550.574434	2641.824235
550.932864	2644.596869
551.291237	2643.520583
551.649555	2645.713485
552.007817	2645.501757
552.366022	2646.058804
552.724173	2641.098309
553.082267	2645.592497
553.440305	2646.910759
553.798288	2646.232724
554.156215	2647.505615
554.514086	2648.304638
554.871902	2644.309524
555.229661	2645.113588
555.587365	2644.516211
555.945014	2648.077786
556.302606	2650.414361
556.660143	2651.094917
557.017625	2653.628097
557.375050	2655.904177
557.732421	2654.182623
558.089735	2653.749084
558.446994	2653.481903
558.804197	2653.696152
559.161345	2655.631955
559.518437	2653.857469
559.875474	2656.655309
560.232455	2657.376194
560.589381	2658.742347
560.946251	2659.697646
561.303065	2658.422234
561.659825	2660.259734
562.016528	2660.612615
562.373177	2658.213026
562.729770	2658.586071
563.086307	2662.558501
563.442789	2664.464057
563.799216	2664.111176
564.155587	2663.092863
564.511904	2664.577483
564.868164	2665.716783
565.224370	2669.104439
565.580520	2667.715601
565.936615	2671.176353
566.292654	2666.505724
566.648638	2671.456137
567.004567	2669.364058
567.360441	2672.126611
567.716260	2670.228616
568.072023	2675.864626
568.427732	2676.177178
568.783385	2672.439162
569.138982	2676.623320
569.494525	2679.418640
569.850013	2680.005934
570.205445	2680.883095
570.560823	2677.876047
570.916145	2681.495595
571.271412	2682.493743
571.626625	2687.539938
571.981782	2686.083045
572.336884	2684.386697
572.691931	2687.512212
573.046923	2684.875689
573.401860	2686.393076
573.756743	2696.029242
574.111570	2693.738037
574.466342	2696.220805
574.821059	2698.375899
575.175722	2697.602082
575.530330	2701.496373
575.884882	2702.348328
576.239380	2705.337732
576.593823	2706.366127
576.948211	2708.044832
577.302544	2708.702702
577.656823	2708.642208
578.011047	2711.797971
578.365216	2712.937272
578.719330	2716.650081
579.073389	2715.606562
579.427394	2727.919581
579.781344	2722.923797
580.135239	2726.263562
580.489080	2728.335476
580.842866	2724.816751
581.196597	2738.233782
581.550273	2736.875191
581.903895	2743.118660
582.257463	2746.347519
582.610975	2747.552354
582.964434	2752.371697
583.317837	2757.180958
583.671186	2764.528440
584.024481	2769.390633
584.377721	2769.131013
584.730906	2770.522372
585.084037	2778.172323
585.437113	2782.059052
585.790135	2787.563992
586.143103	2791.851494
586.496016	2792.998356
586.848874	2801.679223
587.201679	2802.085036
587.554428	2806.296920
587.907124	2817.596667
588.259765	2821.047336
588.612352	2832.586537
588.964884	2831.603512
589.317362	2836.606858
589.669786	2845.985924
590.022155	2851.934486
590.374470	2862.341948
590.726731	2863.120806
591.078937	2868.184645
591.431090	2879.933054
591.783188	2884.094527
592.135232	2887.928324
592.487222	2901.854512
592.839157	2903.896179
593.191038	2914.868251
593.542866	2915.725247
593.894639	2922.026689
594.246358	2937.535799
594.598022	2944.255657
594.949633	2948.545679
595.301190	2950.047943
595.652692	2964.276599
596.004141	2976.657673
596.355535	2976.559371
596.706876	2983.498519
597.058162	2989.608398
597.409395	3002.667507
597.760573	3014.529342
598.111698	3019.015968
598.462768	3026.799510
598.813785	3038.694113
599.164748	3043.286604
599.515657	3055.566854
599.866511	3062.140519
600.217312	3077.526121
600.568060	3078.007551
600.918753	3104.408073
601.269392	3116.655557
601.619978	3116.287552
601.970510	3142.249495
602.320988	3150.068324
602.671412	3172.955163
603.021783	3180.176616
603.372100	3187.075435
603.722363	3206.120914
604.072572	3225.738564
604.422728	3234.242991
604.772830	3245.293200
605.122878	3250.036926
605.472872	3274.993158
605.822813	3291.840694
606.172701	3307.707726
606.522534	3334.478773
606.872314	3347.464786
607.222041	3357.027854
607.571714	3382.241185
607.921333	3400.611150
608.270899	3420.006989
608.620411	3456.071404
608.969870	3450.775672
609.319276	3478.186946
609.668627	3507.213910
610.017926	3539.227757
610.367171	3568.335380
610.716362	3601.483487
611.065500	3604.490535
611.414585	3637.847850
611.763616	3657.604132
612.112594	3682.051207
612.461518	3695.793393
612.810389	3734.849732
613.159207	3742.540013
613.507971	3762.059360
613.856682	3822.797702
614.205340	3841.626412
614.553945	3897.976430
614.902496	3886.475037
615.250994	3945.164150
615.599439	3965.177531
615.947830	3995.452180
616.296169	4023.256664
616.644454	4064.405083
616.992686	4076.776074
617.340864	4140.400477
617.688990	4158.931758
618.037063	4223.244279
618.385082	4239.791866
618.733048	4297.729847
619.080961	4316.679545
619.428821	4368.328686
619.776628	4406.827978
620.124382	4412.811828
620.472083	4458.719095
620.819731	4498.473635
621.167326	4491.884847
621.514868	4509.705325
621.862357	4523.792830
622.209793	4545.444586
622.557176	4553.273498
622.904506	4547.077919
623.251783	4565.720106
623.599007	4583.590997
623.946179	4598.469962
624.293297	4615.713229
624.640363	4616.139207
624.987376	4636.543277
625.334336	4634.685612
625.681243	4649.403260
626.028097	4675.650028
626.374899	4722.920927
626.721647	4711.495152
627.068343	4722.414291
627.414987	4747.519237
627.761577	4795.667298
628.108115	4838.849822
628.454600	4813.175225
628.801032	4854.951267
629.147412	4887.161720
629.493739	4926.016413
629.840014	4936.451601
630.186236	4986.343901
630.532405	4985.484384
630.878521	5058.757555
631.224585	5071.284823
631.570597	5097.788689
631.916556	5115.142861
632.262462	5146.329959
632.608316	5187.702709
632.954117	5205.871028
633.299866	5248.398201
633.645562	5268.966109
633.991206	5243.137757
634.336797	5230.670984
634.682336	5270.871665
635.027823	5269.308908
635.373257	5292.067197
635.718639	5284.429848
636.063968	5300.616993
636.409245	5284.444972
636.754470	5317.013346
637.099642	5319.163398
637.444762	5287.177277
637.789829	5343.333211
638.134845	5334.370039
638.479808	5371.155339
638.824719	5393.144852
639.169577	5381.681268
639.514383	5426.640798
639.859137	5417.786012
640.203839	5467.534638
640.548489	5444.015135
640.893086	5497.337940
641.237632	5469.616635
641.582125	5553.937495
641.926566	5544.218150
642.270955	5572.567079
642.615292	5597.634216
642.959576	5626.265450
643.303809	5681.226629
643.647990	5678.206978
643.992118	5751.749851
644.336195	5695.225914
644.680219	5783.730931
645.024192	5820.087733
645.368112	5911.125930
645.711981	5973.250589
646.055797	6054.463578
646.399562	6090.737200
646.743274	6194.247212
647.086935	6337.867165
647.430544	6370.002000
647.774101	6400.710189
648.117606	6512.321335
648.461059	6508.157342
648.804460	6574.088072
649.147810	6522.108735
649.491108	6488.814434
649.834354	6549.184772
650.177548	6471.334233
650.520690	6444.064112
650.863781	6443.585202
651.206820	6487.914588
651.549807	6458.912830
651.892742	6430.309323
652.235626	6432.837462
652.578458	6463.459951
652.921238	6386.196707
653.263967	6484.504248
653.606644	6451.504855
653.949269	6466.187215
654.291843	6453.148271
654.634365	6519.205030
654.976836	6510.120871
655.319255	6548.854577
655.661622	6562.785805
656.003938	6562.203552
656.346203	6561.512914
656.688416	6617.318487
657.030577	6627.277287
657.372687	6642.068032
657.714746	6655.180073
658.056753	6742.341623
658.398708	6727.134983
658.740612	6740.158803
659.082465	6822.427914
659.424266	6815.713097
659.766016	6861.834613
660.107715	6861.640529
660.449362	6910.869917
660.790958	6941.457118
661.132503	6941.837725
661.473996	6989.718604
661.815438	7037.894391
662.156829	7063.944553
662.498168	7094.849347
662.839456	7109.393076
663.180693	7147.695763
663.521879	7234.391006
663.863013	7259.110304
664.204097	7276.656040
664.545129	7364.246088
664.886110	7368.551233
665.227040	7445.186854
665.567918	7484.863255
665.908746	7535.040380
666.249522	7535.355452
666.590248	7592.035666
666.930922	7682.773914
667.271545	7706.363994
667.612118	7775.629447
667.952639	7766.875484
668.293109	7793.535626
668.633528	7807.222359
668.973896	7815.573030
669.314213	7922.843743
669.654480	7792.141747
669.994695	7840.932554
670.334859	7902.739621
670.674973	7899.843478
671.015035	7957.221891
671.355047	7955.802807
671.695008	7951.767363
672.034918	7999.192018
672.374777	8045.144656
672.714585	8035.447996
673.054342	8071.852689
673.394049	8076.044408
673.733705	8145.685428
674.073310	8141.113101
674.412864	8179.879574
674.752368	8140.311558
675.091820	8142.602762
675.431223	8190.897016
675.770574	8144.311713
676.109875	8118.264072
676.449125	8124.414279
676.788324	8113.900953
677.127473	8055.479021
677.466571	8071.383861
677.805619	8058.380205
678.144616	8029.194445
678.483562	8038.442442
678.822458	7979.486147
679.161303	7992.940987
679.500098	8015.437136
679.838842	8006.998244
680.177535	8052.353506
680.516179	8099.543747
680.854771	8096.181297
681.193314	8258.667768
681.531805	8344.369904
681.870247	8626.934139
682.208638	8875.460503
682.546978	9105.238816
682.885268	9184.692441
683.223508	9017.215228
683.561697	8951.914642
683.899836	8909.871419
684.237925	8806.817631
684.575963	8789.823902
684.913951	8770.294472
685.251889	8721.218839
685.589776	8836.522630
685.927614	8809.983476
686.265401	8774.118187
686.603137	8830.727824
686.940824	8950.712327
687.278460	9032.681488
687.616046	9094.249100
687.953582	9221.490344
688.291068	9165.094956
688.628504	9330.449843
688.965889	9348.419036
689.303224	9377.509014
689.640510	9342.369651
689.977745	9164.764760
690.314930	9038.657776
690.652065	9025.190334
690.989150	8850.388324
691.326185	8719.761946
691.663170	8610.210111
692.000105	8470.179460
692.336990	8440.134183
692.673825	8270.451465
693.010610	8214.764359
693.347345	8085.546983
693.684030	7959.409752
694.020665	7950.945655
694.357251	7822.907909
694.693786	7820.384811
695.030272	7690.900254
695.366707	7623.013556
695.703093	7592.237312
696.039429	7605.878674
696.375716	7583.763132
696.711952	7482.897205
697.048139	7527.327415
697.384276	7511.112543
697.720363	7517.560179
698.056400	7492.586303
698.392388	7474.221380
698.728326	7451.478214
699.064214	7417.500837
699.400053	7481.067267
699.735842	7348.605908
700.071581	7337.394382
700.407270	7298.325440
700.742910	7253.880107
701.078501	7207.531738
701.414042	7125.953266
701.749533	7088.316012
702.084974	6994.177505
702.420366	7091.877587
702.755709	7023.988368
703.091002	6932.766168
703.426246	6963.171888
703.761440	6943.115657
704.096584	6912.372181
704.431679	6874.026644
704.766725	6878.137705
705.101721	6847.731985
705.436668	6892.560446
705.771565	6821.608726
706.106413	6888.890486
706.441212	6945.916018
706.775961	6909.017293
707.110661	6941.898219
707.445311	7076.577685
707.779913	6996.360324
708.114465	7109.259485
708.448967	7155.113821
708.783421	7252.556804
709.117825	7412.933552
709.452180	7449.885209
709.786485	7518.253338
710.120742	7748.986949
710.454949	7739.154179
710.789107	7821.521592
711.123216	7974.286197
711.457275	8108.310313
711.791286	8241.074141
712.125247	8235.266732
712.459159	8248.832477
712.793023	8460.913819
713.126837	8125.399825
713.460602	8266.169005
713.794318	8125.483004
714.127985	8188.688991
714.461602	7959.548384
714.795171	7932.507635
715.128691	7756.500789
715.462162	7551.134264
715.795584	7534.246398
716.128957	7436.730318
716.462281	7292.311343
716.795556	7359.812393
717.128782	7205.847993
717.461960	6984.448078
717.795088	7053.549694
718.128167	6986.083932
718.461198	6856.836309
718.794180	6810.994577
719.127113	6828.623492
719.459997	6711.580502
719.792833	6508.885788
720.125619	6572.842907
720.458357	6451.794721
720.791046	6445.931859
721.123686	6466.739222
721.456278	6335.719633
721.788821	6345.943093
722.121315	6260.039311
722.453761	6315.769267
722.786158	6284.065450
723.118506	6299.637575
723.450805	6280.163597
723.783056	6348.314956
724.115259	6255.310709
724.447412	6255.393888
724.779518	6298.725126
725.111574	6302.533717
725.443582	6383.492128
725.775542	6363.675352
726.107453	6530.275404
726.439315	6461.791329
726.771129	6499.025292
727.102895	6650.761502
727.434612	6752.159270
727.766281	6771.681138
728.097901	6848.427665
728.429473	6844.482962
728.760996	6823.915054
729.092471	6813.132026
729.423897	6787.134796
729.755276	6807.536345
730.086606	6755.118428
730.417887	6845.917170
730.749120	6991.626681
731.080305	7180.352357
731.411442	7301.360214
731.742530	7304.916748
732.073570	7416.474962
732.404562	7499.107036
732.735506	7352.545570
733.066401	7490.645459
733.397249	7443.382121
733.728048	7255.268945
734.058798	6967.963505
734.389501	6786.993643
734.720156	6632.522607
735.050762	6422.918992
735.381320	6325.349980
735.711831	6298.659591
736.042293	6194.133786
736.372707	6227.319702
736.703073	6096.584939
737.033391	6135.094313
737.363661	6144.859028
737.693883	6161.396533
738.024056	6236.126598
738.354182	6283.967148
738.684260	6317.574000
739.014290	6406.189923
739.344272	6501.606362
739.674207	6524.047059
740.004093	6589.241781
740.333931	6604.208967
740.663722	6619.090453
740.993464	6693.162647
741.323159	6713.354988
741.652806	6471.969419
741.982405	6469.653009
742.311956	6551.347427
742.641460	6423.206338
742.970915	6239.448718
743.300323	6245.992136
743.629683	6193.586821
743.958996	6077.978040
744.288260	5997.266646
744.617477	5951.810562
744.946647	5974.798224
745.275768	5815.099511
745.604842	5780.441578
745.933869	5760.070276
746.262847	5722.894287
746.591778	5717.215427
746.920662	5680.178069
747.249498	5672.707079
747.578286	5717.853133
747.907027	5788.446931
748.235720	5841.167318
748.564365	5810.312935
748.892963	5829.474361
749.221514	5989.445296
749.550017	5854.135686
749.878473	5721.271035
750.206881	5774.389673
750.535242	5722.261622
750.863555	5658.680069
751.191821	5683.248132
751.520039	5689.869688
751.848210	5604.772490
752.176334	5620.500890
752.504411	5672.669271
752.832440	5609.987564
753.160421	5529.908835
753.488356	5577.948511
753.816243	5620.034583
754.144082	5479.109128
754.471875	5444.166370
754.799620	5489.738401
755.127318	5500.655019
755.454969	5458.374862
755.782572	5422.406229
756.110129	5463.796623
756.437638	5460.802177
756.765100	5399.438732
757.092515	5394.468155
757.419882	5438.527839
757.747203	5421.682824
758.074477	5491.066745
758.401703	5489.229244
758.728882	5428.523669
759.056014	5469.533456
759.383099	5608.132419
759.710138	5613.692812
760.037129	5598.758394
760.364073	5604.212922
760.690970	5684.110169
761.017820	5680.583882
761.344623	5622.928206
761.671379	5717.772474
761.998088	5826.991593
762.324751	6047.206837
762.651366	6590.716318
762.977935	7786.331817
763.304456	9319.210591
763.630931	10227.843283
763.957359	9937.324108
764.283740	9056.526146
764.610074	8286.192468
764.936362	7344.499888
765.262602	6766.569408
765.588796	6241.288739
765.914943	5907.531587
766.241044	5755.165233
766.567097	5580.494293
766.893104	5329.167568
767.219064	5149.563860
767.544978	5092.228296
767.870845	5025.765724
768.196665	4916.382768
768.522438	4849.688302
768.848165	4819.824507
769.173846	4764.225621
769.499479	4722.895722
769.825066	4666.462525
770.150607	4611.380357
770.476101	4583.570832
770.801548	4580.533537
771.126949	4519.890977
771.452303	4466.789983
771.777611	4421.913631
772.102872	4437.599181
772.428087	4401.464191
772.753256	4366.521433
773.078378	4330.837625
773.403453	4260.856328
773.728482	4250.055655
774.053465	4202.802400
774.378401	4187.568033
774.703291	4194.844938
775.028135	4127.787510
775.352932	4080.085592
775.677683	4064.994898
776.002388	4084.665480
776.327046	4100.787090
776.651658	4024.179196
776.976224	3960.436326
777.300743	3970.813541
777.625216	3988.875995
777.949643	3991.073938
778.274024	3944.302113
778.598359	3894.172879
778.922647	3914.864295
779.246889	3912.545364
779.571086	3910.859098
779.895236	3895.753281
780.219339	3878.845251
780.543397	3872.810990
780.867409	3915.781785
781.191374	3937.841874
781.515294	3879.656877
781.839167	3872.977348
782.162995	3891.017117
782.486776	3876.556567
782.810511	3881.391033
783.134201	3888.781365
783.457844	3851.106302
783.781441	3788.979122
784.104993	3794.259730
784.428498	3814.240344
784.751958	3809.806649
785.075372	3794.489103
785.398739	3755.160541
785.722061	3760.443670
786.045337	3804.032007
786.368568	3844.149509
786.691752	3760.897374
787.014891	3798.615287
787.337983	3911.542175
787.661030	4064.886513
787.984031	4222.934248
788.306987	4395.714755
788.629897	4477.915809
788.952760	4434.526598
789.275579	4366.317266
789.598351	4312.792815
789.921078	4181.526210
790.243759	3988.230727
790.566395	3958.245944
790.888984	3960.963126
791.211529	3856.094523
791.534027	3797.506233
791.856480	3793.188485
792.178888	3729.806058
792.501249	3678.567770
792.823566	3684.055066
793.145836	3720.789954
793.468062	3668.329187
793.790241	3624.403093
794.112375	3652.570540
794.434464	3711.370558
794.756507	3739.197728
795.078505	3725.684915
795.400457	3746.575456
795.722364	3874.814848
796.044226	3977.102380
796.366042	4051.789595
796.687812	4041.608985
797.009538	4049.190880
797.331218	4002.519878
797.652852	3975.295127
797.974442	3957.998928
798.295986	3961.144608
798.617484	3882.295921
798.938938	3794.466418
799.260346	3830.982016
799.581709	3834.692305
799.903026	3763.163373
800.224299	3725.299266
800.545526	3722.544276
800.866708	3684.533976
801.187845	3623.997280
801.508936	3656.802588
801.829983	3662.632683
802.150984	3585.745004
802.471940	3566.573496
802.792851	3582.495981
803.113717	3577.908531
803.434538	3585.850869
803.755314	3532.253321
804.076045	3500.063033
804.396731	3518.395189
804.717372	3544.851164
805.037967	3535.000750
805.358518	3523.527084
805.679024	3548.442987
805.999485	3559.767939
806.319901	3557.088565
806.640272	3578.856268
806.960598	3593.130295
807.280879	3569.288158
807.601115	3577.134714
807.921306	3592.273299
808.241453	3635.745689
808.561554	3615.036629
808.881611	3548.127914
809.201623	3580.081268
809.521590	3590.932352
809.841513	3565.993764
810.161390	3594.622476
810.481223	3579.073037
810.801011	3522.634799
811.120755	3508.834641
811.440453	3545.730846
811.760107	3552.672515
812.079716	3514.342101
812.399281	3475.931030
812.718801	3497.111437
813.038276	3477.725680
813.357707	3469.158239
813.677093	3489.143894
813.996434	3444.852316
814.315731	3445.300979
814.634983	3448.217286
814.954191	3462.002322
815.273354	3491.321672
815.592473	3494.742095
815.911547	3491.412413
816.230577	3526.493803
816.549562	3575.319898
816.868502	3618.595683
817.187399	3644.217348
817.506250	3643.284734
817.825058	3610.181998
818.143821	3694.391952
818.462539	3795.812406
818.781213	3845.359386
819.099843	3894.813106
819.418429	4117.196046
819.736970	4353.341336
820.055466	4583.464968
820.373919	4934.046971
820.692327	5335.963044
821.010691	5732.785030
821.329011	6976.208312
821.647286	9508.349642
821.965517	13800.405670
822.283704	17739.507833
822.601847	20052.439629
822.919945	18395.639212
823.237999	15974.171373
823.556010	13561.228126
823.873976	11563.534803
824.191897	9530.697077
824.509775	8183.526849
824.827609	7073.520225
825.145398	6520.359455
825.463144	6407.848462
825.780845	6525.408170
826.098502	6682.795514
826.416116	7457.696477
826.733685	8717.989980
827.051210	9837.332821
827.368692	9978.754831
827.686129	8822.266247
828.003522	7329.976324
828.320872	6332.480692
828.638177	5644.529550
828.955439	5110.807469
829.272656	4625.367039
829.589830	4333.272502
829.906960	4165.122295
830.224046	3984.780058
830.541088	3856.936396
830.858086	3816.279490
831.175041	3745.216865
831.491952	3721.420098
831.808819	3735.137078
832.125642	3796.949186
832.442421	3929.339968
832.759157	4188.964433
833.075849	4696.212894
833.392497	5519.476167
833.709101	6269.952740
834.025662	6638.206508
834.342179	6335.366752
834.658653	5690.585532
834.975083	5066.215943
835.291469	4505.997557
835.607811	4090.593877
835.924110	3960.448929
836.240366	3768.033128
836.556578	3565.812282
836.872746	3454.339768
837.188871	3422.507402
837.504952	3356.916949
837.820990	3279.568005
838.136984	3230.520099
838.452935	3253.530445
838.768842	3249.421905
839.084706	3268.543002
839.400526	3413.554313
839.716303	3721.926734
840.032037	4209.708781
840.347727	4502.970344
840.663373	4264.740537
840.978977	3895.496182
841.294537	3596.147425
841.610054	3367.246273
841.925527	3258.407762
842.240957	3189.588450
842.556344	3142.080616
842.871687	3086.501895
843.186987	3035.908875
843.502244	3001.198010
843.817458	2967.119810
844.132629	2932.993719
844.447756	2943.378496
844.762840	2931.360385
845.077881	2902.388874
845.392879	2882.080586
845.707833	2879.401213
846.022745	2874.715460
846.337613	2877.740153
846.652438	2863.816486
846.967221	2865.510313
847.281960	2849.832325
847.596656	2845.628002
847.911309	2848.002386
848.225919	2837.599965
848.540485	2833.746003
848.855009	2835.616271
849.169490	2826.332986
849.483928	2817.941986
849.798323	2811.459062
850.112675	2810.221458
850.426984	2823.870382
850.741251	2820.144970
851.055474	2813.200780
851.369654	2806.705254
851.683792	2808.268011
851.997887	2815.852427
852.311938	2820.180258
852.625947	2811.138948
852.939914	2812.033753
853.253837	2819.794610
853.567718	2801.785087
853.881555	2797.789973
854.195350	2814.244299
854.509103	2814.445945
854.822812	2803.708288
855.136479	2803.317598
855.450103	2802.957156
855.763685	2795.027421
856.077224	2790.949127
856.390720	2803.037814
856.704173	2815.660863
857.017584	2807.857157
857.330953	2804.187197
857.644278	2812.812612
857.957561	2820.656647
858.270802	2822.405927
858.584000	2826.832060
858.897155	2812.787406
859.210268	2810.770944
859.523339	2811.438897
859.836367	2807.305151
860.149352	2802.692495
860.462295	2799.098152
860.775195	2809.180460
861.088054	2809.273722
861.400869	2794.273768
861.713642	2784.980401
862.026373	2801.159984
862.339062	2806.808597
862.651708	2812.091727
862.964312	2814.922334
863.276873	2810.105512
863.589392	2814.637509
863.901869	2825.324755
864.214303	2844.203877
864.526696	2864.978472
864.839045	2861.328676
865.151353	2860.789273
865.463619	2856.988243
865.775842	2857.416741
866.088023	2870.387630
866.400162	2884.908673
866.712258	2858.835826
867.024313	2841.504339
867.336325	2848.624968
867.648296	2873.503063
867.960224	2866.992412
868.272110	2852.788962
868.583954	2857.081504
868.895755	2872.265459
869.207515	2858.356916
869.519233	2860.582585
869.830909	2870.790922
870.142542	2882.239382
870.454134	2882.113353
870.765684	2884.197871
871.077191	2883.822305
871.388657	2888.404713
871.700081	2901.688154
872.011463	2913.948240
872.322803	2914.714495
872.634101	2911.825914
872.945357	2929.343924
873.256571	2954.290074
873.567744	2949.647171
873.878874	2937.422373
874.189963	2963.268369
874.501010	2967.024028
874.812015	2956.999694
875.122979	2958.718727
875.433900	2950.846966
875.744780	2951.575412
876.055618	2966.353555
876.366415	2959.260651
876.677169	2970.910758
876.987882	2970.648618
877.298554	2964.445478
877.609183	2978.911069
877.919771	3002.949811
878.230317	3025.927390
878.540822	3075.141655
878.851285	3115.821246
879.161707	3148.739980
879.472087	3239.480750
879.782425	3445.457255
880.092722	3851.106302
880.402977	4350.407384
880.713191	4934.576292
881.023363	6012.014542
881.333494	7246.300732
881.643583	7824.049730
881.953631	7556.253556
882.263637	6979.366595
882.573602	6440.779800
882.883526	5876.208378
883.193408	5322.304037
883.503248	4856.302296
883.813048	4565.495775
884.122806	4293.346564
884.432522	3987.895491
884.742197	3760.673043
885.051831	3574.727563
885.361424	3435.899227
885.670975	3369.335832
885.980485	3290.885395
886.289954	3217.871844
886.599382	3174.192766
886.908768	3136.931077
887.218113	3093.793924
887.527417	3043.014381
887.836680	2994.019407
888.145901	2986.533294
888.455082	2980.078096
888.764221	2931.655293
889.073319	2903.951632
889.382376	2902.194790
889.691392	2904.233937
890.000366	2904.193607
890.309300	2889.536453
890.618193	2901.025242
890.927044	2920.403438
891.235855	2920.615166
891.544625	2904.019688
891.853353	2915.553848
892.162041	2931.940118
892.470687	2967.744913
892.779293	3016.450021
893.087858	3059.468708
893.396381	3124.613018
893.704864	3236.448496
894.013306	3457.571147
894.321707	3742.938264
894.630068	3951.271508
894.938387	3956.766366
895.246665	3908.257863
895.554903	3805.264569
895.863100	3612.226186
896.171256	3451.151238
896.479371	3322.480827
896.787446	3201.067157
897.095480	3103.782970
897.403473	3039.898948
897.711425	3002.130624
898.019336	2994.047133
898.327207	2970.807414
898.635038	2934.506065
898.942827	2922.324117
899.250576	2911.528486
899.558284	2878.602190
899.865952	2862.188193
900.173579	2844.740759
900.481165	2836.856395
900.788711	2827.994046
901.096216	2799.748461
901.403681	2789.363684
901.711105	2793.585651
902.018489	2794.936680
902.325832	2792.738737
902.633135	2802.198462
902.940397	2827.860456
903.247619	2902.325860
903.554800	3076.205338
903.861941	3392.346178
904.169041	3795.303249
904.476101	4096.973457
904.783121	4082.558278
905.090100	3851.005479
905.397039	3588.673915
905.703938	3347.928572
906.010796	3168.637415
906.317614	3063.577248
906.624391	2970.434369
906.931129	2906.867939
907.237826	2847.137828
907.544483	2800.547484
907.851099	2770.224944
908.157675	2749.858682
908.464211	2733.477453
908.770707	2720.637634
909.077163	2708.518700
909.383578	2692.986905
909.689954	2685.231090
909.996289	2682.788651
910.302584	2682.513908
910.608839	2683.454083
910.915054	2678.559123
911.221229	2670.616785
911.527363	2672.857578
911.833458	2679.199349
912.139513	2679.796726
912.445527	2685.127746
912.751502	2694.106041
913.057436	2702.068544
913.363331	2712.662529
913.669186	2732.902761
913.975000	2762.438882
914.280775	2819.230000
914.586510	2883.159393
914.892205	2960.190744
915.197859	3076.044021
915.503475	3251.602204
915.809050	3451.126032
916.114585	3596.066767
916.420081	3621.597691
916.725536	3572.000298
917.030952	3464.626242
917.336328	3338.360462
917.641665	3220.399982
917.946961	3119.768469
918.252218	3053.346226
918.557435	2981.444249
918.862612	2926.465425
919.167750	2879.643188
919.472848	2842.131962
919.777906	2812.999134
920.082925	2788.680608
920.387904	2762.985847
920.692843	2748.021182
920.997743	2734.586507
921.302603	2724.778942
921.607423	2714.069011
921.912204	2704.959646
922.216946	2693.715352
922.521647	2683.746470
922.826310	2679.637930
923.130932	2669.921106
923.435516	2661.983809
923.740059	2655.384939
924.044564	2648.435708
924.349028	2640.168216
924.653454	2635.593369
924.957840	2630.123717
925.262186	2627.635907
925.566493	2621.072325
925.870761	2617.982098
926.174989	2613.878598
926.479178	2607.733432
926.783328	2604.945674
927.087438	2604.935592
927.391509	2602.034407
927.695541	2601.908379
927.999533	2594.712132
928.303486	2592.413365
928.607400	2591.450505
928.911275	2593.850094
929.215110	2591.284147
929.518906	2589.393714
929.822663	2591.677357
930.126381	2586.762232
930.430060	2591.178283
930.733699	2590.452357
931.037299	2592.158787
931.340861	2593.552666
931.644383	2592.254569
931.947866	2593.366143
932.251309	2591.256421
932.554714	2589.668457
932.858080	2588.914805
933.161407	2585.975812
933.464694	2583.430029
933.767943	2582.946078
934.071153	2587.959506
934.374323	2584.854155
934.677455	2587.649475
934.980548	2582.797364
935.283602	2581.955492
935.586617	2582.467169
935.889593	2580.783423
936.192530	2580.909452
936.495428	2583.238465
936.798287	2586.656368
937.101108	2588.103179
937.403890	2593.391349
937.706632	2595.581731
938.009336	2602.273862
938.312002	2610.538834
938.614628	2619.335647
938.917216	2623.807151
939.219765	2625.816051
939.522275	2626.168932
939.824747	2624.084414
940.127179	2619.683487
940.429573	2619.479320
940.731929	2617.430091
941.034246	2608.850047
941.336524	2610.228803
941.638763	2606.568925
941.940964	2603.912237
942.243126	2602.283945
942.545250	2603.894593
942.847335	2599.770929
943.149381	2594.949066
943.451389	2592.307501
943.753359	2589.998653
944.055290	2588.476224
944.357182	2588.317428
944.659036	2588.072932
944.960851	2587.399938
945.262628	2585.668302
945.564367	2585.333065
945.866067	2585.862386
946.167729	2586.981522
946.469352	2585.360791
946.770937	2583.876171
947.072484	2583.702252
947.373992	2583.934145
947.675462	2582.699062
947.976893	2579.815522
948.278286	2575.220510
948.579641	2577.902404
948.880958	2576.503484
949.182236	2580.992631
949.483476	2575.921231
949.784678	2575.495253
950.085841	2579.903742
950.386967	2577.478947
950.688054	2578.414081
950.989103	2578.829976
951.290114	2582.245358
951.591087	2584.586974
951.892021	2584.178641
952.192917	2585.675863
952.493776	2589.953282
952.794596	2590.656523
953.095378	2588.831626
953.396122	2589.444126
953.696828	2585.862386
953.997496	2584.559248
954.298126	2580.821232
954.598718	2580.148238
954.899272	2579.455079
955.199788	2576.037177
955.500266	2574.597928
955.800706	2571.482495
956.101108	2569.859243
956.401472	2567.752041
956.701798	2567.278172
957.002087	2565.619633
957.302337	2565.846485
957.602550	2565.513768
957.902724	2563.489745
958.202861	2560.485217
958.502960	2558.441030
958.803022	2560.298695
959.103045	2557.153015
959.403031	2558.506565
959.702979	2557.084959
960.002889	2557.629404
960.302762	2557.790721
960.602596	2558.423386
960.902393	2556.336348
961.202153	2553.901471
961.501875	2554.738302
961.801559	2554.776111
962.101205	2553.475493
962.400814	2556.250648
962.700385	2553.195709
962.999918	2549.664381
963.299414	2550.002138
963.598873	2552.699155
963.898293	2549.709751
964.197677	2554.115720
964.497022	2551.864844
964.796331	2552.827705
965.095601	2552.739485
965.394835	2554.266954
965.694030	2552.240410
965.993189	2552.215205
966.292309	2551.537169
966.591393	2555.509599
966.890439	2553.601522
967.189447	2550.851572
967.488419	2549.944165
967.787353	2551.673281
968.086249	2552.512633
968.385108	2553.437684
968.683930	2552.560524
968.982714	2553.591440
969.281462	2552.232849
969.580172	2553.389793
969.878844	2551.083466
970.177480	2553.160421
970.476078	2549.119936
970.774639	2552.099258
971.073162	2551.819474
971.371649	2554.556821
971.670098	2554.226625
971.968510	2551.264947
972.266885	2554.309804
972.565223	2555.441543
972.863524	2552.701676
973.161788	2554.380380
973.460014	2553.122612
973.758204	2551.237221
974.056356	2552.694114
974.354471	2551.098589
974.652550	2552.797458
974.950591	2552.976419
975.248595	2552.114382
975.546563	2550.874258
975.844493	2553.263765
976.142386	2551.305276
976.440243	2552.772252
976.738062	2550.828887
977.035845	2552.376522
977.333590	2552.091696
977.631299	2552.815102
977.928971	2550.342416
978.226606	2547.244627
978.524204	2546.120450
978.821765	2544.335881
979.119290	2551.403579
979.416777	2553.238559
979.714228	2550.964998
980.011642	2550.551624
980.309020	2550.276881
980.606360	2550.292004
980.903664	2549.001469
981.200931	2550.453321
981.498162	2554.206460
981.795356	2552.857952
982.092513	2555.212171
982.389633	2554.942469
982.686717	2558.680484
982.983764	2562.521844
983.280775	2568.518296
983.577749	2569.105591
983.874686	2566.491752
984.171587	2565.387740
984.468451	2561.735424
984.765279	2561.498489
985.062070	2559.141750
985.358824	2556.316183
985.655543	2556.318704
985.952224	2554.524053
986.248869	2552.805020
986.545478	2553.818292
986.842050	2553.094886
987.138586	2552.313507
987.435086	2549.777807
987.731549	2549.291335
988.027975	2549.540872
988.324366	2549.276212
988.620719	2547.516849
988.917037	2546.649771
989.213318	2550.904505
989.509563	2547.713454
989.805772	2548.872920
990.101944	2550.228990
990.398080	2549.545914
990.694180	2549.160265
990.990244	2548.015923
991.286271	2548.809905
991.582262	2549.487940
991.878217	2548.399051
992.174136	2548.527601
992.470019	2548.772097
992.765865	2548.063814
993.061676	2546.443083
993.357450	2547.005172
993.653188	2544.197249
993.948890	2549.838301
994.244556	2545.215563
994.540186	2547.733619
994.835780	2546.954761
995.131337	2550.728064
995.426859	2549.384597
995.722345	2548.681356
996.017795	2551.201933
996.313208	2550.682694
996.608586	2553.253682
996.903928	2553.851059
997.199234	2552.069011
997.494504	2552.663867
997.789738	2551.857283
998.084936	2553.354505
998.380099	2551.630431
998.675225	2550.753270
998.970316	2549.109854
999.265371	2548.073897
999.560390	2547.221942
999.855373	2549.888712
1000.150320	2552.799978
1000.445232	2549.384597
1000.740108	2549.155224
1001.034948	2544.968546
1001.329752	2549.054401
1001.624521	2548.038609
1001.919254	2547.544576
1002.213951	2547.539534
1002.508613	2548.474668
1002.803239	2549.419885
1003.097829	2546.548948
1003.392384	2549.515667
1003.686903	2547.763866
1003.981386	2546.861499
1004.275834	2547.277394
1004.570246	2547.753783
1004.864623	2547.048022
1005.158964	2546.584236
1005.453270	2546.765717
1005.747540	2549.858465
1006.041775	2546.133052
1006.335974	2549.964329
1006.630138	2547.363094
1006.924266	2549.235883
1007.218359	2548.109185
1007.512416	2546.238917
1007.806438	2543.809081
1008.100425	2546.289328
1008.394376	2543.494008
1008.688292	2547.297559
1008.982172	2547.398382
1009.276017	2547.295038
1009.569827	2546.995090
1009.863602	2546.359904
1010.157341	2546.138094
1010.451045	2548.146993
1010.744714	2545.686910
1011.038347	2548.237734
1011.331945	2546.140614
1011.625508	2548.572971
1011.919036	2544.920655
1012.212528	2544.827394
1012.505986	2545.754966
1012.799408	2550.448280
1013.092795	2545.404606
1013.386147	2542.740356
1013.679464	2547.713454
1013.972745	2546.705223
1014.265992	2543.617517
1014.559204	2545.959133
1014.852380	2544.882846
1015.145521	2549.881150
1015.438628	2546.599359
1015.731699	2547.385779
1016.024736	2548.459545
1016.317737	2547.194215
1016.610703	2546.697662
1016.903635	2546.546427
1017.196531	2544.197249
1017.489393	2548.613300
1017.782219	2545.732281
1018.075011	2548.633465
1018.367768	2548.076417
1018.660490	2547.353012
1018.953177	2547.353012
1019.245829	2547.353012
