Dividing Wavelength (nm)	Counts (n)	Blue Motor Position (mm): 6.700000	Red Motor Position (mm): 0.000000	
326.493990	2159.123672
326.888308	2159.123672
327.282561	2159.123672
327.676750	2117.841663
328.070874	2115.187495
328.464933	2115.510129
328.858929	2116.798144
329.252859	2123.293671
329.646726	2130.399177
330.040528	2145.235293
330.434265	2154.962199
330.827938	2176.288801
331.221547	2193.365709
331.615091	2209.336085
332.008571	2229.977089
332.401986	2246.857393
332.795338	2265.562594
333.188625	2285.896088
333.581847	2304.538275
333.975006	2320.632159
334.368100	2340.098574
334.761129	2354.410410
335.154095	2375.540406
335.546996	2393.590258
335.939833	2406.288924
336.332606	2423.186872
336.725315	2433.922009
337.117960	2451.034206
337.510540	2460.622480
337.903056	2467.987606
338.295508	2483.214411
338.687896	2488.696666
339.080220	2496.066833
339.472480	2503.074037
339.864676	2507.522855
340.256807	2511.986797
340.648875	2518.096675
341.040879	2520.365195
341.432818	2522.243024
341.824694	2524.899713
342.216506	2529.489683
342.608253	2529.459436
342.999937	2530.407173
343.391557	2531.314581
343.783113	2526.505320
344.174605	2526.787625
344.566033	2525.970958
344.957397	2524.304856
345.348697	2522.762263
345.739934	2521.015503
346.131106	2519.921573
346.522215	2517.806809
346.913260	2517.605163
347.304241	2513.383197
347.695159	2511.417147
348.086012	2510.028309
348.476802	2509.655263
348.867528	2506.738956
349.258191	2500.891217
349.648789	2501.927174
350.039324	2495.605567
350.429796	2501.236536
350.820203	2498.516834
351.210548	2497.803511
351.600828	2496.870897
351.991045	2494.554487
352.381198	2494.821668
352.771288	2492.653972
353.161314	2494.897285
353.551276	2495.192193
353.941175	2494.985506
354.331010	2494.493993
354.720782	2491.915443
355.110490	2494.287306
355.500135	2490.882006
355.889717	2493.027017
356.279235	2494.309991
356.668689	2491.358395
357.058080	2490.917294
357.447408	2492.190186
357.836672	2493.246307
358.225873	2497.281751
358.615010	2496.714621
359.004084	2495.605568
359.393095	2495.051041
359.782043	2494.287306
360.170927	2496.707060
360.559748	2497.468274
360.948505	2497.894251
361.337199	2497.248984
361.725830	2497.992554
362.114398	2497.440548
362.502903	2499.719149
362.891344	2498.365599
363.279722	2497.453150
363.668037	2501.095384
364.056289	2502.869870
364.444478	2501.070178
364.832603	2502.396002
365.220665	2502.169150
365.608665	2501.917092
365.996601	2500.243429
366.384474	2502.779129
366.772284	2503.862978
367.160031	2501.760816
367.547715	2506.093688
367.935336	2504.740138
368.322893	2500.787874
368.710388	2502.532113
369.097820	2504.346928
369.485189	2503.671414
369.872495	2509.110819
370.259738	2508.004285
370.646918	2507.762310
371.034035	2507.590911
371.421090	2509.108298
371.808081	2511.142404
372.195010	2507.530417
372.581875	2509.292300
372.968678	2506.933040
373.355418	2507.747187
373.742096	2509.783813
374.128710	2509.108298
374.515262	2511.412105
374.901751	2507.631240
375.288177	2510.403875
375.674540	2509.834224
376.060841	2511.243227
376.447079	2509.864471
376.833254	2511.114677
377.219367	2510.597959
377.605417	2513.302538
377.991404	2510.918072
378.377329	2511.286077
378.763191	2511.409585
379.148991	2512.039729
379.534727	2513.118536
379.920402	2511.316323
380.306013	2512.190964
380.691563	2514.840090
381.077049	2512.306910
381.462474	2513.141221
381.847835	2516.125584
382.233134	2516.128105
382.618371	2514.580471
383.003545	2514.315810
383.388657	2514.840090
383.773706	2510.847496
384.158693	2513.831859
384.543618	2516.697755
384.928480	2515.283712
385.313280	2515.147600
385.698017	2514.693897
386.082692	2513.836900
386.467305	2515.989473
386.851856	2515.528207
387.236344	2515.034174
387.620770	2511.868330
388.005133	2514.162055
388.389435	2513.355470
388.773674	2511.190295
389.157851	2515.129956
389.541965	2519.898888
389.926018	2516.581809
390.310008	2516.912004
390.693936	2516.634741
391.077802	2516.964936
391.461606	2521.423837
391.845348	2519.510719
392.229027	2520.065246
392.612645	2518.389062
392.996200	2520.856707
393.379694	2520.521470
393.763125	2520.193795
394.146494	2518.356295
394.529801	2519.518281
394.913047	2522.139681
395.296230	2519.727489
395.679351	2518.351254
396.062410	2519.440143
396.445408	2521.479290
396.828343	2521.741430
397.211217	2519.596419
397.594028	2522.164887
397.976778	2521.186903
398.359466	2521.698580
398.742092	2518.063908
399.124656	2520.725637
399.507158	2523.173117
399.889598	2522.795031
400.271977	2523.084897
400.654294	2523.117665
401.036549	2522.542973
401.418742	2523.455422
401.800874	2521.542304
402.182944	2524.690505
402.564952	2523.405010
402.946898	2520.012314
403.328783	2524.922398
403.710606	2525.003056
404.092367	2523.896523
404.474067	2525.565145
404.855705	2523.412572
405.237282	2525.529857
405.618797	2523.621780
406.000250	2526.394415
406.381642	2525.572707
406.762972	2522.447191
407.144240	2523.084897
407.525447	2521.582633
407.906593	2522.364012
408.287677	2527.107738
408.668700	2525.683612
409.049661	2528.431041
409.430560	2526.888448
409.811399	2530.087060
410.192176	2526.749816
410.572891	2529.187214
410.953545	2526.263345
411.334138	2528.922553
411.714669	2526.641431
412.095139	2529.262831
412.475547	2526.971627
412.855894	2526.880886
413.236180	2526.139836
413.616405	2527.937008
413.996568	2529.270393
414.376670	2526.225536
414.756711	2530.228212
415.136691	2529.595547
415.516609	2530.702081
415.896466	2528.569673
416.276262	2527.148067
416.655997	2528.446164
417.035670	2529.461957
417.415283	2530.218130
417.794834	2528.857018
418.174324	2531.846423
418.553753	2530.565969
418.933121	2530.407173
419.312428	2530.691998
419.691674	2530.790301
420.070859	2530.870959
420.449983	2531.460774
420.829045	2527.311905
421.208047	2529.749303
421.586988	2531.589324
421.965867	2531.740558
422.344686	2531.904396
422.723444	2530.775177
423.102141	2530.500434
423.480777	2529.356093
423.859352	2529.046062
424.237866	2532.559746
424.616319	2530.979344
424.994712	2534.472864
425.373044	2532.005219
425.751314	2529.711494
426.129524	2529.688809
426.507673	2530.452543
426.885762	2527.417769
427.263789	2531.911957
427.641756	2532.146371
428.019662	2533.353727
428.397508	2531.924560
428.775292	2535.546629
429.153016	2533.164684
429.530679	2532.295085
429.908282	2534.462781
430.285824	2535.314736
430.663305	2532.537061
431.040726	2533.409180
431.418086	2534.298944
431.795385	2536.060827
432.172624	2535.770961
432.549802	2536.358255
432.926920	2534.293903
433.303977	2534.982020
433.680974	2535.392874
434.057910	2534.069571
434.434786	2533.134437
434.811601	2535.755837
435.188355	2538.906558
435.565050	2538.972093
435.941683	2535.155940
436.318257	2533.338604
436.694770	2533.681402
437.071222	2535.723070
437.447614	2537.275745
437.823946	2537.225334
438.200218	2535.110570
438.576429	2537.941178
438.952580	2534.430014
439.328670	2539.128369
439.704700	2535.536547
440.080670	2537.646270
440.456580	2537.588297
440.832429	2535.017308
441.208218	2535.390354
441.583947	2536.937988
441.959616	2535.521424
442.335224	2537.331198
442.710773	2537.139634
443.086261	2535.665097
443.461689	2536.448996
443.837057	2535.246681
444.212365	2537.716846
444.587612	2536.696012
444.962800	2533.192411
445.337927	2535.450848
445.712995	2532.741227
446.088002	2539.829090
446.462949	2538.399922
446.837837	2534.682072
447.212664	2539.186343
447.587431	2538.992258
447.962139	2539.254398
448.336786	2540.585263
448.711374	2536.479243
449.085901	2536.607792
449.460369	2536.161650
449.834776	2536.632998
450.209124	2537.883204
450.583412	2541.200283
450.957640	2540.111394
451.331808	2541.671631
451.705917	2540.010571
452.079965	2537.684079
452.453954	2539.077958
452.827883	2541.376724
453.201752	2539.937474
453.575562	2540.310520
453.949311	2537.613502
454.323001	2540.063503
454.696632	2540.615510
455.070202	2540.096271
455.443713	2538.858667
455.817164	2539.035108
456.190556	2541.835469
456.563888	2540.471837
456.937160	2542.004348
457.310373	2542.395037
457.683526	2540.870088
458.056619	2539.100643
458.429653	2541.003678
458.802628	2538.556198
459.175542	2543.090716
459.548398	2540.305479
459.921194	2541.548123
460.293930	2541.540561
460.666607	2540.123997
461.039224	2539.355221
461.411782	2539.093081
461.784280	2538.021836
462.156719	2540.194573
462.529099	2542.848741
462.901419	2540.764224
463.273680	2539.251878
463.645882	2533.820034
464.018024	2539.140972
464.390106	2536.270035
464.762130	2542.909235
465.134094	2541.185160
465.505999	2540.373534
465.877845	2540.696168
466.249631	2540.368493
466.621358	2545.187836
466.993026	2542.783206
467.364634	2546.435522
467.736184	2543.380583
468.107674	2542.387475
468.479105	2542.266487
468.850477	2541.638864
469.221790	2542.914276
469.593043	2542.851261
469.964238	2542.243802
470.335373	2543.345294
470.706449	2544.199770
471.077467	2544.204811
471.448425	2543.282280
471.819324	2541.341436
472.190164	2544.587939
472.560945	2544.227496
472.931667	2542.445448
473.302330	2543.042825
473.672934	2542.374872
474.043479	2541.734646
474.413965	2546.639688
474.784393	2542.475695
475.154761	2543.872095
475.525070	2543.945192
475.895321	2541.727084
476.265513	2542.543751
476.635645	2543.907383
477.005719	2543.158772
477.375734	2543.214224
477.745691	2544.789585
478.115588	2543.005017
478.485427	2543.320089
478.855207	2544.187167
479.224928	2544.285470
479.594591	2543.557023
479.964194	2545.560882
480.333739	2545.208001
480.703226	2545.437373
481.072653	2546.064997
481.442022	2542.679862
481.811333	2543.995603
482.180584	2542.359749
482.549777	2542.316899
482.918912	2541.038967
483.287988	2545.732281
483.657005	2542.453010
484.025964	2543.889739
484.394864	2543.965356
484.763706	2546.012065
485.132489	2545.727240
485.501213	2544.320758
485.869879	2545.480223
486.238487	2544.852599
486.607036	2545.394523
486.975527	2546.611962
487.343959	2546.639688
487.712333	2543.423432
488.080648	2543.350336
488.448905	2547.032898
488.817104	2544.083823
489.185244	2543.655325
489.553326	2546.284287
489.921350	2546.473330
490.289315	2548.797302
490.657222	2545.989380
491.025070	2544.025850
491.392861	2546.937117
491.760593	2543.090716
492.128267	2546.274205
492.495883	2548.119267
492.863440	2545.666746
493.230939	2546.939637
493.598380	2543.420912
493.965763	2546.737991
494.333088	2547.741181
494.700354	2548.116747
495.067563	2546.238917
495.434713	2547.700851
495.801805	2545.334030
496.168839	2547.864689
496.535815	2547.441232
496.902733	2548.595656
497.269593	2549.278732
497.636395	2546.385110
498.003139	2546.604400
498.369825	2543.544420
498.736453	2548.593136
499.103023	2547.811757
499.469535	2546.019627
499.835989	2546.327137
500.202385	2545.989380
500.568723	2544.560213
500.935003	2547.521890
501.301226	2543.554502
501.667390	2551.358208
502.033497	2549.636654
502.399546	2549.351829
502.765537	2547.262271
503.131470	2547.370656
503.497345	2545.797816
503.863163	2549.039278
504.228923	2547.605069
504.594625	2548.421736
504.960269	2544.940820
505.325856	2547.589946
505.691385	2546.995090
506.056856	2547.995759
506.422270	2547.317724
506.787625	2547.647919
507.152924	2546.193546
507.518164	2548.434339
507.883347	2548.134391
508.248472	2548.603218
508.613540	2547.312682
508.978550	2546.745553
509.343503	2548.323434
509.708398	2546.435522
510.073236	2548.179761
510.438016	2547.279915
510.802738	2549.404761
511.167403	2548.714123
511.532010	2547.804195
511.896561	2548.083979
512.261053	2548.068856
512.625488	2548.235214
512.989866	2547.970553
513.354186	2547.143804
513.718449	2547.279915
514.082655	2546.952240
514.446803	2548.429298
514.810894	2547.862168
515.174927	2552.106820
515.538904	2548.366284
515.902822	2548.028526
516.266684	2549.593805
516.630488	2547.302600
516.994235	2550.347457
517.357925	2549.193033
517.721558	2550.975081
518.085133	2548.381407
518.448651	2544.829914
518.812112	2545.893598
519.175516	2546.952240
519.538863	2544.804708
519.902152	2549.377035
520.265385	2545.923845
520.628560	2548.578012
520.991678	2549.525749
521.354739	2548.179761
521.717743	2550.135729
522.080690	2549.366953
522.443580	2547.733619
522.806413	2553.402396
523.169189	2552.681511
523.531908	2549.616490
523.894569	2548.953578
524.257174	2548.991387
524.619722	2548.928372
524.982213	2549.019113
525.344647	2550.347457
525.707025	2552.590771
526.069345	2548.343598
526.431608	2549.792930
526.793815	2547.007693
527.155964	2550.412992
527.518057	2549.336706
527.880093	2552.058929
528.242072	2549.351829
528.603995	2548.623382
528.965860	2547.741181
529.327669	2549.056922
529.689421	2549.498023
530.051117	2548.542724
530.412755	2547.378218
530.774337	2550.365101
531.135862	2551.149001
531.497331	2547.710934
531.858743	2549.586243
532.220098	2550.309648
532.581396	2549.177909
532.942638	2549.200595
533.303824	2547.622713
533.664953	2553.392314
534.026025	2548.358722
534.387040	2549.523228
534.747999	2549.853424
535.108902	2549.152704
535.469748	2549.808054
535.830537	2550.682694
536.191270	2550.806202
536.551947	2547.005172
536.912567	2548.255378
537.273131	2546.959802
537.633638	2544.983669
537.994089	2550.975081
538.354483	2551.010369
538.714821	2548.827549
539.075103	2552.189999
539.435328	2550.062632
539.795497	2550.791079
540.155609	2550.327292
540.515665	2549.452652
540.875665	2553.084804
541.235609	2550.002138
541.595496	2551.650595
541.955328	2554.917263
542.315102	2553.228477
542.674821	2552.265616
543.034483	2552.429454
543.394090	2555.171841
543.753640	2553.659495
544.113134	2554.206460
544.472571	2553.707386
544.831953	2554.435833
545.191278	2556.686708
545.550548	2554.367777
545.909761	2554.824002
546.268918	2554.355174
546.628019	2554.773590
546.987064	2554.367777
547.346053	2555.320555
547.704986	2557.223591
548.063863	2556.185113
548.422684	2557.205947
548.781449	2555.633107
549.140158	2554.829043
549.498811	2558.289795
549.857408	2557.339537
550.215949	2559.464384
550.574434	2555.663354
550.932864	2556.911039
551.291237	2556.477500
551.649555	2556.386759
552.007817	2556.507747
552.366022	2557.571431
552.724173	2557.528581
553.082267	2557.100083
553.440305	2558.879610
553.798288	2557.090000
554.156215	2558.035217
554.514086	2557.309291
554.871902	2555.141594
555.229661	2555.585216
555.587365	2554.640000
555.945014	2560.545711
556.302606	2560.412121
556.660143	2558.766184
557.017625	2560.034034
557.375050	2558.229301
557.732421	2559.597974
558.089735	2560.495300
558.446994	2559.877758
558.804197	2560.593602
559.161345	2562.451268
559.518437	2560.812892
559.875474	2561.914385
560.232455	2560.855742
560.589381	2561.185938
560.946251	2561.347255
561.303065	2563.000753
561.659825	2560.674261
562.016528	2560.979251
562.373177	2558.201575
562.729770	2561.286761
563.086307	2562.332800
563.442789	2561.226267
563.799216	2563.920764
564.155587	2561.901782
564.511904	2562.521844
564.868164	2562.864642
565.224370	2562.191648
565.580520	2563.779612
565.936615	2564.205589
566.292654	2563.804817
566.648638	2562.572255
567.004567	2563.255332
567.360441	2561.105279
567.716260	2562.126113
568.072023	2561.190979
568.427732	2562.650393
568.783385	2563.076371
569.138982	2562.441185
569.494525	2561.337173
569.850013	2559.908005
570.205445	2563.759447
570.560823	2561.720300
570.916145	2561.503531
571.271412	2562.700805
571.626625	2561.594271
571.981782	2560.979251
572.336884	2559.968499
572.691931	2559.219888
573.046923	2558.529250
573.401860	2559.784497
573.756743	2561.067471
574.111570	2560.926318
574.466342	2560.283571
574.821059	2563.056206
575.175722	2561.785835
575.530330	2564.472770
575.884882	2562.693243
576.239380	2561.448078
576.593823	2561.453119
576.948211	2560.759960
577.302544	2559.028324
577.656823	2562.012687
578.011047	2564.145095
578.365216	2562.206772
578.719330	2562.668037
579.073389	2562.095866
579.427394	2563.265414
579.781344	2560.870866
580.135239	2559.388767
580.489080	2560.301215
580.842866	2558.163766
581.196597	2565.697771
581.550273	2560.641493
581.903895	2559.214847
582.257463	2557.795762
582.610975	2558.564538
582.964434	2559.643345
583.317837	2560.835578
583.671186	2558.602347
584.024481	2558.617470
584.377721	2558.824157
584.730906	2557.571431
585.084037	2558.718293
585.437113	2560.472615
585.790135	2557.929352
586.143103	2557.687377
586.496016	2559.625701
586.848874	2559.492110
587.201679	2559.292985
587.554428	2558.156204
587.907124	2559.177038
588.259765	2557.770556
588.612352	2558.899775
588.964884	2556.981616
589.317362	2560.495300
589.669786	2558.846842
590.022155	2555.887685
590.374470	2551.201933
590.726731	2555.154197
591.078937	2550.954916
591.431090	2558.206616
591.783188	2556.643858
592.135232	2557.044630
592.487222	2557.697459
592.839157	2555.607901
593.191038	2557.629404
593.542866	2558.047820
593.894639	2557.495813
594.246358	2558.345248
594.598022	2558.325083
594.949633	2555.968344
595.301190	2555.721327
595.652692	2556.658982
596.004141	2555.920453
596.355535	2556.860628
596.706876	2558.236863
597.058162	2555.549928
597.409395	2553.916594
597.760573	2557.770556
598.111698	2554.587068
598.462768	2558.312480
598.813785	2554.138405
599.164748	2554.703014
599.515657	2555.963303
599.866511	2555.391132
600.217312	2555.391132
600.568060	2555.277706
600.918753	2555.547407
601.269392	2555.272664
601.619978	2554.471121
601.970510	2555.043292
602.320988	2556.258210
602.671412	2555.809547
603.021783	2554.148487
603.372100	2554.511450
603.722363	2555.539846
604.072572	2554.897098
604.422728	2555.885165
604.772830	2556.220401
605.122878	2556.696790
605.472872	2555.398693
605.822813	2556.807696
606.172701	2556.202757
606.522534	2556.744681
606.872314	2551.393497
607.222041	2557.523540
607.571714	2555.847356
607.921333	2554.072870
608.270899	2553.112530
608.620411	2552.089176
608.969870	2557.566389
609.319276	2560.281051
609.668627	2564.026628
610.017926	2565.586865
610.367171	2570.910324
610.716362	2568.384706
611.065500	2567.376475
611.414585	2567.235322
611.763616	2566.030487
612.112594	2560.298695
612.461518	2559.792059
612.810389	2560.124775
613.159207	2557.647048
613.507971	2562.042934
613.856682	2557.931873
614.205340	2559.151832
614.553945	2559.333314
614.902496	2558.108313
615.250994	2558.683005
615.599439	2556.996739
615.947830	2556.303580
616.296169	2558.125957
616.644454	2555.658313
616.992686	2555.108827
617.340864	2560.044117
617.688990	2561.077553
618.037063	2559.013201
618.385082	2557.158056
618.733048	2560.875907
619.080961	2558.017573
619.428821	2557.790721
619.776628	2557.306770
620.124382	2557.142932
620.472083	2559.436657
620.819731	2558.909857
621.167326	2557.883982
621.514868	2560.628890
621.862357	2555.807027
622.209793	2560.031514
622.557176	2559.187120
622.904506	2559.570248
623.251783	2558.584702
623.599007	2556.777449
623.946179	2555.963302
624.293297	2558.372974
624.640363	2556.338868
624.987376	2554.718137
625.334336	2552.915925
625.681243	2553.846018
626.028097	2552.313507
626.374899	2559.620660
626.721647	2556.941286
627.068343	2556.260731
627.414987	2556.051523
627.761577	2557.576472
628.108115	2555.509599
628.454600	2557.538663
628.801032	2560.563355
629.147412	2558.635114
629.493739	2560.197872
629.840014	2559.030845
630.186236	2558.758622
630.532405	2561.180897
630.878521	2557.024465
631.224585	2557.614280
631.570597	2558.821637
631.916556	2554.927345
632.262462	2558.073025
632.608316	2559.822306
632.954117	2558.811554
633.299866	2560.268448
633.645562	2559.887841
633.991206	2560.608726
634.336797	2558.360371
634.682336	2557.175700
635.027823	2557.609239
635.373257	2559.091338
635.718639	2558.309960
636.063968	2559.872717
636.409245	2558.398180
636.754470	2556.898437
637.099642	2558.297357
637.444762	2558.345248
637.789829	2559.436657
638.134845	2557.553787
638.479808	2556.505227
638.824719	2557.034548
639.169577	2554.519012
639.514383	2556.984136
639.859137	2557.256358
640.203839	2561.342214
640.548489	2557.188303
640.893086	2558.141081
641.237632	2558.012532
641.582125	2561.019580
641.926566	2558.327604
642.270955	2553.783003
642.615292	2551.942982
642.959576	2552.971378
643.303809	2551.590102
643.647990	2555.300391
643.992118	2560.066802
644.336195	2558.551935
644.680219	2557.107644
645.024192	2561.911864
645.368112	2558.710731
645.711981	2560.349106
646.055797	2558.960268
646.399562	2558.952707
646.743274	2562.610064
647.086935	2561.516133
647.430544	2560.326421
647.774101	2562.617626
648.117606	2559.613098
648.461059	2561.392625
648.804460	2564.271124
649.147810	2561.652245
649.491108	2558.919939
649.834354	2560.669220
650.177548	2559.875238
650.520690	2562.562173
650.863781	2561.808520
651.206820	2559.323232
651.549807	2561.584189
651.892742	2559.252655
652.235626	2559.628221
652.578458	2561.990002
652.921238	2559.235011
653.263967	2562.363047
653.606644	2563.605692
653.949269	2561.566545
654.291843	2561.468242
654.634365	2563.396484
654.976836	2560.182748
655.319255	2559.214847
655.661622	2564.397153
656.003938	2563.041082
656.346203	2560.870866
656.688416	2559.920608
657.030577	2560.959086
657.372687	2563.711556
657.714746	2565.370096
658.056753	2561.503531
658.398708	2565.090312
658.740612	2563.298181
659.082465	2565.372616
659.424266	2560.230639
659.766016	2561.352296
660.107715	2560.086966
660.449362	2560.404559
660.790958	2568.651887
661.132503	2565.778429
661.473996	2565.506207
661.815438	2566.065775
662.156829	2563.378840
662.498168	2567.326063
662.839456	2566.920250
663.180693	2565.486042
663.521879	2570.217165
663.863013	2565.637277
664.204097	2565.478480
664.545129	2564.621484
664.886110	2564.629046
665.227040	2569.370251
665.567918	2566.668193
665.908746	2569.584500
666.249522	2568.851012
666.590248	2568.606516
666.930922	2568.709860
667.271545	2571.361507
667.612118	2569.473595
667.952639	2571.822772
668.293109	2571.361507
668.633528	2572.576425
668.973896	2571.679100
669.314213	2574.502146
669.654480	2569.914696
669.994695	2575.349060
670.334859	2574.292938
670.674973	2572.692372
671.015035	2574.872671
671.355047	2574.953329
671.695008	2574.918041
672.034918	2574.986097
672.374777	2577.920048
672.714585	2576.206056
673.054342	2576.720253
673.394049	2576.407702
673.733705	2578.822415
674.073310	2580.659915
674.412864	2581.254771
674.752368	2581.287539
675.091820	2579.573547
675.431223	2583.341809
675.770574	2580.637230
676.109875	2583.603949
676.449125	2580.191088
676.788324	2577.713361
677.127473	2577.617579
677.466571	2577.148752
677.805619	2581.305183
678.144616	2581.539597
678.483562	2584.743250
678.822458	2582.053794
679.161303	2579.727302
679.500098	2582.953640
679.838842	2584.682756
680.177535	2585.877509
680.516179	2585.330544
680.854771	2587.901533
681.193314	2586.681573
681.531805	2590.646441
681.870247	2597.855291
682.208638	2597.822523
682.546978	2602.982144
682.885268	2603.529110
683.223508	2603.196393
683.561697	2600.784201
683.899836	2601.643718
684.237925	2601.205138
684.575963	2600.411156
684.913951	2606.465582
685.251889	2602.412494
685.589776	2606.447938
685.927614	2608.320726
686.265401	2607.806529
686.603137	2611.476489
686.940824	2615.259875
687.278460	2617.041922
687.616046	2621.031996
687.953582	2625.349744
688.291068	2623.010649
688.628504	2630.532050
688.965889	2630.385857
689.303224	2633.229067
689.640510	2634.708646
689.977745	2631.774695
690.314930	2632.745117
690.652065	2630.514406
690.989150	2626.516771
691.326185	2626.904940
691.663170	2626.557100
692.000105	2623.965947
692.336990	2625.006946
692.673825	2621.856224
693.010610	2622.924949
693.347345	2617.810698
693.684030	2612.346088
694.020665	2615.539659
694.357251	2616.447066
694.693786	2619.817078
695.030272	2615.045626
695.366707	2618.559310
695.703093	2620.558127
696.039429	2621.523508
696.375716	2622.781276
696.711952	2617.109978
697.048139	2621.221039
697.384276	2623.630711
697.720363	2623.476955
698.056400	2624.323869
698.392388	2626.874693
698.728326	2627.078860
699.064214	2626.562142
699.400053	2632.818213
699.735842	2629.614560
700.071581	2626.322687
700.407270	2626.307563
700.742910	2627.865280
701.078501	2630.068264
701.414042	2626.632718
701.749533	2627.950979
702.084974	2625.579117
702.420366	2628.371916
702.755709	2629.294447
703.091002	2626.526853
703.426246	2627.041051
703.761440	2629.140692
704.096584	2631.502472
704.431679	2628.563480
704.766725	2632.966927
705.101721	2630.756382
705.436668	2629.594396
705.771565	2630.632873
706.106413	2636.561270
706.441212	2639.296096
706.775961	2634.391053
707.110661	2639.124697
707.445311	2643.835655
707.779913	2641.546971
708.114465	2649.519556
708.448967	2649.932931
708.783421	2648.075266
709.117825	2659.914415
709.452180	2664.423727
709.786485	2657.918118
710.120742	2668.234840
710.454949	2673.313802
710.789107	2675.400840
711.123216	2680.384021
711.457275	2698.171732
711.791286	2704.100129
712.125247	2698.277596
712.459159	2711.117415
712.793023	2720.148642
713.126837	2706.025850
713.460602	2717.502036
713.794318	2704.929399
714.127985	2710.494832
714.461602	2708.896787
714.795171	2702.187011
715.128691	2700.447813
715.462162	2691.860207
715.795584	2694.242152
716.128957	2690.332738
716.462281	2677.951664
716.795556	2691.877851
717.128782	2682.919721
717.461960	2675.010151
717.795088	2681.719926
718.128167	2682.760925
718.461198	2677.472754
718.794180	2676.096519
719.127113	2682.367715
719.459997	2678.261695
719.792833	2669.149809
720.125619	2677.077024
720.458357	2668.615447
720.791046	2669.510252
721.123686	2677.014009
721.456278	2669.883297
721.788821	2670.163081
722.121315	2669.593431
722.453761	2673.177691
722.786158	2676.124246
723.118506	2674.911848
723.450805	2676.603155
723.783056	2679.317817
724.115259	2672.456806
724.447412	2679.164061
724.779518	2679.809329
725.111574	2684.474917
725.443582	2687.250072
725.775542	2688.475072
726.107453	2702.595344
726.439315	2698.212061
726.771129	2703.850592
727.102895	2704.059800
727.434612	2711.271170
727.766281	2711.780327
728.097901	2719.674774
728.429473	2716.660164
728.760996	2718.585884
729.092471	2720.930021
729.423897	2717.101265
729.755276	2721.792058
730.086606	2717.940617
730.417887	2718.860627
730.749120	2725.265413
731.080305	2744.981366
731.411442	2752.964033
731.742530	2746.602097
732.073570	2760.704725
732.404562	2768.183277
732.735506	2752.681728
733.066401	2771.228133
733.397249	2774.013371
733.728048	2759.676329
734.058798	2743.179153
734.389501	2740.550192
734.720156	2734.601630
735.050762	2720.584702
735.381320	2712.894422
735.711831	2720.680484
736.042293	2713.259905
736.372707	2719.909187
736.703073	2711.608927
737.033391	2716.244268
737.363661	2715.609083
737.693883	2718.180072
738.024056	2726.311453
738.354182	2730.359499
738.684260	2729.089128
739.014290	2737.465006
739.344272	2745.427508
739.674207	2744.212590
740.004093	2752.343971
740.333931	2755.567789
740.663722	2753.274064
740.993464	2764.379726
741.323159	2776.168464
741.652806	2748.900863
741.982405	2746.748290
742.311956	2770.930705
742.641460	2756.180289
742.970915	2740.111611
743.300323	2746.007241
743.629683	2742.390213
743.958996	2730.901423
744.288260	2731.312277
744.617477	2735.733369
744.946647	2743.660584
745.275768	2728.242215
745.604842	2730.566187
745.933869	2729.820096
746.262847	2721.640824
746.591778	2729.023593
746.920662	2730.626680
747.249498	2727.942266
747.578286	2731.803790
747.907027	2742.622106
748.235720	2747.819536
748.564365	2738.836199
748.892963	2744.356263
749.221514	2767.722011
749.550017	2753.614342
749.878473	2738.042218
750.206881	2752.200298
750.535242	2746.284504
750.863555	2736.305540
751.191821	2745.704772
751.520039	2749.435225
751.848210	2737.117166
752.176334	2739.226889
752.504411	2753.216091
752.832440	2748.502612
753.160421	2735.322515
753.488356	2746.765934
753.816243	2761.821340
754.144082	2740.845099
754.471875	2736.247567
754.799620	2749.241141
755.127318	2749.987232
755.454969	2747.524628
755.782572	2744.222672
756.110129	2750.720720
756.437638	2757.309508
756.765100	2748.953795
757.092515	2750.430853
757.419882	2753.100144
757.747203	2748.875657
758.074477	2766.209665
758.401703	2766.572628
758.728882	2751.522263
759.056014	2754.264651
759.383099	2778.895728
759.710138	2777.897580
760.037129	2765.831578
760.364073	2770.449275
760.690970	2779.336829
761.017820	2791.130609
761.344623	2780.834052
761.671379	2786.868313
761.998088	2796.310394
762.324751	2815.209680
762.651366	2865.260776
762.977935	2954.768983
763.304456	3062.957186
763.630931	3136.469812
763.957359	3109.476954
764.283740	3059.060374
764.610074	3024.697349
764.936362	2948.517953
765.262602	2899.258318
765.588796	2846.928620
765.914943	2816.195226
766.241044	2818.209167
766.567097	2808.651139
766.893104	2781.078548
767.219064	2758.693304
767.544978	2761.012235
767.870845	2762.030548
768.196665	2750.234248
768.522438	2746.314751
768.848165	2743.874833
769.173846	2739.577249
769.499479	2739.892321
769.825066	2728.713562
770.150607	2726.951679
770.476101	2723.342213
770.801548	2729.366392
771.126949	2724.668037
771.452303	2719.016903
771.777611	2715.296532
772.102872	2722.646534
772.428087	2715.510781
772.753256	2714.915924
773.078378	2713.302755
773.403453	2708.720346
773.728482	2707.825542
774.053465	2703.560725
774.378401	2701.211548
774.703291	2709.826880
775.028135	2697.599561
775.352932	2696.311546
775.677683	2692.185362
776.002388	2695.431865
776.327046	2702.905375
776.651658	2692.722245
776.976224	2680.288239
777.300743	2682.365194
777.625216	2690.519260
777.949643	2696.752647
778.274024	2685.881399
778.598359	2678.516273
778.922647	2681.087262
779.246889	2683.743950
779.571086	2685.581450
779.895236	2687.607994
780.219339	2681.170441
780.543397	2679.428722
780.867409	2687.199661
781.191374	2692.351720
781.515294	2686.186389
781.839167	2684.348888
782.162995	2687.154290
782.486776	2686.234280
782.810511	2690.143694
783.134201	2696.235929
783.457844	2689.390042
783.781441	2678.947292
784.104993	2682.463497
784.428498	2686.105730
784.751958	2689.450536
785.075372	2687.902902
785.398739	2680.686490
785.722061	2676.499812
786.045337	2687.063549
786.368568	2696.649303
786.691752	2679.264884
787.014891	2680.620955
787.337983	2697.644931
787.661030	2714.638661
787.984031	2726.059395
788.306987	2747.101171
788.629897	2757.317069
788.952760	2747.844741
789.275579	2742.120511
789.598351	2747.960688
789.921078	2740.938361
790.243759	2708.271684
790.566395	2707.593648
790.888984	2717.585215
791.211529	2700.631815
791.534027	2696.097297
791.856480	2700.442772
792.178888	2688.054136
792.501249	2675.284893
792.823566	2680.820080
793.145836	2688.616225
793.468062	2684.003569
793.790241	2674.924451
794.112375	2682.327385
794.434464	2688.686801
794.756507	2695.010928
795.078505	2691.262831
795.400457	2687.340813
795.722364	2705.194059
796.044226	2717.975905
796.366042	2721.421533
796.687812	2726.170300
797.009538	2727.541494
797.331218	2723.768191
797.652852	2719.407592
797.974442	2722.316338
798.295986	2727.538974
798.617484	2715.041953
798.938938	2703.114583
799.260346	2713.995914
799.581709	2717.496995
799.903026	2705.257074
800.224299	2699.610981
800.545526	2700.130220
800.866708	2700.296578
801.187845	2686.488858
801.508936	2697.874304
801.829983	2701.012422
802.150984	2685.273940
802.471940	2681.949299
802.792851	2684.782427
803.113717	2684.817715
803.434538	2690.088242
803.755314	2680.845286
804.076045	2672.857578
804.396731	2675.166426
804.717372	2682.420647
805.037967	2683.756552
805.358518	2678.637261
805.679024	2681.228414
805.999485	2682.070287
806.319901	2682.188754
806.640272	2687.756708
806.960598	2685.997345
807.280879	2682.758404
807.601115	2684.626152
807.921306	2687.393745
808.241453	2698.292720
808.561554	2695.825075
808.881611	2681.132632
809.201623	2687.933148
809.521590	2695.010928
809.841513	2692.134950
810.161390	2695.567976
810.481223	2700.936805
810.801011	2687.681091
811.120755	2683.938034
811.440453	2689.742923
811.760107	2695.124354
812.079716	2694.123685
812.399281	2682.808816
812.718801	2689.528674
813.038276	2681.246058
813.357707	2684.331244
813.677093	2692.969261
813.996434	2684.404341
814.315731	2681.944258
814.634983	2685.977181
814.954191	2688.517922
815.273354	2693.450691
815.592473	2695.033614
815.911547	2693.639735
816.230577	2698.070909
816.549562	2703.835468
816.868502	2717.103785
817.187399	2724.378170
817.506250	2719.936914
817.825058	2712.415512
818.143821	2730.969479
818.462539	2757.478386
818.781213	2762.529622
819.099843	2765.256887
819.418429	2800.232412
819.736970	2839.878567
820.055466	2865.802700
820.373919	2928.244952
820.692327	2998.445540
821.010691	3051.458314
821.329011	3223.170096
821.647286	3527.728885
821.965517	3929.881892
822.283704	4261.748612
822.601847	4476.612671
822.919945	4431.900157
823.237999	4271.745220
823.556010	4083.874019
823.873976	3928.024227
824.191897	3635.223929
824.509775	3435.969803
824.827609	3273.836213
825.145398	3183.612162
825.463144	3184.824560
825.780845	3200.628577
826.098502	3204.346428
826.416116	3296.173566
826.733685	3448.010599
827.051210	3601.415431
827.368692	3665.566634
827.686129	3542.612892
828.003522	3321.006290
828.320872	3183.128211
828.638177	3082.320258
828.955439	3007.534741
829.272656	2917.870258
829.589830	2862.823378
829.906960	2841.527024
830.224046	2803.289872
830.541088	2785.265226
830.858086	2778.268105
831.175041	2768.561363
831.491952	2764.558687
831.808819	2769.662855
832.125642	2783.215997
832.442421	2807.010243
832.759157	2848.957685
833.075849	2931.380550
833.392497	3052.711041
833.709101	3137.964514
834.025662	3200.439534
834.342179	3187.761032
834.658653	3106.495111
834.975083	3018.567306
835.291469	2923.980136
835.607811	2838.865295
835.924110	2825.528922
836.240366	2787.619445
836.556578	2744.757035
836.872746	2722.437326
837.188871	2719.420195
837.504952	2710.618341
837.820990	2692.704601
838.136984	2681.172961
838.452935	2686.372911
838.768842	2687.408868
839.084706	2693.135619
839.400526	2717.756615
839.716303	2760.301432
840.032037	2832.054696
840.347727	2887.482182
840.663373	2861.401773
840.978977	2806.548978
841.294537	2756.218098
841.610054	2713.136397
841.925527	2692.160156
842.240957	2681.215811
842.556344	2671.282217
842.871687	2660.778973
843.186987	2650.061480
843.502244	2642.991262
843.817458	2632.843419
844.132629	2626.529374
844.447756	2630.837040
844.762840	2628.966772
845.077881	2623.633231
845.392879	2614.213835
845.707833	2615.670729
846.022745	2616.026130
846.337613	2618.085441
846.652438	2615.297683
846.967221	2616.973867
847.281960	2610.385079
847.596656	2611.287445
847.911309	2612.141921
848.225919	2611.829369
848.540485	2608.464399
848.855009	2609.170161
849.169490	2608.061107
849.483928	2606.470623
849.798323	2603.791250
850.112675	2604.910386
850.426984	2607.546909
850.741251	2609.182764
851.055474	2607.516662
851.369654	2603.801332
851.683792	2604.738987
851.997887	2604.030704
852.311938	2608.275356
852.625947	2607.257043
852.939914	2605.938781
853.253837	2608.197218
853.567718	2603.282093
853.881555	2602.636825
854.195350	2609.858278
854.509103	2606.818462
854.822812	2602.689757
855.136479	2606.304265
855.450103	2606.014398
855.763685	2601.968872
856.077224	2597.658686
856.390720	2604.459202
856.704173	2605.858123
857.017584	2607.597321
857.330953	2603.450972
857.644278	2608.522372
857.957561	2609.155037
858.270802	2611.211828
858.584000	2610.654781
858.897155	2607.090685
859.210268	2609.016406
859.523339	2608.330809
859.836367	2610.841303
860.149352	2607.821652
860.462295	2607.050356
860.775195	2611.121087
861.088054	2612.167127
861.400869	2602.084819
861.713642	2601.333687
862.026373	2607.945160
862.339062	2611.446242
862.651708	2610.793412
862.964312	2610.495984
863.276873	2608.905500
863.589392	2612.479678
863.901869	2614.082765
864.214303	2620.250617
864.526696	2620.520319
864.839045	2620.790020
865.151353	2621.735237
865.463619	2618.299690
865.775842	2620.469907
866.088023	2624.739764
866.400162	2630.484159
866.712258	2623.376132
867.024313	2617.457818
867.336325	2623.300515
867.648296	2630.950466
867.960224	2627.086422
868.272110	2622.771194
868.583954	2622.864455
868.895755	2629.291926
869.207515	2623.658437
869.519233	2623.847480
869.830909	2631.583131
870.142542	2628.765126
870.454134	2632.568676
870.765684	2632.271248
871.077191	2632.654376
871.388657	2632.364510
871.700081	2631.983902
872.011463	2636.873822
872.322803	2639.056641
872.634101	2637.992958
872.945357	2643.233237
873.256571	2648.682725
873.567744	2646.336067
873.878874	2641.718371
874.189963	2650.396717
874.501010	2651.997283
874.812015	2652.261944
875.122979	2648.914618
875.433900	2652.634989
875.744780	2651.367139
876.055618	2653.744043
876.366415	2653.300422
876.677169	2660.587409
876.987882	2661.280568
877.298554	2657.948365
877.609183	2662.064467
877.919771	2670.614264
878.230317	2677.157682
878.540822	2695.515044
878.851285	2709.635316
879.161707	2716.377859
879.472087	2738.979872
879.782425	2785.295473
880.092722	2895.016187
880.402977	2995.851867
880.713191	3051.503684
881.023363	3167.916530
881.333494	3309.895587
881.643583	3356.715303
881.953631	3347.482430
882.263637	3326.549038
882.573602	3306.636481
882.883526	3257.669233
883.193408	3158.928152
883.503248	3077.216090
883.813048	3034.134389
884.122806	2984.448777
884.432522	2920.975608
884.742197	2867.395705
885.051831	2822.448777
885.361424	2786.747326
885.670975	2770.292999
885.980485	2749.097468
886.289954	2730.576269
886.599382	2718.540514
886.908768	2707.704554
887.218113	2696.634180
887.527417	2681.127591
887.836680	2666.863646
888.145901	2669.472443
888.455082	2669.416990
888.764221	2651.687252
889.073319	2645.882364
889.382376	2649.842190
889.691392	2649.615338
890.000366	2650.177427
890.309300	2640.478247
890.618193	2646.721716
890.927044	2654.071718
891.235855	2651.551141
891.544625	2648.039977
891.853353	2650.489978
892.162041	2654.033909
892.470687	2662.434992
892.779293	2677.737415
893.087858	2688.444826
893.396381	2702.018132
893.704864	2726.190465
894.013306	2773.027825
894.321707	2835.797752
894.630068	2879.081099
894.938387	2879.779299
895.246665	2880.268291
895.554903	2869.941488
895.863100	2828.009170
896.171256	2794.760240
896.479371	2763.459715
896.787446	2735.325036
897.095480	2706.028370
897.403473	2688.855680
897.711425	2674.611899
898.019336	2673.956549
898.327207	2667.871877
898.635038	2657.930721
898.942827	2652.874444
899.250576	2650.036274
899.558284	2639.875829
899.865952	2634.234778
900.173579	2627.852677
900.481165	2629.559107
900.788711	2628.545836
901.096216	2621.034516
901.403681	2613.155193
901.711105	2620.795062
902.018489	2618.387911
902.325832	2619.126440
902.633135	2618.125771
902.940397	2627.454426
903.247619	2645.791623
903.554800	2688.742254
903.861941	2753.470669
904.169041	2831.908502
904.476101	2894.421331
904.783121	2901.385685
905.090100	2870.022146
905.397039	2824.039261
905.703938	2768.546240
906.010796	2722.777604
906.317614	2696.026721
906.624391	2669.212824
906.931129	2654.255720
907.237826	2638.492032
907.544483	2622.642644
907.851099	2615.222066
908.157675	2608.746704
908.464211	2601.716815
908.770707	2599.108018
909.077163	2594.694487
909.383578	2591.503437
909.689954	2587.440267
909.996289	2584.294587
910.302584	2585.633013
910.608839	2586.537901
910.915054	2584.551686
911.221229	2581.050605
911.527363	2584.062694
911.833458	2584.108064
912.139513	2585.176789
912.445527	2587.962027
912.751502	2588.035123
913.057436	2591.881524
913.363331	2595.128027
913.669186	2599.619695
913.975000	2612.572940
914.280775	2625.906792
914.586510	2644.836324
914.892205	2657.391318
915.197859	2685.457942
915.503475	2724.650392
915.809050	2760.906371
916.114585	2791.211267
916.420081	2797.923564
916.725536	2798.384829
917.030952	2782.966460
917.336328	2757.067532
917.641665	2723.352295
917.946961	2700.435210
918.252218	2689.490865
918.557435	2668.282731
918.862612	2658.974240
919.167750	2642.615696
919.472848	2637.067906
919.777906	2625.478293
920.082925	2618.786162
920.387904	2609.996910
920.692843	2608.340891
920.997743	2602.624223
921.302603	2599.004674
921.607423	2592.667944
921.912204	2591.919332
922.216946	2589.890268
922.521647	2585.103692
922.826310	2582.754515
923.130932	2581.776531
923.435516	2577.897363
923.740059	2578.764441
924.044564	2575.769996
924.349028	2571.553071
924.653454	2570.648184
924.957840	2570.040725
925.262186	2566.915209
925.566493	2565.874211
925.870761	2563.923284
926.174989	2563.068809
926.479178	2559.482028
926.783328	2559.187120
927.087438	2559.499672
927.391509	2560.228119
927.695541	2559.655948
927.999533	2558.125957
928.303486	2556.122099
928.607400	2556.477500
928.911275	2554.498847
929.215110	2555.096224
929.518906	2555.275185
929.822663	2554.743343
930.126381	2554.612273
930.430060	2556.457336
930.733699	2554.899619
931.037299	2554.274516
931.340861	2552.290822
931.644383	2556.563200
931.947866	2555.915412
932.251309	2554.922304
932.554714	2554.924825
932.858080	2556.837943
933.161407	2551.559855
933.464694	2551.829556
933.767943	2551.287632
934.071153	2553.283929
934.374323	2551.963147
934.677455	2552.832746
934.980548	2553.951882
935.283602	2555.091183
935.586617	2550.589432
935.889593	2553.367108
936.192530	2553.926676
936.495428	2555.645710
936.798287	2556.026317
937.101108	2553.694783
937.403890	2556.268292
937.706632	2559.499672
938.009336	2558.806513
938.312002	2562.075702
938.614628	2563.172153
938.917216	2565.634756
939.219765	2566.637946
939.522275	2565.327246
939.824747	2566.340518
940.127179	2566.360682
940.429573	2566.022925
940.731929	2563.356155
941.034246	2562.955383
941.336524	2562.315156
941.638763	2562.279868
941.940964	2562.370609
942.243126	2560.936401
942.545250	2560.633932
942.847335	2561.158212
943.149381	2558.052861
943.451389	2558.231822
943.753359	2557.664692
944.055290	2558.448591
944.357182	2553.898950
944.659036	2555.673436
944.960851	2555.260062
945.262628	2554.395504
945.564367	2553.170503
945.866067	2553.167983
946.167729	2556.905998
946.469352	2552.941131
946.770937	2555.189485
947.072484	2553.818292
947.373992	2554.786193
947.675462	2553.074721
947.976893	2550.438198
948.278286	2548.391489
948.579641	2551.252344
948.880958	2546.879143
949.182236	2552.358877
949.483476	2550.418033
949.784678	2551.927859
950.085841	2550.085317
950.386967	2553.888868
950.688054	2552.394166
950.989103	2553.543549
951.290114	2554.710576
951.591087	2551.879968
951.892021	2555.020607
952.192917	2557.924311
952.493776	2557.170659
952.794596	2553.480534
953.095378	2556.074208
953.396122	2555.991029
953.696828	2552.762170
953.997496	2552.472303
954.298126	2551.355688
954.598718	2553.195709
954.899272	2550.765873
955.199788	2550.614638
955.500266	2547.542055
955.800706	2548.509957
956.101108	2549.979453
956.401472	2545.230686
956.701798	2548.686397
957.002087	2545.986859
957.302337	2544.953423
957.602550	2545.570964
957.902724	2544.356046
958.202861	2543.791437
958.502960	2544.305634
958.803022	2545.633978
959.103045	2544.630789
959.403031	2543.950233
959.702979	2543.151210
960.002889	2545.616334
960.302762	2541.701878
960.602596	2543.753628
960.902393	2543.683052
961.202153	2542.072403
961.501875	2544.076262
961.801559	2543.544420
962.101205	2542.296734
962.400814	2545.633978
962.700385	2541.195242
962.999918	2539.569470
963.299414	2536.935467
963.598873	2540.917979
963.898293	2534.919006
964.197677	2541.638864
964.497022	2541.827907
964.796331	2542.926879
965.095601	2543.267157
965.394835	2542.498381
965.694030	2542.735315
965.993189	2543.027702
966.292309	2544.434184
966.591393	2542.155582
966.890439	2539.471168
967.189447	2540.955788
967.488419	2540.371014
967.787353	2542.866385
968.086249	2542.339584
968.385108	2538.737680
968.683930	2542.740356
968.982714	2543.418391
969.281462	2541.033925
969.580172	2542.510983
969.878844	2539.085519
970.177480	2539.314892
970.476078	2543.521735
970.774639	2542.873947
971.073162	2541.953936
971.371649	2541.308668
971.670098	2541.583411
971.968510	2538.362114
972.266885	2543.846889
972.565223	2543.904862
972.863524	2542.813453
973.161788	2541.245654
973.460014	2543.123484
973.758204	2540.403781
974.056356	2542.637012
974.354471	2542.019471
974.652550	2542.644574
974.950591	2541.079296
975.248595	2544.280428
975.546563	2544.023330
975.844493	2543.289842
976.142386	2541.364121
976.440243	2543.259595
976.738062	2542.102650
977.035845	2542.493339
977.333590	2541.243133
977.631299	2542.306817
977.928971	2539.546785
978.226606	2538.916641
978.524204	2537.805066
978.821765	2537.729449
979.119290	2542.513504
979.416777	2541.966539
979.714228	2544.235058
980.011642	2542.243802
980.309020	2540.665921
980.606360	2541.648946
980.903664	2539.803884
981.200931	2540.739018
981.498162	2543.917465
981.795356	2542.558874
982.092513	2543.264636
982.389633	2543.965356
982.686717	2545.074410
982.983764	2544.247661
983.280775	2544.086344
983.577749	2546.664894
983.874686	2546.004503
984.171587	2545.921324
984.468451	2545.331509
984.765279	2546.289328
985.062070	2544.855120
985.358824	2543.108360
985.655543	2542.503422
985.952224	2544.247661
986.248869	2544.116591
986.545478	2541.162475
986.842050	2541.412012
987.138586	2541.220448
987.435086	2541.583411
987.731549	2543.693134
988.027975	2538.236085
988.324366	2541.515356
988.620719	2539.869419
988.917037	2540.754141
989.213318	2539.592155
989.509563	2540.318082
989.805772	2540.333205
990.101944	2540.426466
990.398080	2538.712474
990.694180	2541.467465
990.990244	2541.742207
991.286271	2538.394881
991.582262	2538.974614
991.878217	2539.506456
992.174136	2538.911600
992.470019	2537.709284
992.765865	2536.622916
993.061676	2535.609644
993.357450	2534.765251
993.653188	2534.533358
993.948890	2538.238606
994.244556	2538.601569
994.540186	2542.274049
994.835780	2540.401261
995.131337	2539.140972
995.426859	2539.907228
995.722345	2540.749100
996.017795	2539.345139
996.313208	2544.988711
996.608586	2541.948895
996.903928	2542.518545
997.199234	2542.536189
997.494504	2542.450490
997.789738	2541.961498
998.084936	2543.950233
998.380099	2542.150541
998.675225	2540.179450
998.970316	2540.852444
999.265371	2539.738349
999.560390	2538.447813
999.855373	2538.382278
1000.150320	2540.451672
1000.445232	2541.112063
1000.740108	2538.664583
1001.034948	2540.280273
1001.329752	2538.941847
1001.624521	2538.901517
1001.919254	2538.117618
1002.213951	2541.240613
1002.508613	2540.910417
1002.803239	2536.466640
1003.097829	2539.400592
1003.392384	2540.048380
1003.686903	2539.347659
1003.981386	2540.310520
1004.275834	2538.646939
1004.570246	2539.564429
1004.864623	2542.745397
1005.158964	2537.527803
1005.453270	2539.181301
1005.747540	2538.682227
1006.041775	2541.853113
1006.335974	2539.330015
1006.630138	2538.808256
1006.924266	2541.298586
1007.218359	2538.261291
1007.512416	2537.127031
1007.806438	2539.352701
1008.100425	2534.944212
1008.394376	2538.442772
1008.688292	2537.177443
1008.982172	2537.447144
1009.276017	2540.522248
1009.569827	2540.867567
1009.863602	2538.790612
1010.157341	2539.589635
1010.451045	2535.707946
1010.744714	2539.955118
1011.038347	2540.983514
1011.331945	2538.679707
1011.625508	2538.155427
1011.919036	2537.308513
1012.212528	2536.688451
1012.505986	2538.140303
1012.799408	2540.744059
1013.092795	2539.486291
1013.386147	2538.856147
1013.679464	2538.664583
1013.972745	2539.977804
1014.265992	2539.738349
1014.559204	2538.689789
1014.852380	2535.171063
1015.145521	2537.553009
1015.438628	2536.781712
1015.731699	2538.757844
1016.024736	2539.864378
1016.317737	2537.739531
1016.610703	2538.543595
1016.903635	2539.534182
1017.196531	2536.854809
1017.489393	2537.840354
1017.782219	2538.515869
1018.075011	2538.115097
1018.367768	2539.536703
1018.660490	2537.807587
1018.953177	2537.807587
1019.245829	2537.807587
