Dividing Wavelength (nm)	Counts (n)	Blue Motor Position (mm): 28.900000	Red Motor Position (mm): 0.000000	
326.493990	2209.953626
326.888308	2209.953626
327.282561	2209.953626
327.676750	2170.743531
328.070874	2166.372851
328.464933	2168.134734
328.858929	2170.622544
329.252859	2178.146466
329.646726	2184.331962
330.040528	2199.082378
330.434265	2209.018492
330.827938	2225.929043
331.221547	2245.695407
331.615091	2262.028745
332.008571	2278.639347
332.401986	2298.067954
332.795338	2317.471355
333.188625	2338.881136
333.581847	2356.217664
333.975006	2370.532020
334.368100	2390.784856
334.761129	2413.840573
335.154095	2429.480752
335.546996	2454.179886
335.939833	2491.784373
336.332606	2502.655621
336.725315	2521.111285
337.117960	2532.922709
337.510540	2544.335881
337.903056	2556.477500
338.295508	2564.540826
338.687896	2574.217321
339.080220	2579.976839
339.472480	2588.791296
339.864676	2591.251379
340.256807	2598.732452
340.648875	2601.517689
341.040879	2603.806373
341.432818	2605.162443
341.824694	2608.388782
342.216506	2611.635285
342.608253	2611.174019
342.999937	2611.347939
343.391557	2613.003958
343.783113	2612.157044
344.174605	2608.512290
344.566033	2606.717639
344.957397	2608.981118
345.348697	2608.212342
345.739934	2603.415684
346.131106	2605.716970
346.522215	2602.145313
346.913260	2604.013060
347.304241	2600.965683
347.695159	2596.559714
348.086012	2595.748089
348.476802	2595.619539
348.867528	2591.342120
349.258191	2584.511357
349.648789	2586.820205
350.039324	2580.498598
350.429796	2584.589495
350.820203	2581.917683
351.210548	2582.943558
351.600828	2582.270564
351.991045	2578.078844
352.381198	2578.706468
352.771288	2578.053639
353.161314	2576.644636
353.551276	2580.107909
353.941175	2578.870306
354.331010	2576.664801
354.720782	2573.889646
355.110490	2576.763103
355.500135	2577.912486
355.889717	2577.045408
356.279235	2577.446180
356.668689	2577.604976
357.058080	2577.423494
357.447408	2577.753690
357.836672	2579.331571
358.225873	2577.700758
358.615010	2577.794019
359.004084	2581.073290
359.393095	2578.260326
359.782043	2579.109760
360.170927	2582.648650
360.559748	2581.819381
360.948505	2583.397262
361.337199	2583.714854
361.725830	2584.339957
362.114398	2583.419947
362.502903	2583.525811
362.891344	2584.745770
363.279722	2583.286356
363.668037	2585.597725
364.056289	2584.571851
364.444478	2586.994125
364.832603	2587.142839
365.220665	2588.294743
365.608665	2588.350195
365.996601	2591.082501
366.384474	2589.043354
366.772284	2588.289702
367.160031	2588.093097
367.547715	2589.174424
367.935336	2588.491348
368.322893	2585.673343
368.710388	2587.954465
369.097820	2587.059660
369.485189	2586.336254
369.872495	2591.942017
370.259738	2592.005032
370.646918	2589.789445
371.034035	2591.216091
371.421090	2592.582244
371.808081	2592.980495
372.195010	2596.531988
372.581875	2594.729776
372.968678	2594.089549
373.355418	2596.206834
373.742096	2593.857656
374.128710	2593.608119
374.515262	2595.697677
374.901751	2594.361771
375.288177	2596.940322
375.674540	2595.801021
376.060841	2597.978799
376.447079	2596.143819
376.833254	2599.622215
377.219367	2595.750609
377.605417	2599.329828
377.991404	2600.496856
378.377329	2597.111721
378.763191	2596.894951
379.148991	2600.252360
379.534727	2596.617688
379.920402	2601.177411
380.306013	2599.430652
380.691563	2599.367637
381.077049	2599.914602
381.462474	2598.372009
381.847835	2598.903851
382.233134	2599.017277
382.618371	2600.088522
383.003545	2599.637339
383.388657	2600.701022
383.773706	2602.586414
384.158693	2602.810745
384.543618	2605.366610
384.928480	2603.761003
385.313280	2602.283945
385.698017	2602.767895
386.082692	2602.299068
386.467305	2602.266301
386.851856	2603.766044
387.236344	2606.226127
387.620770	2601.137082
388.005133	2602.314192
388.389435	2601.363934
388.773674	2600.811928
389.157851	2609.928854
389.541965	2605.820314
389.926018	2606.770572
390.310008	2606.478185
390.693936	2605.969028
391.077802	2608.608072
391.461606	2610.135542
391.845348	2607.829214
392.229027	2609.359204
392.612645	2609.031529
392.996200	2607.166302
393.379694	2608.156889
393.763125	2609.223093
394.146494	2609.807867
394.529801	2609.845675
394.913047	2610.579163
395.296230	2611.373145
395.679351	2614.201232
396.062410	2612.477158
396.445408	2612.512446
396.828343	2614.430605
397.211217	2612.817436
397.594028	2611.370624
397.976778	2612.164606
398.359466	2613.651747
398.742092	2612.570419
399.124656	2613.382045
399.507158	2613.417333
399.889598	2617.530914
400.271977	2616.252982
400.654294	2615.577467
401.036549	2614.639813
401.418742	2616.174844
401.800874	2616.063939
402.182944	2615.718620
402.564952	2614.619648
402.946898	2616.973867
403.328783	2617.472941
403.710606	2618.433281
404.092367	2617.825822
404.474067	2618.221552
404.855705	2620.099382
405.237282	2620.782459
405.618797	2621.447891
406.000250	2619.643158
406.381642	2622.072994
406.762972	2617.853548
407.144240	2615.164093
407.525447	2619.154166
407.906593	2615.131325
408.287677	2622.473766
408.668700	2623.217336
409.049661	2625.506020
409.430560	2623.015690
409.811399	2623.776904
410.192176	2625.576596
410.572891	2625.372429
410.953545	2626.554580
411.334138	2628.772687
411.714669	2624.006277
412.095139	2625.369909
412.475547	2628.170270
412.855894	2630.164046
413.236180	2625.627007
413.616405	2630.098511
413.996568	2630.514406
414.376670	2630.748820
414.756711	2629.551546
415.136691	2633.680251
415.516609	2632.634211
415.896466	2633.004736
416.276262	2631.184880
416.655997	2630.111114
417.035670	2635.132103
417.415283	2634.819552
417.794834	2635.628657
418.174324	2633.730662
418.553753	2631.961217
418.933121	2636.697381
419.312428	2636.715025
419.691674	2638.837351
420.070859	2638.398771
420.449983	2641.584780
420.829045	2641.431025
421.208047	2640.856333
421.586988	2644.392703
421.965867	2642.489667
422.344686	2644.022178
422.723444	2645.375728
423.102141	2644.294400
423.480777	2644.715337
423.859352	2645.078300
424.237866	2646.005872
424.616319	2648.728095
424.994712	2650.429484
425.373044	2652.357726
425.751314	2650.174906
426.129524	2647.258599
426.507673	2650.013589
426.885762	2650.447128
427.263789	2656.672953
427.641756	2659.732934
428.019662	2664.027997
428.397508	2667.251815
428.775292	2668.464212
429.153016	2674.339677
429.530679	2680.147086
429.908282	2684.439629
430.285824	2687.524815
430.663305	2701.725745
431.040726	2705.899821
431.418086	2716.501367
431.795385	2734.072309
432.172624	2746.511356
432.549802	2764.188162
432.926920	2783.362191
433.303977	2796.370888
433.680974	2831.283399
434.057910	2854.129908
434.434786	2886.015207
434.811601	2909.683424
435.188355	2967.964203
435.565050	2996.479490
435.941683	3034.295706
436.318257	3109.842437
436.694770	3168.720594
437.071222	3226.530025
437.447614	3280.024229
437.823946	3329.505675
438.200218	3413.783685
438.576429	3455.753811
438.952580	3554.096641
439.328670	3639.783653
439.704700	3689.227290
440.080670	3767.987757
440.456580	3931.091769
440.832429	3987.121674
441.208218	4005.350486
441.583947	4147.889111
441.959616	4272.899644
442.335224	4329.499199
442.710773	4456.468220
443.086261	4609.424390
443.461689	4536.569634
443.837057	4794.482627
444.212365	4977.126151
444.587612	4992.768852
444.962800	5178.565618
445.337927	5219.232606
445.712995	5194.609090
446.088002	5671.068704
446.462949	5675.063819
446.837837	5783.700684
447.212664	5917.762609
447.587431	6231.662656
447.962139	6642.297404
448.336786	7694.030811
448.711374	8170.485384
449.085901	7380.886937
449.460369	7329.439441
449.834776	7222.715694
450.209124	7782.931559
450.583412	8127.708673
450.957640	8777.873847
451.331808	8519.986060
451.705917	8113.434646
452.079965	7870.234261
452.453954	8530.454016
452.827883	8448.318496
453.201752	8752.816791
453.575562	8587.872758
453.949311	8978.126121
454.323001	9076.726049
454.696632	9353.185447
455.070202	9670.331997
455.443713	9961.531728
455.817164	10417.544423
456.190556	10555.850999
456.563888	10940.511202
456.937160	11203.914012
457.310373	10839.791469
457.683526	11020.592452
458.056619	10816.166102
458.429653	11016.536844
458.802628	10728.686959
459.175542	11095.098185
459.548398	11949.009153
459.921194	12329.197853
460.293930	12453.469857
460.666607	13315.252586
461.039224	14241.400768
461.411782	14936.205358
461.784280	15003.794628
462.156719	15178.115208
462.529099	15029.776735
462.901419	14193.035938
463.273680	14111.601138
463.645882	14069.782247
464.018024	13897.447882
464.390106	14177.453731
464.762130	14907.707716
465.134094	15628.070956
465.505999	17416.634532
465.877845	20473.691048
466.249631	23247.187700
466.621358	23160.676459
466.993026	21905.550139
467.364634	21489.642344
467.736184	20202.585355
468.107674	19469.798191
468.479105	19637.514859
468.850477	19163.926182
469.221790	18809.303694
469.593043	18185.914609
469.964238	17687.788115
470.335373	17397.790699
470.706449	17823.238878
471.077467	17384.993730
471.448425	19181.048461
471.819324	23089.379420
472.190164	25234.166050
472.560945	21844.559739
472.931667	19468.563108
473.302330	18850.603347
473.672934	18337.325665
474.043479	18725.229850
474.413965	18555.284993
474.784393	18211.238845
475.154761	18862.505511
475.525070	18912.375125
475.895321	18558.007216
476.265513	19125.550398
476.635645	19699.858809
477.005719	19513.752012
477.375734	19714.276509
477.745691	20193.944818
478.115588	20699.328052
478.485427	21214.168492
478.855207	22248.189804
479.224928	23995.259643
479.594591	26202.954832
479.964194	26311.047253
480.333739	26497.771591
480.703226	26073.278711
481.072653	25738.238585
481.442022	26278.310000
481.811333	27191.089041
482.180584	27137.821689
482.549777	26183.145618
482.918912	25827.971124
483.287988	25928.741268
483.657005	25655.369578
484.025964	25349.656364
484.394864	25309.952237
484.763706	25014.502813
485.132489	24427.820890
485.501213	24596.122332
485.869879	24525.185735
486.238487	24320.288037
486.607036	24469.118022
486.975527	24150.202027
487.343959	24493.323122
487.712333	24459.345745
488.080648	24119.698005
488.448905	24575.622479
488.817104	24333.349667
489.185244	24974.236596
489.553326	24965.805267
489.921350	25917.761635
490.289315	28171.981633
490.657222	29977.833846
491.025070	30472.010596
491.392861	30281.495310
491.760593	29449.394894
492.128267	28553.080261
492.495883	27525.821657
492.863440	26644.882543
493.230939	25760.800269
493.598380	25616.187209
493.965763	25210.409613
494.333088	24782.292143
494.700354	24678.255331
495.067563	24587.529685
495.434713	24342.206974
495.801805	24474.033147
496.168839	24301.436642
496.535815	24133.276353
496.902733	24327.275076
497.269593	24008.623742
497.636395	24202.960222
498.003139	24185.532954
498.369825	23933.936527
498.736453	24133.493123
499.103023	24012.432333
499.469535	24024.735269
499.835989	24239.077569
500.202385	24258.138172
500.568723	23757.821297
500.935003	24033.496795
501.301226	23623.159475
501.667390	24435.425470
502.033497	24688.483832
502.399546	24413.945114
502.765537	23995.312575
503.131470	24384.928232
503.497345	24522.836557
503.863163	23731.272060
504.228923	24350.771894
504.594625	24548.473345
504.960269	24049.313415
505.325856	24561.461878
505.691385	23963.906187
506.056856	24570.241048
506.422270	24531.199832
506.787625	24120.060968
507.152924	24530.408371
507.518164	24545.819178
507.883347	24365.335788
508.248472	24052.610330
508.613540	24827.944832
508.978550	24619.566218
509.343503	24599.378917
509.708398	24875.808068
510.073236	25029.207858
510.438016	25246.758853
510.802738	24917.440437
511.167403	25168.477295
511.532010	24855.174625
511.896561	25654.951162
512.261053	25617.124864
512.625488	25453.055471
512.989866	25347.476065
513.354186	25214.601332
513.718449	25297.321626
514.082655	25671.662587
514.446803	25418.747898
514.810894	25864.567380
515.174927	25358.927046
515.538904	25391.318980
515.902822	25880.106737
516.266684	25626.672809
516.630488	25533.219899
516.994235	25514.292887
517.357925	25810.848845
517.721558	26006.029719
518.085133	26077.417498
518.448651	26013.099937
518.812112	25731.669962
519.175516	25920.723313
519.538863	26094.703615
519.902152	25856.879620
520.265385	26158.874983
520.628560	25955.535001
520.991678	25954.098272
521.354739	26039.538268
521.717743	26099.341476
522.080690	25895.570476
522.443580	26211.232407
522.806413	26217.942182
523.169189	26298.663658
523.531908	26370.618568
523.894569	25975.283721
524.257174	26036.637084
524.619722	26228.672278
524.982213	25913.131336
525.344647	25995.468501
525.707025	26104.531344
526.069345	26109.978311
526.431608	26046.553034
526.793815	26243.289104
527.155964	25705.670211
527.518057	25864.186773
527.880093	25794.306298
528.242072	26019.408941
528.603995	25734.351856
528.965860	25537.018409
529.327669	25578.822177
529.689421	25570.665590
530.051117	25399.556226
530.412755	25583.318886
530.774337	25391.371913
531.135862	25249.624749
531.497331	25455.180317
531.858743	25002.603169
532.220098	25490.092828
532.581396	25170.720609
532.942638	25111.020744
533.303824	25197.509300
533.664953	25221.782456
534.026025	24888.443720
534.387040	25121.478618
534.747999	25189.239287
535.108902	25344.136301
535.469748	24836.149310
535.830537	25030.450503
536.191270	25137.822039
536.551947	25018.097155
536.912567	24680.397821
537.273131	25009.043243
537.633638	24728.558484
537.994089	24928.495687
538.354483	24476.551203
538.714821	24969.676873
539.075103	25014.061712
539.435328	24807.606297
539.795497	24364.788823
540.155609	24758.250880
540.515665	25058.136520
540.875665	24296.080416
541.235609	24574.778086
541.595496	24549.975609
541.955328	24900.905452
542.315102	24822.777650
542.674821	24379.017479
543.034483	24248.300360
543.394090	24417.892337
543.753640	24199.133987
544.113134	24836.897922
544.472571	24437.777169
544.831953	24727.232661
545.191278	24346.088663
545.550548	24266.793833
545.909761	24482.593026
546.268918	24711.559713
546.628019	24668.856099
546.987064	24369.489699
547.346053	24137.949503
547.704986	24249.573252
548.063863	24411.280864
548.422684	24410.612911
548.781449	23963.399551
549.140158	24364.143555
549.498811	23933.490385
549.857408	23676.089069
550.215949	24106.107054
550.574434	23787.347335
550.932864	24011.668599
551.291237	24154.224868
551.649555	24024.374827
552.007817	24078.720986
552.366022	23950.615184
552.724173	23985.499969
553.082267	23919.879269
553.440305	24403.835080
553.798288	23668.794520
554.156215	24189.883469
554.514086	24279.013590
554.871902	23650.285923
555.229661	23938.526497
555.587365	23802.997597
555.945014	23642.996415
556.302606	23911.636983
556.660143	23847.468136
557.017625	24093.501649
557.375050	23638.522391
557.732421	24031.129973
558.089735	23834.252751
558.446994	23898.295569
558.804197	23922.982100
559.161345	23886.373240
559.518437	23616.653866
559.875474	23817.869001
560.232455	24004.278267
560.589381	23838.373894
560.946251	23808.482372
561.303065	24139.444205
561.659825	24210.796696
562.016528	23827.628675
562.373177	23570.360950
562.729770	23913.073712
563.086307	23780.256952
563.442789	23949.785915
563.799216	23781.003043
564.155587	23788.181646
564.511904	23760.387244
564.868164	23702.171999
565.224370	23683.895296
565.580520	23599.075362
565.936615	23728.612851
566.292654	23392.040215
566.648638	23710.714235
567.004567	23535.725702
567.360441	23487.141582
567.716260	23209.129509
568.072023	23544.146950
568.427732	23296.593528
568.783385	23077.232760
569.138982	23316.090191
569.494525	23350.304502
569.850013	23102.216718
570.205445	23191.482950
570.560823	23004.889682
570.916145	22758.369697
571.271412	22931.651799
571.626625	22693.210263
571.981782	22814.376916
572.336884	22611.639352
572.691931	22742.321184
573.046923	22474.225060
573.401860	22369.394266
573.756743	22365.396631
574.111570	22279.018981
574.466342	22214.280483
574.821059	22294.535652
575.175722	21998.425837
575.530330	21991.726143
575.884882	22018.587932
576.239380	21922.165782
576.593823	21812.997075
576.948211	21804.361578
577.302544	21632.465794
577.656823	21506.550374
578.011047	21602.140733
578.365216	21468.252728
578.719330	21356.893640
579.073389	21258.046695
579.427394	21400.242522
579.781344	21173.027635
580.135239	21062.036551
580.489080	21039.366482
580.842866	20799.377312
581.196597	20988.821353
581.550273	20968.601285
581.903895	20857.443843
582.257463	21177.990651
582.610975	20700.613547
582.964434	21004.741317
583.317837	20714.270033
583.671186	20806.661780
584.024481	20778.504415
584.377721	20550.888757
584.730906	20599.130079
585.084037	20633.241046
585.437113	20527.684326
585.790135	20732.834082
586.143103	20213.975843
586.496016	20215.052129
586.848874	20465.461364
587.201679	20395.545601
587.554428	20068.636857
587.907124	20385.070083
588.259765	20178.574340
588.612352	20239.259750
588.964884	19823.024279
589.317362	19999.116824
589.669786	20040.852537
590.022155	20083.725030
590.374470	20276.846593
590.726731	20074.096426
591.078937	19831.097687
591.431090	19933.228944
591.783188	19673.435601
592.135232	19652.093876
592.487222	19757.302757
592.839157	19767.556464
593.191038	19656.134361
593.542866	19540.734788
593.894639	19264.630791
594.246358	19478.852103
594.598022	19394.851357
594.949633	19141.394744
595.301190	19099.928733
595.652692	19261.144833
596.004141	19508.191619
596.355535	18841.272171
596.706876	18846.048664
597.058162	18737.114371
597.409395	18953.465570
597.760573	19048.541732
598.111698	18817.535898
598.462768	18758.040200
598.813785	18724.393019
599.164748	18540.579947
599.515657	18581.572089
599.866511	18371.171972
600.217312	18735.100430
600.568060	18255.467409
600.918753	18568.039112
601.269392	18461.022977
601.619978	18248.316532
601.970510	18458.547771
602.320988	18402.386796
602.671412	18611.950082
603.021783	18512.377212
603.372100	18246.784021
603.722363	18387.802738
604.072572	18336.713165
604.422728	18469.217373
604.772830	18227.872132
605.122878	18170.735695
605.472872	18168.757042
605.822813	18151.269279
606.172701	18116.066902
606.522534	18318.915371
606.872314	18337.292897
607.222041	18180.475204
607.571714	18389.017656
607.921333	18217.452068
608.270899	18292.459396
608.620411	18472.526890
608.969870	18235.895129
609.319276	18249.150843
609.668627	18278.807951
610.017926	18415.206451
610.367171	18525.217030
610.716362	18574.322910
611.065500	18393.690806
611.414585	18516.881483
611.763616	18505.435543
612.112594	18445.639896
612.461518	18415.924815
612.810389	18601.315768
613.159207	18451.739692
613.507971	18377.725472
613.856682	18645.309918
614.205340	18586.787163
614.553945	18735.574298
614.902496	18471.909349
615.250994	18713.146205
615.599439	18650.487183
615.947830	18638.234658
616.296169	18679.892233
616.644454	18653.325352
616.992686	18612.272716
617.340864	18829.881684
617.688990	18593.713708
618.037063	18755.968286
618.385082	18613.767418
618.733048	18893.755623
619.080961	18769.735677
619.428821	18807.859403
619.776628	18688.741979
620.124382	18613.424620
620.472083	18650.330907
620.819731	18663.818514
621.167326	18363.050673
621.514868	18408.892405
621.862357	18166.826280
622.209793	18179.154422
622.557176	18018.873456
622.904506	17833.931165
623.251783	17747.505624
623.599007	17515.612547
623.946179	17464.888457
624.293297	17402.834373
624.640363	17158.595511
624.987376	17176.547060
625.334336	16970.726830
625.681243	16815.734035
626.028097	16823.131928
626.374899	16750.229282
626.721647	16618.733304
627.068343	16447.084536
627.414987	16379.817900
627.761577	16366.307608
628.108115	16398.538225
628.454600	16120.687469
628.801032	16224.550362
629.147412	16150.861295
629.493739	16168.931311
629.840014	15978.940305
630.186236	16079.264308
630.532405	15841.278996
630.878521	16033.394849
631.224585	15930.159580
631.570597	15747.551343
631.916556	15787.298321
632.262462	15758.427633
632.608316	15684.483988
632.954117	15624.562313
633.299866	15635.756195
633.645562	15541.504262
633.991206	15295.120389
634.336797	15173.220247
634.682336	15137.831348
635.027823	15030.258166
635.373257	14904.307457
635.718639	14807.103929
636.063968	14753.334982
636.409245	14511.062169
636.754470	14528.464232
637.099642	14380.506367
637.444762	14141.964008
637.789829	14193.008211
638.134845	14033.979972
638.479808	14063.080033
638.824719	14008.260005
639.169577	13868.433521
639.514383	13912.236107
639.859137	13727.293816
640.203839	13810.787927
640.548489	13646.259789
640.893086	13633.094815
641.237632	13507.965815
641.582125	13663.016584
641.926566	13494.135410
642.270955	13500.580525
642.615292	13466.731697
642.959576	13479.624448
643.303809	13509.478161
643.647990	13436.809929
643.992118	13501.984486
644.336195	13274.537707
644.680219	13481.582937
645.024192	13408.254313
645.368112	13644.969253
645.711981	13695.945401
646.055797	13880.817115
646.399562	13845.644985
646.743274	14119.425009
647.086935	14404.933278
647.430544	14353.105175
647.774101	14392.771494
648.117606	14535.995716
648.461059	14506.066386
648.804460	14498.000540
649.147810	14223.353437
649.491108	14127.526143
649.834354	14140.643226
650.177548	13831.083612
650.520690	13645.271722
650.863781	13564.726687
651.206820	13608.733439
651.549807	13441.901494
651.892742	13248.885796
652.235626	13184.212833
652.578458	13179.632945
652.921238	12872.014175
653.263967	13071.679156
653.606644	12895.221127
653.949269	12873.092982
654.291843	12672.152590
654.634365	12833.751817
654.976836	12686.353520
655.319255	12700.350284
655.661622	12650.838591
656.003938	12568.062845
656.346203	12500.145900
656.688416	12572.768762
657.030577	12534.214018
657.372687	12439.001745
657.714746	12425.957759
658.056753	12610.428702
658.398708	12424.377358
658.740612	12436.708020
659.082465	12534.365252
659.424266	12491.079385
659.766016	12517.779856
660.107715	12433.171651
660.449362	12506.613700
660.790958	12464.903193
661.132503	12400.789799
661.473996	12472.863175
661.815438	12487.532933
662.156829	12506.545645
662.498168	12483.273158
662.839456	12486.083601
663.180693	12497.524500
663.521879	12592.101587
663.863013	12568.645098
664.204097	12543.446891
664.545129	12670.030264
664.886110	12637.507260
665.227040	12729.505797
665.567918	12737.249009
665.908746	12762.079213
666.249522	12753.158891
666.590248	12792.147175
666.930922	12903.511304
667.271545	12893.865057
667.612118	12976.597953
667.952639	12874.620452
668.293109	12888.894479
668.633528	12853.613964
668.973896	12822.633553
669.314213	12897.590469
669.654480	12639.642189
669.994695	12712.801934
670.334859	12728.164850
670.674973	12685.052902
671.015035	12714.767984
671.355047	12654.261535
671.695008	12628.748255
672.034918	12627.125004
672.374777	12677.392869
672.714585	12595.408584
673.054342	12621.380609
673.394049	12576.065677
673.733705	12675.310873
674.073310	12575.359915
674.412864	12596.358842
674.752368	12467.280098
675.091820	12478.942807
675.431223	12481.241573
675.770574	12340.810150
676.109875	12260.791915
676.449125	12215.635780
676.788324	12162.983448
677.127473	11999.680311
677.466571	11989.522386
677.805619	11883.625387
678.144616	11804.728809
678.483562	11782.824996
678.822458	11647.414562
679.161303	11627.421346
679.500098	11611.665220
679.838842	11566.723333
680.177535	11591.878691
680.516179	11653.622743
680.854771	11598.409506
681.193314	11821.117600
681.531805	11970.527318
681.870247	12382.760112
682.208638	12797.576497
682.546978	13110.271709
682.885268	13160.297599
683.223508	12848.976102
683.561697	12694.184953
683.899836	12596.026126
684.237925	12405.069738
684.575963	12317.232674
684.913951	12240.801220
685.251889	12182.470029
685.589776	12275.779266
685.927614	12209.367105
686.265401	12171.384531
686.603137	12224.631719
686.940824	12377.003114
687.278460	12498.741939
687.616046	12549.682798
687.953582	12715.030124
688.291068	12640.277374
688.628504	12873.753373
688.965889	12875.714382
689.303224	12849.465094
689.640510	12743.041295
689.977745	12428.939602
690.314930	12201.341588
690.652065	12121.383847
690.989150	11827.020792
691.326185	11602.084507
691.663170	11393.993238
692.000105	11156.572536
692.336990	11043.751513
692.673825	10793.022164
693.010610	10673.987919
693.347345	10463.839859
693.684030	10268.432133
694.020665	10206.017608
694.357251	10013.311940
694.693786	9950.294997
695.030272	9788.113516
695.366707	9672.731586
695.703093	9601.321122
696.039429	9597.888096
696.375716	9528.216829
696.711952	9394.890913
697.048139	9438.063354
697.384276	9384.211228
697.720363	9404.214527
698.056400	9349.971711
698.392388	9296.346437
698.728326	9254.051157
699.064214	9196.589564
699.400053	9236.271007
699.735842	9051.452225
700.071581	9009.630812
700.407270	8940.143548
700.742910	8854.799334
701.078501	8765.192824
701.414042	8641.792940
701.749533	8575.194256
702.084974	8434.798122
702.420366	8551.281543
702.755709	8432.519520
703.091002	8299.221330
703.426246	8331.139396
703.761440	8279.465048
704.096584	8230.858243
704.431679	8170.510590
704.766725	8154.837643
705.101721	8109.157227
705.436668	8154.210019
705.771565	8044.847227
706.106413	8122.561655
706.441212	8164.375506
706.775961	8125.220864
707.110661	8161.522213
707.445311	8306.215931
707.779913	8206.252371
708.114465	8335.263059
708.448967	8372.401240
708.783421	8512.073969
709.117825	8700.716466
709.452180	8730.676044
709.786485	8814.727202
710.120742	9104.228064
710.454949	9104.137323
710.789107	9198.099390
711.123216	9417.253471
711.457275	9584.725643
711.791286	9739.874714
712.125247	9735.531760
712.459159	9724.232014
712.793023	9975.488163
713.126837	9551.295231
713.460602	9700.137819
713.794318	9525.398824
714.127985	9555.000479
714.461602	9233.052230
714.795171	9178.743880
715.128691	8938.560625
715.462162	8683.974794
715.795584	8632.033266
716.128957	8480.349988
716.462281	8317.419895
716.795556	8364.655507
717.128782	8158.142119
717.461960	7889.065491
717.795088	7962.862943
718.128167	7872.021350
718.461198	7707.183181
718.794180	7643.553737
719.127113	7639.714899
719.459997	7485.180848
719.792833	7256.143585
720.125619	7321.887793
720.458357	7178.262799
720.791046	7165.922054
721.123686	7165.269225
721.456278	7005.772158
721.788821	7021.235898
722.121315	6913.826553
722.453761	6984.017059
722.786158	6922.658655
723.118506	6937.925789
723.450805	6905.770790
723.783056	6969.705223
724.115259	6877.293312
724.447412	6877.371449
724.779518	6924.239057
725.111574	6925.756444
725.443582	7008.887592
725.775542	6988.236505
726.107453	7178.978643
726.439315	7095.378668
726.771129	7150.160887
727.102895	7319.934346
727.434612	7427.704133
727.766281	7465.759803
728.097901	7542.317286
728.429473	7530.702467
728.760996	7513.076073
729.092471	7481.677246
729.423897	7433.403157
729.755276	7443.059487
730.086606	7372.669856
730.417887	7471.239537
730.749120	7660.348341
731.080305	7860.472067
731.411442	7986.208526
731.742530	7978.762742
732.073570	8084.760563
732.404562	8169.343563
732.735506	8013.949996
733.066401	8159.047006
733.397249	8089.090914
733.728048	7852.413782
734.058798	7515.974736
734.389501	7294.045500
734.720156	7115.409693
735.050762	6884.292954
735.381320	6784.417614
735.711831	6734.358956
736.042293	6626.400126
736.372707	6641.629452
736.703073	6508.069122
737.033391	6543.069853
737.363661	6554.636780
737.693883	6586.471667
738.024056	6672.244379
738.354182	6713.607046
738.684260	6749.248004
739.014290	6868.627568
739.344272	6973.602035
739.674207	7002.258474
740.004093	7068.252219
740.333931	7090.992864
740.663722	7099.666169
740.993464	7172.974629
741.323159	7161.052300
741.652806	6913.892088
741.982405	6925.771568
742.311956	6982.562686
742.641460	6817.159908
742.970915	6627.257122
743.300323	6618.140195
743.629683	6571.060859
743.958996	6434.874088
744.288260	6347.084915
744.617477	6291.392767
744.946647	6295.259332
745.275768	6126.973014
745.604842	6085.759061
745.933869	6067.696607
746.262847	6024.501480
746.591778	6016.896899
746.920662	5972.980888
747.249498	5960.967818
747.578286	6008.881465
747.907027	6089.020688
748.235720	6146.005891
748.564365	6118.203927
748.892963	6149.756509
749.221514	6296.174302
749.550017	6132.540969
749.878473	6009.456156
750.206881	6065.624693
750.535242	6002.711093
750.863555	5934.854641
751.191821	5953.383402
751.520039	5954.457168
751.848210	5861.823445
752.176334	5883.460078
752.504411	5934.088386
752.832440	5860.018712
753.160421	5791.857271
753.488356	5837.338561
753.816243	5867.318303
754.144082	5717.321291
754.471875	5690.076375
754.799620	5735.073714
755.127318	5742.269961
755.454969	5697.207087
755.782572	5667.708775
756.110129	5708.416093
756.437638	5696.839083
756.765100	5634.331296
757.092515	5634.210308
757.419882	5685.909861
757.747203	5659.310213
758.074477	5729.455348
758.401703	5713.976485
758.728882	5662.153424
759.056014	5719.178956
759.383099	5852.061251
759.710138	5861.901583
760.037129	5851.025294
760.364073	5848.212330
760.690970	5933.387665
761.017820	5913.293626
761.344623	5871.560434
761.671379	5968.922759
761.998088	6089.910451
762.324751	6331.185115
762.651366	6931.589059
762.977935	8242.034481
763.304456	9875.985868
763.630931	10778.274269
763.957359	10387.121060
764.283740	9440.871277
764.610074	8604.901776
764.936362	7610.987883
765.262602	7016.466966
765.588796	6475.783052
765.914943	6137.519108
766.241044	5978.700077
766.567097	5776.212050
766.893104	5517.847874
767.219064	5335.834494
767.544978	5277.904075
767.870845	5197.669070
768.196665	5090.778965
768.522438	5021.516031
768.848165	4986.981607
769.173846	4921.376031
769.499479	4880.514958
769.825066	4828.666691
770.150607	4764.384418
770.476101	4742.462960
770.801548	4735.259151
771.126949	4660.955064
771.452303	4606.059419
771.777611	4568.102052
772.102872	4583.422118
772.428087	4545.132034
772.753256	4504.273482
773.078378	4460.170948
773.403453	4393.647882
773.728482	4379.159605
774.053465	4332.975074
774.378401	4319.903363
774.703291	4320.919155
775.028135	4248.165223
775.352932	4201.378274
775.677683	4188.472920
776.002388	4206.038821
776.327046	4217.157085
776.651658	4142.608502
776.976224	4083.538782
777.300743	4087.407868
777.625216	4107.199438
777.949643	4102.052420
778.274024	4056.712282
778.598359	4010.893235
778.922647	4035.259652
779.246889	4028.683467
779.571086	4023.057539
779.895236	4006.051206
780.219339	3992.573682
780.543397	3988.356756
780.867409	4039.095970
781.191374	4050.161302
781.515294	3989.919514
781.839167	3984.422136
782.162995	4003.238242
782.486776	3988.674349
782.810511	4001.128520
783.134201	3997.022500
783.457844	3952.249492
783.781441	3897.855442
784.104993	3903.758633
784.428498	3922.804112
784.751958	3922.047939
785.075372	3896.557345
785.398739	3861.049978
785.722061	3871.802759
786.045337	3913.803132
786.368568	3945.706074
786.691752	3862.653065
787.014891	3911.774068
787.337983	4037.409704
787.661030	4196.314435
787.984031	4356.877705
788.306987	4529.716186
788.629897	4612.141572
788.952760	4563.315476
789.275579	4498.312318
789.598351	4427.201802
789.921078	4292.577788
790.243759	4094.077314
790.566395	4075.598965
790.888984	4070.882965
791.211529	3965.842963
791.534027	3902.780649
791.856480	3892.920152
792.178888	3829.106706
792.501249	3782.100467
792.823566	3790.428453
793.145836	3820.100685
793.468062	3768.343158
793.790241	3720.663925
794.112375	3752.677773
794.434464	3813.012823
794.756507	3837.404446
795.078505	3824.673012
795.400457	3855.945809
795.722364	3993.110564
796.044226	4099.509157
796.366042	4171.204448
796.687812	4151.712826
797.009538	4156.101151
797.331218	4115.411477
797.652852	4088.116150
797.974442	4068.155701
798.295986	4070.401535
798.617484	3985.009430
798.938938	3903.582193
799.260346	3944.087864
799.581709	3936.364816
799.903026	3862.456460
800.224299	3825.008248
800.545526	3822.500274
800.866708	3781.470323
801.187845	3724.517887
801.508936	3757.887805
801.829983	3753.307917
802.150984	3678.945857
802.471940	3663.645955
802.792851	3673.428314
803.113717	3677.851926
803.434538	3679.820497
803.755314	3618.764562
804.076045	3594.085593
804.396731	3615.487812
804.717372	3640.880104
805.037967	3627.737816
805.358518	3616.153244
805.679024	3643.609889
805.999485	3657.871313
806.319901	3660.873320
806.640272	3673.037624
806.960598	3688.617310
807.280879	3660.772497
807.601115	3677.577183
807.921306	3691.410110
808.241453	3731.507447
808.561554	3706.931822
808.881611	3644.701299
809.201623	3680.198583
809.521590	3692.299873
809.841513	3661.937004
810.161390	3692.050336
810.481223	3669.806245
810.801011	3614.691310
811.120755	3608.808283
811.440453	3640.965804
811.760107	3646.090137
812.079716	3602.995833
812.399281	3572.373344
812.718801	3596.588526
813.038276	3569.305802
813.357707	3563.919329
813.677093	3583.073193
813.996434	3528.590923
814.315731	3538.874877
814.634983	3540.893859
814.954191	3555.349367
815.273354	3586.682659
815.592473	3581.386927
815.911547	3589.223401
816.230577	3628.531798
816.549562	3678.587935
816.868502	3720.245510
817.187399	3745.920106
817.506250	3744.659818
817.825058	3717.523287
818.143821	3805.927481
818.462539	3908.885487
818.781213	3955.110347
819.099843	4012.042618
819.418429	4254.635544
819.736970	4496.555476
820.055466	4742.818362
820.373919	5109.491728
820.692327	5520.270149
821.010691	5963.727850
821.329011	7336.486974
821.647286	10082.494215
821.965517	14634.822496
822.283704	18675.602211
822.601847	20830.403094
822.919945	19029.808804
823.237999	16445.133610
823.556010	13959.224702
823.873976	11868.249868
824.191897	9767.709445
824.509775	8419.107530
824.827609	7291.207330
825.145398	6742.127374
825.463144	6627.922554
825.780845	6738.563278
826.098502	6929.950684
826.416116	7808.775034
826.733685	9131.994740
827.051210	10243.911961
827.368692	10290.898036
827.686129	9045.012151
828.003522	7514.991711
828.320872	6502.770869
828.638177	5796.999248
828.955439	5243.276389
829.272656	4744.595368
829.589830	4452.778096
829.906960	4281.751910
830.224046	4094.652006
830.541088	3968.456802
830.858086	3926.005245
831.175041	3846.861650
831.491952	3831.135771
831.808819	3841.558356
832.125642	3915.300355
832.442421	4063.177562
832.759157	4339.523533
833.075849	4885.679620
833.392497	5752.211117
833.709101	6531.518049
834.025662	6864.914758
834.342179	6509.959554
834.658653	5842.871228
834.975083	5195.269481
835.291469	4615.007468
835.607811	4203.886248
835.924110	4065.473807
836.240366	3868.342007
836.556578	3661.513547
836.872746	3553.216959
837.188871	3510.737676
837.504952	3447.355249
837.820990	3365.103783
838.136984	3320.413954
838.452935	3340.797860
838.768842	3336.258301
839.084706	3358.819985
839.400526	3520.825025
839.716303	3854.642671
840.032037	4383.805029
840.347727	4649.325122
840.663373	4370.100652
840.978977	3985.982373
841.294537	3679.455013
841.610054	3449.843058
841.925527	3345.617203
842.240957	3272.003754
842.556344	3223.303687
842.871687	3160.402690
843.186987	3110.749845
843.502244	3075.986048
843.817458	3042.376675
844.132629	3008.167405
844.447756	3018.572347
844.762840	3003.310254
845.077881	2972.496201
845.392879	2954.012810
845.707833	2951.156997
846.022745	2950.463838
846.337613	2949.400154
846.652438	2937.266097
846.967221	2936.368772
847.281960	2917.968560
847.596656	2918.843200
847.911309	2916.730957
848.225919	2909.075965
848.540485	2906.013464
848.855009	2906.807446
849.169490	2897.125910
849.483928	2884.896070
849.798323	2885.140566
850.112675	2883.013199
850.426984	2895.245559
850.741251	2890.282543
851.055474	2880.999258
851.369654	2874.763351
851.683792	2880.169989
851.997887	2890.769015
852.311938	2890.781618
852.625947	2879.781820
852.939914	2884.535628
853.253837	2888.389590
853.567718	2869.931405
853.881555	2870.397712
854.195350	2884.099568
854.509103	2882.146121
854.822812	2876.126983
855.136479	2872.429297
855.450103	2873.003988
855.763685	2866.856301
856.077224	2861.432020
856.390720	2877.737632
856.704173	2885.541338
857.017584	2878.692931
857.330953	2873.881149
857.644278	2884.089486
857.957561	2891.310939
858.270802	2893.506361
858.584000	2896.778070
858.897155	2885.087634
859.210268	2884.127294
859.523339	2880.490102
859.836367	2880.759804
860.149352	2874.791077
860.462295	2869.903679
860.775195	2880.754763
861.088054	2876.079092
861.400869	2861.792462
861.713642	2860.121320
862.026373	2871.138762
862.339062	2876.515152
862.651708	2880.706872
862.964312	2883.673591
863.276873	2877.858620
863.589392	2887.721637
863.901869	2899.843092
864.214303	2919.861513
864.526696	2937.863474
864.839045	2934.148143
865.151353	2932.887855
865.463619	2931.662855
865.775842	2933.122269
866.088023	2949.732871
866.400162	2955.482307
866.712258	2927.919798
867.024313	2916.801533
867.336325	2926.047009
867.648296	2949.332099
867.960224	2940.447065
868.272110	2928.295364
868.583954	2929.263265
868.895755	2949.221193
869.207515	2934.054882
869.519233	2938.596962
869.830909	2947.388734
870.142542	2957.697894
870.454134	2956.674539
870.765684	2960.092442
871.077191	2959.479942
871.388657	2969.015284
871.700081	2980.859475
872.011463	2993.633759
872.322803	2991.728203
872.634101	2994.100066
872.945357	3012.782582
873.256571	3034.204965
873.567744	3029.360416
873.878874	3016.946575
874.189963	3045.255174
874.501010	3043.392468
874.812015	3036.123124
875.122979	3033.993237
875.433900	3032.737989
875.744780	3038.144627
876.055618	3044.037736
876.366415	3040.922303
876.677169	3054.553583
876.987882	3050.664332
877.298554	3041.801984
877.609183	3066.291909
877.919771	3088.475507
878.230317	3114.339147
878.540822	3168.655059
878.851285	3205.916747
879.161707	3247.775968
879.472087	3351.316227
879.782425	3576.151689
880.092722	4015.263915
880.402977	4542.853432
880.713191	5177.179300
881.023363	6328.009188
881.333494	7610.183819
881.643583	8165.308119
881.953631	7866.841565
882.263637	7234.154072
882.573602	6649.987685
882.883526	6074.174489
883.193408	5496.236448
883.503248	5035.190161
883.813048	4730.938882
884.122806	4430.828912
884.432522	4110.836630
884.742197	3878.227709
885.051831	3679.865867
885.361424	3547.291083
885.670975	3471.260401
885.980485	3390.218811
886.289954	3314.654436
886.599382	3271.192128
886.908768	3230.177300
887.218113	3185.227852
887.527417	3128.623256
887.836680	3079.025864
888.145901	3072.426993
888.455082	3061.316290
888.764221	3011.802077
889.073319	2982.215545
889.382376	2979.921820
889.691392	2984.219404
890.000366	2984.499188
890.309300	2971.351859
890.618193	2982.301245
890.927044	2999.521827
891.235855	2997.160046
891.544625	2987.498675
891.853353	2997.704491
892.162041	3017.211235
892.470687	3057.318655
892.779293	3105.933023
893.087858	3152.820794
893.396381	3225.612535
893.704864	3345.813808
894.013306	3587.461517
894.321707	3891.246489
894.630068	4094.936831
894.938387	4093.270730
895.246665	4048.401940
895.554903	3926.388373
895.863100	3726.788927
896.171256	3559.160480
896.479371	3417.713264
896.787446	3294.701549
897.095480	3191.453677
897.403473	3127.766260
897.711425	3090.570106
898.019336	3081.680031
898.327207	3056.048285
898.635038	3018.655526
898.942827	3003.738752
899.250576	2990.346927
899.558284	2959.958851
899.865952	2940.593259
900.173579	2919.080135
900.481165	2912.458579
900.788711	2899.729666
901.096216	2876.139586
901.403681	2863.811444
901.711105	2870.463247
902.018489	2870.289327
902.325832	2867.874614
902.633135	2877.974566
902.940397	2909.902714
903.247619	2995.521671
903.554800	3183.402954
903.861941	3532.427241
904.169041	3957.729226
904.476101	4259.139815
904.783121	4218.787899
905.090100	3972.129282
905.397039	3691.508412
905.703938	3445.638736
906.010796	3260.542690
906.317614	3145.828714
906.624391	3056.864952
906.931129	2982.155052
907.237826	2920.524425
907.544483	2874.939792
907.851099	2843.356963
908.157675	2821.816112
908.464211	2802.717701
908.770707	2788.042902
909.077163	2774.424225
909.383578	2760.616505
909.689954	2750.478744
909.996289	2746.531521
910.302584	2749.087386
910.608839	2748.716861
910.915054	2744.099164
911.221229	2736.187073
911.527363	2737.737228
911.833458	2744.542786
912.139513	2750.360277
912.445527	2753.667274
912.751502	2763.129520
913.057436	2772.679986
913.363331	2786.134825
913.669186	2808.250367
913.975000	2840.170953
914.280775	2900.069943
914.586510	2971.936633
914.892205	3050.399672
915.197859	3179.392716
915.503475	3373.330946
915.809050	3587.219542
916.114585	3735.598344
916.420081	3755.279008
916.725536	3695.523691
917.030952	3572.791760
917.336328	3447.622430
917.641665	3314.475475
917.946961	3213.574260
918.252218	3141.626912
918.557435	3068.953638
918.862612	3007.202024
919.167750	2959.636217
919.472848	2918.046698
919.777906	2892.530898
920.082925	2863.967720
920.387904	2833.680468
920.692843	2817.339568
920.997743	2807.595017
921.302603	2793.182358
921.607423	2783.405041
921.912204	2772.193514
922.216946	2757.952255
922.521647	2750.698034
922.826310	2744.610841
923.130932	2735.597258
923.435516	2724.542008
923.740059	2718.933724
924.044564	2712.342415
924.349028	2706.769420
924.653454	2700.253728
924.957840	2694.463963
925.262186	2686.967767
925.566493	2682.763445
925.870761	2679.544668
926.174989	2678.208763
926.479178	2671.972855
926.783328	2669.505211
927.087438	2665.885662
927.391509	2665.799962
927.695541	2664.101094
927.999533	2659.246462
928.303486	2657.028355
928.607400	2654.134732
928.911275	2655.818478
929.215110	2653.018117
929.518906	2651.311686
929.822663	2648.660039
930.126381	2652.057777
930.430060	2651.664567
930.733699	2649.948054
931.037299	2658.031544
931.340861	2654.991729
931.644383	2656.504075
931.947866	2654.066677
932.251309	2652.531646
932.554714	2654.865700
932.858080	2651.931748
933.161407	2649.597694
933.464694	2648.488640
933.767943	2643.457569
934.071153	2647.127529
934.374323	2647.145173
934.677455	2646.404123
934.980548	2644.110398
935.283602	2643.868423
935.586617	2642.603093
935.889593	2644.047384
936.192530	2645.032929
936.495428	2646.116777
936.798287	2646.078969
937.101108	2648.637354
937.403890	2653.877634
937.706632	2658.331493
938.009336	2664.325425
938.312002	2671.829182
938.614628	2682.662622
938.917216	2688.280988
939.219765	2690.090762
939.522275	2686.700586
939.824747	2685.568847
940.127179	2682.584484
940.429573	2680.467200
940.731929	2676.262877
941.034246	2674.243895
941.336524	2669.449758
941.638763	2667.075374
941.940964	2666.422545
942.243126	2663.438182
942.545250	2663.410456
942.847335	2661.814930
943.149381	2658.739827
943.451389	2652.619866
943.753359	2648.692807
944.055290	2651.684732
944.357182	2649.663229
944.659036	2646.262971
944.960851	2647.130049
945.262628	2646.860348
945.564367	2646.015954
945.866067	2646.386479
946.167729	2646.872950
946.469352	2646.636016
946.770937	2646.086530
947.072484	2645.700882
947.373992	2645.486633
947.675462	2643.281128
947.976893	2637.776188
948.278286	2639.026394
948.579641	2640.609317
948.880958	2634.081022
949.182236	2638.529841
949.483476	2635.363996
949.784678	2636.790643
950.085841	2638.597896
950.386967	2637.904738
950.688054	2637.357772
950.989103	2641.118473
951.290114	2638.484470
951.591087	2643.079482
951.892021	2645.133752
952.192917	2648.602066
952.493776	2648.392858
952.794596	2650.076604
953.095378	2648.581902
953.396122	2648.564257
953.696828	2648.302117
953.997496	2647.084679
954.298126	2642.640902
954.598718	2642.174595
954.899272	2639.827938
955.199788	2635.217803
955.500266	2636.422638
955.800706	2630.985754
956.101108	2627.577934
956.401472	2627.426699
956.701798	2625.576596
957.002087	2623.401338
957.302337	2624.714559
957.602550	2622.660288
957.902724	2619.459156
958.202861	2618.385390
958.502960	2618.266923
958.803022	2618.234155
959.103045	2616.681480
959.403031	2614.435646
959.702979	2612.996397
960.002889	2613.954216
960.302762	2615.244751
960.602596	2615.194340
960.902393	2613.611417
961.202153	2613.074534
961.501875	2613.281222
961.801559	2612.514966
962.101205	2610.722836
962.400814	2610.117898
962.700385	2610.513628
962.999918	2609.938937
963.299414	2610.173350
963.598873	2608.804677
963.898293	2606.468102
964.197677	2610.049842
964.497022	2609.986828
964.796331	2609.757455
965.095601	2609.248299
965.394835	2609.265943
965.694030	2607.879625
965.993189	2612.235182
966.292309	2608.287959
966.591393	2610.672425
966.890439	2608.008175
967.189447	2610.425408
967.488419	2610.606890
967.787353	2608.880294
968.086249	2608.371138
968.385108	2608.971035
968.683930	2607.574636
968.982714	2607.811570
969.281462	2608.797115
969.580172	2609.838114
969.878844	2607.960284
970.177480	2606.170674
970.476078	2610.044801
970.774639	2608.804677
971.073162	2609.233175
971.371649	2609.999431
971.670098	2609.699482
971.968510	2608.887856
972.266885	2609.399533
972.565223	2610.206118
972.863524	2607.819132
973.161788	2612.714092
973.460014	2608.219903
973.758204	2608.282918
974.056356	2611.544544
974.354471	2609.371807
974.652550	2608.129162
974.950591	2611.123608
975.248595	2609.654112
975.546563	2611.746190
975.844493	2609.207969
976.142386	2606.049687
976.440243	2609.712085
976.738062	2609.518000
977.035845	2606.417691
977.333590	2610.443052
977.631299	2606.505911
977.928971	2604.204624
978.226606	2604.701178
978.524204	2603.198914
978.821765	2603.468616
979.119290	2607.277207
979.416777	2606.382403
979.714228	2606.566405
980.011642	2607.274687
980.309020	2606.150510
980.606360	2607.768720
980.903664	2605.785026
981.200931	2607.771241
981.498162	2608.809718
981.795356	2609.714605
982.092513	2611.632764
982.389633	2612.996397
982.686717	2615.708537
982.983764	2620.318672
983.280775	2622.839249
983.577749	2624.747326
983.874686	2624.737244
984.171587	2620.989146
984.468451	2619.812037
984.765279	2616.368928
985.062070	2614.211315
985.358824	2612.073865
985.655543	2613.303907
985.952224	2608.729060
986.248869	2608.562702
986.545478	2607.609924
986.842050	2605.787547
987.138586	2605.411981
987.435086	2606.964656
987.731549	2606.435335
988.027975	2605.986672
988.324366	2603.970211
988.620719	2603.327463
988.917037	2606.621857
989.213318	2601.442072
989.509563	2603.045159
989.805772	2604.413832
990.101944	2605.812752
990.398080	2605.981631
990.694180	2604.118925
990.990244	2605.162443
991.286271	2603.367793
991.582262	2601.545416
991.878217	2601.074068
992.174136	2602.692278
992.470019	2601.318564
992.765865	2599.206320
993.061676	2600.950559
993.357450	2602.714963
993.653188	2596.073243
993.948890	2605.590942
994.244556	2601.147164
994.540186	2605.253184
994.835780	2606.679831
995.131337	2605.482557
995.426859	2603.932402
995.722345	2604.766713
996.017795	2605.036415
996.313208	2607.209152
996.608586	2605.767382
996.903928	2612.091509
997.199234	2608.577825
997.494504	2606.165633
997.789738	2606.974738
998.084936	2607.640171
998.380099	2607.259563
998.675225	2606.372320
998.970316	2606.795777
999.265371	2606.994903
999.560390	2602.427617
999.855373	2604.683534
1000.150320	2604.176898
1000.445232	2602.614140
1000.740108	2603.508945
1001.034948	2603.196393
1001.329752	2603.090529
1001.624521	2601.734459
1001.919254	2601.381578
1002.213951	2602.352000
1002.508613	2603.415684
1002.803239	2602.415015
1003.097829	2599.513831
1003.392384	2602.225971
1003.686903	2600.622884
1003.981386	2603.665221
1004.275834	2598.251022
1004.570246	2600.509458
1004.864623	2600.217072
1005.158964	2602.624223
1005.453270	2600.824531
1005.747540	2600.380909
1006.041775	2600.638008
1006.335974	2600.035590
1006.630138	2600.721187
1006.924266	2602.243615
1007.218359	2598.830754
1007.512416	2598.455188
1007.806438	2597.477204
1008.100425	2597.147009
1008.394376	2596.416042
1008.688292	2602.054572
1008.982172	2599.397884
1009.276017	2600.852257
1009.569827	2598.094746
1009.863602	2599.808738
1010.157341	2604.030704
1010.451045	2601.631115
1010.744714	2599.750765
1011.038347	2600.370827
1011.331945	2600.796804
1011.625508	2602.437700
1011.919036	2599.801176
1012.212528	2601.550457
1012.505986	2600.206989
1012.799408	2600.920312
1013.092795	2599.221444
1013.386147	2599.791094
1013.679464	2600.040631
1013.972745	2600.799325
1014.265992	2599.342431
1014.559204	2599.531475
1014.852380	2600.774119
1015.145521	2596.128696
1015.438628	2598.243460
1015.731699	2598.387133
1016.024736	2600.708584
1016.317737	2600.527102
1016.610703	2597.966196
1016.903635	2601.832761
1017.196531	2598.934098
1017.489393	2598.961824
1017.782219	2599.760847
1018.075011	2603.458533
1018.367768	2600.660693
1018.660490	2601.333687
1018.953177	2601.333687
1019.245829	2601.333687
