Dividing Wavelength (nm)	Counts (n)	Blue Motor Position (mm): 1.000000	Red Motor Position (mm): 0.000000	
326.493990	2168.757317
326.888308	2168.757317
327.282561	2168.757317
327.676750	2124.818620
328.070874	2120.833588
328.464933	2121.488938
328.858929	2123.943980
329.252859	2132.322377
329.646726	2140.209263
330.040528	2150.468011
330.434265	2165.382264
330.827938	2185.670388
331.221547	2200.975331
331.615091	2217.454863
332.008571	2236.114694
332.401986	2255.800400
332.795338	2273.709099
333.188625	2292.126954
333.581847	2309.155972
333.975006	2327.412511
334.368100	2344.771724
334.761129	2368.016484
335.154095	2383.036602
335.546996	2399.523696
335.939833	2417.959195
336.332606	2430.662903
336.725315	2442.262598
337.117960	2454.074022
337.510540	2466.674386
337.903056	2477.757362
338.295508	2486.849083
338.687896	2496.376864
339.080220	2502.852226
339.472480	2509.955212
339.864676	2517.239679
340.256807	2523.599095
340.648875	2525.277799
341.040879	2526.376771
341.432818	2530.069416
341.824694	2533.492359
342.216506	2536.285158
342.608253	2533.331042
342.999937	2536.935467
343.391557	2535.705426
343.783113	2533.900693
344.174605	2534.919006
344.566033	2532.937832
344.957397	2530.782739
345.348697	2530.210568
345.739934	2529.479601
346.131106	2527.253931
346.522215	2524.009949
346.913260	2526.603623
347.304241	2521.146573
347.695159	2520.158507
348.086012	2516.728002
348.476802	2515.679442
348.867528	2512.271622
349.258191	2506.837258
349.648789	2512.029647
350.039324	2505.037566
350.429796	2508.102588
350.820203	2507.583349
351.210548	2507.051507
351.600828	2504.344408
351.991045	2502.045642
352.381198	2503.739469
352.771288	2503.411794
353.161314	2500.482884
353.551276	2503.842813
353.941175	2499.010867
354.331010	2498.078253
354.720782	2499.620847
355.110490	2500.477843
355.500135	2499.522544
355.889717	2501.070178
356.279235	2499.837616
356.668689	2497.105311
357.058080	2499.804849
357.447408	2501.468429
357.836672	2501.082781
358.225873	2503.512617
358.615010	2501.980107
359.004084	2501.576814
359.393095	2503.941115
359.782043	2502.879953
360.170927	2503.741990
360.559748	2502.254849
360.948505	2506.824655
361.337199	2505.917248
361.725830	2505.660149
362.114398	2505.551764
362.502903	2506.769203
362.891344	2505.766013
363.279722	2509.327588
363.668037	2507.419512
364.056289	2511.550737
364.444478	2509.045284
364.832603	2507.631240
365.220665	2508.551251
365.608665	2511.654081
365.996601	2512.473268
366.384474	2510.091323
366.772284	2511.384379
367.160031	2513.229441
367.547715	2513.458814
367.935336	2513.776407
368.322893	2510.693741
368.710388	2511.152486
369.097820	2510.350942
369.485189	2508.168123
369.872495	2515.760101
370.259738	2514.736746
370.646918	2515.266067
371.034035	2513.559637
371.421090	2515.137518
371.808081	2516.241531
372.195010	2514.714061
372.581875	2516.244051
372.968678	2518.147087
373.355418	2515.082065
373.742096	2517.784124
374.128710	2515.503002
374.515262	2516.546521
374.901751	2516.581809
375.288177	2517.040554
375.674540	2516.493588
376.060841	2517.516943
376.447079	2517.222035
376.833254	2515.717251
377.219367	2518.794875
377.605417	2518.053826
377.991404	2517.315297
378.377329	2517.653054
378.763191	2521.000380
379.148991	2517.758918
379.534727	2518.734381
379.920402	2518.230266
380.306013	2517.832015
380.691563	2519.377128
381.077049	2519.919053
381.462474	2522.018693
381.847835	2521.156656
382.233134	2522.232942
382.618371	2520.876872
383.003545	2520.987777
383.388657	2520.554238
383.773706	2522.437109
384.158693	2523.926770
384.543618	2521.587674
384.928480	2521.413755
385.313280	2522.210257
385.698017	2522.696728
386.082692	2522.376615
386.467305	2523.435257
386.851856	2524.168745
387.236344	2525.187058
387.620770	2521.272602
388.005133	2521.375946
388.389435	2520.987777
388.773674	2518.275636
389.157851	2524.960206
389.541965	2524.423323
389.926018	2523.352078
390.310008	2526.283509
390.693936	2524.816533
391.077802	2527.198479
391.461606	2524.879548
391.845348	2525.613036
392.229027	2527.168232
392.612645	2525.870135
392.996200	2527.049765
393.379694	2529.308202
393.763125	2528.690660
394.146494	2527.750485
394.529801	2526.293592
394.913047	2526.752337
395.296230	2529.257790
395.679351	2527.551359
396.062410	2529.424148
396.445408	2527.891637
396.828343	2528.340300
397.211217	2528.317615
397.594028	2526.399456
397.976778	2530.944056
398.359466	2530.165198
398.742092	2528.509179
399.124656	2528.904909
399.507158	2528.829292
399.889598	2531.407842
400.271977	2530.271062
400.654294	2530.820548
401.036549	2531.044879
401.418742	2530.971782
401.800874	2528.151257
402.182944	2530.606299
402.564952	2529.590506
402.946898	2531.430527
403.328783	2533.404139
403.710606	2532.292565
404.092367	2532.128727
404.474067	2531.904396
404.855705	2531.304498
405.237282	2535.213913
405.618797	2532.748789
406.000250	2533.588141
406.381642	2531.982534
406.762972	2531.942204
407.144240	2529.098994
407.525447	2530.913809
407.906593	2530.855836
408.287677	2532.927750
408.668700	2534.072092
409.049661	2534.021680
409.430560	2535.110570
409.811399	2534.092257
410.192176	2534.014119
410.572891	2535.735673
410.953545	2533.961187
411.334138	2535.072761
411.714669	2535.861702
412.095139	2534.167874
412.475547	2535.420601
412.855894	2538.788091
413.236180	2534.611495
413.616405	2536.784233
413.996568	2537.462268
414.376670	2536.224665
414.756711	2538.019315
415.136691	2536.527134
415.516609	2540.895294
415.896466	2535.670138
416.276262	2537.563091
416.655997	2540.174409
417.035670	2536.993441
417.415283	2537.283307
417.794834	2535.755837
418.174324	2534.329191
418.553753	2536.171733
418.933121	2539.612320
419.312428	2538.568801
419.691674	2538.452855
420.070859	2538.992258
420.449983	2536.320447
420.829045	2539.849254
421.208047	2537.976466
421.586988	2537.212731
421.965867	2537.991589
422.344686	2537.802546
422.723444	2539.304810
423.102141	2538.094933
423.480777	2541.717002
423.859352	2537.321116
424.237866	2540.923020
424.616319	2537.789943
424.994712	2539.224151
425.373044	2539.408153
425.751314	2537.003523
426.129524	2535.728111
426.507673	2537.305992
426.885762	2535.687782
427.263789	2539.662732
427.641756	2541.129707
428.019662	2541.490150
428.397508	2541.482588
428.775292	2540.993596
429.153016	2539.511497
429.530679	2540.154244
429.908282	2543.136087
430.285824	2541.006199
430.663305	2538.379758
431.040726	2543.544420
431.418086	2541.958977
431.795385	2541.112063
432.172624	2543.214224
432.549802	2541.457382
432.926920	2541.885880
433.303977	2541.631302
433.680974	2543.183977
434.057910	2542.309337
434.434786	2543.108360
434.811601	2542.253885
435.188355	2543.574667
435.565050	2542.362269
435.941683	2541.359080
436.318257	2543.569626
436.694770	2542.521066
437.071222	2543.277239
437.447614	2544.766900
437.823946	2541.913607
438.200218	2542.662218
438.576429	2544.479554
438.952580	2541.749769
439.328670	2544.693803
439.704700	2543.166333
440.080670	2546.125491
440.456580	2544.217414
440.832429	2543.476364
441.208218	2543.506611
441.583947	2549.346788
441.959616	2544.378731
442.335224	2542.455531
442.710773	2546.569112
443.086261	2544.973587
443.461689	2544.870243
443.837057	2546.574153
444.212365	2546.218752
444.587612	2544.053577
444.962800	2540.986034
445.337927	2542.009389
445.712995	2542.377393
446.088002	2544.393854
446.462949	2545.691952
446.837837	2546.266643
447.212664	2545.901159
447.587431	2545.112219
447.962139	2545.457538
448.336786	2546.473330
448.711374	2547.811757
449.085901	2545.765048
449.460369	2546.062476
449.834776	2548.023485
450.209124	2544.804708
450.583412	2549.571119
450.957640	2548.489792
451.331808	2548.560368
451.705917	2547.476520
452.079965	2550.269319
452.453954	2544.905532
452.827883	2545.535676
453.201752	2548.537683
453.575562	2548.762014
453.949311	2548.512477
454.323001	2548.036088
454.696632	2547.947868
455.070202	2546.848896
455.443713	2548.066335
455.817164	2547.637837
456.190556	2544.509801
456.563888	2548.819988
456.937160	2547.877292
457.310373	2547.970553
457.683526	2549.429967
458.056619	2551.010369
458.429653	2547.191695
458.802628	2548.908208
459.175542	2546.238917
459.548398	2551.630431
459.921194	2549.198074
460.293930	2547.355532
460.666607	2548.121788
461.039224	2549.084648
461.411782	2551.879968
461.784280	2551.564896
462.156719	2550.211346
462.529099	2547.206818
462.901419	2549.414844
463.273680	2544.784544
463.645882	2542.551313
464.018024	2546.899308
464.390106	2543.892260
464.762130	2549.671942
465.134094	2546.077600
465.505999	2548.759494
465.877845	2548.706562
466.249631	2549.475338
466.621358	2551.627910
466.993026	2549.409803
467.364634	2555.338199
467.736184	2551.022972
468.107674	2550.080276
468.479105	2550.579350
468.850477	2548.998948
469.221790	2549.324103
469.593043	2547.594987
469.964238	2549.871068
470.335373	2553.830894
470.706449	2549.492982
471.077467	2549.530790
471.448425	2549.621531
471.819324	2551.653116
472.190164	2551.272509
472.560945	2550.334854
472.931667	2552.454659
473.302330	2551.761501
473.672934	2551.204453
474.043479	2550.851572
474.413965	2552.189999
474.784393	2552.996583
475.154761	2551.128836
475.525070	2550.823846
475.895321	2549.059442
476.265513	2551.711089
476.635645	2552.285781
477.005719	2551.264947
477.375734	2552.759649
477.745691	2549.936603
478.115588	2551.615307
478.485427	2551.448949
478.855207	2551.128836
479.224928	2551.602704
479.594591	2550.728064
479.964194	2552.903322
480.333739	2548.542724
480.703226	2550.286963
481.072653	2552.578168
481.442022	2552.936090
481.811333	2551.940462
482.180584	2548.126829
482.549777	2550.551624
482.918912	2545.548279
483.287988	2550.677653
483.657005	2551.806871
484.025964	2549.311500
484.394864	2553.830894
484.763706	2551.660678
485.132489	2554.113199
485.501213	2555.370967
485.869879	2551.126315
486.238487	2556.482541
486.607036	2553.959444
486.975527	2554.435833
487.343959	2550.775955
487.712333	2553.772921
488.080648	2554.836605
488.448905	2553.188147
488.817104	2553.336861
489.185244	2552.827705
489.553326	2553.614125
489.921350	2553.460370
490.289315	2552.865513
490.657222	2549.558517
491.025070	2555.527243
491.392861	2553.858621
491.760593	2553.011707
492.128267	2553.669577
492.495883	2553.236038
492.863440	2554.060267
493.230939	2550.896943
493.598380	2552.893240
493.965763	2552.769732
494.333088	2554.256872
494.700354	2554.261913
495.067563	2553.881306
495.434713	2553.853580
495.801805	2552.411810
496.168839	2551.280071
496.535815	2555.943138
496.902733	2552.852911
497.269593	2552.681511
497.636395	2553.568754
498.003139	2554.289639
498.369825	2552.893240
498.736453	2552.893240
499.103023	2556.626214
499.469535	2556.041440
499.835989	2554.957592
500.202385	2551.859803
500.568723	2553.034392
500.935003	2553.788045
501.301226	2550.092879
501.667390	2554.942469
502.033497	2555.058415
502.399546	2553.452808
502.765537	2554.824002
503.131470	2553.351985
503.497345	2557.221070
503.863163	2554.438353
504.228923	2555.376008
504.594625	2554.697973
504.960269	2553.291491
505.325856	2555.552448
505.691385	2554.231666
506.056856	2555.945658
506.422270	2557.740309
506.787625	2554.776111
507.152924	2554.476162
507.518164	2556.210319
507.883347	2555.171841
508.248472	2553.629248
508.613540	2553.795606
508.978550	2555.098745
509.343503	2554.476162
509.708398	2559.043447
510.073236	2553.813250
510.438016	2555.277706
510.802738	2556.190154
511.167403	2556.719476
511.532010	2555.106306
511.896561	2558.599826
512.261053	2557.087480
512.625488	2555.625545
512.989866	2554.380380
513.354186	2557.170659
513.718449	2555.943138
514.082655	2557.510937
514.446803	2553.838456
514.810894	2555.678477
515.174927	2554.491286
515.538904	2557.783159
515.902822	2553.563713
516.266684	2555.073539
516.630488	2554.050185
516.994235	2555.318035
517.357925	2555.280226
517.721558	2556.963972
518.085133	2556.227963
518.448651	2553.525905
518.812112	2553.228477
519.175516	2553.326779
519.538863	2547.426108
519.902152	2554.937428
520.265385	2555.471790
520.628560	2557.195865
520.991678	2553.490617
521.354739	2556.598488
521.717743	2556.480021
522.080690	2555.002963
522.443580	2557.175700
522.806413	2556.734599
523.169189	2555.769218
523.531908	2555.958261
523.894569	2556.391801
524.257174	2556.492624
524.619722	2557.425237
524.982213	2557.286605
525.344647	2557.851215
525.707025	2556.086811
526.069345	2555.469269
526.431608	2558.037737
526.793815	2556.631255
527.155964	2554.168652
527.518057	2558.118396
527.880093	2557.750392
528.242072	2556.437171
528.603995	2554.271995
528.965860	2555.083621
529.327669	2558.776266
529.689421	2558.148643
530.051117	2557.442881
530.412755	2556.840463
530.774337	2557.561348
531.135862	2554.624876
531.497331	2558.564538
531.858743	2557.100083
532.220098	2555.917932
532.581396	2555.350802
532.942638	2556.684187
533.303824	2554.098076
533.664953	2556.996739
534.026025	2555.751574
534.387040	2556.802655
534.747999	2556.227963
535.108902	2554.856769
535.469748	2558.355330
535.830537	2557.226112
536.191270	2556.031358
536.551947	2554.645041
536.912567	2550.405430
537.273131	2554.377860
537.633638	2552.336192
537.994089	2557.442881
538.354483	2555.088662
538.714821	2557.425237
539.075103	2558.763663
539.435328	2555.738971
539.795497	2558.020093
540.155609	2554.450956
540.515665	2557.334496
540.875665	2557.742830
541.235609	2556.989177
541.595496	2557.818447
541.955328	2558.884651
542.315102	2557.712583
542.674821	2556.845504
543.034483	2559.023283
543.394090	2556.883313
543.753640	2554.680329
544.113134	2557.609239
544.472571	2558.496482
544.831953	2558.562017
545.191278	2559.182079
545.550548	2560.412121
545.909761	2556.348951
546.268918	2557.876420
546.628019	2559.219888
546.987064	2555.849877
547.346053	2557.231153
547.704986	2557.921791
548.063863	2557.460525
548.422684	2556.966492
548.781449	2557.936914
549.140158	2555.428940
549.498811	2558.728375
549.857408	2556.653941
550.215949	2557.702501
550.574434	2559.973540
550.932864	2557.762994
551.291237	2557.909188
551.649555	2556.951369
552.007817	2558.756102
552.366022	2556.984136
552.724173	2557.861297
553.082267	2556.807696
553.440305	2558.047820
553.798288	2558.819116
554.156215	2557.891544
554.514086	2557.062274
554.871902	2552.749567
555.229661	2553.505740
555.587365	2550.715461
555.945014	2556.764846
556.302606	2556.351471
556.660143	2556.061605
557.017625	2558.914898
557.375050	2557.284085
557.732421	2557.460525
558.089735	2556.051523
558.446994	2559.676112
558.804197	2559.958417
559.161345	2557.493293
559.518437	2557.858776
559.875474	2557.972202
560.232455	2558.982954
560.589381	2554.546738
560.946251	2559.154353
561.303065	2557.563869
561.659825	2557.377346
562.016528	2559.575289
562.373177	2559.335834
562.729770	2558.672923
563.086307	2560.084446
563.442789	2556.288457
563.799216	2559.658468
564.155587	2554.350133
564.511904	2559.260217
564.868164	2556.543035
565.224370	2558.209137
565.580520	2557.435319
565.936615	2558.713252
566.292654	2557.571431
566.648638	2560.212995
567.004567	2557.886503
567.360441	2560.651576
567.716260	2557.226112
568.072023	2560.328942
568.427732	2555.496996
568.783385	2556.643858
569.138982	2560.228119
569.494525	2559.098900
569.850013	2555.847356
570.205445	2558.015052
570.560823	2560.124775
570.916145	2558.693087
571.271412	2557.732747
571.626625	2558.418344
571.981782	2560.192831
572.336884	2557.208467
572.691931	2553.041954
573.046923	2555.812068
573.401860	2552.401727
573.756743	2558.831719
574.111570	2557.218550
574.466342	2558.073025
574.821059	2557.997408
575.175722	2555.527243
575.530330	2558.383056
575.884882	2555.650751
576.239380	2559.456822
576.593823	2561.332131
576.948211	2557.437840
577.302544	2560.061761
577.656823	2556.832902
578.011047	2559.615618
578.365216	2558.821637
578.719330	2561.019580
579.073389	2560.134857
579.427394	2557.944476
579.781344	2558.141081
580.135239	2559.852553
580.489080	2557.057233
580.842866	2559.045968
581.196597	2557.999929
581.550273	2557.510937
581.903895	2552.860472
582.257463	2559.655948
582.610975	2560.828016
582.964434	2559.048489
583.317837	2560.465053
583.671186	2560.596123
584.024481	2561.916905
584.377721	2559.983623
584.730906	2558.987995
585.084037	2559.237532
585.437113	2559.436658
585.790135	2558.803993
586.143103	2561.390105
586.496016	2557.722665
586.848874	2558.773746
587.201679	2561.057388
587.554428	2559.277861
587.907124	2560.059240
588.259765	2558.753581
588.612352	2559.043447
588.964884	2558.488921
589.317362	2559.328273
589.669786	2559.161915
590.022155	2556.316183
590.374470	2553.525905
590.726731	2554.571944
591.078937	2555.766698
591.431090	2559.943293
591.783188	2556.984136
592.135232	2558.851884
592.487222	2558.869528
592.839157	2560.565876
593.191038	2559.925649
593.542866	2558.186451
593.894639	2558.521688
594.246358	2559.373643
594.598022	2560.855742
594.949633	2558.708211
595.301190	2559.799621
595.652692	2559.096380
596.004141	2557.896585
596.355535	2561.105279
596.706876	2557.672254
597.058162	2556.999260
597.409395	2558.378015
597.760573	2559.625701
598.111698	2559.913047
598.462768	2558.463715
598.813785	2558.370453
599.164748	2558.103272
599.515657	2558.579661
599.866511	2558.803993
600.217312	2558.768705
600.568060	2558.060422
600.918753	2562.337842
601.269392	2560.666699
601.619978	2556.467418
601.970510	2560.182748
602.320988	2560.273489
602.671412	2558.773746
603.021783	2562.047975
603.372100	2558.118396
603.722363	2558.395659
604.072572	2558.803993
604.422728	2558.499003
604.772830	2555.557490
605.122878	2559.025803
605.472872	2557.379867
605.822813	2557.377346
606.172701	2560.255845
606.522534	2556.686708
606.872314	2558.723334
607.222041	2561.344734
607.571714	2556.646379
607.921333	2554.831563
608.270899	2560.633932
608.620411	2557.452963
608.969870	2560.626370
609.319276	2562.191648
609.668627	2564.684499
610.017926	2572.037022
610.367171	2575.714543
610.716362	2573.599779
611.065500	2571.641291
611.414585	2570.161712
611.763616	2566.650549
612.112594	2567.467216
612.461518	2561.596792
612.810389	2564.102245
613.159207	2562.957903
613.507971	2561.274158
613.856682	2561.748027
614.205340	2562.032852
614.553945	2562.060578
614.902496	2559.474466
615.250994	2561.339693
615.599439	2559.262738
615.947830	2561.541339
616.296169	2560.845660
616.644454	2558.836760
616.992686	2558.320042
617.340864	2560.671740
617.688990	2559.577810
618.037063	2559.996226
618.385082	2558.811554
618.733048	2560.555794
619.080961	2560.056719
619.428821	2557.198385
619.776628	2558.335165
620.124382	2559.827347
620.472083	2561.100238
620.819731	2559.587892
621.167326	2559.781977
621.514868	2560.210475
621.862357	2560.460012
622.209793	2558.945145
622.557176	2559.817265
622.904506	2561.145609
623.251783	2559.842470
623.599007	2558.627552
623.946179	2558.168807
624.293297	2561.422872
624.640363	2560.346586
624.987376	2558.635114
625.334336	2554.418189
625.681243	2557.495813
626.028097	2553.999773
626.374899	2556.172510
626.721647	2558.854404
627.068343	2560.472615
627.414987	2560.223078
627.761577	2557.344579
628.108115	2560.875907
628.454600	2559.315670
628.801032	2559.620660
629.147412	2559.214847
629.493739	2558.819116
629.840014	2560.003787
630.186236	2557.331976
630.532405	2563.426731
630.878521	2559.529919
631.224585	2558.209137
631.570597	2558.040258
631.916556	2558.599826
632.262462	2558.521688
632.608316	2556.734599
632.954117	2556.482541
633.299866	2560.238201
633.645562	2556.643858
633.991206	2559.615618
634.336797	2557.435319
634.682336	2558.168807
635.027823	2560.117213
635.373257	2558.912377
635.718639	2554.619835
636.063968	2562.615105
636.409245	2558.327604
636.754470	2555.686039
637.099642	2554.546738
637.444762	2558.027655
637.789829	2557.188303
638.134845	2557.392470
638.479808	2557.387428
638.824719	2557.851215
639.169577	2557.258879
639.514383	2558.050340
639.859137	2558.940104
640.203839	2557.301729
640.548489	2557.029507
640.893086	2557.389949
641.237632	2552.361398
641.582125	2561.518654
641.926566	2557.679815
642.270955	2554.425751
642.615292	2553.926676
642.959576	2557.815927
643.303809	2552.810061
643.647990	2559.063612
643.992118	2559.086297
644.336195	2555.202088
644.680219	2556.643858
645.024192	2558.998077
645.368112	2557.795762
645.711981	2560.212995
646.055797	2556.132181
646.399562	2558.670402
646.743274	2557.112686
647.086935	2557.984805
647.430544	2557.342058
647.774101	2558.655279
648.117606	2556.341389
648.461059	2560.076884
648.804460	2559.660989
649.147810	2560.545711
649.491108	2560.011349
649.834354	2559.330793
650.177548	2555.461708
650.520690	2560.497820
650.863781	2557.490772
651.206820	2557.417675
651.549807	2556.182593
651.892742	2559.411452
652.235626	2556.621173
652.578458	2555.282747
652.921238	2559.008159
653.263967	2555.754095
653.606644	2555.635627
653.949269	2557.173179
654.291843	2556.404403
654.634365	2559.355999
654.976836	2559.441699
655.319255	2557.533622
655.661622	2558.254507
656.003938	2558.735937
656.346203	2556.200237
656.688416	2559.318190
657.030577	2557.684857
657.372687	2557.601678
657.714746	2558.322562
658.056753	2560.016390
658.398708	2558.249466
658.740612	2557.548745
659.082465	2558.017573
659.424266	2557.493293
659.766016	2554.090514
660.107715	2555.060936
660.449362	2554.231666
660.790958	2559.580330
661.132503	2558.022614
661.473996	2556.001111
661.815438	2556.893395
662.156829	2558.148643
662.498168	2558.491441
662.839456	2559.338355
663.180693	2558.483879
663.521879	2559.600495
663.863013	2557.722665
664.204097	2556.540515
664.545129	2557.238714
664.886110	2556.490103
665.227040	2556.699311
665.567918	2555.902809
665.908746	2556.537994
666.249522	2557.490772
666.590248	2555.867521
666.930922	2559.222408
667.271545	2555.285267
667.612118	2555.771739
667.952639	2556.439692
668.293109	2558.980433
668.633528	2556.648899
668.973896	2557.190823
669.314213	2559.126627
669.654480	2557.594116
669.994695	2558.909857
670.334859	2557.165618
670.674973	2557.636966
671.015035	2558.330124
671.355047	2557.818447
671.695008	2556.800134
672.034918	2559.991184
672.374777	2557.611760
672.714585	2556.754764
673.054342	2557.936914
673.394049	2558.640155
673.733705	2558.723334
674.073310	2559.434137
674.412864	2557.374826
674.752368	2557.359702
675.091820	2557.447922
675.431223	2556.908519
675.770574	2559.464384
676.109875	2556.953889
676.449125	2555.219732
676.788324	2552.447098
677.127473	2556.054043
677.466571	2552.336192
677.805619	2553.324258
678.144616	2556.664023
678.483562	2558.683005
678.822458	2556.764846
679.161303	2555.118909
679.500098	2559.482028
679.838842	2559.595454
680.177535	2557.740309
680.516179	2557.460525
680.854771	2558.320042
681.193314	2557.037068
681.531805	2555.774259
681.870247	2557.100083
682.208638	2552.903322
682.546978	2558.415824
682.885268	2553.614125
683.223508	2557.793241
683.561697	2557.881462
683.899836	2557.362223
684.237925	2555.280226
684.575963	2558.897254
684.913951	2555.597819
685.251889	2557.009342
685.589776	2556.217881
685.927614	2557.901626
686.265401	2557.586554
686.603137	2556.265772
686.940824	2557.485731
687.278460	2556.275854
687.616046	2558.027655
687.953582	2555.406255
688.291068	2557.780638
688.628504	2556.744681
688.965889	2557.253838
689.303224	2556.953889
689.640510	2555.451625
689.977745	2557.871379
690.314930	2558.045299
690.652065	2556.681667
690.989150	2553.833415
691.326185	2555.539846
691.663170	2554.289639
692.000105	2555.998591
692.336990	2554.589588
692.673825	2559.363561
693.010610	2556.180072
693.347345	2556.041440
693.684030	2553.457849
694.020665	2555.686039
694.357251	2554.803837
694.693786	2558.617470
695.030272	2556.089331
695.366707	2557.677295
695.703093	2556.467418
696.039429	2557.042109
696.375716	2557.057233
696.711952	2555.754095
697.048139	2557.954558
697.384276	2558.982954
697.720363	2558.735937
698.056400	2555.945658
698.392388	2558.168807
698.728326	2555.381049
699.064214	2557.682336
699.400053	2559.058571
699.735842	2557.566389
700.071581	2557.904147
700.407270	2557.725186
700.742910	2556.979095
701.078501	2555.050854
701.414042	2554.927345
701.749533	2558.675443
702.084974	2554.208981
702.420366	2557.296688
702.755709	2556.434650
703.091002	2558.952707
703.426246	2554.271995
703.761440	2555.028168
704.096584	2555.282747
704.431679	2556.933725
704.766725	2558.728375
705.101721	2555.444064
705.436668	2557.813406
705.771565	2556.129661
706.106413	2558.604867
706.441212	2555.701162
706.775961	2557.687377
707.110661	2556.966492
707.445311	2559.988664
707.779913	2557.848694
708.114465	2559.512275
708.448967	2558.995557
708.783421	2555.401214
709.117825	2556.855587
709.452180	2557.523540
709.786485	2553.783003
710.120742	2551.980791
710.454949	2556.091852
710.789107	2555.945658
711.123216	2552.189999
711.457275	2558.476318
711.791286	2557.498334
712.125247	2554.241748
712.459159	2554.861810
712.793023	2555.494475
713.126837	2555.912891
713.460602	2557.407593
713.794318	2554.095555
714.127985	2556.041440
714.461602	2556.117058
714.795171	2555.670916
715.128691	2557.125288
715.462162	2554.917263
715.795584	2555.446584
716.128957	2558.292316
716.462281	2555.522202
716.795556	2557.861297
717.128782	2556.167469
717.461960	2558.330124
717.795088	2551.464073
718.128167	2556.505227
718.461198	2555.635627
718.794180	2557.291647
719.127113	2556.979095
719.459997	2554.992880
719.792833	2555.441543
720.125619	2556.482541
720.458357	2555.917932
720.791046	2555.481872
721.123686	2559.134188
721.456278	2557.556307
721.788821	2553.863662
722.121315	2559.290464
722.453761	2555.396173
722.786158	2557.780638
723.118506	2556.573282
723.450805	2556.144784
723.783056	2555.678477
724.115259	2558.108313
724.447412	2554.224104
724.779518	2556.621173
725.111574	2555.260062
725.443582	2555.159238
725.775542	2555.943138
726.107453	2556.661502
726.439315	2553.959444
726.771129	2559.229970
727.102895	2550.496171
727.434612	2555.030689
727.766281	2551.315359
728.097901	2553.843497
728.429473	2558.375495
728.760996	2557.226112
729.092471	2553.803168
729.423897	2555.229815
729.755276	2556.149825
730.086606	2554.841646
730.417887	2556.701832
730.749120	2557.400031
731.080305	2552.774773
731.411442	2555.197047
731.742530	2555.350802
732.073570	2557.846173
732.404562	2557.866338
732.735506	2555.474311
733.066401	2555.862479
733.397249	2557.478169
733.728048	2556.787531
734.058798	2556.757284
734.389501	2557.578992
734.720156	2556.290977
735.050762	2556.454815
735.381320	2556.641338
735.711831	2556.774928
736.042293	2556.351471
736.372707	2554.902140
736.703073	2557.276523
737.033391	2555.711245
737.363661	2555.481872
737.693883	2555.093703
738.024056	2555.270144
738.354182	2552.956254
738.684260	2556.709393
739.014290	2553.437684
739.344272	2558.556976
739.674207	2553.669578
740.004093	2555.514640
740.333931	2555.292829
740.663722	2556.656461
740.993464	2554.667726
741.323159	2554.990360
741.652806	2554.302242
741.982405	2556.185113
742.311956	2553.853580
742.641460	2558.304918
742.970915	2554.609753
743.300323	2552.368960
743.629683	2551.605225
743.958996	2552.439536
744.288260	2550.793599
744.617477	2554.836605
744.946647	2555.814588
745.275768	2555.822150
745.604842	2553.258723
745.933869	2555.106306
746.262847	2555.610422
746.591778	2557.347099
746.920662	2554.201419
747.249498	2555.491955
747.578286	2556.512788
747.907027	2553.709907
748.235720	2555.839794
748.564365	2556.661502
748.892963	2555.315514
749.221514	2552.386604
749.550017	2555.741492
749.878473	2554.166131
750.206881	2551.844680
750.535242	2557.959599
750.863555	2556.081770
751.191821	2554.909701
751.520039	2557.536143
751.848210	2554.851728
752.176334	2553.871224
752.504411	2555.993549
752.832440	2555.945658
753.160421	2555.297870
753.488356	2555.512119
753.816243	2554.755946
754.144082	2552.999104
754.471875	2556.094373
754.799620	2551.920297
755.127318	2558.473797
755.454969	2553.208312
755.782572	2555.842315
756.110129	2553.019269
756.437638	2555.249979
756.765100	2555.494475
757.092515	2557.377346
757.419882	2555.418858
757.747203	2554.105637
758.074477	2554.645041
758.401703	2554.035061
758.728882	2556.903478
759.056014	2555.018086
759.383099	2555.103786
759.710138	2552.401727
760.037129	2552.255534
760.364073	2553.409958
760.690970	2550.029864
761.017820	2551.287632
761.344623	2556.192675
761.671379	2555.801986
761.998088	2553.372149
762.324751	2553.853580
762.651366	2555.297870
762.977935	2553.757798
763.304456	2556.686708
763.630931	2553.959444
763.957359	2553.712427
764.283740	2555.181924
764.610074	2555.867521
764.936362	2555.817109
765.262602	2557.508416
765.588796	2557.163097
765.914943	2553.304094
766.241044	2554.241748
766.567097	2555.058415
766.893104	2556.278375
767.219064	2552.684032
767.544978	2555.431461
767.870845	2551.728733
768.196665	2553.031872
768.522438	2554.856769
768.848165	2553.636810
769.173846	2555.197047
769.499479	2551.721172
769.825066	2557.760474
770.150607	2555.106306
770.476101	2553.384752
770.801548	2552.147149
771.126949	2553.717468
771.452303	2556.512788
771.777611	2552.989022
772.102872	2554.773590
772.428087	2553.997252
772.753256	2554.080432
773.078378	2554.027499
773.403453	2557.049671
773.728482	2553.992211
774.053465	2556.480021
774.378401	2555.406255
774.703291	2553.379711
775.028135	2554.924825
775.352932	2556.278375
775.677683	2553.772921
776.002388	2553.180586
776.327046	2550.034906
776.651658	2551.272509
776.976224	2550.743188
777.300743	2554.266954
777.625216	2556.147305
777.949643	2554.103117
778.274024	2554.017417
778.598359	2555.615463
778.922647	2553.777962
779.246889	2553.130174
779.571086	2552.663867
779.895236	2553.140256
780.219339	2552.316028
780.543397	2555.872562
780.867409	2554.909701
781.191374	2555.459187
781.515294	2554.024979
781.839167	2554.773590
782.162995	2553.881306
782.486776	2553.525905
782.810511	2554.428271
783.134201	2553.692263
783.457844	2554.990360
783.781441	2553.304094
784.104993	2553.024310
784.428498	2555.837274
784.751958	2554.700493
785.075372	2552.192519
785.398739	2553.392314
785.722061	2553.871224
786.045337	2552.923487
786.368568	2556.394321
786.691752	2553.967006
787.014891	2554.763508
787.337983	2551.118754
787.661030	2553.281409
787.984031	2553.974567
788.306987	2553.321738
788.629897	2552.086655
788.952760	2555.764177
789.275579	2552.205122
789.598351	2553.299053
789.921078	2553.997252
790.243759	2553.931717
790.566395	2556.255689
790.888984	2553.793086
791.211529	2552.923487
791.534027	2553.994732
791.856480	2556.419527
792.178888	2551.080945
792.501249	2553.162942
792.823566	2553.714948
793.145836	2552.986501
793.468062	2552.484906
793.790241	2553.974567
794.112375	2553.919115
794.434464	2554.652602
794.756507	2553.662016
795.078505	2553.392314
795.400457	2554.095555
795.722364	2553.334341
796.044226	2555.028168
796.366042	2549.717313
796.687812	2552.399207
797.009538	2554.924825
797.331218	2554.022458
797.652852	2553.160421
797.974442	2555.181924
798.295986	2552.477345
798.617484	2553.558672
798.938938	2554.019938
799.260346	2553.639331
799.581709	2554.312325
799.903026	2554.118240
800.224299	2555.048333
800.545526	2556.417006
800.866708	2552.908363
801.187845	2555.048333
801.508936	2551.912735
801.829983	2554.040102
802.150984	2552.999104
802.471940	2554.340051
802.792851	2551.267468
803.113717	2553.140256
803.434538	2553.110009
803.755314	2554.077911
804.076045	2552.545400
804.396731	2554.040102
804.717372	2554.024979
805.037967	2555.239897
805.358518	2555.554969
805.679024	2552.799978
805.999485	2553.901471
806.319901	2554.173693
806.640272	2554.395504
806.960598	2554.047664
807.280879	2551.290153
807.601115	2555.958261
807.921306	2551.786707
808.241453	2549.881150
808.561554	2548.457024
808.881611	2551.935421
809.201623	2549.127498
809.521590	2553.130174
809.841513	2554.962633
810.161390	2552.124464
810.481223	2551.887530
810.801011	2553.750236
811.120755	2553.304094
811.440453	2553.054557
811.760107	2553.689742
812.079716	2552.923487
812.399281	2551.804351
812.718801	2552.013558
813.038276	2553.367108
813.357707	2553.722510
813.677093	2553.886347
813.996434	2552.794937
814.315731	2556.046482
814.634983	2552.310987
814.954191	2552.555483
815.273354	2554.466080
815.592473	2553.046995
815.911547	2554.657644
816.230577	2555.197047
816.549562	2555.229815
816.868502	2553.377191
817.187399	2554.541697
817.506250	2552.787376
817.825058	2551.895091
818.143821	2554.887016
818.462539	2553.200750
818.781213	2553.036913
819.099843	2551.743857
819.418429	2554.337530
819.736970	2552.449618
820.055466	2553.213353
820.373919	2553.437684
820.692327	2551.643034
821.010691	2552.379042
821.329011	2551.131357
821.647286	2552.994063
821.965517	2554.032541
822.283704	2553.478014
822.601847	2555.113868
822.919945	2551.534649
823.237999	2553.082283
823.556010	2555.033210
823.873976	2550.813764
824.191897	2550.344937
824.509775	2548.855276
824.827609	2549.624052
825.145398	2548.578012
825.463144	2553.329300
825.780845	2553.815771
826.098502	2553.593960
826.416116	2553.372149
826.733685	2550.801161
827.051210	2552.187478
827.368692	2553.372149
827.686129	2553.651933
828.003522	2553.543549
828.320872	2555.202088
828.638177	2553.909032
828.955439	2550.375183
829.272656	2552.399207
829.589830	2552.978939
829.906960	2551.078424
830.224046	2554.087993
830.541088	2552.739485
830.858086	2552.079093
831.175041	2556.233004
831.491952	2551.189330
831.808819	2553.979608
832.125642	2553.533466
832.442421	2551.995914
832.759157	2554.879454
833.075849	2552.799978
833.392497	2552.505071
833.709101	2551.559855
834.025662	2553.132695
834.342179	2554.120761
834.658653	2551.658157
834.975083	2550.934752
835.291469	2558.960268
835.607811	2554.715617
835.924110	2552.494989
836.240366	2555.355843
836.556578	2553.316697
836.872746	2551.280071
837.188871	2553.001625
837.504952	2550.685214
837.820990	2552.162272
838.136984	2553.311656
838.452935	2551.577499
838.768842	2554.962633
839.084706	2553.573796
839.400526	2553.077242
839.716303	2555.131512
840.032037	2551.068342
840.347727	2548.958619
840.663373	2551.149001
840.978977	2546.599359
841.294537	2552.484906
841.610054	2554.773590
841.925527	2555.572613
842.240957	2552.184958
842.556344	2552.676470
842.871687	2551.345606
843.186987	2551.625390
843.502244	2554.324927
843.817458	2552.890719
844.132629	2550.617159
844.447756	2552.966337
844.762840	2548.837632
845.077881	2554.128322
845.392879	2551.635472
845.707833	2553.170503
846.022745	2550.576830
846.337613	2550.680173
846.652438	2553.205791
846.967221	2552.331151
847.281960	2552.008517
847.596656	2552.875596
847.911309	2552.096738
848.225919	2552.757129
848.540485	2551.655637
848.855009	2548.943496
849.169490	2553.336861
849.483928	2552.442057
849.798323	2551.794268
850.112675	2552.174875
850.426984	2553.646892
850.741251	2551.794268
851.055474	2551.418702
851.369654	2553.175544
851.683792	2551.020451
851.997887	2555.050854
852.311938	2551.247303
852.625947	2553.170503
852.939914	2551.990873
853.253837	2550.927190
853.567718	2551.786707
853.881555	2549.906356
854.195350	2551.653116
854.509103	2552.056408
854.822812	2550.100441
855.136479	2550.765873
855.450103	2552.492468
855.763685	2548.598177
856.077224	2548.862837
856.390720	2549.492982
856.704173	2548.119267
857.017584	2550.811243
857.330953	2552.941131
857.644278	2553.445246
857.957561	2553.021789
858.270802	2550.135729
858.584000	2550.412992
858.897155	2554.455997
859.210268	2553.931718
859.523339	2550.261757
859.836367	2550.642365
860.149352	2550.786037
860.462295	2550.009700
860.775195	2549.550955
861.088054	2550.586912
861.400869	2551.184289
861.713642	2552.066491
862.026373	2550.970040
862.339062	2551.935421
862.651708	2550.571788
862.964312	2550.549103
863.276873	2549.770245
863.589392	2550.138249
863.901869	2550.942313
864.214303	2552.331151
864.526696	2552.101779
864.839045	2549.263609
865.151353	2549.641696
865.463619	2551.431305
865.775842	2554.587068
866.088023	2550.218908
866.400162	2552.321069
866.712258	2549.984494
867.024313	2549.240924
867.336325	2551.418702
867.648296	2550.503733
867.960224	2551.885009
868.272110	2551.585060
868.583954	2551.464073
868.895755	2552.235369
869.207515	2550.455842
869.519233	2551.678322
869.830909	2555.292829
870.142542	2551.748898
870.454134	2548.913249
870.765684	2552.537838
871.077191	2551.968188
871.388657	2549.661860
871.700081	2548.146993
872.011463	2551.990873
872.322803	2547.476520
872.634101	2551.302756
872.945357	2551.985832
873.256571	2552.469783
873.567744	2552.915925
873.878874	2551.227138
874.189963	2549.619010
874.501010	2552.603373
874.812015	2550.665050
875.122979	2553.294012
875.433900	2553.039433
875.744780	2552.827705
876.055618	2551.403579
876.366415	2552.626059
876.677169	2551.895091
876.987882	2553.785524
877.298554	2552.071532
877.609183	2554.788714
877.919771	2550.715461
878.230317	2553.472972
878.540822	2552.779814
878.851285	2549.999617
879.161707	2551.890050
879.472087	2550.899463
879.782425	2552.033723
880.092722	2551.128836
880.402977	2551.186809
880.713191	2549.682025
881.023363	2550.856614
881.333494	2551.453990
881.643583	2552.983981
881.953631	2548.590615
882.263637	2551.219577
882.573602	2551.650595
882.883526	2548.625903
883.193408	2553.198230
883.503248	2553.364588
883.813048	2550.927190
884.122806	2551.408620
884.432522	2552.850390
884.742197	2552.275698
885.051831	2552.663867
885.361424	2552.963816
885.670975	2549.745039
885.980485	2552.169834
886.289954	2550.788558
886.599382	2551.194371
886.908768	2547.834442
887.218113	2546.296890
887.527417	2549.152704
887.836680	2545.076931
888.145901	2550.425595
888.455082	2550.370142
888.764221	2549.485420
889.073319	2550.473486
889.382376	2553.362067
889.691392	2549.745039
890.000366	2552.101779
890.309300	2551.196892
890.618193	2550.715461
890.927044	2550.022303
891.235855	2549.724875
891.544625	2550.574309
891.853353	2551.252344
892.162041	2550.433157
892.470687	2553.551110
892.779293	2549.447611
893.087858	2551.375852
893.396381	2547.857127
893.704864	2552.920966
894.013306	2550.047508
894.321707	2552.623538
894.630068	2550.355019
894.938387	2550.087838
895.246665	2551.567416
895.554903	2551.522046
895.863100	2550.372663
896.171256	2548.411654
896.479371	2551.053219
896.787446	2551.529608
897.095480	2551.607746
897.403473	2550.165976
897.711425	2548.295708
898.019336	2550.511295
898.327207	2551.015410
898.635038	2552.900802
898.942827	2552.953734
899.250576	2554.395504
899.558284	2550.879299
899.865952	2548.525080
900.173579	2551.068342
900.481165	2550.733105
900.788711	2553.024310
901.096216	2552.883157
901.403681	2550.793599
901.711105	2551.706048
902.018489	2552.883157
902.325832	2548.310831
902.633135	2547.640357
902.940397	2548.404092
903.247619	2546.513660
903.554800	2550.670091
903.861941	2549.074566
904.169041	2551.902653
904.476101	2546.712785
904.783121	2548.809905
905.090100	2552.137067
905.397039	2550.014741
905.703938	2548.315872
906.010796	2551.940462
906.317614	2553.707386
906.624391	2551.562375
906.931129	2552.769732
907.237826	2551.791748
907.544483	2550.110523
907.851099	2553.369629
908.157675	2550.264278
908.464211	2550.372663
908.770707	2551.348126
909.077163	2550.826367
909.383578	2549.666901
909.689954	2547.408464
909.996289	2549.722354
910.302584	2550.576830
910.608839	2549.054401
910.915054	2550.223949
911.221229	2548.888043
911.527363	2549.329144
911.833458	2552.016079
912.139513	2549.684545
912.445527	2551.161603
912.751502	2550.435677
913.057436	2547.801674
913.363331	2552.648744
913.669186	2549.354350
913.975000	2551.287632
914.280775	2548.152035
914.586510	2551.307797
914.892205	2550.975081
915.197859	2552.079093
915.503475	2551.499361
915.809050	2549.858465
916.114585	2551.937941
916.420081	2551.199412
916.725536	2549.150183
917.030952	2549.581202
917.336328	2548.779658
917.641665	2546.843855
917.946961	2546.680018
918.252218	2548.184802
918.557435	2547.635316
918.862612	2551.297715
919.167750	2552.469783
919.472848	2550.917108
919.777906	2548.325954
920.082925	2548.348640
920.387904	2551.108671
920.692843	2551.900133
920.997743	2550.002138
921.302603	2550.816284
921.607423	2546.851417
921.912204	2548.751932
922.216946	2551.746377
922.521647	2550.171017
922.826310	2550.869217
923.130932	2549.742519
923.435516	2547.458876
923.740059	2551.542211
924.044564	2549.180430
924.349028	2550.554144
924.653454	2548.129349
924.957840	2549.987015
925.262186	2549.185471
925.566493	2550.254196
925.870761	2550.990204
926.174989	2549.845862
926.479178	2549.208156
926.783328	2550.997766
927.087438	2548.091541
927.391509	2548.000800
927.695541	2550.874258
927.999533	2550.440718
928.303486	2548.441901
928.607400	2549.739998
928.911275	2550.801161
929.215110	2547.670604
929.518906	2553.213353
929.822663	2550.604556
930.126381	2549.734957
930.430060	2551.093548
930.733699	2550.478527
931.037299	2551.378373
931.340861	2549.941644
931.644383	2550.491130
931.947866	2548.089020
932.251309	2550.468445
932.554714	2551.252344
932.858080	2546.770758
933.161407	2545.225645
933.464694	2545.351674
933.767943	2544.356046
934.071153	2550.120605
934.374323	2549.470296
934.677455	2548.913249
934.980548	2549.077086
935.283602	2550.632282
935.586617	2551.476676
935.889593	2549.412323
936.192530	2550.884340
936.495428	2549.195553
936.798287	2549.203115
937.101108	2548.653629
937.403890	2548.832590
937.706632	2549.976932
938.009336	2547.988197
938.312002	2549.177909
938.614628	2551.028013
938.917216	2551.380894
939.219765	2548.288146
939.522275	2551.471634
939.824747	2550.092879
940.127179	2551.254865
940.429573	2549.049360
940.731929	2549.402241
941.034246	2548.772097
941.336524	2549.437529
941.638763	2552.260575
941.940964	2551.249824
942.243126	2548.184802
942.545250	2551.511964
942.847335	2549.528270
943.149381	2548.658671
943.451389	2551.688404
943.753359	2546.107847
944.055290	2549.578681
944.357182	2551.940462
944.659036	2548.716644
944.960851	2548.744370
945.262628	2550.150852
945.564367	2551.096068
945.866067	2552.197561
946.167729	2549.492982
946.469352	2548.467107
946.770937	2551.678322
947.072484	2548.542724
947.373992	2550.294525
947.675462	2548.925852
947.976893	2546.397713
948.278286	2544.925696
948.579641	2547.700851
948.880958	2542.211035
949.182236	2550.468445
949.483476	2548.215049
949.784678	2548.600697
950.085841	2549.240924
950.386967	2548.073897
950.688054	2549.490461
950.989103	2547.743701
951.290114	2547.635316
951.591087	2550.367622
951.892021	2548.913249
952.192917	2551.171686
952.493776	2551.111192
952.794596	2550.549103
953.095378	2549.182951
953.396122	2551.484237
953.696828	2546.874102
953.997496	2552.999104
954.298126	2547.426108
954.598718	2550.312169
954.899272	2549.765204
955.199788	2547.481561
955.500266	2548.341078
955.800706	2548.804864
956.101108	2547.547096
956.401472	2549.782848
956.701798	2547.766386
957.002087	2551.680842
957.302337	2547.292518
957.602550	2550.425595
957.902724	2551.534649
958.202861	2550.833928
958.502960	2549.034237
958.803022	2548.724206
959.103045	2545.371838
959.403031	2551.360729
959.702979	2549.818136
960.002889	2549.876109
960.302762	2549.351829
960.602596	2547.421067
960.902393	2549.019113
961.202153	2548.872920
961.501875	2546.707744
961.801559	2550.395348
962.101205	2548.872920
962.400814	2550.438198
962.700385	2550.591953
962.999918	2546.412837
963.299414	2546.468289
963.598873	2547.022816
963.898293	2543.690613
964.197677	2549.374514
964.497022	2549.422405
964.796331	2548.381407
965.095601	2549.165307
965.394835	2549.712272
965.694030	2549.072045
965.993189	2547.363094
966.292309	2549.533311
966.591393	2549.480379
966.890439	2546.894267
967.189447	2551.234700
967.488419	2547.910059
967.787353	2547.627755
968.086249	2548.467107
968.385108	2547.123639
968.683930	2548.756973
968.982714	2547.955430
969.281462	2548.429298
969.580172	2547.451314
969.878844	2553.145297
970.177480	2550.647406
970.476078	2547.920142
970.774639	2551.234700
971.073162	2547.078269
971.371649	2550.448280
971.670098	2545.749925
971.968510	2551.970709
972.266885	2548.212528
972.565223	2552.031202
972.863524	2547.484082
973.161788	2548.262940
973.460014	2547.869730
973.758204	2546.924514
974.056356	2547.050543
974.354471	2551.779145
974.652550	2549.724875
974.950591	2550.440718
975.248595	2547.622713
975.546563	2549.545914
975.844493	2548.817467
976.142386	2546.871582
976.440243	2548.517518
976.738062	2547.950388
977.035845	2547.537014
977.333590	2547.622713
977.631299	2546.921993
977.928971	2544.731612
978.226606	2546.206149
978.524204	2547.423588
978.821765	2542.765562
979.119290	2548.711603
979.416777	2549.699669
979.714228	2547.123639
980.011642	2548.704041
980.309020	2551.433826
980.606360	2547.610111
980.903664	2547.055584
981.200931	2549.848383
981.498162	2551.844680
981.795356	2548.275543
982.092513	2550.443239
982.389633	2548.923331
982.686717	2548.635985
982.983764	2547.123639
983.280775	2550.284443
983.577749	2546.322096
983.874686	2547.872251
984.171587	2548.434339
984.468451	2547.171530
984.765279	2547.310162
985.062070	2550.740667
985.358824	2548.918290
985.655543	2550.334854
985.952224	2548.270502
986.248869	2549.460214
986.545478	2548.063814
986.842050	2550.274360
987.138586	2547.912580
987.435086	2548.338557
987.731549	2548.804864
988.027975	2549.326623
988.324366	2545.702034
988.620719	2547.330327
988.917037	2549.334185
989.213318	2548.593136
989.509563	2547.252189
989.805772	2546.765717
990.101944	2547.037940
990.398080	2548.719164
990.694180	2550.909546
990.990244	2547.131201
991.286271	2546.238917
991.582262	2547.065666
991.878217	2547.237065
992.174136	2546.448125
992.470019	2547.778989
992.765865	2546.133053
993.061676	2546.279246
993.357450	2543.088196
993.653188	2543.171375
993.948890	2547.857127
994.244556	2548.381407
994.540186	2548.053732
994.835780	2546.564071
995.131337	2547.499205
995.426859	2547.998279
995.722345	2548.507436
996.017795	2546.647250
996.313208	2548.094061
996.608586	2546.642209
996.903928	2549.271171
997.199234	2548.328475
997.494504	2546.964843
997.789738	2548.565409
998.084936	2546.853937
998.380099	2544.608103
998.675225	2547.332847
998.970316	2546.581715
999.265371	2548.893084
999.560390	2545.760007
999.855373	2548.013403
1000.150320	2551.154042
1000.445232	2548.146993
1000.740108	2545.031560
1001.034948	2547.605069
1001.329752	2549.354350
1001.624521	2547.410985
1001.919254	2549.361912
1002.213951	2548.336037
1002.508613	2546.801005
1002.803239	2548.852755
1003.097829	2546.614483
1003.392384	2549.722354
1003.686903	2546.889226
1003.981386	2548.232693
1004.275834	2549.896274
1004.570246	2547.393341
1004.864623	2547.852086
1005.158964	2546.864020
1005.453270	2550.259237
1005.747540	2547.426108
1006.041775	2547.758825
1006.335974	2546.216232
1006.630138	2546.511139
1006.924266	2549.339226
1007.218359	2547.201777
1007.512416	2547.577343
1007.806438	2543.738504
1008.100425	2545.485264
1008.394376	2542.049718
1008.688292	2547.098433
1008.982172	2547.688248
1009.276017	2545.293700
1009.569827	2546.279246
1009.863602	2547.514329
1010.157341	2549.530790
1010.451045	2546.715306
1010.744714	2548.472148
1011.038347	2546.392672
1011.331945	2547.388300
1011.625508	2549.288815
1011.919036	2548.250337
1012.212528	2546.682538
1012.505986	2549.545914
1012.799408	2547.910059
1013.092795	2547.721016
1013.386147	2546.959802
1013.679464	2548.194884
1013.972745	2544.978628
1014.265992	2548.298228
1014.559204	2545.880995
1014.852380	2543.889739
1015.145521	2546.632127
1015.438628	2546.352343
1015.731699	2549.636654
1016.024736	2545.170192
1016.317737	2546.148176
1016.610703	2545.558361
1016.903635	2547.100954
1017.196531	2547.380738
1017.489393	2546.934596
1017.782219	2547.307641
1018.075011	2547.915100
1018.367768	2547.726057
1018.660490	2547.148845
1018.953177	2547.148845
1019.245829	2547.148845
