Dividing Wavelength (nm)	Counts (n)	Blue Motor Position (mm): 48.900000	Red Motor Position (mm): 0.000000	
326.493990	2281.969029
326.888308	2281.969029
327.282561	2281.969029
327.676750	2244.936713
328.070874	2239.338512
328.464933	2242.108626
328.858929	2243.194994
329.252859	2248.810840
329.646726	2259.901378
330.040528	2271.669952
330.434265	2282.319389
330.827938	2305.392751
331.221547	2317.504123
331.615091	2338.608913
332.008571	2356.991481
332.401986	2377.355222
332.795338	2393.696122
333.188625	2415.582291
333.581847	2435.187339
333.975006	2454.477314
334.368100	2473.880715
334.761129	2490.771101
335.154095	2507.096878
335.546996	2534.230888
335.939833	2575.953998
336.332606	2589.388673
336.725315	2601.006012
337.117960	2614.685183
337.510540	2626.816720
337.903056	2637.259470
338.295508	2645.761376
338.687896	2654.653971
339.080220	2660.358037
339.472480	2668.312978
339.864676	2669.860612
340.256807	2678.012158
340.648875	2682.955009
341.040879	2683.625482
341.432818	2686.337623
341.824694	2688.681760
342.216506	2690.287367
342.608253	2692.197965
342.999937	2692.079497
343.391557	2693.906916
343.783113	2692.515557
344.174605	2691.777028
344.566033	2690.667974
344.957397	2690.680577
345.348697	2685.231090
345.739934	2686.309897
346.131106	2685.379804
346.522215	2682.697910
346.913260	2678.695234
347.304241	2678.848989
347.695159	2678.032322
348.086012	2677.601304
348.476802	2675.983093
348.867528	2669.422032
349.258191	2668.476815
349.648789	2666.203255
350.039324	2661.893068
350.429796	2666.689726
350.820203	2667.241732
351.210548	2666.440189
351.600828	2660.413490
351.991045	2661.416679
352.381198	2662.999602
352.771288	2662.722338
353.161314	2658.298726
353.551276	2661.119251
353.941175	2660.743685
354.331010	2662.044303
354.720782	2659.392656
355.110490	2660.894920
355.500135	2663.077739
355.889717	2659.967347
356.279235	2657.920639
356.668689	2660.534477
357.058080	2660.547080
357.447408	2658.528098
357.836672	2661.462050
358.225873	2665.777277
358.615010	2664.343069
359.004084	2661.242759
359.393095	2664.567400
359.782043	2665.222750
360.170927	2667.319870
360.559748	2665.079077
360.948505	2667.569407
361.337199	2669.553102
361.725830	2669.056548
362.114398	2669.114521
362.502903	2668.885149
362.891344	2668.116373
363.279722	2669.858091
363.668037	2669.578307
364.056289	2670.843637
364.444478	2673.253308
364.832603	2671.952691
365.220665	2673.391940
365.608665	2672.708864
365.996601	2672.887825
366.384474	2676.025943
366.772284	2672.948319
367.160031	2675.216838
367.547715	2678.175995
367.935336	2677.613907
368.322893	2676.139369
368.710388	2675.478978
369.097820	2676.915707
369.485189	2677.016530
369.872495	2683.718744
370.259738	2683.764114
370.646918	2687.431554
371.034035	2692.760053
371.421090	2696.238449
371.808081	2703.124666
372.195010	2710.504915
372.581875	2719.757953
372.968678	2727.412945
373.355418	2736.716394
373.742096	2754.176431
374.128710	2766.272679
374.515262	2779.442694
374.901751	2796.824592
375.288177	2813.334371
375.674540	2831.424552
376.060841	2855.402800
376.447079	2877.306613
376.833254	2907.157806
377.219367	2924.015424
377.605417	2956.573716
377.991404	2980.733446
378.377329	3021.039992
378.763191	3040.085471
379.148991	3083.764548
379.534727	3121.752163
379.920402	3159.641476
380.306013	3183.100485
380.691563	3245.192377
381.077049	3264.810027
381.462474	3307.501038
381.847835	3363.919112
382.233134	3407.141965
382.618371	3431.697425
383.003545	3498.855677
383.388657	3521.245962
383.773706	3583.436156
384.158693	3615.185343
384.543618	3641.588386
384.928480	3700.937890
385.313280	3754.232969
385.698017	3780.903193
386.082692	3870.819734
386.467305	3874.681258
386.851856	3908.015887
387.236344	3990.824401
387.620770	4011.029346
388.005133	4065.251997
388.389435	4107.774129
388.773674	4119.731746
389.157851	4193.254454
389.541965	4264.100310
389.926018	4227.380545
390.310008	4326.139270
390.693936	4383.419380
391.077802	4413.492384
391.461606	4410.944080
391.845348	4476.935305
392.229027	4541.111714
392.612645	4539.937125
392.996200	4637.473370
393.379694	4696.744736
393.763125	4805.250531
394.146494	4836.430068
394.529801	4889.349580
394.913047	4971.792610
395.296230	4916.934774
395.679351	5029.070200
396.062410	5085.203448
396.445408	5053.436618
396.828343	5114.936174
397.211217	5172.904402
397.594028	5053.335794
397.976778	5170.378784
398.359466	5219.746803
398.742092	5238.575513
399.124656	5161.995345
399.507158	5280.364158
399.889598	5342.304815
400.271977	5462.067507
400.654294	5463.746211
401.036549	5511.286813
401.418742	5426.431591
401.800874	5633.134022
402.182944	5696.949988
402.564952	5794.854237
402.946898	5861.634402
403.328783	5689.322722
403.710606	5716.338266
404.092367	6039.151073
404.474067	6062.022788
404.855705	5956.534123
405.237282	5890.805039
405.618797	6156.730945
406.000250	6124.976717
406.381642	6340.919583
406.762972	6365.878336
407.144240	6419.518734
407.525447	6399.785137
407.906593	6409.496920
408.287677	6578.824236
408.668700	6495.055383
409.049661	6606.114523
409.430560	6629.175281
409.811399	6498.097719
410.192176	6753.129692
410.572891	6780.031810
410.953545	6966.103319
411.334138	6696.008378
411.714669	6873.643516
412.095139	6665.882443
412.475547	6911.248003
412.855894	6982.489589
413.236180	7172.190729
413.616405	6822.576628
413.996568	7038.277518
414.376670	7099.676252
414.756711	6990.830178
415.136691	7093.357165
415.516609	7292.263452
415.896466	7279.179137
416.276262	7486.287381
416.655997	7471.680638
417.035670	7641.005434
417.415283	7988.013259
417.794834	8064.994199
418.174324	7916.781755
418.553753	7844.998245
418.933121	8126.909650
419.312428	8240.426353
419.691674	8007.434304
420.070859	8492.355496
420.449983	8170.626537
420.829045	8539.696971
421.208047	8300.625291
421.586988	8623.468345
421.965867	8648.621182
422.344686	8728.276454
422.723444	8820.826998
423.102141	8134.839385
423.480777	8912.039115
423.859352	8436.345756
424.237866	9058.393893
424.616319	8921.362729
424.994712	9356.489923
425.373044	8880.378148
425.751314	9379.419612
426.129524	9271.589331
426.507673	9333.913116
426.885762	9497.647272
427.263789	9413.074355
427.641756	9357.412454
428.019662	9435.835164
428.397508	9718.732115
428.775292	9364.260862
429.153016	9760.125029
429.530679	9588.541797
429.908282	9591.490872
430.285824	9321.658071
430.663305	10006.367751
431.040726	9465.031007
431.418086	9442.068551
431.795385	9776.982648
432.172624	9878.461075
432.549802	9779.490622
432.926920	9847.584007
433.303977	9722.462569
433.680974	9927.718189
434.057910	10028.626966
434.434786	10107.213513
434.811601	9915.644626
435.188355	10480.914247
435.565050	10239.853832
435.941683	10149.307148
436.318257	10624.425815
436.694770	10813.827006
437.071222	10852.306134
437.447614	10673.889617
437.823946	10620.655032
438.200218	10686.716833
438.576429	10544.054699
438.952580	10790.181474
439.328670	10802.338217
439.704700	10608.505851
440.080670	10599.048647
440.456580	11099.683115
440.832429	10908.696481
441.208218	10506.399801
441.583947	10786.345156
441.959616	10985.437966
442.335224	10797.213884
442.710773	10895.309697
443.086261	11132.077569
443.461689	10394.471062
443.837057	11090.581311
444.212365	11314.658079
444.587612	10948.992944
444.962800	11152.153964
445.337927	10891.211238
445.712995	10596.424726
446.088002	11611.884510
446.462949	11329.153917
446.837837	11287.244285
447.212664	11190.123935
447.587431	11805.099334
447.962139	12580.834608
448.336786	14890.285488
448.711374	15342.971021
449.085901	13146.073983
449.460369	12812.039568
449.834776	12253.870411
450.209124	13206.613200
450.583412	13629.944094
450.957640	14547.953333
451.331808	13563.937746
451.705917	12665.299141
452.079965	11885.233516
452.453954	12804.626551
452.827883	12470.226652
453.201752	12753.554622
453.575562	12316.476501
453.949311	12727.698543
454.323001	12722.307029
454.696632	12957.093729
455.070202	13235.423394
455.443713	13405.035536
455.817164	13919.240790
456.190556	13885.429771
456.563888	14240.246343
456.937160	14374.769534
457.310373	13735.717584
457.683526	13865.920506
458.056619	13371.738715
458.429653	13602.127007
458.802628	12930.501642
459.175542	13360.302857
459.548398	14315.896419
459.921194	14693.330128
460.293930	14753.745836
460.666607	15590.108547
461.039224	16658.644119
461.411782	17388.393988
461.784280	17141.238818
462.156719	17278.706042
462.529099	16926.745284
462.901419	15905.679737
463.273680	15645.503266
463.645882	15561.442026
464.018024	15279.039108
464.390106	15518.083062
464.762130	16223.393417
465.134094	17024.747835
465.505999	19117.703842
465.877845	22402.247466
466.249631	25188.641911
466.621358	24772.255206
466.993026	23365.377552
467.364634	22765.661726
467.736184	21280.739449
468.107674	20501.251036
468.479105	20629.230808
468.850477	20074.111550
469.221790	19693.454023
469.593043	18985.434047
469.964238	18419.289785
470.335373	18047.038382
470.706449	18585.509230
471.077467	18170.145880
471.448425	20058.000022
471.819324	24239.090172
472.190164	26005.870922
472.560945	22271.177466
472.931667	20018.121974
473.302330	19423.003681
473.672934	19082.627493
474.043479	19278.488923
474.413965	19082.352751
474.784393	18673.502571
475.154761	19476.162648
475.525070	19360.889103
475.895321	19101.625082
476.265513	19712.549913
476.635645	20299.844337
477.005719	20044.532579
477.375734	20215.684794
477.745691	20719.623738
478.115588	21273.021443
478.485427	21842.195438
478.855207	22950.810704
479.224928	24745.784107
479.594591	26993.261562
479.964194	26836.519486
480.333739	27088.657836
480.703226	26678.607862
481.072653	26417.949961
481.442022	27054.342702
481.811333	27984.296955
482.180584	27843.618516
482.549777	26902.228405
482.918912	26575.607007
483.287988	26715.700672
483.657005	26321.363974
484.025964	26136.751879
484.394864	25988.627656
484.763706	25628.500228
485.132489	25126.996161
485.501213	25282.251096
485.869879	25202.726894
486.238487	25055.648710
486.607036	25178.483986
486.975527	24943.329282
487.343959	25230.780916
487.712333	25129.995647
488.080648	24783.071001
488.448905	25305.531145
488.817104	25076.025054
489.185244	25793.877800
489.553326	25720.521450
489.921350	26810.146689
490.289315	29189.016778
490.657222	30872.164786
491.025070	31390.428168
491.392861	31103.455445
491.760593	30250.217471
492.128267	29315.027980
492.495883	28240.470749
492.863440	27378.196508
493.230939	26530.581941
493.598380	26349.793561
493.965763	25978.258002
494.333088	25471.916948
494.700354	25448.561282
495.067563	25279.042402
495.434713	25038.118098
495.801805	25229.041718
496.168839	24977.919159
496.535815	24872.992583
496.902733	25092.610450
497.269593	24802.910462
497.636395	24955.881755
498.003139	24875.719847
498.369825	24609.690597
498.736453	24838.982439
499.103023	24703.231727
499.469535	24686.505179
499.835989	24915.938173
500.202385	24939.477841
500.568723	24502.712271
500.935003	24652.860518
501.301226	24375.002200
501.667390	25216.413627
502.033497	25394.988940
502.399546	25142.651464
502.765537	24655.769264
503.131470	25039.630444
503.497345	25198.255391
503.863163	24450.279230
504.228923	24963.471212
504.594625	25229.349228
504.960269	24802.071110
505.325856	25271.218531
505.691385	24670.784341
506.056856	25263.419866
506.422270	25279.932166
506.787625	24768.035760
507.152924	25220.781787
507.518164	25258.708908
507.883347	25070.971298
508.248472	24747.384673
508.613540	25520.662385
508.978550	25319.084287
509.343503	25347.866755
509.708398	25531.463057
510.073236	25690.239239
510.438016	25919.785659
510.802738	25560.784929
511.167403	25825.561452
511.532010	25592.738282
511.896561	26320.859859
512.261053	26287.437009
512.625488	26123.032379
512.989866	26012.847879
513.354186	25834.658214
513.718449	25971.822969
514.082655	26340.293507
514.446803	26056.567286
514.810894	26554.078759
515.174927	26055.259107
515.538904	26087.073828
515.902822	26583.292246
516.266684	26323.380436
516.630488	26242.820277
516.994235	26169.932754
517.357925	26528.084049
517.721558	26669.672417
518.085133	26803.230226
518.448651	26684.495930
518.812112	26471.509700
519.175516	26688.128081
519.538863	26838.954363
519.902152	26640.456410
520.265385	26886.101754
520.628560	26702.392026
520.991678	26666.083115
521.354739	26712.718829
521.717743	26831.662334
522.080690	26593.808092
522.443580	26910.311896
522.806413	26886.588226
523.169189	27008.382502
523.531908	27045.923975
523.894569	26678.678438
524.257174	26785.185416
524.619722	26900.090956
524.982213	26620.619469
525.344647	26634.475081
525.707025	26811.061659
526.069345	26748.057318
526.431608	26734.620122
526.793815	26887.800623
527.155964	26416.057008
527.518057	26580.892656
527.880093	26485.680384
528.242072	26708.771606
528.603995	26434.300944
528.965860	26216.941513
529.327669	26260.829799
529.689421	26243.112663
530.051117	26099.681754
530.412755	26277.498374
530.774337	26028.810693
531.135862	25944.525121
531.497331	26116.504085
531.858743	25730.964200
532.220098	26166.472002
532.581396	25871.451076
532.942638	25749.084628
533.303824	25888.275927
533.664953	25863.450764
534.026025	25541.200046
534.387040	25791.458046
534.747999	25813.346736
535.108902	25977.050646
535.469748	25488.051161
535.830537	25644.745346
536.191270	25790.074250
536.551947	25597.421514
536.912567	25207.730240
537.273131	25680.161972
537.633638	25326.623333
537.994089	25557.724948
538.354483	25035.204311
538.714821	25546.583998
539.075103	25598.182728
539.435328	25352.713824
539.795497	24988.616488
540.155609	25297.936647
540.515665	25622.493693
540.875665	24820.728421
541.235609	25193.312540
541.595496	25094.788229
541.955328	25473.819984
542.315102	25390.192283
542.674821	24899.690534
543.034483	24783.635611
543.394090	24947.495796
543.753640	24770.631954
544.113134	25388.914350
544.472571	24978.203984
544.831953	25289.071778
545.191278	24943.674601
545.550548	24816.912267
545.909761	25021.638566
546.268918	25261.002633
546.628019	25241.924386
546.987064	24927.610964
547.346053	24646.259127
547.704986	24744.047429
548.063863	24900.199690
548.422684	24940.642347
548.781449	24415.762450
549.140158	24840.779610
549.498811	24416.896709
549.857408	24190.465723
550.215949	24565.928341
550.574434	24269.430357
550.932864	24461.936898
551.291237	24662.068186
551.649555	24476.722603
552.007817	24561.638319
552.366022	24394.554316
552.724173	24412.475618
553.082267	24395.504573
553.440305	24870.653488
553.798288	24094.643470
554.156215	24578.324538
554.514086	24739.959054
554.871902	24133.016733
555.229661	24401.483382
555.587365	24226.462082
555.945014	24155.457430
556.302606	24339.920811
556.660143	24349.917419
557.017625	24580.630866
557.375050	24101.020530
557.732421	24477.894671
558.089735	24309.222704
558.446994	24349.138561
558.804197	24412.578961
559.161345	24268.482620
559.518437	24093.040383
559.875474	24245.381532
560.232455	24426.159830
560.589381	24240.390790
560.946251	24254.228757
561.303065	24550.124323
561.659825	24634.835873
562.016528	24244.297684
562.373177	23963.525579
562.729770	24333.846220
563.086307	24167.283977
563.442789	24345.531615
563.799216	24199.925448
564.155587	24181.729403
564.511904	24169.038298
564.868164	24137.727692
565.224370	24079.504885
565.580520	24038.316138
565.936615	24150.814527
566.292654	23865.520507
566.648638	24079.930863
567.004567	23912.574637
567.360441	23852.176573
567.716260	23571.893461
568.072023	23875.605336
568.427732	23677.319111
568.783385	23425.203445
569.138982	23693.838972
569.494525	23714.913516
569.850013	23475.403255
570.205445	23578.041148
570.560823	23409.845570
570.916145	23181.357793
571.271412	23370.242266
571.626625	23127.984576
571.981782	23222.259194
572.336884	23018.097505
572.691931	23163.617972
573.046923	22909.211102
573.401860	22781.695116
573.756743	22827.851920
574.111570	22713.132903
574.466342	22629.326241
574.821059	22710.665258
575.175722	22412.163415
575.530330	22360.834387
575.884882	22365.656251
576.239380	22290.843007
576.593823	22184.159589
576.948211	22159.639416
577.302544	22010.794308
577.656823	21870.521682
578.011047	21985.381851
578.365216	21846.326664
578.719330	21716.469061
579.073389	21608.374120
579.427394	21769.935539
579.781344	21500.483345
580.135239	21405.918861
580.489080	21339.574756
580.842866	21131.969958
581.196597	21351.073628
581.550273	21289.881582
581.903895	21168.200731
582.257463	21482.478864
582.610975	21029.667302
582.964434	21355.555213
583.317837	21005.575628
583.671186	21097.826223
584.024481	21090.025037
584.377721	20852.896722
584.730906	20949.689397
585.084037	20911.968963
585.437113	20853.451249
585.790135	21069.825134
586.143103	20508.013743
586.496016	20544.673014
586.848874	20777.276894
587.201679	20681.734426
587.554428	20391.086701
587.907124	20737.787015
588.259765	20466.623350
588.612352	20551.917152
588.964884	20118.854311
589.317362	20294.009201
589.669786	20352.055567
590.022155	20337.847075
590.374470	20595.175293
590.726731	20331.956487
591.078937	20154.684312
591.431090	20210.492405
591.783188	19990.955196
592.135232	19942.111457
592.487222	20047.693383
592.839157	20036.557474
593.191038	19919.383415
593.542866	19819.140070
593.894639	19519.985398
594.246358	19735.600589
594.598022	19611.994018
594.949633	19378.197905
595.301190	19372.995434
595.652692	19546.975736
596.004141	19747.202805
596.355535	19077.856041
596.706876	19102.671121
597.058162	18999.367797
597.409395	19245.552545
597.760573	19275.345764
598.111698	19047.815806
598.462768	19000.315533
598.813785	18982.996649
599.164748	18781.345454
599.515657	18834.080965
599.866511	18637.213825
600.217312	18973.889805
600.568060	18486.072471
600.918753	18796.831879
601.269392	18701.483495
601.619978	18503.298093
601.970510	18676.817129
602.320988	18634.388258
602.671412	18821.863728
603.021783	18772.919166
603.372100	18454.855126
603.722363	18621.959293
604.072572	18580.150484
604.422728	18720.266834
604.772830	18452.432851
605.122878	18430.753369
605.472872	18402.575840
605.822813	18392.642246
606.172701	18377.148260
606.522534	18543.236635
606.872314	18586.507379
607.222041	18425.732380
607.571714	18635.865316
607.921333	18455.545764
608.270899	18536.854534
608.620411	18677.732099
608.969870	18495.819542
609.319276	18484.792018
609.668627	18508.979474
610.017926	18651.167739
610.367171	18753.298995
610.716362	18816.129416
611.065500	18620.951062
611.414585	18770.481768
611.763616	18758.965252
612.112594	18682.264096
612.461518	18661.749121
612.810389	18847.777780
613.159207	18719.818172
613.507971	18624.812586
613.856682	18856.458647
614.205340	18781.905022
614.553945	18942.007027
614.902496	18685.583696
615.250994	18886.352689
615.599439	18840.493312
615.947830	18829.349842
616.296169	18914.716741
616.644454	18866.462817
616.992686	18843.301235
617.340864	19069.833045
617.688990	18800.776582
618.037063	18983.583944
618.385082	18854.295992
618.733048	19109.718654
619.080961	19007.410957
619.428821	19049.106341
619.776628	18901.198887
620.124382	18833.624740
620.472083	18897.564215
620.819731	18899.182426
621.167326	18594.023739
621.514868	18632.371797
621.862357	18426.612061
622.209793	18413.177386
622.557176	18246.264782
622.904506	18070.938493
623.251783	18016.846912
623.599007	17761.172192
623.946179	17698.475361
624.293297	17629.603118
624.640363	17350.943256
624.987376	17379.957617
625.334336	17187.481322
625.681243	17031.419802
626.028097	17054.901497
626.374899	16958.708720
626.721647	16829.682907
627.068343	16681.435176
627.414987	16612.101666
627.761577	16572.286633
628.108115	16591.833707
628.454600	16323.750187
628.801032	16420.283242
629.147412	16368.971858
629.493739	16367.056219
629.840014	16172.303843
630.186236	16278.894000
630.532405	16037.382402
630.878521	16234.395735
631.224585	16144.837116
631.570597	15965.019159
631.916556	15993.254661
632.262462	15965.732482
632.608316	15881.401540
632.954117	15826.558827
633.299866	15818.974411
633.645562	15727.968981
633.991206	15507.269787
634.336797	15382.844027
634.682336	15342.482029
635.027823	15196.354102
635.373257	15072.450103
635.718639	15001.526109
636.063968	14932.016159
636.409245	14675.713816
636.754470	14723.559407
637.099642	14570.464606
637.444762	14353.878992
637.789829	14396.852308
638.134845	14222.619949
638.479808	14248.181120
638.824719	14158.037727
639.169577	14026.347665
639.514383	14056.327407
639.859137	13888.951017
640.203839	13990.764681
640.548489	13840.845807
640.893086	13828.419362
641.237632	13703.423953
641.582125	13869.603069
641.926566	13680.320345
642.270955	13697.929095
642.615292	13639.832317
642.959576	13655.653979
643.303809	13675.115353
643.647990	13611.901805
643.992118	13680.332948
644.336195	13446.297380
644.680219	13685.245552
645.024192	13580.089603
645.368112	13829.805680
645.711981	13860.092932
646.055797	14045.637640
646.399562	14023.995967
646.743274	14284.341316
647.086935	14559.832812
647.430544	14521.154559
647.774101	14574.568105
648.117606	14701.146437
648.461059	14686.229662
648.804460	14654.301515
649.147810	14384.340164
649.491108	14300.089881
649.834354	14324.509230
650.177548	13986.943486
650.520690	13802.210403
650.863781	13728.264238
651.206820	13774.814253
651.549807	13609.066156
651.892742	13377.185682
652.235626	13328.281448
652.578458	13328.856140
652.921238	13039.935010
653.263967	13234.268970
653.606644	13071.926172
653.949269	13045.689487
654.291843	12837.812467
654.634365	13004.752797
654.976836	12853.001463
655.319255	12845.139784
655.661622	12818.409066
656.003938	12737.546438
656.346203	12662.871826
656.688416	12747.147315
657.030577	12692.276876
657.372687	12595.650560
657.714746	12586.291658
658.056753	12775.791151
658.398708	12580.695977
658.740612	12583.735793
659.082465	12702.802805
659.424266	12676.971933
659.766016	12702.071838
660.107715	12611.542797
660.449362	12690.759489
660.790958	12634.361580
661.132503	12577.676326
661.473996	12658.607009
661.815438	12658.634736
662.156829	12699.896580
662.498168	12661.074654
662.839456	12668.638906
663.180693	12674.254751
663.521879	12778.142849
663.863013	12748.599167
664.204097	12719.546998
664.545129	12857.437679
664.886110	12831.861385
665.227040	12928.278493
665.567918	12916.819951
665.908746	12938.159155
666.249522	12921.041917
666.590248	12990.173780
666.930922	13095.823762
667.271545	13062.728587
667.612118	13153.746620
667.952639	13047.847101
668.293109	13084.594592
668.633528	13020.715611
668.973896	13003.933610
669.314213	13058.211713
669.654480	12809.937407
669.994695	12899.392682
670.334859	12923.575097
670.674973	12855.448944
671.015035	12886.532698
671.355047	12845.149866
671.695008	12814.655927
672.034918	12826.069099
672.374777	12865.299358
672.714585	12785.145012
673.054342	12817.100886
673.394049	12772.751335
673.733705	12869.468393
674.073310	12760.037545
674.412864	12772.446346
674.752368	12623.603758
675.091820	12685.189014
675.431223	12645.820123
675.770574	12508.299966
676.109875	12428.465733
676.449125	12384.229608
676.788324	12343.207219
677.127473	12171.928976
677.466571	12163.278356
677.805619	12050.144781
678.144616	11993.116728
678.483562	11963.802419
678.822458	11832.525732
679.161303	11806.578913
679.500098	11796.521811
679.838842	11746.412742
680.177535	11787.447734
680.516179	11858.744773
680.854771	11798.102212
681.193314	12008.794717
681.531805	12184.249556
681.870247	12632.206487
682.208638	13029.303216
682.546978	13320.591168
682.885268	13343.437677
683.223508	13055.285323
683.561697	12892.909758
683.899836	12811.205257
684.237925	12602.395623
684.575963	12515.992767
684.913951	12430.499839
685.251889	12396.323337
685.589776	12495.152637
685.927614	12405.052094
686.265401	12378.127292
686.603137	12445.913167
686.940824	12589.550763
687.278460	12732.371693
687.616046	12749.854415
687.953582	12905.137077
688.291068	12851.169004
688.628504	13084.274478
688.965889	13085.663316
689.303224	13037.653888
689.640510	12918.796083
689.977745	12596.734408
690.314930	12387.708005
690.652065	12285.927108
690.989150	11990.979279
691.326185	11758.498908
691.663170	11556.081458
692.000105	11323.691827
692.336990	11205.454084
692.673825	10938.431727
693.010610	10832.890130
693.347345	10626.419592
693.684030	10439.733062
694.020665	10374.913906
694.357251	10177.885449
694.693786	10097.126164
695.030272	9949.685017
695.366707	9835.840640
695.703093	9777.678327
696.039429	9766.484445
696.375716	9662.578703
696.711952	9546.092761
697.048139	9594.195451
697.384276	9546.506135
697.720363	9573.670393
698.056400	9502.108693
698.392388	9438.340618
698.728326	9416.494778
699.064214	9352.114202
699.400053	9391.377228
699.735842	9205.252787
700.071581	9175.668776
700.407270	9094.478473
700.742910	9017.668932
701.078501	8914.905011
701.414042	8785.130587
701.749533	8741.610306
702.084974	8592.228315
702.420366	8717.422850
702.755709	8584.129701
703.091002	8454.156152
703.426246	8481.075914
703.761440	8436.086136
704.096584	8396.132472
704.431679	8329.979930
704.766725	8319.632962
705.101721	8274.260057
705.436668	8318.967530
705.771565	8208.982156
706.106413	8301.245353
706.441212	8327.729055
706.775961	8295.420300
707.110661	8346.328392
707.445311	8465.992782
707.779913	8367.604582
708.114465	8486.855597
708.448967	8528.936628
708.783421	8695.357720
709.117825	8863.351651
709.452180	8900.542764
709.786485	8976.384403
710.120742	9266.059185
710.454949	9275.592007
710.789107	9383.969253
711.123216	9610.995096
711.457275	9787.385069
711.791286	9912.992979
712.125247	9930.924363
712.459159	9923.655019
712.793023	10134.113110
713.126837	9715.798164
713.460602	9886.751252
713.794318	9707.094612
714.127985	9734.188293
714.461602	9383.518070
714.795171	9348.517338
715.128691	9092.038554
715.462162	8854.005352
715.795584	8786.811812
716.128957	8622.961709
716.462281	8455.378632
716.795556	8503.783791
717.128782	8289.665823
717.461960	8040.872278
717.795088	8106.127494
718.128167	8009.080241
718.461198	7848.612752
718.794180	7803.650701
719.127113	7798.317160
719.459997	7612.986701
719.792833	7399.050214
720.125619	7472.124260
720.458357	7326.596230
720.791046	7322.177659
721.123686	7309.766338
721.456278	7140.693600
721.788821	7158.383009
722.121315	7062.878349
722.453761	7142.999928
722.786158	7068.786582
723.118506	7082.448108
723.450805	7043.880761
723.783056	7101.249092
724.115259	7022.284458
724.447412	7021.888727
724.779518	7078.558858
725.111574	7080.436688
725.443582	7151.607698
725.775542	7123.861187
726.107453	7319.682288
726.439315	7231.109215
726.771129	7312.685166
727.102895	7490.053123
727.434612	7591.438289
727.766281	7637.234651
728.097901	7700.191101
728.429473	7723.166159
728.760996	7714.296249
729.092471	7683.290633
729.423897	7619.091538
729.755276	7604.189888
730.086606	7524.532095
730.417887	7630.910523
730.749120	7856.512240
731.080305	8036.247019
731.411442	8143.709296
731.742530	8121.482848
732.073570	8229.214827
732.404562	8316.026016
732.735506	8190.171090
733.066401	8312.028381
733.397249	8224.705514
733.728048	7983.249369
734.058798	7644.609859
734.389501	7409.699652
734.720156	7246.716627
735.050762	7027.393667
735.381320	6941.711696
735.711831	6879.715586
736.042293	6773.740450
736.372707	6785.204034
736.703073	6660.695095
737.033391	6702.942485
737.363661	6709.959771
737.693883	6746.740030
738.024056	6826.758265
738.354182	6858.270518
738.684260	6894.188739
739.014290	7023.766557
739.344272	7130.346632
739.674207	7156.366547
740.004093	7238.539876
740.333931	7250.200064
740.663722	7254.507730
740.993464	7331.483629
741.323159	7303.331305
741.652806	7058.152267
741.982405	7110.310566
742.311956	7139.198898
742.641460	6951.481452
742.970915	6761.810559
743.300323	6750.097438
743.629683	6713.889351
743.958996	6574.866931
744.288260	6479.939483
744.617477	6429.795126
744.946647	6420.839516
745.275768	6265.695486
745.604842	6221.650925
745.933869	6200.588984
746.262847	6161.701523
746.591778	6145.640407
746.920662	6104.002997
747.249498	6109.339058
747.578286	6155.304299
747.907027	6229.736935
748.235720	6288.138703
748.564365	6263.076606
748.892963	6312.484955
749.221514	6439.653102
749.550017	6243.471559
749.878473	6148.528988
750.206881	6208.654830
750.535242	6156.635163
750.863555	6090.422128
751.191821	6095.271718
751.520039	6083.177990
751.848210	5998.756307
752.176334	6033.222676
752.504411	6071.832873
752.832440	5996.134907
753.160421	5926.937509
753.488356	5977.941383
753.816243	5996.901163
754.144082	5857.112487
754.471875	5831.420247
754.799620	5869.622110
755.127318	5885.726076
755.454969	5846.488255
755.782572	5810.764119
756.110129	5853.482856
756.437638	5829.189536
756.765100	5771.092758
757.092515	5782.800838
757.419882	5840.562379
757.747203	5807.467204
758.074477	5865.793354
758.401703	5842.674623
758.728882	5807.719262
759.056014	5886.557867
759.383099	5993.158106
759.710138	6002.615311
760.037129	5991.950750
760.364073	5996.777654
760.690970	6072.589047
761.017820	6053.145316
761.344623	6021.002919
761.671379	6129.206245
761.998088	6256.742397
762.324751	6526.126535
762.651366	7176.631986
762.977935	8561.192451
763.304456	10220.425225
763.630931	11056.215766
763.957359	10580.114073
764.283740	9606.856308
764.610074	8725.879386
764.936362	7730.082623
765.262602	7146.067470
765.588796	6616.383353
765.914943	6296.123890
766.241044	6114.773422
766.567097	5898.850720
766.893104	5648.103728
767.219064	5472.215350
767.544978	5409.878962
767.870845	5325.104398
768.196665	5217.644642
768.522438	5151.124097
768.848165	5113.711173
769.173846	5042.525040
769.499479	4998.782948
769.825066	4951.537254
770.150607	4890.289756
770.476101	4872.098752
770.801548	4856.806412
771.126949	4769.859111
771.452303	4718.454465
771.777611	4686.244012
772.102872	4709.324935
772.428087	4670.573586
772.753256	4623.927789
773.078378	4572.717228
773.403453	4506.761292
773.728482	4495.000280
774.053465	4448.188125
774.378401	4437.684881
774.703291	4427.453859
775.028135	4350.311603
775.352932	4308.505314
775.677683	4294.072490
776.002388	4310.592351
776.327046	4316.800532
776.651658	4244.800253
776.976224	4184.651725
777.300743	4189.967622
777.625216	4213.058627
777.949643	4197.408365
778.274024	4160.184485
778.598359	4126.799444
778.922647	4154.102333
779.246889	4136.533912
779.571086	4128.664671
779.895236	4109.374696
780.219339	4105.689612
780.543397	4103.257255
780.867409	4154.500584
781.191374	4164.474507
781.515294	4093.933641
781.839167	4091.314762
782.162995	4120.888691
782.486776	4104.593161
782.810511	4116.598669
783.134201	4100.081328
783.457844	4051.129204
783.781441	4002.262779
784.104993	4009.534644
784.428498	4028.423847
784.751958	4019.037219
785.075372	3999.659023
785.398739	3963.844146
785.722061	3976.961228
786.045337	4023.947302
786.368568	4046.894635
786.691752	3960.713589
787.014891	4021.285573
787.337983	4159.070390
787.661030	4321.055266
787.984031	4477.918330
788.306987	4640.225840
788.629897	4730.313779
788.952760	4685.772665
789.275579	4617.076861
789.598351	4541.089029
789.921078	4390.262747
790.243759	4191.611038
790.566395	4188.203218
790.888984	4177.339532
791.211529	4066.595464
791.534027	4006.310826
791.856480	3992.500585
792.178888	3931.419444
792.501249	3893.411665
792.823566	3899.612284
793.145836	3921.226231
793.468062	3866.688508
793.790241	3828.569823
794.112375	3859.315821
794.434464	3931.953807
794.756507	3948.937454
795.078505	3920.283535
795.400457	3967.899754
795.722364	4112.187659
796.044226	4220.280080
796.366042	4292.083755
796.687812	4256.583950
797.009538	4260.619393
797.331218	4227.554465
797.652852	4203.722410
797.974442	4178.451106
798.295986	4174.690405
798.617484	4085.328392
798.938938	4011.286445
799.260346	4053.922003
799.581709	4038.985064
799.903026	3961.686532
800.224299	3930.073456
800.545526	3924.366870
800.866708	3885.401271
801.187845	3830.818178
801.508936	3861.022251
801.829983	3848.910879
802.150984	3774.175773
802.471940	3769.459774
802.792851	3773.744755
803.113717	3780.106691
803.434538	3773.951442
803.755314	3715.106053
804.076045	3699.274310
804.396731	3720.358936
804.717372	3742.114035
805.037967	3728.238259
805.358518	3716.794840
805.679024	3747.404726
805.999485	3762.394597
806.319901	3762.467694
806.640272	3774.916823
806.960598	3786.415695
807.280879	3762.613887
807.601115	3780.746918
807.921306	3798.562355
808.241453	3836.338242
808.561554	3798.481697
808.881611	3737.176225
809.201623	3783.839665
809.521590	3790.680511
809.841513	3764.489196
810.161390	3793.864000
810.481223	3765.535236
810.801011	3715.108574
811.120755	3715.786609
811.440453	3746.000765
811.760107	3741.204107
812.079716	3697.406562
812.399281	3672.485618
812.718801	3698.001418
813.038276	3672.760361
813.357707	3664.429854
813.677093	3680.438038
813.996434	3625.532311
814.315731	3640.675937
814.634983	3645.719612
814.954191	3662.486489
815.273354	3687.677135
815.592473	3675.752286
815.911547	3693.870193
816.230577	3744.090167
816.549562	3792.951551
816.868502	3829.507478
817.187399	3850.385417
817.506250	3848.830221
817.825058	3830.886234
818.143821	3928.414917
818.462539	4027.881923
818.781213	4071.203079
819.099843	4136.498624
819.418429	4409.320829
819.736970	4651.215555
820.055466	4901.902053
820.373919	5277.689826
820.692327	5691.089647
821.010691	6202.678542
821.329011	7717.008390
821.647286	10649.397171
821.965517	15432.759012
822.283704	19393.865811
822.601847	21289.874020
822.919945	19332.393981
823.237999	16679.890062
823.556010	14163.537626
823.873976	11985.887714
824.191897	9881.999965
824.509775	8567.917351
824.827609	7444.299611
825.145398	6932.975376
825.463144	6809.293187
825.780845	6915.837974
826.098502	7160.016343
826.416116	8133.982389
826.733685	9502.764043
827.051210	10583.287479
827.368692	10489.401030
827.686129	9137.655955
828.003522	7641.822101
828.320872	6624.141689
828.638177	5906.236011
828.955439	5332.169575
829.272656	4832.986960
829.589830	4570.771342
829.906960	4394.393972
830.224046	4198.681257
830.541088	4079.800767
830.858086	4027.032489
831.175041	3949.310499
831.491952	3943.437555
831.808819	3954.162610
832.125642	4036.628325
832.442421	4194.252603
832.759157	4495.088500
833.075849	5088.437349
833.392497	5985.326673
833.709101	6776.533249
834.025662	7068.010244
834.342179	6622.377285
834.658653	5950.000788
834.975083	5287.104181
835.291469	4704.152712
835.607811	4314.768947
835.924110	4166.233870
836.240366	3963.952531
836.556578	3760.708331
836.872746	3652.406702
837.188871	3602.416100
837.504952	3542.638098
837.820990	3457.366981
838.136984	3416.435332
838.452935	3440.587500
838.768842	3435.218671
839.084706	3462.486272
839.400526	3636.171666
839.716303	4003.568438
840.032037	4564.490065
840.347727	4780.780771
840.663373	4458.341009
840.978977	4069.494127
841.294537	3761.477107
841.610054	3536.666851
841.925527	3431.566355
842.240957	3362.046323
842.556344	3307.367448
842.871687	3246.573653
843.186987	3196.845191
843.502244	3160.649706
843.817458	3127.141157
844.132629	3102.084102
844.447756	3106.142230
844.762840	3082.839497
845.077881	3052.285063
845.392879	3038.613454
845.707833	3035.245963
846.022745	3033.025335
846.337613	3032.765716
846.652438	3018.078314
846.967221	3016.160155
847.281960	3002.964935
847.596656	2999.491580
847.911309	3002.133144
848.225919	2996.353461
848.540485	2990.165445
848.855009	2989.051350
849.169490	2977.401243
849.483928	2968.445634
849.798323	2970.885552
850.112675	2965.995633
850.426984	2982.497850
850.741251	2973.522076
851.055474	2962.441619
851.369654	2959.114458
851.683792	2966.482104
851.997887	2973.496870
852.311938	2977.106336
852.625947	2961.960189
852.939914	2968.722897
853.253837	2971.629122
853.567718	2957.612194
853.881555	2959.910960
854.195350	2971.036787
854.509103	2965.710808
854.822812	2958.862400
855.136479	2952.944086
855.450103	2957.040023
855.763685	2952.296297
856.077224	2949.586677
856.390720	2962.945735
856.704173	2970.729276
857.017584	2961.811475
857.330953	2963.127216
857.644278	2968.659883
857.957561	2980.007520
858.270802	2983.332161
858.584000	2978.689258
858.897155	2967.636528
859.210268	2964.435396
859.523339	2959.802575
859.836367	2963.830457
860.149352	2957.319807
860.462295	2952.596246
860.775195	2962.358440
861.088054	2958.801906
861.400869	2942.166099
861.713642	2944.356480
862.026373	2957.236628
862.339062	2959.767287
862.651708	2963.984213
862.964312	2966.693833
863.276873	2958.796865
863.589392	2973.204483
863.901869	2984.458859
864.214303	3010.551871
864.526696	3018.252234
864.839045	3015.671163
865.151353	3017.584281
865.463619	3014.869619
865.775842	3020.437574
866.088023	3042.081768
866.400162	3042.984134
866.712258	3009.977180
867.024313	3002.362517
867.336325	3012.964063
867.648296	3036.604554
867.960224	3029.557021
868.272110	3013.485823
868.583954	3015.260309
868.895755	3030.633308
869.207515	3015.172089
869.519233	3025.874458
869.830909	3034.290665
870.142542	3040.292158
870.454134	3041.378527
870.765684	3048.592418
871.077191	3047.954712
871.388657	3056.053326
871.700081	3070.574369
872.011463	3076.636357
872.322803	3079.676173
872.634101	3076.724577
872.945357	3096.984974
873.256571	3123.932462
873.567744	3115.649847
873.878874	3112.317644
874.189963	3133.767753
874.501010	3135.602733
874.812015	3121.212760
875.122979	3120.754015
875.433900	3120.927935
875.744780	3128.729120
876.055618	3135.640542
876.366415	3130.241466
876.677169	3142.672952
876.987882	3138.955101
877.298554	3136.442086
877.609183	3163.818072
877.919771	3186.533511
878.230317	3214.895042
878.540822	3264.341200
878.851285	3300.934936
879.161707	3355.039119
879.472087	3470.234526
879.782425	3721.357084
880.092722	4187.111808
880.402977	4732.642792
880.713191	5403.847221
881.023363	6632.973790
881.333494	7950.091179
881.643583	8456.633879
881.953631	8104.675641
882.263637	7410.733088
882.573602	6784.783097
882.883526	6202.050918
883.193408	5635.654599
883.503248	5189.449469
883.813048	4869.177403
884.122806	4535.042165
884.432522	4209.355900
884.742197	3973.069457
885.051831	3783.842186
885.361424	3657.687311
885.670975	3581.853234
885.980485	3488.075169
886.289954	3408.679517
886.599382	3361.416179
886.908768	3329.183041
887.218113	3281.360135
887.527417	3221.171279
887.836680	3172.559432
888.145901	3168.050120
888.455082	3156.720127
888.764221	3100.312136
889.073319	3073.299113
889.382376	3070.912127
889.691392	3074.083013
890.000366	3073.851119
890.309300	3061.759912
890.618193	3075.872622
890.927044	3088.909046
891.235855	3087.255547
891.544625	3077.974783
891.853353	3091.454829
892.162041	3110.003754
892.470687	3152.004128
892.779293	3202.571942
893.087858	3249.139600
893.396381	3329.992146
893.704864	3463.534832
894.013306	3718.637382
894.321707	4033.331410
894.630068	4221.744535
894.938387	4211.652145
895.246665	4167.360568
895.554903	4034.770660
895.863100	3829.242818
896.171256	3660.424658
896.479371	3509.323633
896.787446	3383.589694
897.095480	3282.605300
897.403473	3218.973336
897.711425	3186.034437
898.019336	3174.240657
898.327207	3141.072385
898.635038	3105.375975
898.942827	3092.115220
899.250576	3081.218766
899.558284	3048.461348
899.865952	3028.059798
900.173579	3006.821417
900.481165	2998.284223
900.788711	2982.845690
901.096216	2961.110755
901.403681	2953.692697
901.711105	2958.295270
902.018489	2952.684466
902.325832	2955.792338
902.633135	2967.906230
902.940397	3005.014164
903.247619	3096.727876
903.554800	3307.541368
903.861941	3685.436342
904.169041	4134.330928
904.476101	4421.185184
904.783121	4339.405066
905.090100	4071.140064
905.397039	3786.995428
905.703938	3531.872714
906.010796	3349.695496
906.317614	3233.900192
906.624391	3137.541057
906.931129	3066.054975
907.237826	3002.932167
907.544483	2955.643623
907.851099	2924.627924
908.157675	2905.128741
908.464211	2881.770555
908.770707	2868.852598
909.077163	2856.799199
909.383578	2839.477795
909.689954	2827.242914
909.996289	2829.589572
910.302584	2830.091166
910.608839	2829.390446
910.915054	2822.897440
911.221229	2815.824701
911.527363	2820.228149
911.833458	2827.472287
912.139513	2834.633246
912.445527	2832.906651
912.751502	2844.960050
913.057436	2856.469004
913.363331	2868.862681
913.669186	2889.765825
913.975000	2933.444903
914.280775	2996.449243
914.586510	3063.587330
914.892205	3147.812408
915.197859	3287.916156
915.503475	3502.790297
915.809050	3729.198599
916.114585	3873.725959
916.420081	3872.201010
916.725536	3807.424704
917.030952	3682.986342
917.336328	3548.952143
917.641665	3415.258222
917.946961	3309.073878
918.252218	3237.814648
918.557435	3156.369767
918.862612	3096.927001
919.167750	3044.625030
919.472848	3005.253618
919.777906	2975.382261
920.082925	2952.792851
920.387904	2919.760690
920.692843	2901.967938
920.997743	2891.268089
921.302603	2872.956098
921.607423	2865.550643
921.912204	2850.638909
922.216946	2840.082733
922.521647	2829.382884
922.826310	2822.957934
923.130932	2815.469300
923.435516	2805.308854
923.740059	2797.691671
924.044564	2787.929476
924.349028	2782.142232
924.653454	2779.036881
924.957840	2771.361724
925.262186	2767.321239
925.566493	2761.977616
925.870761	2756.374374
926.174989	2753.561410
926.479178	2748.152252
926.783328	2742.778382
927.087438	2744.147055
927.391509	2742.448186
927.695541	2738.710171
927.999533	2730.498131
928.303486	2731.841598
928.607400	2731.728172
928.911275	2731.725652
929.215110	2729.142061
929.518906	2728.912688
929.822663	2726.581154
930.126381	2725.462018
930.430060	2728.448902
930.733699	2730.016701
931.037299	2729.963769
931.340861	2732.413769
931.644383	2734.147926
931.947866	2730.868656
932.251309	2729.603326
932.554714	2728.096021
932.858080	2728.164077
933.161407	2725.456977
933.464694	2722.510423
933.767943	2721.464383
934.071153	2720.869527
934.374323	2722.480176
934.677455	2722.155021
934.980548	2720.735937
935.283602	2722.097048
935.586617	2719.780638
935.889593	2722.119733
936.192530	2719.256358
936.495428	2720.274671
936.798287	2724.274827
937.101108	2725.519992
937.403890	2731.087946
937.706632	2735.738410
938.009336	2743.156468
938.312002	2750.950092
938.614628	2759.257914
938.917216	2766.678492
939.219765	2765.972731
939.522275	2763.769746
939.824747	2764.223450
940.127179	2759.628438
940.429573	2759.028541
940.731929	2753.947058
941.034246	2753.442943
941.336524	2749.626789
941.638763	2747.512025
941.940964	2743.703433
942.243126	2743.824421
942.545250	2737.550705
942.847335	2738.034656
943.149381	2735.158678
943.451389	2729.782287
943.753359	2729.232801
944.055290	2728.514437
944.357182	2725.283057
944.659036	2724.287429
944.960851	2722.248283
945.262628	2720.970350
945.564367	2721.250134
945.866067	2722.969168
946.167729	2725.046123
946.469352	2724.259703
946.770937	2724.075701
947.072484	2722.023951
947.373992	2721.514795
947.675462	2718.371635
947.976893	2714.404247
948.278286	2712.102961
948.579641	2714.898280
948.880958	2712.609597
949.182236	2714.515153
949.483476	2712.738146
949.784678	2712.609597
950.085841	2712.896942
950.386967	2712.896942
950.688054	2715.699824
950.989103	2715.077241
951.290114	2714.167313
951.591087	2718.492623
951.892021	2723.228787
952.192917	2724.090824
952.493776	2726.750033
952.794596	2727.327245
953.095378	2725.232646
953.396122	2724.983109
953.696828	2725.401524
953.997496	2722.548231
954.298126	2719.553786
954.598718	2719.861296
954.899272	2714.247972
955.199788	2712.029864
955.500266	2707.467620
955.800706	2707.470140
956.101108	2705.362938
956.401472	2702.683565
956.701798	2700.757844
957.002087	2700.750282
957.302337	2699.850436
957.602550	2697.448326
957.902724	2696.951773
958.202861	2692.828109
958.502960	2695.278110
958.803022	2692.664271
959.103045	2692.243335
959.403031	2688.946420
959.702979	2689.619414
960.002889	2689.911801
960.302762	2689.435412
960.602596	2686.952644
960.902393	2688.618745
961.202153	2687.645803
961.501875	2687.154290
961.801559	2686.897191
962.101205	2687.809640
962.400814	2690.723427
962.700385	2687.955834
962.999918	2684.585822
963.299414	2684.139680
963.598873	2684.495082
963.898293	2681.566171
964.197677	2684.870647
964.497022	2684.910977
964.796331	2684.570699
965.095601	2686.458611
965.394835	2683.257478
965.694030	2686.017510
965.993189	2684.409382
966.292309	2683.728826
966.591393	2683.973322
966.890439	2685.316790
967.189447	2684.812674
967.488419	2683.817046
967.787353	2685.583971
968.086249	2681.248578
968.385108	2685.677232
968.683930	2684.588343
968.982714	2684.086748
969.281462	2682.786130
969.580172	2686.125895
969.878844	2686.677901
970.177480	2686.519105
970.476078	2684.994156
970.774639	2684.222859
971.073162	2686.085566
971.371649	2686.738395
971.670098	2687.076152
971.968510	2683.113805
972.266885	2684.046419
972.565223	2687.103879
972.863524	2684.679084
973.161788	2686.282171
973.460014	2683.159176
973.758204	2682.982735
974.056356	2683.436439
974.354471	2684.253106
974.652550	2685.926769
974.950591	2683.300328
975.248595	2684.669001
975.546563	2683.658250
975.844493	2683.146573
976.142386	2683.769155
976.440243	2685.084897
976.738062	2685.631862
977.035845	2682.627334
977.333590	2684.157324
977.631299	2683.557427
977.928971	2681.314113
978.226606	2681.157838
978.524204	2680.010975
978.821765	2678.233968
979.119290	2682.622293
979.416777	2682.284536
979.714228	2681.568692
980.011642	2682.319824
980.309020	2682.350071
980.606360	2681.835873
980.903664	2683.794361
981.200931	2681.001562
981.498162	2683.481810
981.795356	2682.450894
982.092513	2688.850638
982.389633	2688.848118
982.686717	2690.975485
982.983764	2694.441278
983.280775	2701.297247
983.577749	2702.539892
983.874686	2698.811958
984.171587	2695.769622
984.468451	2695.144519
984.765279	2692.661751
985.062070	2690.506657
985.358824	2686.773683
985.655543	2685.752849
985.952224	2687.101358
986.248869	2683.817046
986.545478	2682.377797
986.842050	2683.466686
987.138586	2683.925431
987.435086	2682.158507
987.731549	2682.894515
988.027975	2681.104906
988.324366	2678.700275
988.620719	2677.946623
988.917037	2680.484844
989.213318	2678.294462
989.509563	2679.423681
989.805772	2680.741942
990.101944	2679.690862
990.398080	2677.694565
990.694180	2679.400996
990.990244	2679.050635
991.286271	2681.001562
991.582262	2678.496108
991.878217	2678.095337
992.174136	2682.067766
992.470019	2677.268587
992.765865	2676.900583
993.061676	2674.138031
993.357450	2675.995696
993.653188	2676.920748
993.948890	2681.341840
994.244556	2681.362004
994.540186	2679.290090
994.835780	2680.729340
995.131337	2680.283197
995.426859	2681.929134
995.722345	2681.730009
996.017795	2680.588187
996.313208	2684.071625
996.608586	2683.139011
996.903928	2682.428208
997.199234	2681.636747
997.494504	2685.155473
997.789738	2681.838393
998.084936	2683.474248
998.380099	2680.257992
998.675225	2680.948630
998.970316	2679.900070
999.265371	2680.290759
999.560390	2681.092303
999.855373	2678.503670
1000.150320	2677.432425
1000.445232	2680.568023
1000.740108	2677.923937
1001.034948	2677.941582
1001.329752	2680.525173
1001.624521	2676.106602
1001.919254	2678.755728
1002.213951	2679.683300
1002.508613	2679.285049
1002.803239	2678.193639
1003.097829	2678.856551
1003.392384	2679.348063
1003.686903	2677.230779
1003.981386	2677.840758
1004.275834	2676.207425
1004.570246	2678.322189
1004.864623	2676.063752
1005.158964	2674.284224
1005.453270	2674.493432
1005.747540	2677.737415
1006.041775	2678.670028
1006.335974	2677.865964
1006.630138	2676.479647
1006.924266	2675.400840
1007.218359	2676.278001
1007.512416	2675.133659
1007.806438	2673.160047
1008.100425	2673.800274
1008.394376	2670.321877
1008.688292	2676.656087
1008.982172	2676.890501
1009.276017	2676.532579
1009.569827	2676.630882
1009.863602	2678.155831
1010.157341	2675.395799
1010.451045	2674.949657
1010.744714	2677.361849
1011.038347	2678.881757
1011.331945	2676.109122
1011.625508	2676.794719
1011.919036	2675.715912
1012.212528	2677.997034
1012.505986	2675.738597
1012.799408	2676.000737
1013.092795	2675.917558
1013.386147	2676.174657
1013.679464	2676.676252
1013.972745	2677.261026
1014.265992	2678.095337
1014.559204	2675.272291
1014.852380	2675.705830
1015.145521	2674.576611
1015.438628	2676.484688
1015.731699	2676.197342
1016.024736	2676.030984
1016.317737	2672.885304
1016.610703	2677.177847
1016.903635	2676.305727
1017.196531	2674.868998
1017.489393	2673.013854
1017.782219	2676.333453
1018.075011	2676.734225
1018.367768	2675.733556
1018.660490	2672.918072
1018.953177	2672.918072
1019.245829	2672.918072
