Dividing Wavelength (nm)	Counts (n)	Blue Motor Position (mm): 4.700000	Red Motor Position (mm): 0.000000	
326.493990	2159.862201
326.888308	2159.862201
327.282561	2159.862201
327.676750	2118.277723
328.070874	2116.104985
328.464933	2115.328648
328.858929	2119.164966
329.252859	2124.264093
329.646726	2130.936060
330.040528	2145.157155
330.434265	2156.436737
330.827938	2175.262926
331.221547	2192.775894
331.615091	2209.681404
332.008571	2227.557335
332.401986	2247.691704
332.795338	2268.186515
333.188625	2284.449277
333.581847	2302.799077
333.975006	2321.703404
334.368100	2339.302072
334.761129	2358.155987
335.154095	2373.637371
335.546996	2388.171017
335.939833	2406.198183
336.332606	2422.334917
336.725315	2433.223809
337.117960	2449.100923
337.510540	2460.093159
337.903056	2468.398460
338.295508	2480.403968
338.687896	2489.306646
339.080220	2497.488438
339.472480	2502.963132
339.864676	2507.132166
340.256807	2512.904287
340.648875	2515.956706
341.040879	2518.648682
341.432818	2521.759074
341.824694	2525.484486
342.216506	2525.832326
342.608253	2526.117151
342.999937	2524.967768
343.391557	2526.596061
343.783113	2527.881555
344.174605	2523.808303
344.566033	2527.266534
344.957397	2522.860566
345.348697	2522.709331
345.739934	2522.006090
346.131106	2519.220853
346.522215	2516.092817
346.913260	2513.582322
347.304241	2512.420336
347.695159	2509.282218
348.086012	2511.190295
348.476802	2508.316837
348.867528	2503.749552
349.258191	2502.088491
349.648789	2500.893738
350.039324	2498.468943
350.429796	2499.923316
350.820203	2499.711587
351.210548	2496.765033
351.600828	2496.502893
351.991045	2494.824189
352.381198	2492.502737
352.771288	2494.483911
353.161314	2493.999960
353.551276	2493.561380
353.941175	2491.388642
354.331010	2491.562562
354.720782	2488.863024
355.110490	2489.571306
355.500135	2490.541728
355.889717	2490.052737
356.279235	2493.117758
356.668689	2490.584578
357.058080	2491.731441
357.447408	2488.653816
357.836672	2493.256390
358.225873	2495.605568
358.615010	2493.921822
359.004084	2494.103304
359.393095	2493.649600
359.782043	2495.976092
360.170927	2494.163798
360.559748	2495.751761
360.948505	2495.207316
361.337199	2499.835096
361.725830	2495.338386
362.114398	2498.516834
362.502903	2499.867863
362.891344	2499.930878
363.279722	2498.678151
363.668037	2499.698984
364.056289	2500.475322
364.444478	2502.247288
364.832603	2498.494149
365.220665	2499.986330
365.608665	2502.025477
365.996601	2501.614623
366.384474	2504.843482
366.772284	2501.624705
367.160031	2499.908192
367.547715	2503.825169
367.935336	2504.500683
368.322893	2500.702174
368.710388	2503.623523
369.097820	2502.514469
369.485189	2500.490446
369.872495	2505.781137
370.259738	2507.112001
370.646918	2508.016888
371.034035	2506.383554
371.421090	2506.718791
371.808081	2506.386075
372.195010	2507.154851
372.581875	2508.276508
372.968678	2506.360869
373.355418	2507.772392
373.742096	2509.032681
374.128710	2506.965808
374.515262	2508.261384
374.901751	2509.045284
375.288177	2510.401354
375.674540	2505.017402
376.060841	2510.479492
376.447079	2508.742814
376.833254	2509.715757
377.219367	2510.207270
377.605417	2510.429080
377.991404	2510.292969
378.377329	2510.797085
378.763191	2510.287928
379.148991	2508.735253
379.534727	2509.322547
379.920402	2512.566530
380.306013	2513.814215
380.691563	2511.054183
381.077049	2513.514267
381.462474	2514.003258
381.847835	2512.654750
382.233134	2511.427229
382.618371	2515.001407
383.003545	2512.667353
383.388657	2512.115346
383.773706	2512.972342
384.158693	2513.733557
384.543618	2513.415964
384.928480	2513.201715
385.313280	2512.369925
385.698017	2514.330933
386.082692	2514.635923
386.467305	2516.158352
386.851856	2514.744308
387.236344	2514.719102
387.620770	2514.315810
388.005133	2510.804646
388.389435	2512.158196
388.773674	2510.723988
389.157851	2517.156500
389.541965	2514.451921
389.926018	2519.556089
390.310008	2517.912673
390.693936	2519.442663
391.077802	2516.725482
391.461606	2519.445184
391.845348	2516.188599
392.229027	2518.754546
392.612645	2517.206912
392.996200	2519.125071
393.379694	2517.579957
393.763125	2517.111130
394.146494	2518.447036
394.529801	2522.520288
394.913047	2518.643641
395.296230	2519.019207
395.679351	2520.957530
396.062410	2518.663805
396.445408	2517.821933
396.828343	2518.671367
397.211217	2520.140863
397.594028	2522.059022
397.976778	2521.701100
398.359466	2523.163035
398.742092	2518.444515
399.124656	2521.640607
399.507158	2520.690349
399.889598	2520.057684
400.271977	2522.232942
400.654294	2521.259999
401.036549	2521.272602
401.418742	2520.559279
401.800874	2522.921060
402.182944	2523.863755
402.564952	2521.355781
402.946898	2523.168076
403.328783	2521.403672
403.710606	2524.163704
404.092367	2522.033817
404.474067	2523.203364
404.855705	2523.881399
405.237282	2523.412572
405.618797	2525.739065
406.000250	2525.479445
406.381642	2524.942562
406.762972	2521.300329
407.144240	2520.138343
407.525447	2521.544825
407.906593	2521.325534
408.287677	2523.773015
408.668700	2525.434075
409.049661	2526.555732
409.430560	2526.268386
409.811399	2524.942562
410.192176	2527.873993
410.572891	2527.760567
410.953545	2527.412728
411.334138	2528.068078
411.714669	2525.386184
412.095139	2527.901720
412.475547	2524.579599
412.855894	2529.167049
413.236180	2527.080012
413.616405	2526.003725
413.996568	2527.266534
414.376670	2526.238139
414.756711	2526.225536
415.136691	2531.170908
415.516609	2528.110928
415.896466	2529.751823
416.276262	2527.705115
416.655997	2529.998840
417.035670	2527.364837
417.415283	2530.132430
417.794834	2528.199148
418.174324	2532.002698
418.553753	2528.146216
418.933121	2529.771988
419.312428	2528.047913
419.691674	2528.700742
420.070859	2529.802235
420.449983	2529.595547
420.829045	2531.032276
421.208047	2527.488345
421.586988	2531.980013
421.965867	2529.063706
422.344686	2531.349869
422.723444	2526.464991
423.102141	2529.086391
423.480777	2531.589324
423.859352	2530.147554
424.237866	2530.858356
424.616319	2529.698891
424.994712	2530.697039
425.373044	2528.327697
425.751314	2529.870290
426.129524	2528.773839
426.507673	2528.904909
426.885762	2531.944725
427.263789	2531.032276
427.641756	2533.797349
428.019662	2531.274252
428.397508	2535.019829
428.775292	2531.314581
429.153016	2530.752492
429.530679	2532.605116
429.908282	2531.647297
430.285824	2532.093439
430.663305	2532.776515
431.040726	2530.563449
431.418086	2534.906403
431.795385	2533.409180
432.172624	2535.223996
432.549802	2533.973789
432.926920	2533.452030
433.303977	2534.641742
433.680974	2533.865405
434.057910	2534.641742
434.434786	2534.835827
434.811601	2536.010416
435.188355	2532.723583
435.565050	2532.186700
435.941683	2531.922040
436.318257	2533.356248
436.694770	2533.119314
437.071222	2533.636032
437.447614	2533.121834
437.823946	2535.660055
438.200218	2534.273738
438.576429	2534.772812
438.952580	2536.774150
439.328670	2533.935981
439.704700	2534.601413
440.080670	2534.372041
440.456580	2536.847247
440.832429	2536.622916
441.208218	2532.824406
441.583947	2536.005374
441.959616	2536.413708
442.335224	2536.239788
442.710773	2536.751465
443.086261	2537.043852
443.461689	2536.227185
443.837057	2535.561753
444.212365	2536.663245
444.587612	2533.888090
444.962800	2532.816845
445.337927	2535.171063
445.712995	2532.501772
446.088002	2536.471681
446.462949	2538.364634
446.837837	2537.754655
447.212664	2536.234747
447.587431	2538.936805
447.962139	2535.453368
448.336786	2539.186342
448.711374	2538.410005
449.085901	2539.985365
449.460369	2534.389685
449.834776	2536.804397
450.209124	2538.722556
450.583412	2537.104346
450.957640	2537.958822
451.331808	2537.283307
451.705917	2536.464119
452.079965	2537.338760
452.453954	2540.728936
452.827883	2539.824048
453.201752	2540.123997
453.575562	2538.997299
453.949311	2537.575694
454.323001	2538.679707
454.696632	2538.127700
455.070202	2539.824048
455.443713	2538.805735
455.817164	2539.236754
456.190556	2539.624923
456.563888	2541.041487
456.937160	2537.764737
457.310373	2538.538554
457.683526	2539.382948
458.056619	2540.043339
458.429653	2537.915972
458.802628	2541.681714
459.175542	2537.308513
459.548398	2542.427804
459.921194	2540.055942
460.293930	2537.863040
460.666607	2540.749100
461.039224	2540.285314
461.411782	2540.643236
461.784280	2539.927392
462.156719	2538.150385
462.529099	2544.751776
462.901419	2543.143648
463.273680	2539.748431
463.645882	2537.222813
464.018024	2537.363965
464.390106	2533.913296
464.762130	2541.621220
465.134094	2540.842362
465.505999	2542.931920
465.877845	2541.366642
466.249631	2539.859337
466.621358	2540.582742
466.993026	2541.533000
467.364634	2544.202291
467.736184	2539.516538
468.107674	2541.197763
468.479105	2538.467978
468.850477	2541.427135
469.221790	2540.945705
469.593043	2542.211035
469.964238	2541.669111
470.335373	2542.896632
470.706449	2543.110881
471.077467	2543.090716
471.448425	2540.958308
471.819324	2541.606096
472.190164	2543.985521
472.560945	2542.140459
472.931667	2542.095088
473.302330	2541.835469
473.672934	2541.270860
474.043479	2541.137269
474.413965	2542.334543
474.784393	2544.547610
475.154761	2544.653474
475.525070	2542.931920
475.895321	2543.758669
476.265513	2542.710109
476.635645	2541.706919
477.005719	2542.400078
477.375734	2544.058618
477.745691	2542.805891
478.115588	2544.441745
478.485427	2545.218083
478.855207	2545.114739
479.224928	2544.729091
479.594591	2544.988711
479.964194	2545.931406
480.333739	2541.298586
480.703226	2543.451159
481.072653	2543.499050
481.442022	2542.170706
481.811333	2541.071734
482.180584	2539.592155
482.549777	2542.480737
482.918912	2539.637526
483.287988	2544.827394
483.657005	2543.637681
484.025964	2546.042312
484.394864	2541.999306
484.763706	2542.924358
485.132489	2543.052907
485.501213	2544.111550
485.869879	2543.680531
486.238487	2545.298742
486.607036	2544.068700
486.975527	2542.531148
487.343959	2544.900490
487.712333	2546.122970
488.080648	2544.648433
488.448905	2544.938299
488.817104	2548.202446
489.185244	2542.392516
489.553326	2544.592980
489.921350	2545.959133
490.289315	2544.507280
490.657222	2544.630789
491.025070	2543.698175
491.392861	2546.818649
491.760593	2544.101468
492.128267	2544.726571
492.495883	2541.840510
492.863440	2544.721529
493.230939	2543.332692
493.598380	2547.063145
493.965763	2543.504091
494.333088	2545.442414
494.700354	2546.238917
495.067563	2546.478372
495.434713	2542.823535
495.801805	2545.865871
496.168839	2544.436704
496.535815	2545.170192
496.902733	2546.460728
497.269593	2547.468958
497.636395	2546.737991
498.003139	2545.787733
498.369825	2544.398896
498.736453	2544.489636
499.103023	2545.805377
499.469535	2545.457538
499.835989	2546.795964
500.202385	2543.650284
500.568723	2541.222969
500.935003	2545.757487
501.301226	2539.695499
501.667390	2545.666746
502.033497	2547.070707
502.399546	2546.480892
502.765537	2543.037784
503.131470	2545.535676
503.497345	2546.193546
503.863163	2547.970553
504.228923	2546.664894
504.594625	2547.257230
504.960269	2546.417878
505.325856	2547.176571
505.691385	2544.356046
506.056856	2547.988197
506.422270	2547.108516
506.787625	2545.339071
507.152924	2544.227496
507.518164	2544.371169
507.883347	2545.417209
508.248472	2548.129349
508.613540	2546.972405
508.978550	2547.935265
509.343503	2547.368135
509.708398	2545.941489
510.073236	2548.149514
510.438016	2545.984338
510.802738	2547.877292
511.167403	2547.161448
511.532010	2544.698844
511.896561	2546.611962
512.261053	2545.485264
512.625488	2550.339895
512.989866	2545.465100
513.354186	2547.075748
513.718449	2548.164638
514.082655	2546.869061
514.446803	2546.299411
514.810894	2549.417364
515.174927	2550.954916
515.538904	2548.691438
515.902822	2547.095913
516.266684	2547.027857
516.630488	2547.103475
516.994235	2543.950233
517.357925	2546.826211
517.721558	2548.149514
518.085133	2547.378218
518.448651	2547.080789
518.812112	2544.431663
519.175516	2543.952753
519.538863	2542.939482
519.902152	2546.064997
520.265385	2546.864020
520.628560	2549.583722
520.991678	2547.040460
521.354739	2547.191695
521.717743	2545.185316
522.080690	2547.126160
522.443580	2546.659853
522.806413	2545.911242
523.169189	2547.589946
523.531908	2546.087682
523.894569	2547.771428
524.257174	2546.881664
524.619722	2547.814277
524.982213	2548.348640
525.344647	2545.107178
525.707025	2547.847045
526.069345	2547.521890
526.431608	2547.584905
526.793815	2548.633465
527.155964	2548.855276
527.518057	2547.907539
527.880093	2547.284956
528.242072	2547.695810
528.603995	2545.787733
528.965860	2548.033567
529.327669	2549.119936
529.689421	2548.457024
530.051117	2547.804195
530.412755	2546.586756
530.774337	2549.452652
531.135862	2546.619524
531.497331	2548.038609
531.858743	2548.434339
532.220098	2552.232849
532.581396	2548.971222
532.942638	2545.346633
533.303824	2548.681356
533.664953	2549.177909
534.026025	2544.920655
534.387040	2549.848383
534.747999	2547.481561
535.108902	2549.374514
535.469748	2548.656150
535.830537	2549.913918
536.191270	2547.179092
536.551947	2545.296221
536.912567	2543.990562
537.273131	2544.333361
537.633638	2541.933771
537.994089	2549.051881
538.354483	2549.157745
538.714821	2548.819988
539.075103	2547.557178
539.435328	2548.600697
539.795497	2547.980635
540.155609	2549.737477
540.515665	2548.217570
540.875665	2550.075235
541.235609	2547.786551
541.595496	2548.383928
541.955328	2549.424926
542.315102	2547.015254
542.674821	2549.737477
543.034483	2546.566592
543.394090	2551.335523
543.753640	2548.497354
544.113134	2548.683876
544.472571	2551.970709
544.831953	2550.400389
545.191278	2547.882333
545.550548	2548.918290
545.909761	2550.980122
546.268918	2547.259750
546.628019	2549.427447
546.987064	2547.731098
547.346053	2549.803013
547.704986	2547.710934
548.063863	2552.328631
548.422684	2548.575492
548.781449	2548.482230
549.140158	2548.197405
549.498811	2550.576830
549.857408	2551.413661
550.215949	2547.879812
550.574434	2550.024823
550.932864	2550.682694
551.291237	2547.960471
551.649555	2551.126315
552.007817	2549.140101
552.366022	2551.464073
552.724173	2547.529452
553.082267	2549.608928
553.440305	2548.673794
553.798288	2549.911397
554.156215	2547.615152
554.514086	2546.438042
554.871902	2544.666077
555.229661	2546.506098
555.587365	2543.350336
555.945014	2548.913249
556.302606	2545.291180
556.660143	2550.904505
557.017625	2550.105482
557.375050	2550.491130
557.732421	2549.218239
558.089735	2549.145142
558.446994	2548.467107
558.804197	2551.660678
559.161345	2550.269319
559.518437	2548.325954
559.875474	2546.745553
560.232455	2546.619524
560.589381	2549.893753
560.946251	2547.874771
561.303065	2547.489123
561.659825	2549.263609
562.016528	2548.406613
562.373177	2551.451470
562.729770	2548.270502
563.086307	2550.183620
563.442789	2548.658671
563.799216	2549.792930
564.155587	2550.702858
564.511904	2549.510626
564.868164	2550.861655
565.224370	2548.325954
565.580520	2551.229659
565.936615	2552.056408
566.292654	2547.781510
566.648638	2551.022972
567.004567	2550.445760
567.360441	2547.824360
567.716260	2551.131357
568.072023	2548.888043
568.427732	2551.005328
568.783385	2550.249155
569.138982	2549.288815
569.494525	2550.254196
569.850013	2550.871737
570.205445	2548.933413
570.560823	2548.157076
570.916145	2551.728733
571.271412	2549.195553
571.626625	2549.906356
571.981782	2548.096582
572.336884	2548.353681
572.691931	2545.429812
573.046923	2547.302600
573.401860	2544.219935
573.756743	2547.335368
574.111570	2547.174051
574.466342	2551.388455
574.821059	2547.105995
575.175722	2548.986346
575.530330	2551.900132
575.884882	2550.218908
576.239380	2548.802343
576.593823	2548.676315
576.948211	2547.504246
577.302544	2549.871068
577.656823	2550.412992
578.011047	2547.368135
578.365216	2549.119936
578.719330	2548.449463
579.073389	2548.051212
579.427394	2550.773435
579.781344	2548.688917
580.135239	2551.398538
580.489080	2550.118085
580.842866	2548.673794
581.196597	2550.415513
581.550273	2548.993907
581.903895	2550.564227
582.257463	2549.009031
582.610975	2549.777807
582.964434	2548.346119
583.317837	2550.700338
583.671186	2552.081614
584.024481	2550.453321
584.377721	2551.517005
584.730906	2551.033054
585.084037	2551.605225
585.437113	2551.390976
585.790135	2553.208312
586.143103	2550.833928
586.496016	2550.846531
586.848874	2549.813095
587.201679	2552.900802
587.554428	2552.530277
587.907124	2549.351829
588.259765	2549.190512
588.612352	2549.724875
588.964884	2548.918290
589.317362	2549.800492
589.669786	2547.249668
590.022155	2547.148845
590.374470	2545.644061
590.726731	2547.632796
591.078937	2542.760521
591.431090	2551.358208
591.783188	2551.796789
592.135232	2551.494320
592.487222	2552.280740
592.839157	2549.606407
593.191038	2549.795451
593.542866	2550.176058
593.894639	2549.770245
594.246358	2552.774773
594.598022	2549.979453
594.949633	2552.043805
595.301190	2548.404092
595.652692	2549.934083
596.004141	2548.772097
596.355535	2550.770914
596.706876	2549.331665
597.058162	2549.160265
597.409395	2547.965512
597.760573	2549.941644
598.111698	2551.098589
598.462768	2549.003990
598.813785	2549.561037
599.164748	2549.329144
599.515657	2549.629093
599.866511	2550.191181
600.217312	2550.496171
600.568060	2549.944165
600.918753	2553.213353
601.269392	2550.327292
601.619978	2551.678322
601.970510	2547.718495
602.320988	2549.175389
602.671412	2547.506767
603.021783	2549.230842
603.372100	2551.232180
603.722363	2547.693290
604.072572	2552.404248
604.422728	2550.105482
604.772830	2550.309648
605.122878	2548.910728
605.472872	2550.818805
605.822813	2552.701676
606.172701	2548.933413
606.522534	2546.874102
606.872314	2552.598332
607.222041	2549.543393
607.571714	2547.637837
607.921333	2545.971736
608.270899	2547.907539
608.620411	2546.611962
608.969870	2553.467931
609.319276	2554.680329
609.668627	2559.857594
610.017926	2563.454457
610.367171	2565.486042
610.716362	2564.495455
611.065500	2562.857080
611.414585	2561.420352
611.763616	2557.848694
612.112594	2558.675443
612.461518	2555.209650
612.810389	2554.781152
613.159207	2555.237376
613.507971	2554.854249
613.856682	2552.525236
614.205340	2551.945503
614.553945	2553.115051
614.902496	2551.675801
615.250994	2552.731923
615.599439	2551.038095
615.947830	2552.308466
616.296169	2551.406099
616.644454	2552.139587
616.992686	2550.937272
617.340864	2550.806202
617.688990	2549.926521
618.037063	2551.975750
618.385082	2550.289484
618.733048	2550.372663
619.080961	2552.842828
619.428821	2552.666388
619.776628	2552.439536
620.124382	2550.627241
620.472083	2550.281922
620.819731	2552.512633
621.167326	2552.883158
621.514868	2551.229659
621.862357	2549.659340
622.209793	2553.046995
622.557176	2547.534493
622.904506	2553.339382
623.251783	2547.839483
623.599007	2547.700851
623.946179	2551.882488
624.293297	2549.737478
624.640363	2549.180430
624.987376	2546.468289
625.334336	2546.241437
625.681243	2548.782179
626.028097	2545.361756
626.374899	2549.344267
626.721647	2550.617159
627.068343	2550.912066
627.414987	2548.348640
627.761577	2550.609597
628.108115	2551.348126
628.454600	2551.199412
628.801032	2548.215049
629.147412	2553.359547
629.493739	2552.018600
629.840014	2553.104968
630.186236	2552.295863
630.532405	2552.618497
630.878521	2550.813764
631.224585	2552.779814
631.570597	2551.035575
631.916556	2548.114226
632.262462	2551.940462
632.608316	2550.687735
632.954117	2549.813095
633.299866	2548.782179
633.645562	2549.314021
633.991206	2549.223280
634.336797	2550.647406
634.682336	2550.314690
635.027823	2549.823177
635.373257	2550.725544
635.718639	2547.569781
636.063968	2551.350647
636.409245	2548.797302
636.754470	2548.777138
637.099642	2549.495502
637.444762	2550.012220
637.789829	2548.595656
638.134845	2550.027344
638.479808	2552.237890
638.824719	2548.898125
639.169577	2550.783517
639.514383	2551.980791
639.859137	2551.930379
640.203839	2550.717982
640.548489	2550.254196
640.893086	2548.794782
641.237632	2549.208156
641.582125	2548.469627
641.926566	2549.024154
642.270955	2546.869061
642.615292	2546.427960
642.959576	2546.581715
643.303809	2543.178936
643.647990	2548.333516
643.992118	2547.453835
644.336195	2549.535831
644.680219	2550.193702
645.024192	2551.600184
645.368112	2548.751932
645.711981	2550.710420
646.055797	2549.021634
646.399562	2552.089176
646.743274	2546.100285
647.086935	2549.745039
647.430544	2550.115564
647.774101	2548.862837
648.117606	2548.078938
648.461059	2552.885678
648.804460	2551.799309
649.147810	2551.196892
649.491108	2548.830070
649.834354	2548.726726
650.177548	2550.884340
650.520690	2549.636654
650.863781	2548.343598
651.206820	2549.145142
651.549807	2548.862837
651.892742	2551.998435
652.235626	2546.412837
652.578458	2547.100954
652.921238	2548.562889
653.263967	2551.910215
653.606644	2548.401572
653.949269	2550.405430
654.291843	2548.406613
654.634365	2549.359391
654.976836	2548.724206
655.319255	2548.605738
655.661622	2550.387786
656.003938	2552.626059
656.346203	2551.441387
656.688416	2549.278732
657.030577	2548.905687
657.372687	2548.421736
657.714746	2549.477858
658.056753	2550.546583
658.398708	2548.898125
658.740612	2551.428785
659.082465	2549.717313
659.424266	2544.204811
659.766016	2546.100285
660.107715	2546.627086
660.449362	2543.688093
660.790958	2548.381407
661.132503	2547.652960
661.473996	2550.044988
661.815438	2548.414175
662.156829	2548.424257
662.498168	2544.993752
662.839456	2549.495502
663.180693	2551.161603
663.521879	2548.635985
663.863013	2548.935934
664.204097	2551.141439
664.545129	2550.869217
664.886110	2551.428785
665.227040	2547.907539
665.567918	2548.285625
665.908746	2549.782848
666.249522	2549.911397
666.590248	2550.912066
666.930922	2549.301418
667.271545	2548.822508
667.612118	2551.912735
667.952639	2550.876778
668.293109	2549.555996
668.633528	2548.784699
668.973896	2547.526932
669.314213	2550.775955
669.654480	2549.301418
669.994695	2545.908721
670.334859	2550.660009
670.674973	2548.278063
671.015035	2547.413506
671.355047	2547.789072
671.695008	2546.836293
672.034918	2547.869730
672.374777	2548.784699
672.714585	2549.056922
673.054342	2548.129349
673.394049	2548.441901
673.733705	2550.725544
674.073310	2549.855945
674.412864	2548.023485
674.752368	2549.135060
675.091820	2547.645399
675.431223	2549.293856
675.770574	2548.890564
676.109875	2549.707231
676.449125	2545.639019
676.788324	2543.131045
677.127473	2547.035419
677.466571	2543.751107
677.805619	2547.869730
678.144616	2548.409133
678.483562	2547.201777
678.822458	2549.319062
679.161303	2550.934752
679.500098	2548.270502
679.838842	2546.334699
680.177535	2549.727395
680.516179	2549.908877
680.854771	2550.133208
681.193314	2545.878474
681.531805	2549.233362
681.870247	2548.797302
682.208638	2547.635316
682.546978	2549.752601
682.885268	2549.276212
683.223508	2548.850234
683.561697	2548.605738
683.899836	2551.418702
684.237925	2548.794782
684.575963	2547.259750
684.913951	2547.458876
685.251889	2548.489792
685.589776	2546.682538
685.927614	2548.714123
686.265401	2549.465255
686.603137	2547.839483
686.940824	2548.182282
687.278460	2548.852755
687.616046	2548.003321
687.953582	2546.397713
688.291068	2546.964843
688.628504	2550.135729
688.965889	2546.866540
689.303224	2548.046170
689.640510	2545.684390
689.977745	2548.499874
690.314930	2546.841335
690.652065	2547.496685
690.989150	2549.167827
691.326185	2546.422919
691.663170	2549.850903
692.000105	2547.567261
692.336990	2547.373176
692.673825	2549.016592
693.010610	2548.618341
693.347345	2546.508618
693.684030	2547.040460
694.020665	2548.104144
694.357251	2542.064841
694.693786	2547.438711
695.030272	2547.957950
695.366707	2546.851417
695.703093	2550.110523
696.039429	2547.547096
696.375716	2548.217570
696.711952	2547.141283
697.048139	2548.217570
697.384276	2550.355019
697.720363	2548.207487
698.056400	2547.458876
698.392388	2548.225131
698.728326	2548.262940
699.064214	2547.037940
699.400053	2547.000131
699.735842	2548.194884
700.071581	2549.404761
700.407270	2546.818649
700.742910	2548.890564
701.078501	2549.210677
701.414042	2549.487940
701.749533	2549.964329
702.084974	2549.109854
702.420366	2545.838145
702.755709	2548.406613
703.091002	2549.356870
703.426246	2545.936448
703.761440	2549.245965
704.096584	2545.197918
704.431679	2546.977446
704.766725	2549.366953
705.101721	2547.761345
705.436668	2550.433157
705.771565	2549.041798
706.106413	2549.049360
706.441212	2548.184802
706.775961	2550.108002
707.110661	2547.731098
707.445311	2546.753114
707.779913	2547.673125
708.114465	2549.462735
708.448967	2547.897456
708.783421	2549.248486
709.117825	2547.884853
709.452180	2547.174051
709.786485	2546.276725
710.120742	2544.996272
710.454949	2543.055428
710.789107	2545.709596
711.123216	2543.834286
711.457275	2546.024668
711.791286	2549.233362
712.125247	2547.758825
712.459159	2543.642723
712.793023	2549.913918
713.126837	2549.651778
713.460602	2547.453835
713.794318	2548.414175
714.127985	2547.494164
714.461602	2549.515667
714.795171	2543.988042
715.128691	2550.370142
715.462162	2549.495502
715.795584	2548.031047
716.128957	2548.134391
716.462281	2547.935265
716.795556	2547.766386
717.128782	2549.530790
717.461960	2548.661191
717.795088	2547.849565
718.128167	2548.431819
718.461198	2549.228321
718.794180	2547.768907
719.127113	2547.501726
719.459997	2546.309493
719.792833	2548.930893
720.125619	2551.282591
720.458357	2548.472148
720.791046	2547.768907
721.123686	2547.267312
721.456278	2545.157589
721.788821	2545.888557
722.121315	2547.577343
722.453761	2546.223793
722.786158	2549.256047
723.118506	2545.752445
723.450805	2549.213197
723.783056	2547.751263
724.115259	2547.600028
724.447412	2545.686910
724.779518	2544.623227
725.111574	2548.159596
725.443582	2547.824360
725.775542	2546.853938
726.107453	2547.133722
726.439315	2548.129349
726.771129	2551.317879
727.102895	2545.003834
727.434612	2546.538865
727.766281	2542.198432
728.097901	2545.946530
728.429473	2543.052908
728.760996	2548.492313
729.092471	2546.044832
729.423897	2544.862682
729.755276	2545.830583
730.086606	2549.079607
730.417887	2547.264792
730.749120	2547.410985
731.080305	2547.962991
731.411442	2546.077600
731.742530	2544.761859
732.073570	2548.446942
732.404562	2548.126829
732.735506	2546.987528
733.066401	2547.499205
733.397249	2546.354863
733.728048	2548.204967
734.058798	2549.228321
734.389501	2548.300749
734.720156	2547.968032
735.050762	2544.910573
735.381320	2547.330327
735.711831	2546.929555
736.042293	2547.574823
736.372707	2549.399720
736.703073	2549.003990
737.033391	2547.592467
737.363661	2546.614483
737.693883	2547.463917
738.024056	2546.617003
738.354182	2545.699513
738.684260	2546.536345
739.014290	2550.670091
739.344272	2546.049873
739.674207	2547.393341
740.004093	2548.134391
740.333931	2547.632796
740.663722	2547.141283
740.993464	2545.810419
741.323159	2545.772610
741.652806	2547.839483
741.982405	2547.874771
742.311956	2547.060625
742.641460	2547.751263
742.970915	2545.873433
743.300323	2542.856303
743.629683	2542.241282
743.958996	2545.931406
744.288260	2544.116591
744.617477	2546.233876
744.946647	2545.502908
745.275768	2550.050029
745.604842	2547.489123
745.933869	2544.688762
746.262847	2545.444935
746.591778	2545.618855
746.920662	2546.347302
747.249498	2546.896787
747.578286	2548.827549
747.907027	2546.095244
748.235720	2545.661705
748.564365	2546.231355
748.892963	2548.230172
749.221514	2548.693959
749.550017	2546.299411
749.878473	2546.823691
750.206881	2547.264792
750.535242	2546.957281
750.863555	2545.182795
751.191821	2544.524924
751.520039	2546.216232
751.848210	2546.886705
752.176334	2546.377548
752.504411	2546.866540
752.832440	2546.301931
753.160421	2546.112888
753.488356	2547.433670
753.816243	2549.800492
754.144082	2547.194215
754.471875	2546.463248
754.799620	2547.831921
755.127318	2547.940306
755.454969	2546.629606
755.782572	2549.987015
756.110129	2547.529452
756.437638	2548.386448
756.765100	2546.677497
757.092515	2545.742363
757.419882	2547.620193
757.747203	2547.176571
758.074477	2546.435522
758.401703	2546.349822
758.728882	2545.233207
759.056014	2549.679504
759.383099	2547.589946
759.710138	2544.870243
760.037129	2542.873947
760.364073	2546.622044
760.690970	2542.684903
761.017820	2546.407795
761.344623	2548.215049
761.671379	2545.765048
761.998088	2546.047353
762.324751	2547.940306
762.651366	2549.054401
762.977935	2546.314534
763.304456	2547.655481
763.630931	2549.031716
763.957359	2546.914431
764.283740	2545.961653
764.610074	2549.699669
764.936362	2546.659853
765.262602	2546.289328
765.588796	2547.431150
765.914943	2548.346119
766.241044	2543.945192
766.567097	2545.969215
766.893104	2549.543393
767.219064	2547.385779
767.544978	2545.933927
767.870845	2546.727909
768.196665	2545.999462
768.522438	2545.656663
768.848165	2545.666746
769.173846	2546.566592
769.499479	2545.875954
769.825066	2546.778320
770.150607	2544.955943
770.476101	2546.092723
770.801548	2544.812270
771.126949	2548.424257
771.452303	2545.984338
771.777611	2547.786551
772.102872	2546.869061
772.428087	2545.621375
772.753256	2546.609442
773.078378	2546.087682
773.403453	2545.243289
773.728482	2548.726726
774.053465	2545.099616
774.378401	2546.092723
774.703291	2546.816129
775.028135	2545.961653
775.352932	2545.696993
775.677683	2543.836807
776.002388	2543.557023
776.327046	2545.427291
776.651658	2541.056611
776.976224	2545.271015
777.300743	2546.339740
777.625216	2546.201108
777.949643	2543.867054
778.274024	2545.737322
778.598359	2548.235214
778.922647	2547.733619
779.246889	2546.551468
779.571086	2546.705223
779.895236	2547.655481
780.219339	2546.372507
780.543397	2546.816129
780.867409	2545.500388
781.191374	2546.075079
781.515294	2546.576674
781.839167	2545.505429
782.162995	2543.534338
782.486776	2547.373176
782.810511	2546.735470
783.134201	2546.866540
783.457844	2544.892929
783.781441	2547.226983
784.104993	2547.516849
784.428498	2543.186498
784.751958	2547.186654
785.075372	2545.583567
785.398739	2544.363608
785.722061	2544.988711
786.045337	2547.360573
786.368568	2549.581202
786.691752	2544.373690
787.014891	2545.265974
787.337983	2547.060625
787.661030	2545.858310
787.984031	2545.770089
788.306987	2546.720347
788.629897	2545.951571
788.952760	2546.760676
789.275579	2543.650284
789.598351	2548.283105
789.921078	2546.498536
790.243759	2545.848227
790.566395	2543.846889
790.888984	2543.506611
791.211529	2546.105326
791.534027	2547.116077
791.856480	2544.724050
792.178888	2544.368649
792.501249	2544.187167
792.823566	2541.396888
793.145836	2542.432846
793.468062	2544.063659
793.790241	2545.500388
794.112375	2543.395706
794.434464	2545.586087
794.756507	2545.170192
795.078505	2545.858310
795.400457	2546.556509
795.722364	2549.429967
796.044226	2542.876467
796.366042	2543.902342
796.687812	2545.316386
797.009538	2548.545245
797.331218	2546.322096
797.652852	2547.355532
797.974442	2543.657846
798.295986	2545.223124
798.617484	2546.128011
798.938938	2546.274205
799.260346	2545.230686
799.581709	2544.577857
799.903026	2547.743701
800.224299	2545.500388
800.545526	2543.395706
800.866708	2547.965512
801.187845	2547.577343
801.508936	2544.250182
801.829983	2544.454348
802.150984	2548.089020
802.471940	2547.020296
802.792851	2546.090203
803.113717	2547.756304
803.434538	2546.697662
803.755314	2546.135573
804.076045	2544.983669
804.396731	2546.407795
804.717372	2544.141797
805.037967	2546.697662
805.358518	2547.022816
805.679024	2544.918134
805.999485	2547.284956
806.319901	2544.751776
806.640272	2543.037784
806.960598	2545.916283
807.280879	2547.554658
807.601115	2545.341591
807.921306	2545.550799
808.241453	2542.132897
808.561554	2541.948895
808.881611	2542.337064
809.201623	2540.643236
809.521590	2547.433670
809.841513	2546.072559
810.161390	2548.378887
810.481223	2547.108516
810.801011	2545.797816
811.120755	2545.636499
811.440453	2545.916283
811.760107	2545.346633
812.079716	2545.001313
812.399281	2545.243289
812.718801	2545.409647
813.038276	2545.099616
813.357707	2544.973587
813.677093	2544.592980
813.996434	2545.931406
814.315731	2545.455017
814.634983	2544.663556
814.954191	2543.839327
815.273354	2547.473999
815.592473	2543.695655
815.911547	2546.874102
816.230577	2544.872764
816.549562	2548.807385
816.868502	2547.416026
817.187399	2544.998793
817.506250	2548.114226
817.825058	2543.909904
818.143821	2545.177754
818.462539	2547.821839
818.781213	2544.580377
819.099843	2546.306972
819.418429	2544.852599
819.736970	2546.435522
820.055466	2543.279759
820.373919	2547.237065
820.692327	2544.658515
821.010691	2546.896787
821.329011	2548.194884
821.647286	2549.407282
821.965517	2548.918290
822.283704	2551.401058
822.601847	2550.970040
822.919945	2550.450801
823.237999	2550.173537
823.556010	2552.063970
823.873976	2550.665050
824.191897	2541.865716
824.509775	2545.865871
824.827609	2545.336550
825.145398	2539.670293
825.463144	2547.768907
825.780845	2545.959133
826.098502	2545.878474
826.416116	2544.270346
826.733685	2548.958619
827.051210	2545.810419
827.368692	2549.124977
827.686129	2545.734801
828.003522	2546.864020
828.320872	2545.525593
828.638177	2545.071890
828.955439	2543.105840
829.272656	2547.108516
829.589830	2545.041643
829.906960	2547.486602
830.224046	2545.079451
830.541088	2547.269833
830.858086	2545.119781
831.175041	2543.569626
831.491952	2544.378731
831.808819	2546.034750
832.125642	2543.950233
832.442421	2544.655994
832.759157	2544.535007
833.075849	2545.875954
833.392497	2548.394010
833.709101	2543.196580
834.025662	2544.595501
834.342179	2545.848227
834.658653	2548.270502
834.975083	2544.078782
835.291469	2553.525905
835.607811	2548.240255
835.924110	2546.561551
836.240366	2544.582898
836.556578	2544.910573
836.872746	2545.596170
837.188871	2543.672969
837.504952	2545.006355
837.820990	2545.835624
838.136984	2543.859492
838.452935	2544.671118
838.768842	2545.734801
839.084706	2544.343443
839.400526	2545.238248
839.716303	2544.918134
840.032037	2542.677342
840.347727	2543.138607
840.663373	2544.696324
840.978977	2541.285983
841.294537	2545.576005
841.610054	2543.274718
841.925527	2543.350336
842.240957	2545.550799
842.556344	2544.925696
842.871687	2543.788916
843.186987	2542.606765
843.502244	2543.098278
843.817458	2544.943340
844.132629	2545.649102
844.447756	2543.463762
844.762840	2546.077600
845.077881	2542.087527
845.392879	2543.189019
845.707833	2546.261602
846.022745	2546.070038
846.337613	2543.632640
846.652438	2544.905532
846.967221	2543.027702
847.281960	2540.310520
847.596656	2544.663556
847.911309	2543.362938
848.225919	2547.519370
848.540485	2541.608617
848.855009	2542.584080
849.169490	2543.993083
849.483928	2543.657846
849.798323	2544.587939
850.112675	2546.498536
850.426984	2542.437887
850.741251	2546.619524
851.055474	2543.199101
851.369654	2546.632127
851.683792	2542.420243
851.997887	2544.575336
852.311938	2542.090047
852.625947	2544.872764
852.939914	2543.095757
853.253837	2542.032074
853.567718	2542.102650
853.881555	2541.737166
854.195350	2543.267157
854.509103	2542.742877
854.822812	2543.027702
855.136479	2544.567774
855.450103	2540.983514
855.763685	2541.313709
856.077224	2540.108874
856.390720	2540.265149
856.704173	2540.960829
857.017584	2543.741025
857.330953	2543.201622
857.644278	2544.940820
857.957561	2544.761859
858.270802	2544.668597
858.584000	2545.777651
858.897155	2543.554502
859.210268	2545.530635
859.523339	2542.916796
859.836367	2544.111550
860.149352	2541.742207
860.462295	2545.013916
860.775195	2541.797660
861.088054	2541.412012
861.400869	2541.628782
861.713642	2546.705223
862.026373	2543.645243
862.339062	2545.838145
862.651708	2542.475695
862.964312	2543.234389
863.276873	2542.674821
863.589392	2542.047197
863.901869	2545.583567
864.214303	2541.162475
864.526696	2542.478216
864.839045	2545.059287
865.151353	2542.102650
865.463619	2540.796991
865.775842	2541.727084
866.088023	2543.090716
866.400162	2545.185316
866.712258	2544.217414
867.024313	2542.710109
867.336325	2543.282280
867.648296	2541.134748
867.960224	2541.076775
868.272110	2544.030891
868.583954	2544.726571
868.895755	2545.142466
869.207515	2545.686910
869.519233	2539.849254
869.830909	2543.027702
870.142542	2542.735315
870.454134	2542.349667
870.765684	2545.928886
871.077191	2543.887218
871.388657	2541.459903
871.700081	2540.131559
872.011463	2540.915458
872.322803	2539.065355
872.634101	2545.097095
872.945357	2544.194729
873.256571	2543.420912
873.567744	2543.524255
873.878874	2543.914945
874.189963	2544.726571
874.501010	2543.718340
874.812015	2542.657177
875.122979	2544.348484
875.433900	2541.706919
875.744780	2541.903524
876.055618	2543.315048
876.366415	2543.925027
876.677169	2542.579039
876.987882	2543.662887
877.298554	2543.262115
877.609183	2543.279759
877.919771	2544.237579
878.230317	2542.926879
878.540822	2544.169523
878.851285	2541.757331
879.161707	2543.448638
879.472087	2540.121477
879.782425	2542.952084
880.092722	2543.620037
880.402977	2544.819832
880.713191	2543.955274
881.023363	2546.503577
881.333494	2547.796633
881.643583	2544.812270
881.953631	2545.515511
882.263637	2544.542568
882.573602	2544.968546
882.883526	2547.058104
883.193408	2546.881664
883.503248	2543.927548
883.813048	2544.643392
884.122806	2545.457538
884.432522	2546.947199
884.742197	2542.193391
885.051831	2540.880170
885.361424	2542.125335
885.670975	2540.943185
885.980485	2542.987373
886.289954	2543.836807
886.599382	2540.136600
886.908768	2542.637012
887.218113	2537.928575
887.527417	2540.655839
887.836680	2540.902855
888.145901	2544.666077
888.455082	2542.843700
888.764221	2545.646581
889.073319	2541.742207
889.382376	2544.209852
889.691392	2545.056766
890.000366	2542.127856
890.309300	2540.633154
890.618193	2542.964687
890.927044	2545.497867
891.235855	2543.614996
891.544625	2542.082485
891.853353	2544.638350
892.162041	2541.207845
892.470687	2541.996786
892.779293	2540.514687
893.087858	2543.909904
893.396381	2543.534338
893.704864	2544.061138
894.013306	2544.875285
894.321707	2543.751107
894.630068	2543.972918
894.938387	2544.580377
895.246665	2545.480223
895.554903	2545.792775
895.863100	2544.093906
896.171256	2544.461910
896.479371	2546.750594
896.787446	2541.843031
897.095480	2542.231199
897.403473	2543.872095
897.711425	2541.913607
898.019336	2543.914945
898.327207	2541.618699
898.635038	2542.175747
898.942827	2543.733463
899.250576	2544.371169
899.558284	2541.129707
899.865952	2542.168185
900.173579	2543.766231
900.481165	2542.458051
900.788711	2541.928730
901.096216	2544.396375
901.403681	2540.870088
901.711105	2542.584080
902.018489	2544.895449
902.325832	2539.224151
902.633135	2537.391692
902.940397	2541.497712
903.247619	2541.492670
903.554800	2544.303114
903.861941	2541.893442
904.169041	2544.774462
904.476101	2544.285470
904.783121	2543.957795
905.090100	2543.373021
905.397039	2542.354708
905.703938	2541.946374
906.010796	2544.119112
906.317614	2543.234389
906.624391	2542.760521
906.931129	2543.020140
907.237826	2543.269677
907.544483	2544.761859
907.851099	2540.877650
908.157675	2541.830428
908.464211	2541.603576
908.770707	2540.126518
909.077163	2541.137269
909.383578	2543.816642
909.689954	2544.129194
909.996289	2542.954605
910.302584	2541.890922
910.608839	2540.507125
910.915054	2544.739173
911.221229	2543.970398
911.527363	2543.239430
911.833458	2542.652136
912.139513	2541.820345
912.445527	2543.614996
912.751502	2540.025695
913.057436	2541.263298
913.363331	2541.197763
913.669186	2540.373534
913.975000	2544.981149
914.280775	2542.717671
914.586510	2543.272198
914.892205	2543.945192
915.197859	2540.764224
915.503475	2542.354708
915.809050	2544.277908
916.114585	2542.188350
916.420081	2544.184647
916.725536	2541.827907
917.030952	2545.132383
917.336328	2543.194060
917.641665	2540.509645
917.946961	2537.003523
918.252218	2539.541744
918.557435	2537.978986
918.862612	2543.269677
919.167750	2540.698689
919.472848	2543.927548
919.777906	2542.629451
920.082925	2543.960315
920.387904	2541.734646
920.692843	2542.014430
920.997743	2542.528628
921.302603	2541.533000
921.607423	2541.293545
921.912204	2541.308668
922.216946	2542.470654
922.521647	2539.970242
922.826310	2543.325130
923.130932	2542.374872
923.435516	2541.280942
923.740059	2540.696168
924.044564	2542.538710
924.349028	2543.350336
924.653454	2542.528628
924.957840	2541.132228
925.262186	2542.873947
925.566493	2540.953267
925.870761	2540.184491
926.174989	2542.027033
926.479178	2542.445448
926.783328	2540.479398
927.087438	2544.098947
927.391509	2542.773123
927.695541	2540.469316
927.999533	2543.120963
928.303486	2541.225489
928.607400	2538.785571
928.911275	2542.042156
929.215110	2541.515356
929.518906	2543.262115
929.822663	2543.196580
930.126381	2539.496373
930.430060	2543.864533
930.733699	2542.558874
931.037299	2539.851775
931.340861	2544.046015
931.644383	2541.527958
931.947866	2539.040149
932.251309	2541.873277
932.554714	2540.933102
932.858080	2535.846578
933.161407	2538.110056
933.464694	2541.142310
933.767943	2535.720549
934.071153	2540.287835
934.374323	2541.669111
934.677455	2540.897814
934.980548	2543.302445
935.283602	2539.919830
935.586617	2539.471168
935.889593	2541.722043
936.192530	2541.401930
936.495428	2540.741538
936.798287	2540.371014
937.101108	2540.975952
937.403890	2542.034594
937.706632	2544.913093
938.009336	2542.369831
938.312002	2542.347146
938.614628	2541.049049
938.917216	2542.072403
939.219765	2540.630633
939.522275	2542.654656
939.824747	2541.162475
940.127179	2542.931920
940.429573	2540.691127
940.731929	2543.287321
941.034246	2541.459903
941.336524	2540.126518
941.638763	2541.926210
941.940964	2539.698020
942.243126	2543.337733
942.545250	2541.263298
942.847335	2537.570653
943.149381	2540.736497
943.451389	2540.827238
943.753359	2544.303114
944.055290	2539.947557
944.357182	2541.351518
944.659036	2540.910417
944.960851	2539.350180
945.262628	2542.059800
945.564367	2541.941333
945.866067	2541.691796
946.167729	2541.969059
946.469352	2539.468647
946.770937	2542.412681
947.072484	2541.107022
947.373992	2541.722043
947.675462	2540.776827
947.976893	2538.089892
948.278286	2535.896990
948.579641	2540.310520
948.880958	2535.690302
949.182236	2541.817825
949.483476	2541.175078
949.784678	2541.467465
950.085841	2541.727084
950.386967	2539.408153
950.688054	2542.558874
950.989103	2541.931251
951.290114	2540.645757
951.591087	2541.923689
951.892021	2542.473175
952.192917	2539.635005
952.493776	2540.754141
952.794596	2542.435366
953.095378	2538.717515
953.396122	2539.773637
953.696828	2541.235572
953.997496	2539.047711
954.298126	2543.925027
954.598718	2541.742207
954.899272	2541.853113
955.199788	2540.582742
955.500266	2540.741538
955.800706	2540.784388
956.101108	2540.678524
956.401472	2539.461085
956.701798	2538.599048
957.002087	2539.534182
957.302337	2539.251878
957.602550	2539.730787
957.902724	2542.715150
958.202861	2541.593493
958.502960	2540.965870
958.803022	2539.695499
959.103045	2541.406971
959.403031	2540.033256
959.702979	2541.124666
960.002889	2540.083668
960.302762	2540.549975
960.602596	2540.910417
960.902393	2541.898483
961.202153	2540.749100
961.501875	2540.774306
961.801559	2539.854295
962.101205	2540.229861
962.400814	2542.440407
962.700385	2540.313040
962.999918	2537.560570
963.299414	2536.716177
963.598873	2537.963863
963.898293	2534.331711
964.197677	2541.389327
964.497022	2539.783719
964.796331	2544.867723
965.095601	2540.237423
965.394835	2539.188863
965.694030	2542.062321
965.993189	2543.650284
966.292309	2539.221631
966.591393	2542.775644
966.890439	2540.844882
967.189447	2539.866898
967.488419	2538.805735
967.787353	2539.942516
968.086249	2539.224151
968.385108	2541.031405
968.683930	2542.435366
968.982714	2541.747249
969.281462	2539.698020
969.580172	2539.710623
969.878844	2538.077289
970.177480	2540.136600
970.476078	2542.332023
970.774639	2538.256250
971.073162	2541.059131
971.371649	2540.403781
971.670098	2540.003009
971.968510	2539.783719
972.266885	2541.394368
972.565223	2542.425284
972.863524	2539.332536
973.161788	2538.944367
973.460014	2539.846734
973.758204	2542.415202
974.056356	2543.415871
974.354471	2541.608617
974.652550	2542.377393
974.950591	2539.922351
975.248595	2540.391178
975.546563	2541.076775
975.844493	2537.381609
976.142386	2540.355890
976.440243	2540.292876
976.738062	2539.924872
977.035845	2541.366642
977.333590	2541.122146
977.631299	2538.125180
977.928971	2536.549819
978.226606	2538.021836
978.524204	2538.649460
978.821765	2533.459592
979.119290	2538.520910
979.416777	2538.228523
979.714228	2540.297917
980.011642	2540.804553
980.309020	2539.423277
980.606360	2542.526107
980.903664	2539.811446
981.200931	2539.226672
981.498162	2538.856147
981.795356	2540.426466
982.092513	2541.417053
982.389633	2540.983514
982.686717	2542.253885
982.983764	2540.043339
983.280775	2537.699202
983.577749	2539.786240
983.874686	2540.739018
984.171587	2541.543082
984.468451	2538.974614
984.765279	2538.886394
985.062070	2541.406971
985.358824	2537.978986
985.655543	2540.565098
985.952224	2540.330684
986.248869	2541.046528
986.545478	2540.625592
986.842050	2540.907897
987.138586	2537.500077
987.435086	2539.803884
987.731549	2537.772299
988.027975	2539.067875
988.324366	2538.447813
988.620719	2540.386137
988.917037	2539.899666
989.213318	2539.292207
989.509563	2539.962680
989.805772	2541.722043
990.101944	2541.601055
990.398080	2540.998637
990.694180	2540.290355
990.990244	2538.251208
991.286271	2540.996117
991.582262	2539.521579
991.878217	2540.865047
992.174136	2541.210366
992.470019	2538.803215
992.765865	2537.406815
993.061676	2535.735673
993.357450	2537.094264
993.653188	2536.716177
993.948890	2536.406146
994.244556	2539.834131
994.540186	2539.476209
994.835780	2539.022505
995.131337	2537.210210
995.426859	2542.500901
995.722345	2539.030067
996.017795	2540.822197
996.313208	2539.569470
996.608586	2538.412525
996.903928	2539.236754
997.199234	2540.595345
997.494504	2542.024512
997.789738	2540.023174
998.084936	2539.640046
998.380099	2539.892104
998.675225	2539.962680
998.970316	2538.001671
999.265371	2536.885056
999.560390	2542.793288
999.855373	2538.276414
1000.150320	2539.728267
1000.445232	2538.629295
1000.740108	2538.888914
1001.034948	2540.300438
1001.329752	2537.041332
1001.624521	2540.925541
1001.919254	2540.353370
1002.213951	2541.258257
1002.508613	2536.212062
1002.803239	2539.302289
1003.097829	2540.688606
1003.392384	2538.606610
1003.686903	2539.887063
1003.981386	2541.943854
1004.275834	2538.498225
1004.570246	2540.038297
1004.864623	2538.825900
1005.158964	2542.092568
1005.453270	2540.192053
1005.747540	2539.584594
1006.041775	2537.008564
1006.335974	2538.379758
1006.630138	2540.010571
1006.924266	2538.215920
1007.218359	2538.445293
1007.512416	2536.020498
1007.806438	2536.769109
1008.100425	2534.167874
1008.394376	2534.306506
1008.688292	2538.329346
1008.982172	2536.839685
1009.276017	2537.210210
1009.569827	2540.373534
1009.863602	2537.868081
1010.157341	2537.928575
1010.451045	2539.047711
1010.744714	2534.130065
1011.038347	2539.163657
1011.331945	2538.450334
1011.625508	2540.595345
1011.919036	2537.885725
1012.212528	2538.626774
1012.505986	2539.004861
1012.799408	2539.302289
1013.092795	2541.096940
1013.386147	2536.328008
1013.679464	2538.341949
1013.972745	2539.181301
1014.265992	2538.220962
1014.559204	2540.365973
1014.852380	2537.827752
1015.145521	2538.389840
1015.438628	2539.703061
1015.731699	2538.498225
1016.024736	2540.239944
1016.317737	2538.160468
1016.610703	2539.146013
1016.903635	2541.164995
1017.196531	2539.861857
1017.489393	2538.427649
1017.782219	2539.362783
1018.075011	2538.566281
1018.367768	2537.033770
1018.660490	2539.471168
1018.953177	2539.471168
1019.245829	2539.471168
