Dividing Wavelength (nm)	Counts (n)	Blue Motor Position (mm): 17.300000	Red Motor Position (mm): 0.000000	
326.493990	2178.474141
326.888308	2178.474141
327.282561	2178.474141
327.676750	2135.034518
328.070874	2134.245578
328.464933	2135.503345
328.858929	2137.718933
329.252859	2146.072124
329.646726	2149.381642
330.040528	2163.181801
330.434265	2176.072031
330.827938	2195.820751
331.221547	2212.007896
331.615091	2228.444578
332.008571	2247.328741
332.401986	2268.226844
332.795338	2283.945162
333.188625	2302.947791
333.581847	2324.430668
333.975006	2340.590087
334.368100	2358.287057
334.761129	2376.243647
335.154095	2394.517830
335.546996	2415.846952
335.939833	2443.727053
336.332606	2459.669702
336.725315	2471.828965
337.117960	2485.094762
337.510540	2497.541371
337.903056	2507.812722
338.295508	2516.649864
338.687896	2526.485155
339.080220	2532.721063
339.472480	2541.296065
339.864676	2545.528114
340.256807	2550.213867
340.648875	2557.455484
341.040879	2558.466235
341.432818	2562.421021
341.824694	2564.470250
342.216506	2562.509241
342.608253	2563.877914
342.999937	2562.637790
343.391557	2569.173646
343.783113	2567.215158
344.174605	2563.925805
344.566033	2561.251473
344.957397	2562.494117
345.348697	2561.929508
345.739934	2558.274672
346.131106	2556.790052
346.522215	2557.342058
346.913260	2552.868034
347.304241	2551.133877
347.695159	2549.866027
348.086012	2545.974256
348.476802	2545.714637
348.867528	2540.338246
349.258191	2538.213400
349.648789	2539.302289
350.039324	2535.339942
350.429796	2540.209697
350.820203	2538.594007
351.210548	2536.874973
351.600828	2535.415559
351.991045	2535.660055
352.381198	2531.919519
352.771288	2531.821217
353.161314	2531.503624
353.551276	2530.419776
353.941175	2528.088242
354.331010	2531.619571
354.720782	2531.796011
355.110490	2530.755013
355.500135	2528.635208
355.889717	2530.886083
356.279235	2532.700898
356.668689	2530.974303
357.058080	2529.010773
357.447408	2532.408511
357.836672	2531.251566
358.225873	2531.319622
358.615010	2531.619571
359.004084	2533.477236
359.393095	2532.758871
359.782043	2533.005888
360.170927	2533.154602
360.559748	2533.341125
360.948505	2533.003367
361.337199	2534.394726
361.725830	2535.370189
362.114398	2537.391692
362.502903	2537.104346
362.891344	2536.905220
363.279722	2537.343801
363.668037	2537.767258
364.056289	2537.968904
364.444478	2536.973276
364.832603	2540.166847
365.220665	2539.264480
365.608665	2543.357897
365.996601	2543.458720
366.384474	2540.499563
366.772284	2540.378575
367.160031	2542.216076
367.547715	2543.814122
367.935336	2542.437887
368.322893	2540.837320
368.710388	2537.363965
369.097820	2540.391178
369.485189	2538.576363
369.872495	2543.483926
370.259738	2542.205994
370.646918	2542.644574
371.034035	2545.331509
371.421090	2543.229348
371.808081	2545.996941
372.195010	2544.469472
372.581875	2545.006355
372.968678	2544.782023
373.355418	2545.631458
373.742096	2544.073741
374.128710	2548.053732
374.515262	2546.085162
374.901751	2546.377548
375.288177	2550.314690
375.674540	2546.390151
376.060841	2551.174206
376.447079	2546.748073
376.833254	2550.281922
377.219367	2549.329144
377.605417	2549.840821
377.991404	2547.968033
378.377329	2550.672612
378.763191	2549.533311
379.148991	2549.734957
379.534727	2550.528939
379.920402	2553.828374
380.306013	2548.394010
380.691563	2552.179917
381.077049	2551.123795
381.462474	2550.793599
381.847835	2552.348795
382.233134	2550.425595
382.618371	2550.380225
383.003545	2551.206974
383.388657	2551.333003
383.773706	2554.592109
384.158693	2551.128836
384.543618	2552.126984
384.928480	2553.362067
385.313280	2554.357695
385.698017	2551.539690
386.082692	2554.244269
386.467305	2553.873744
386.851856	2555.948179
387.236344	2556.011193
387.620770	2555.817109
388.005133	2550.952396
388.389435	2554.403065
388.773674	2552.618497
389.157851	2555.015566
389.541965	2556.391801
389.926018	2556.893395
390.310008	2558.665361
390.693936	2557.455484
391.077802	2559.837429
391.461606	2558.125957
391.845348	2556.933725
392.229027	2557.354661
392.612645	2555.141594
392.996200	2559.093859
393.379694	2558.899775
393.763125	2560.016390
394.146494	2559.114024
394.529801	2557.442881
394.913047	2559.862635
395.296230	2560.701987
395.679351	2560.102090
396.062410	2558.625032
396.445408	2557.221070
396.828343	2560.250804
397.211217	2559.623180
397.594028	2563.063768
397.976778	2559.093859
398.359466	2559.323232
398.742092	2563.865311
399.124656	2562.075702
399.507158	2561.284240
399.889598	2560.129816
400.271977	2560.626370
400.654294	2562.158881
401.036549	2561.465722
401.418742	2564.815569
401.800874	2563.192317
402.182944	2566.728687
402.564952	2565.861608
402.946898	2561.889179
403.328783	2561.443037
403.710606	2565.957390
404.092367	2562.995712
404.474067	2565.662482
404.855705	2565.097873
405.237282	2561.926988
405.618797	2565.065106
406.000250	2564.802966
406.381642	2563.610733
406.762972	2563.247770
407.144240	2558.798952
407.525447	2561.866494
407.906593	2560.457491
408.287677	2565.831361
408.668700	2565.082750
409.049661	2567.976372
409.430560	2563.386402
409.811399	2567.242884
410.192176	2567.076526
410.572891	2568.437638
410.953545	2565.985116
411.334138	2568.611557
411.714669	2564.986968
412.095139	2569.632391
412.475547	2566.801783
412.855894	2571.532906
413.236180	2569.529047
413.616405	2568.130127
413.996568	2569.312278
414.376670	2567.931002
414.756711	2570.978379
415.136691	2568.228430
415.516609	2570.141548
415.896466	2568.861095
416.276262	2569.352607
416.655997	2571.124573
417.035670	2569.581980
417.415283	2568.591393
417.794834	2571.905952
418.174324	2569.090467
418.553753	2570.012998
418.933121	2570.428893
419.312428	2571.016188
419.691674	2571.984089
420.070859	2571.011147
420.449983	2571.742114
420.829045	2571.114490
421.208047	2569.156002
421.586988	2570.885118
421.965867	2572.468040
422.344686	2572.074830
422.723444	2571.270766
423.102141	2573.246898
423.480777	2574.033318
423.859352	2571.535427
424.237866	2573.478792
424.616319	2571.532906
424.994712	2571.537947
425.373044	2573.524162
425.751314	2569.612227
426.129524	2569.798749
426.507673	2572.780592
426.885762	2567.641135
427.263789	2572.218503
427.641756	2575.233113
428.019662	2573.856878
428.397508	2573.370407
428.775292	2577.481468
429.153016	2576.531210
429.530679	2572.964594
429.908282	2572.531055
430.285824	2574.081209
430.663305	2575.243195
431.040726	2576.445511
431.418086	2576.838721
431.795385	2574.847465
432.172624	2573.521641
432.549802	2574.613051
432.926920	2573.887125
433.303977	2575.533062
433.680974	2574.849985
434.057910	2575.722105
434.434786	2575.591035
434.811601	2574.429049
435.188355	2576.437949
435.565050	2578.076324
435.941683	2575.240675
436.318257	2576.004410
436.694770	2574.766806
437.071222	2575.742270
437.447614	2575.714543
437.823946	2577.408371
438.200218	2575.833010
438.576429	2573.846796
438.952580	2575.863257
439.328670	2579.177816
439.704700	2577.854513
440.080670	2578.179667
440.456580	2577.920048
440.832429	2577.035326
441.208218	2577.453741
441.583947	2577.647826
441.959616	2579.714699
442.335224	2574.018195
442.710773	2578.870306
443.086261	2579.777713
443.461689	2577.370562
443.837057	2579.114802
444.212365	2580.002045
444.587612	2577.420974
444.962800	2575.931313
445.337927	2578.023392
445.712995	2574.786971
446.088002	2580.435584
446.462949	2579.371900
446.837837	2580.175964
447.212664	2580.443146
447.587431	2583.976994
447.962139	2581.358115
448.336786	2580.120512
448.711374	2583.185533
449.085901	2582.010944
449.460369	2581.937848
449.834776	2582.638568
450.209124	2581.350553
450.583412	2583.508167
450.957640	2583.921542
451.331808	2582.610842
451.705917	2582.537745
452.079965	2580.261664
452.453954	2582.777200
452.827883	2582.411716
453.201752	2585.292736
453.575562	2584.879361
453.949311	2583.004052
454.323001	2584.355081
454.696632	2582.762076
455.070202	2584.770976
455.443713	2584.057653
455.817164	2583.054463
456.190556	2585.872468
456.563888	2586.802561
456.937160	2583.515729
457.310373	2584.511357
457.683526	2585.685946
458.056619	2586.633682
458.429653	2583.868610
458.802628	2585.227201
459.175542	2584.516398
459.548398	2587.644434
459.921194	2589.179465
460.293930	2587.604105
460.666607	2584.231573
461.039224	2587.866245
461.411782	2590.961513
461.784280	2588.854311
462.156719	2588.962696
462.529099	2589.676019
462.901419	2587.578899
463.273680	2589.653334
463.645882	2587.478076
464.018024	2586.298446
464.390106	2584.612180
464.762130	2587.657037
465.134094	2588.947572
465.505999	2592.166349
465.877845	2592.708273
466.249631	2598.374530
466.621358	2599.050044
466.993026	2595.034765
467.364634	2597.550301
467.736184	2594.102152
468.107674	2593.013263
468.479105	2594.860846
468.850477	2595.871597
469.221790	2594.724734
469.593043	2594.233222
469.964238	2598.780343
470.335373	2594.558376
470.706449	2593.865218
471.077467	2595.332193
471.448425	2593.189703
471.819324	2598.261104
472.190164	2601.588265
472.560945	2596.894951
472.931667	2597.502410
473.302330	2594.165166
473.672934	2596.297574
474.043479	2595.120465
474.413965	2596.259766
474.784393	2599.917123
475.154761	2599.856629
475.525070	2595.848912
475.895321	2598.223295
476.265513	2596.970568
476.635645	2598.273707
477.005719	2597.515013
477.375734	2599.861670
477.745691	2600.547267
478.115588	2599.092894
478.485427	2598.850919
478.855207	2600.408635
479.224928	2605.147320
479.594591	2605.139758
479.964194	2605.364090
480.333739	2607.577156
480.703226	2607.491457
481.072653	2607.594800
481.442022	2606.571446
481.811333	2607.176384
482.180584	2605.472474
482.549777	2605.769902
482.918912	2603.589603
483.287988	2609.520521
483.657005	2606.147989
484.025964	2610.122939
484.394864	2606.016919
484.763706	2610.838783
485.132489	2609.081941
485.501213	2606.959615
485.869879	2606.846189
486.238487	2609.371807
486.607036	2610.463217
486.975527	2611.355501
487.343959	2608.923144
487.712333	2609.540686
488.080648	2608.010695
488.448905	2612.235182
488.817104	2611.410954
489.185244	2613.256016
489.553326	2615.015379
489.921350	2614.107971
490.289315	2615.905142
490.657222	2616.817591
491.025070	2621.417644
491.392861	2619.091152
491.760593	2621.798251
492.128267	2618.012345
492.495883	2618.597118
492.863440	2616.401696
493.230939	2617.520832
493.598380	2619.590226
493.965763	2616.726850
494.333088	2619.209619
494.700354	2619.302880
495.067563	2619.396141
495.434713	2620.164917
495.801805	2619.917901
496.168839	2619.118878
496.535815	2619.968312
496.902733	2622.589712
497.269593	2620.495113
497.636395	2622.168776
498.003139	2625.679940
498.369825	2623.731534
498.736453	2626.620115
499.103023	2625.392594
499.469535	2628.387039
499.835989	2627.545167
500.202385	2624.810341
500.568723	2623.199692
500.935003	2626.932666
501.301226	2626.383181
501.667390	2634.512041
502.033497	2634.529685
502.399546	2636.286527
502.765537	2635.237967
503.131470	2637.519089
503.497345	2639.873308
503.863163	2639.941364
504.228923	2644.367497
504.594625	2648.818836
504.960269	2644.836324
505.325856	2647.982004
505.691385	2652.395534
506.056856	2654.601039
506.422270	2658.160094
506.787625	2660.262255
507.152924	2660.635300
507.518164	2665.870539
507.883347	2665.648728
508.248472	2667.997906
508.613540	2674.669873
508.978550	2676.698937
509.343503	2679.978208
509.708398	2686.778724
510.073236	2691.512368
510.438016	2695.643593
510.802738	2698.948070
511.167403	2703.812783
511.532010	2707.192877
511.896561	2720.539332
512.261053	2724.065619
512.625488	2727.710373
512.989866	2734.014336
513.354186	2741.238309
513.718449	2749.518404
514.082655	2761.155908
514.446803	2764.679675
514.810894	2779.225924
515.174927	2784.098199
515.538904	2794.389715
515.902822	2808.106694
516.266684	2816.555668
516.630488	2826.622852
516.994235	2837.584842
517.357925	2854.717203
517.721558	2869.248329
518.085133	2883.189640
518.448651	2901.564646
518.812112	2907.404822
519.175516	2931.965324
519.538863	2948.459979
519.902152	2966.895479
520.265385	2988.181751
520.628560	3002.491066
520.991678	3028.100128
521.354739	3053.409241
521.717743	3076.217941
522.080690	3097.002618
522.443580	3131.100983
522.806413	3150.711072
523.169189	3179.884229
523.531908	3209.685010
523.894569	3233.990933
524.257174	3267.270110
524.619722	3302.464926
524.982213	3323.761280
525.344647	3361.905171
525.707025	3402.151223
526.069345	3439.259156
526.431608	3481.309941
526.793815	3526.544214
527.155964	3542.733880
527.518057	3592.837908
527.880093	3630.775111
528.242072	3675.966535
528.603995	3710.914334
528.965860	3751.354470
529.327669	3810.320847
529.689421	3850.529090
530.051117	3889.043505
530.412755	3958.840801
530.774337	3993.894464
531.135862	4040.580590
531.497331	4109.006691
531.858743	4133.736072
532.220098	4235.060743
532.581396	4249.201180
532.942638	4334.008511
533.303824	4390.308117
533.664953	4459.835711
534.026025	4507.663658
534.387040	4577.584462
534.747999	4669.658616
535.108902	4736.537084
535.469748	4771.258031
535.830537	4865.036095
536.191270	4932.325417
536.551947	5019.393706
536.912567	5028.374521
537.273131	5141.797962
537.633638	5173.796686
537.994089	5315.921937
538.354483	5323.839069
538.714821	5463.542045
539.075103	5573.661009
539.435328	5631.472962
539.795497	5655.478936
540.155609	5806.469056
540.515665	5925.200832
540.875665	5908.078553
541.235609	6033.192429
541.595496	6138.113964
541.955328	6281.280213
542.315102	6363.496391
542.674821	6401.801598
543.034483	6464.417770
543.394090	6563.257153
543.753640	6629.371886
544.113134	6825.445044
544.472571	6874.374483
544.831953	7054.404170
545.191278	7053.882410
545.550548	7166.557240
545.909761	7255.374809
546.268918	7435.268384
546.628019	7523.337342
546.987064	7626.257538
547.346053	7672.326123
547.704986	7783.627238
548.063863	7943.918286
548.422684	7993.994588
548.781449	8047.050212
549.140158	8243.831652
549.498811	8298.742420
549.857408	8299.125548
550.215949	8533.118266
550.574434	8553.950834
550.932864	8737.864729
551.291237	8867.228298
551.649555	8979.956060
552.007817	9104.596068
552.366022	9197.461684
552.724173	9298.819123
553.082267	9416.283049
553.440305	9670.029528
553.798288	9574.361031
554.156215	9845.335653
554.514086	10004.308439
554.871902	9917.119163
555.229661	10124.161872
555.587365	10221.635102
555.945014	10263.816957
556.302606	10505.333597
556.660143	10565.545138
557.017625	10808.561521
557.375050	10776.761923
557.732421	11002.693835
558.089735	11093.674059
558.446994	11203.853518
558.804197	11359.678104
559.161345	11499.020637
559.518437	11454.154368
559.875474	11716.667413
560.232455	11860.799043
560.589381	11974.998822
560.946251	12028.614013
561.303065	12330.107781
561.659825	12495.918892
562.016528	12439.858741
562.373177	12461.490332
562.729770	12715.201523
563.086307	12835.634688
563.442789	13033.583156
563.799216	13078.716606
564.155587	13175.206812
564.511904	13324.366992
564.868164	13383.388821
565.224370	13544.584757
565.580520	13563.637798
565.936615	13796.145895
566.292654	13721.486407
566.648638	14050.971181
567.004567	14039.071538
567.360441	14137.530313
567.716260	14108.566364
568.072023	14438.126755
568.427732	14411.496860
568.783385	14392.499272
569.138982	14624.193223
569.494525	14798.768381
569.850013	14785.358912
570.205445	14930.758392
570.560823	14903.291665
570.916145	14926.654892
571.271412	15080.931844
571.626625	15106.495535
571.981782	15241.505197
572.336884	15225.418875
572.691931	15421.242496
573.046923	15330.489124
573.401860	15421.970943
573.756743	15528.314083
574.111570	15553.504729
574.466342	15606.333501
574.821059	15786.940399
575.175722	15676.881928
575.530330	15810.510314
575.884882	15900.749488
576.239380	15959.652850
576.593823	15973.344624
576.948211	16028.633479
577.302544	16017.600914
577.656823	16031.370826
578.011047	16218.513580
578.365216	16205.575458
578.719330	16206.792897
579.073389	16208.083433
579.427394	16429.039726
579.781344	16317.231975
580.135239	16352.094074
580.489080	16390.084210
580.842866	16280.973476
581.196597	16538.606684
581.550273	16549.702264
581.903895	16609.704598
582.257463	16895.424595
582.610975	16617.185670
582.964434	16917.250270
583.317837	16775.256090
583.671186	16918.177843
584.024481	16967.024103
584.377721	16837.806727
584.730906	16954.963142
585.084037	17079.172132
585.437113	17049.290692
585.790135	17280.551105
586.143103	16928.824760
586.496016	16973.922922
586.848874	17283.127134
587.201679	17289.050490
587.554428	17052.365796
587.907124	17398.221718
588.259765	17268.762366
588.612352	17414.108914
588.964884	17099.452694
589.317362	17299.445349
589.669786	17398.506543
590.022155	17515.983072
590.374470	17708.340899
590.726731	17607.999253
591.078937	17431.173220
591.431090	17590.939988
591.783188	17400.840597
592.135232	17429.673477
592.487222	17593.793281
592.839157	17646.712794
593.191038	17606.333151
593.542866	17542.176907
593.894639	17361.204525
594.246358	17595.983662
594.598022	17559.946974
594.949633	17383.294861
595.301190	17382.415180
595.652692	17576.214778
596.004141	17851.514710
596.355535	17267.983508
596.706876	17327.227148
597.058162	17269.029548
597.409395	17490.227817
597.760573	17640.615518
598.111698	17464.943909
598.462768	17443.453471
598.813785	17430.285977
599.164748	17306.686967
599.515657	17367.120319
599.866511	17205.022017
600.217312	17572.469200
600.568060	17161.927713
600.918753	17485.572311
601.269392	17424.576870
601.619978	17236.211636
601.970510	17476.374726
602.320988	17434.749918
602.671412	17672.334458
603.021783	17585.621571
603.372100	17371.579220
603.722363	17520.678906
604.072572	17490.462230
604.422728	17631.405330
604.772830	17441.076567
605.122878	17395.065955
605.472872	17424.571829
605.822813	17423.205676
606.172701	17397.437818
606.522534	17621.890152
606.872314	17657.155544
607.222041	17501.721647
607.571714	17744.710304
607.921333	17598.025330
608.270899	17676.319490
608.620411	17893.363848
608.969870	17650.647414
609.319276	17674.524839
609.668627	17726.821769
610.017926	17874.676291
610.367171	17998.857554
610.716362	18049.569042
611.065500	17886.412097
611.414585	18017.595523
611.763616	18018.976799
612.112594	17986.352972
612.461518	17956.325339
612.810389	18168.063883
613.159207	18020.663065
613.507971	17938.436805
613.856682	18253.249301
614.205340	18191.782512
614.553945	18335.876333
614.902496	18082.313856
615.250994	18349.071553
615.599439	18287.120814
615.947830	18283.465977
616.296169	18321.120876
616.644454	18299.416188
616.992686	18269.030633
617.340864	18487.612543
617.688990	18255.343900
618.037063	18438.705789
618.385082	18279.886758
618.733048	18570.768897
619.080961	18436.502805
619.428821	18489.366865
619.776628	18385.884579
620.124382	18301.490623
620.472083	18340.418413
620.819731	18388.853819
621.167326	18084.557170
621.514868	18130.272873
621.862357	17898.755362
622.209793	17915.081139
622.557176	17755.926871
622.904506	17599.772090
623.251783	17494.227972
623.599007	17283.686702
623.946179	17234.658961
624.293297	17196.101695
624.640363	16955.626054
624.987376	16969.378322
625.334336	16756.848317
625.681243	16615.103673
626.028097	16607.572190
626.374899	16556.591001
626.721647	16429.196002
627.068343	16257.222080
627.414987	16188.632140
627.761577	16177.360120
628.108115	16231.348357
628.454600	15941.313133
628.801032	16038.766198
629.147412	15959.138653
629.493739	15984.735111
629.840014	15806.232895
630.186236	15902.138326
630.532405	15665.030176
630.878521	15865.113572
631.224585	15747.183339
631.570597	15587.613176
631.916556	15618.122239
632.262462	15595.895792
632.608316	15522.010120
632.954117	15457.183403
633.299866	15462.159021
633.645562	15386.224121
633.991206	15134.136182
634.336797	15009.153375
634.682336	14977.625999
635.027823	14875.522469
635.373257	14762.227577
635.718639	14647.508560
636.063968	14606.637405
636.409245	14362.617833
636.754470	14388.786462
637.099642	14240.853803
637.444762	14012.597918
637.789829	14058.628694
638.134845	13913.897167
638.479808	13933.930712
638.824719	13891.907654
639.169577	13726.764495
639.514383	13781.274492
639.859137	13588.956993
640.203839	13670.301051
640.548489	13516.175334
640.893086	13501.314013
641.237632	13384.296229
641.582125	13516.785314
641.926566	13357.109286
642.270955	13363.788815
642.615292	13336.082634
642.959576	13342.074045
643.303809	13378.725754
643.647990	13317.286692
643.992118	13373.477913
644.336195	13144.521308
644.680219	13337.317716
645.024192	13273.234569
645.368112	13502.904497
645.711981	13572.568202
646.055797	13749.797527
646.399562	13712.785375
646.743274	13983.323938
647.086935	14258.379374
647.430544	14216.600811
647.774101	14243.263474
648.117606	14399.778698
648.461059	14361.105486
648.804460	14362.897617
649.147810	14095.751751
649.491108	13988.745699
649.834354	14015.209236
650.177548	13722.502199
650.520690	13518.098534
650.863781	13434.352366
651.206820	13480.168893
651.549807	13315.146722
651.892742	13132.500677
652.235626	13061.919482
652.578458	13070.255030
652.921238	12744.931728
653.263967	12941.705607
653.606644	12776.842232
653.949269	12740.838311
654.291843	12556.710167
654.634365	12706.026623
654.976836	12560.007081
655.319255	12582.576327
655.661622	12522.836133
656.003938	12447.435595
656.346203	12382.034186
656.688416	12436.365222
657.030577	12401.843400
657.372687	12331.332781
657.714746	12296.032101
658.056753	12484.523364
658.398708	12316.925163
658.740612	12316.234525
659.082465	12408.946386
659.424266	12367.077083
659.766016	12391.327553
660.107715	12292.205866
660.449362	12370.946168
660.790958	12338.271929
661.132503	12288.853498
661.473996	12342.998011
661.815438	12362.610620
662.156829	12376.383053
662.498168	12358.146678
662.839456	12348.684433
663.180693	12377.292981
663.521879	12463.116104
663.863013	12447.743106
664.204097	12418.882500
664.545129	12538.715768
664.886110	12500.561795
665.227040	12590.143099
665.567918	12596.109305
665.908746	12633.444090
666.249522	12608.185389
666.590248	12649.636276
666.930922	12769.003238
667.271545	12762.800098
667.612118	12842.725071
667.952639	12755.563521
668.293109	12747.028848
668.633528	12715.130947
668.973896	12681.526615
669.314213	12771.339812
669.654480	12518.495700
669.994695	12571.100140
670.334859	12597.997217
670.674973	12542.242055
671.015035	12578.432499
671.355047	12514.931604
671.695008	12496.012154
672.034918	12498.237823
672.374777	12542.620142
672.714585	12456.930609
673.054342	12486.096204
673.394049	12443.480810
673.733705	12526.359900
674.073310	12451.796193
674.412864	12459.980507
674.752368	12348.661747
675.091820	12350.466481
675.431223	12343.557579
675.770574	12212.590923
676.109875	12133.485137
676.449125	12103.787699
676.788324	12036.120291
677.127473	11871.453522
677.466571	11864.254754
677.805619	11766.100968
678.144616	11683.461333
678.483562	11644.200827
678.822458	11512.157884
679.161303	11499.101296
679.500098	11493.946716
679.838842	11442.302615
680.177535	11467.931841
680.516179	11515.207782
680.854771	11473.051133
681.193314	11685.629029
681.531805	11834.481699
681.870247	12230.363511
682.208638	12628.052576
682.546978	12954.089201
682.885268	13027.453113
683.223508	12704.443701
683.561697	12550.285216
683.899836	12442.770007
684.237925	12253.699012
684.575963	12174.595746
684.913951	12102.340888
685.251889	12041.804192
685.589776	12145.367136
685.927614	12074.609501
686.265401	12030.093592
686.603137	12081.967065
686.940824	12234.081362
687.278460	12342.115809
687.616046	12391.781257
687.953582	12578.084659
688.291068	12494.189777
688.628504	12716.315618
688.965889	12722.886762
689.303224	12697.406250
689.640510	12601.034512
689.977745	12297.287349
690.314930	12072.068759
690.652065	11987.684885
690.989150	11702.048067
691.326185	11476.791669
691.663170	11273.194589
692.000105	11023.357525
692.336990	10924.558471
692.673825	10677.909937
693.010610	10553.151462
693.347345	10343.772178
693.684030	10143.824893
694.020665	10086.146531
694.357251	9893.365246
694.693786	9851.382517
695.030272	9682.897073
695.366707	9557.584071
695.703093	9484.000869
696.039429	9487.285180
696.375716	9415.685672
696.711952	9290.617166
697.048139	9320.251589
697.384276	9276.514538
697.720363	9288.479717
698.056400	9227.370850
698.392388	9184.296711
698.728326	9148.960743
699.064214	9083.032533
699.400053	9120.440415
699.735842	8934.164739
700.071581	8895.297443
700.407270	8827.078029
700.742910	8744.864371
701.078501	8658.801793
701.414042	8540.851396
701.749533	8471.603586
702.084974	8332.387081
702.420366	8445.119884
702.755709	8329.468253
703.091002	8199.025877
703.426246	8221.194351
703.761440	8172.763986
704.096584	8135.424159
704.431679	8062.962614
704.766725	8049.376704
705.101721	8006.975559
705.436668	8043.153400
705.771565	7935.854961
706.106413	8016.246241
706.441212	8069.148110
706.775961	8019.986777
707.110661	8045.154738
707.445311	8195.355917
707.779913	8093.181811
708.114465	8223.815751
708.448967	8261.891586
708.783421	8394.640290
709.117825	8584.142304
709.452180	8617.912994
709.786485	8703.652938
710.120742	8974.998085
710.454949	8974.955236
710.789107	9082.195701
711.123216	9287.670612
711.457275	9446.252709
711.791286	9617.669583
712.125247	9607.491494
712.459159	9597.106717
712.793023	9850.946457
713.126837	9433.662427
713.460602	9575.066792
713.794318	9401.351151
714.127985	9429.705121
714.461602	9130.666396
714.795171	9070.878311
715.128691	8832.658586
715.462162	8574.738032
715.795584	8522.441102
716.128957	8388.638796
716.462281	8217.327786
716.795556	8261.957121
717.128782	8061.525885
717.461960	7788.128988
717.795088	7862.175977
718.128167	7770.981504
718.461198	7597.598579
718.794180	7540.608335
719.127113	7529.868156
719.459997	7400.892756
719.792833	7155.607854
720.125619	7219.035651
720.458357	7083.965496
720.791046	7069.114257
721.123686	7072.910245
721.456278	6918.035917
721.788821	6935.117867
722.121315	6821.664179
722.453761	6887.650362
722.786158	6838.310069
723.118506	6847.137129
723.450805	6816.512120
723.783056	6881.908488
724.115259	6784.226050
724.447412	6779.910822
724.779518	6829.004099
725.111574	6833.049625
725.443582	6910.769094
725.775542	6892.310909
726.107453	7071.536531
726.439315	6987.180383
726.771129	7042.905298
727.102895	7213.369394
727.434612	7325.693864
727.766281	7348.953748
728.097901	7443.382121
728.429473	7418.035199
728.760996	7393.477218
729.092471	7376.460804
729.423897	7332.580080
729.755276	7342.448139
730.086606	7267.516428
730.417887	7373.917542
730.749120	7545.304169
731.080305	7741.999910
731.411442	7880.314048
731.742530	7876.694500
732.073570	7969.734035
732.404562	8058.027324
732.735506	7905.088799
733.066401	8051.630100
733.397249	7987.733475
733.728048	7753.271930
734.058798	7418.572082
734.389501	7200.335491
734.720156	7019.786566
735.050762	6788.967255
735.381320	6688.618047
735.711831	6644.192878
736.042293	6536.748246
736.372707	6558.561318
736.703073	6415.687457
737.033391	6458.320495
737.363661	6463.313758
737.693883	6487.349979
738.024056	6571.653195
738.354182	6619.710515
738.684260	6658.398850
739.014290	6759.834427
739.344272	6870.402054
739.674207	6899.607979
740.004093	6962.622402
740.333931	6982.408931
740.663722	6992.644994
740.993464	7067.619554
741.323159	7066.613844
741.652806	6815.347613
741.982405	6808.045502
742.311956	6876.678291
742.641460	6729.295117
742.970915	6528.034611
743.300323	6527.245671
743.629683	6468.158307
743.958996	6336.281722
744.288260	6253.684937
744.617477	6195.225196
744.946647	6208.385128
745.275768	6042.390014
745.604842	5997.566595
745.933869	5981.064378
746.262847	5936.180465
746.591778	5926.042704
746.920662	5881.252052
747.249498	5871.918356
747.578286	5914.193472
747.907027	5989.911603
748.235720	6050.831427
748.564365	6023.072313
748.892963	6044.358585
749.221514	6201.793820
749.550017	6055.197066
749.878473	5920.628505
750.206881	5962.586028
750.535242	5912.814717
750.863555	5847.768708
751.191821	5866.211770
751.520039	5865.364856
751.848210	5778.236073
752.176334	5789.651766
752.504411	5848.489593
752.832440	5770.069404
753.160421	5694.956212
753.488356	5744.972020
753.816243	5778.800683
754.144082	5634.031347
754.471875	5602.302325
754.799620	5643.231453
755.127318	5654.054810
755.454969	5609.748109
755.782572	5572.945165
756.110129	5616.034428
756.437638	5611.867914
756.765100	5551.316095
757.092515	5541.589188
757.419882	5587.211631
757.747203	5570.354012
758.074477	5636.060412
758.401703	5629.075893
758.728882	5574.278551
759.056014	5625.594976
759.383099	5758.212610
759.710138	5774.301453
760.037129	5753.423514
760.364073	5759.924082
760.690970	5842.357030
761.017820	5828.642571
761.344623	5774.180465
761.671379	5872.072111
761.998088	5987.093598
762.324751	6216.771088
762.651366	6784.919208
762.977935	8050.614307
763.304456	9664.325462
763.630931	10589.107491
763.957359	10235.037010
764.283740	9313.604828
764.610074	8503.730859
764.936362	7525.689040
765.262602	6924.770898
765.588796	6385.188476
765.914943	6043.025200
766.241044	5882.230036
766.567097	5693.597621
766.893104	5435.069608
767.219064	5259.607207
767.544978	5194.084810
767.870845	5120.652842
768.196665	5017.374723
768.522438	4938.495789
768.848165	4907.943876
769.173846	4847.132437
769.499479	4804.867404
769.825066	4749.402108
770.150607	4691.751473
770.476101	4659.447759
770.801548	4664.612421
771.126949	4593.126339
771.452303	4536.904871
771.777611	4491.998272
772.102872	4506.383205
772.428087	4473.098987
772.753256	4434.372843
773.078378	4392.044795
773.403453	4324.216070
773.728482	4312.616375
774.053465	4265.826905
774.378401	4251.013475
774.703291	4256.347015
775.028135	4184.611396
775.352932	4137.426196
775.677683	4123.394144
776.002388	4144.214110
776.327046	4155.521418
776.651658	4077.464192
776.976224	4017.000592
777.300743	4022.233310
777.625216	4042.397926
777.949643	4043.738872
778.274024	3995.673991
778.598359	3947.145324
778.922647	3968.784477
779.246889	3964.171821
779.571086	3961.691573
779.895236	3946.295889
780.219339	3933.698046
780.543397	3921.011982
780.867409	3969.825475
781.191374	3988.865913
781.515294	3932.876338
781.839167	3921.684976
782.162995	3942.426804
782.486776	3927.376439
782.810511	3934.618056
783.134201	3933.720731
783.457844	3893.477200
783.781441	3837.477542
784.104993	3839.357893
784.428498	3860.490410
784.751958	3860.510574
785.075372	3835.854291
785.398739	3798.537149
785.722061	3809.559632
786.045337	3851.691076
786.368568	3889.592991
786.691752	3801.224084
787.014891	3844.590610
787.337983	3968.411431
787.661030	4120.676963
787.984031	4282.916417
788.306987	4457.345381
788.629897	4534.147360
788.952760	4491.973067
789.275579	4420.194598
789.598351	4366.597050
789.921078	4232.797265
790.243759	4033.074312
790.566395	4008.092874
790.888984	4008.375178
791.211529	3899.309815
791.534027	3836.597861
791.856480	3833.525278
792.178888	3771.146040
792.501249	3722.168710
792.823566	3727.212384
793.145836	3758.989298
793.468062	3713.387020
793.790241	3660.641427
794.112375	3689.103782
794.434464	3754.227928
794.756507	3781.495529
795.078505	3765.416769
795.400457	3789.745377
795.722364	3923.187240
796.044226	4027.140873
796.366042	4100.038479
796.687812	4088.514401
797.009538	4094.858693
797.331218	4049.246333
797.652852	4021.905635
797.974442	4002.993747
798.295986	4006.368799
798.617484	3923.398968
798.938938	3836.300433
799.260346	3875.883573
799.581709	3873.814179
799.903026	3803.258190
800.224299	3766.742592
800.545526	3762.974330
800.866708	3723.867579
801.187845	3658.405675
801.508936	3695.274154
801.829983	3697.840101
802.150984	3616.806074
802.471940	3604.437603
802.792851	3616.932103
803.113717	3618.164665
803.434538	3619.750108
803.755314	3568.474011
804.076045	3534.368085
804.396731	3556.027403
804.717372	3584.668718
805.037967	3568.446285
805.358518	3556.168555
805.679024	3584.388934
805.999485	3598.287395
806.319901	3601.203703
806.640272	3616.417905
806.960598	3632.042961
807.280879	3603.946090
807.601115	3613.131073
807.921306	3631.599340
808.241453	3674.161802
808.561554	3651.809326
808.881611	3586.528904
809.201623	3617.441259
809.521590	3634.515647
809.841513	3600.303857
810.161390	3631.816109
810.481223	3614.000672
810.801011	3559.566292
811.120755	3547.412071
811.440453	3583.068152
811.760107	3590.791199
812.079716	3554.673853
812.399281	3514.319416
812.718801	3536.654248
813.038276	3512.920496
813.357707	3509.038808
813.677093	3527.171838
813.996434	3475.890700
814.315731	3482.807163
814.634983	3482.519818
814.954191	3498.031448
815.273354	3527.267620
815.592473	3528.381715
815.911547	3528.976571
816.230577	3564.919998
816.549562	3616.541413
816.868502	3660.853156
817.187399	3683.745035
817.506250	3681.668080
817.825058	3652.467196
818.143821	3735.530288
818.462539	3840.945856
818.781213	3886.669122
819.099843	3940.334725
819.418429	4171.774098
819.736970	4408.433586
820.055466	4643.978979
820.373919	5004.179503
820.692327	5406.637500
821.010691	5818.633360
821.329011	7105.513908
821.647286	9727.528929
821.965517	14142.654646
822.283704	18150.722314
822.601847	20427.917371
822.919945	18691.587710
823.237999	16192.352512
823.556010	13746.672012
823.873976	11700.507995
824.191897	9636.457964
824.509775	8279.868340
824.827609	7159.418966
825.145398	6610.240707
825.463144	6495.564539
825.780845	6610.429750
826.098502	6773.669874
826.416116	7592.660769
826.733685	8881.479640
827.051210	10002.460857
827.368692	10116.547209
827.686129	8914.247140
828.003522	7410.924652
828.320872	6400.833697
828.638177	5712.249890
828.955439	5165.985418
829.272656	4669.086445
829.589830	4381.574318
829.906960	4212.889749
830.224046	4030.072304
830.541088	3900.852408
830.858086	3854.877085
831.175041	3783.522073
831.491952	3759.959720
831.808819	3772.907923
832.125642	3841.422245
832.442421	3980.462309
832.759157	4246.166405
833.075849	4765.216208
833.392497	5605.369867
833.709101	6369.785230
834.025662	6726.666155
834.342179	6403.598770
834.658653	5747.268265
834.975083	5117.708808
835.291469	4550.649577
835.607811	4135.200527
835.924110	4000.334538
836.240366	3805.330104
836.556578	3601.564145
836.872746	3492.702948
837.188871	3455.995787
837.504952	3391.837022
837.820990	3310.273673
838.136984	3262.349944
838.452935	3289.400776
838.768842	3283.369035
839.084706	3305.194711
839.400526	3449.946402
839.716303	3771.181328
840.032037	4272.566928
840.347727	4555.179054
840.663373	4304.976506
840.978977	3931.220319
841.294537	3630.480204
841.610054	3398.246849
841.925527	3290.751805
842.240957	3225.302504
842.556344	3171.377282
842.871687	3115.188581
843.186987	3066.125551
843.502244	3027.974099
843.817458	2995.602329
844.132629	2963.343986
844.447756	2972.445789
844.762840	2960.558748
845.077881	2929.444747
845.392879	2910.525297
845.707833	2906.875501
846.022745	2903.573545
846.337613	2905.398443
846.652438	2893.960065
846.967221	2894.897720
847.281960	2878.145965
847.596656	2873.082126
847.911309	2871.778988
848.225919	2866.858822
848.540485	2860.711135
848.855009	2863.970241
849.169490	2852.199147
849.483928	2842.623475
849.798323	2842.454596
850.112675	2839.024091
850.426984	2847.558764
850.741251	2846.482478
851.055474	2838.822445
851.369654	2831.036383
851.683792	2834.537464
851.997887	2846.147241
852.311938	2845.101202
852.625947	2838.724142
852.939914	2840.256653
853.253837	2842.600790
853.567718	2832.866322
853.881555	2828.848522
854.195350	2841.073320
854.509103	2839.800429
854.822812	2834.449244
855.136479	2829.292143
855.450103	2831.641321
855.763685	2823.862821
856.077224	2815.600370
856.390720	2834.822289
856.704173	2842.192456
857.017584	2836.795901
857.330953	2831.384222
857.644278	2839.913855
857.957561	2850.328878
858.270802	2852.907429
858.584000	2853.214939
858.897155	2838.754389
859.210268	2835.916220
859.523339	2839.079544
859.836367	2836.367403
860.149352	2831.827844
860.462295	2826.741320
860.775195	2833.551918
861.088054	2836.813545
861.400869	2818.733447
861.713642	2813.694813
862.026373	2828.848522
862.339062	2833.367916
862.651708	2835.800273
862.964312	2843.694720
863.276873	2831.848008
863.589392	2843.583815
863.901869	2856.617718
864.214303	2877.712426
864.526696	2894.484345
864.839045	2888.387069
865.151353	2887.020917
865.463619	2883.376163
865.775842	2886.040412
866.088023	2905.234606
866.400162	2912.088054
866.712258	2884.223076
867.024313	2872.807383
867.336325	2880.729557
867.648296	2901.095818
867.960224	2895.694222
868.272110	2880.190153
868.583954	2888.006462
868.895755	2901.995664
869.207515	2887.885475
869.519233	2893.370250
869.830909	2899.369223
870.142542	2910.774834
870.454134	2911.941861
870.765684	2914.515370
871.077191	2914.033940
871.388657	2919.458221
871.700081	2933.240736
872.011463	2944.348918
872.322803	2943.950667
872.634101	2942.145934
872.945357	2958.184365
873.256571	2986.064466
873.567744	2977.267653
873.878874	2969.111066
874.189963	2994.054695
874.501010	2997.787670
874.812015	2984.771410
875.122979	2985.769559
875.433900	2979.682366
875.744780	2986.676967
876.055618	2998.380005
876.366415	2992.222236
876.677169	3003.564832
876.987882	3003.310254
877.298554	2988.547235
877.609183	3011.728981
877.919771	3031.505427
878.230317	3061.054150
878.540822	3110.167592
878.851285	3147.361225
879.161707	3189.253213
879.472087	3278.496760
879.782425	3492.897033
880.092722	3902.906678
880.402977	4419.902211
880.713191	5021.183315
881.023363	6124.830524
881.333494	7381.839715
881.643583	7954.076211
881.953631	7670.823859
882.263637	7074.415030
882.573602	6513.483321
882.883526	5948.468277
883.193408	5380.017687
883.503248	4917.615330
883.813048	4625.399806
884.122806	4335.427596
884.432522	4032.270247
884.742197	3799.255514
885.051831	3611.240640
885.361424	3476.304075
885.670975	3405.092736
885.980485	3326.347392
886.289954	3252.653285
886.599382	3210.121070
886.908768	3170.263187
887.218113	3129.994450
887.527417	3073.586459
887.836680	3023.875641
888.145901	3021.710465
888.455082	3011.948271
888.764221	2961.297278
889.073319	2931.879624
889.382376	2932.522371
889.691392	2933.971703
890.000366	2934.344748
890.309300	2920.708427
890.618193	2936.802311
890.927044	2953.997687
891.235855	2951.653550
891.544625	2934.359872
891.853353	2944.442180
892.162041	2963.974130
892.470687	3002.642301
892.779293	3054.029302
893.087858	3098.802310
893.396381	3165.345541
893.704864	3275.933333
894.013306	3505.202489
894.321707	3794.930204
894.630068	4006.237729
894.938387	4005.983151
895.246665	3960.108651
895.554903	3847.663194
895.863100	3652.802433
896.171256	3488.410406
896.479371	3357.204295
896.787446	3237.872622
897.095480	3140.772437
897.403473	3073.861202
897.711425	3035.240922
898.019336	3027.780014
898.327207	3002.584328
898.635038	2968.284317
898.942827	2951.509877
899.250576	2943.106274
899.558284	2912.030081
899.865952	2889.218860
900.173579	2873.190511
900.481165	2866.347145
900.788711	2854.520598
901.096216	2831.409428
901.403681	2819.691266
901.711105	2824.414827
902.018489	2823.121771
902.325832	2821.538849
902.633135	2830.948162
902.940397	2864.426465
903.247619	2939.945470
903.554800	3116.055659
903.861941	3441.056327
904.169041	3854.945140
904.476101	4154.659381
904.783121	4132.974857
905.090100	3896.529618
905.397039	3630.810399
905.703938	3386.054818
906.010796	3206.998075
906.317614	3094.552618
906.624391	3006.839061
906.931129	2937.586210
907.237826	2874.032384
907.544483	2826.781649
907.851099	2801.122176
908.157675	2780.231634
908.464211	2760.485435
908.770707	2746.647467
909.077163	2734.218502
909.383578	2718.845504
909.689954	2710.842672
909.996289	2712.125646
910.302584	2707.951570
910.608839	2708.619523
910.915054	2702.809593
911.221229	2697.743234
911.527363	2699.900848
911.833458	2702.456713
912.139513	2708.523741
912.445527	2709.703371
912.751502	2721.459342
913.057436	2728.922770
913.363331	2742.564133
913.669186	2758.244642
913.975000	2795.581948
914.280775	2850.144876
914.586510	2916.080648
914.892205	2993.260713
915.197859	3112.060545
915.503475	3296.264307
915.809050	3502.455061
916.114585	3642.490753
916.420081	3668.919002
916.725536	3615.260960
917.030952	3502.104700
917.336328	3378.409908
917.641665	3252.320568
917.946961	3154.108809
918.252218	3086.630444
918.557435	3012.477592
918.862612	2956.997173
919.167750	2908.859195
919.472848	2871.055582
919.777906	2845.169257
920.082925	2817.624393
920.387904	2788.509209
920.692843	2775.966818
920.997743	2763.956269
921.302603	2751.378590
921.607423	2740.477095
921.912204	2728.829509
922.216946	2715.997252
922.521647	2710.545244
922.826310	2702.865046
923.130932	2695.638552
923.435516	2685.306707
923.740059	2682.584484
924.044564	2672.595438
924.349028	2666.561177
924.653454	2663.090342
924.957840	2653.015596
925.262186	2650.628610
925.566493	2649.542241
925.870761	2641.932620
926.174989	2637.594707
926.479178	2634.365848
926.783328	2632.571197
927.087438	2628.621453
927.391509	2627.467029
927.695541	2625.533746
927.999533	2622.098200
928.303486	2616.641151
928.607400	2620.522839
928.911275	2618.050153
929.215110	2617.273816
929.518906	2612.504884
929.822663	2613.432456
930.126381	2609.313834
930.430060	2615.441356
930.733699	2614.584360
931.037299	2620.278343
931.340861	2617.805657
931.644383	2620.699280
931.947866	2617.178034
932.251309	2616.396655
932.554714	2614.072683
932.858080	2613.008999
933.161407	2611.617641
933.464694	2611.917590
933.767943	2606.982300
934.071153	2613.371962
934.374323	2609.230655
934.677455	2611.398351
934.980548	2604.912906
935.283602	2607.889708
935.586617	2605.182608
935.889593	2605.734614
936.192530	2604.766713
936.495428	2607.960284
936.798287	2610.309462
937.101108	2613.271139
937.403890	2615.025461
937.706632	2621.430247
938.009336	2626.693212
938.312002	2633.831485
938.614628	2644.579225
938.917216	2649.436377
939.219765	2651.427633
939.522275	2650.023672
939.824747	2648.566778
940.127179	2645.922693
940.429573	2642.978659
940.731929	2640.324492
941.034246	2638.403812
941.336524	2635.348873
941.638763	2630.146402
941.940964	2629.536422
942.243126	2627.651031
942.545250	2628.583644
942.847335	2625.788324
943.149381	2623.633231
943.451389	2617.510750
943.753359	2617.417488
944.055290	2610.392641
944.357182	2615.542179
944.659036	2612.116715
944.960851	2610.901797
945.262628	2605.974069
945.564367	2609.122270
945.866067	2613.180399
946.167729	2610.168309
946.469352	2611.960439
946.770937	2613.026643
947.072484	2609.747373
947.373992	2609.210490
947.675462	2606.949532
947.976893	2601.424428
948.278286	2598.921495
948.579641	2600.353183
948.880958	2599.405446
949.182236	2601.190014
949.483476	2600.128851
949.784678	2600.101125
950.085841	2601.036259
950.386967	2600.814448
950.688054	2601.681527
950.989103	2603.501383
951.290114	2602.599017
951.591087	2606.352156
951.892021	2606.926847
952.192917	2607.718308
952.493776	2615.285080
952.794596	2610.828700
953.095378	2612.073865
953.396122	2612.303238
953.696828	2611.133690
953.997496	2608.930706
954.298126	2610.478340
954.598718	2604.880139
954.899272	2603.251846
955.199788	2599.342431
955.500266	2597.946032
955.800706	2594.525609
956.101108	2595.249014
956.401472	2593.870259
956.701798	2591.110227
957.002087	2589.247521
957.302337	2585.413723
957.602550	2586.958837
957.902724	2585.350709
958.202861	2584.012282
958.502960	2582.414237
958.803022	2582.721747
959.103045	2581.912642
959.403031	2581.408527
959.702979	2580.052456
960.002889	2578.920717
960.302762	2579.893660
960.602596	2578.381314
960.902393	2576.846282
961.202153	2576.672363
961.501875	2575.860737
961.801559	2576.463155
962.101205	2575.956519
962.400814	2577.904925
962.700385	2574.411405
962.999918	2573.693041
963.299414	2571.782443
963.598873	2573.627506
963.898293	2570.718760
964.197677	2575.381827
964.497022	2576.085068
964.796331	2577.219328
965.095601	2574.847465
965.394835	2576.924420
965.694030	2574.277814
965.993189	2573.778740
966.292309	2573.698082
966.591393	2573.042732
966.890439	2575.175140
967.189447	2572.427711
967.488419	2572.306723
967.787353	2572.243709
968.086249	2573.992989
968.385108	2575.656570
968.683930	2573.307392
968.982714	2574.786971
969.281462	2573.695561
969.580172	2574.678586
969.878844	2573.123390
970.177480	2574.706313
970.476078	2574.008113
970.774639	2575.444842
971.073162	2575.039029
971.371649	2575.175140
971.670098	2572.551219
971.968510	2573.844275
972.266885	2574.519790
972.565223	2579.286201
972.863524	2574.048442
973.161788	2573.191446
973.460014	2575.137331
973.758204	2576.644636
974.056356	2574.849985
974.354471	2572.064748
974.652550	2572.992320
974.950591	2575.427198
975.248595	2576.372414
975.546563	2575.583473
975.844493	2571.406877
976.142386	2574.376117
976.440243	2571.926116
976.738062	2573.970304
977.035845	2572.415108
977.333590	2571.147258
977.631299	2571.916034
977.928971	2569.297154
978.226606	2566.249777
978.524204	2570.373441
978.821765	2566.663152
979.119290	2572.006775
979.416777	2572.987279
979.714228	2570.633060
980.011642	2571.371589
980.309020	2573.342680
980.606360	2573.559450
980.903664	2572.039542
981.200931	2570.617937
981.498162	2574.323185
981.795356	2575.013823
982.092513	2576.705130
982.389633	2576.385017
982.686717	2581.968095
982.983764	2584.274423
983.280775	2587.828436
983.577749	2590.381780
983.874686	2589.134095
984.171587	2585.801892
984.468451	2584.723085
984.765279	2582.716706
985.062070	2580.707806
985.358824	2577.191601
985.655543	2576.150603
985.952224	2572.412587
986.248869	2576.768144
986.545478	2570.131465
986.842050	2572.578946
987.138586	2570.814542
987.435086	2570.895200
987.731549	2569.735735
988.027975	2570.174315
988.324366	2571.250602
988.620719	2569.292113
988.917037	2570.731363
989.213318	2571.122052
989.509563	2568.107442
989.805772	2569.405539
990.101944	2569.813873
990.398080	2569.899572
990.694180	2568.972000
990.990244	2566.524520
991.286271	2569.768502
991.582262	2571.726991
991.878217	2569.637432
992.174136	2569.801270
992.470019	2569.488718
992.765865	2564.893707
993.061676	2563.935887
993.357450	2568.220868
993.653188	2563.497307
993.948890	2567.305899
994.244556	2570.534758
994.540186	2567.419325
994.835780	2567.663821
995.131337	2572.072310
995.426859	2569.463512
995.722345	2570.648184
996.017795	2571.215313
996.313208	2572.193297
996.608586	2571.853019
996.903928	2573.592217
997.199234	2574.749162
997.494504	2576.359811
997.789738	2571.724470
998.084936	2571.918554
998.380099	2574.585325
998.675225	2570.653225
998.970316	2571.961404
999.265371	2570.212124
999.560390	2568.409911
999.855373	2571.716908
1000.150320	2570.070972
1000.445232	2569.004767
1000.740108	2570.151630
1001.034948	2569.828996
1001.329752	2566.431258
1001.624521	2566.930333
1001.919254	2567.704150
1002.213951	2565.750703
1002.508613	2567.792370
1002.803239	2568.586352
1003.097829	2566.819427
1003.392384	2567.915878
1003.686903	2564.782801
1003.981386	2569.375292
1004.275834	2568.188101
1004.570246	2567.089129
1004.864623	2568.059551
1005.158964	2568.203224
1005.453270	2569.050138
1005.747540	2567.915878
1006.041775	2569.067782
1006.335974	2566.010322
1006.630138	2565.312122
1006.924266	2566.552246
1007.218359	2568.596434
1007.512416	2563.935887
1007.806438	2563.222564
1008.100425	2564.162739
1008.394376	2559.900444
1008.688292	2564.404715
1008.982172	2567.142061
1009.276017	2567.424366
1009.569827	2567.237843
1009.863602	2567.668862
1010.157341	2565.289437
1010.451045	2568.745148
1010.744714	2567.323543
1011.038347	2567.048800
1011.331945	2564.495455
1011.625508	2565.206258
1011.919036	2566.219530
1012.212528	2563.293140
1012.505986	2568.253636
1012.799408	2567.479818
1013.092795	2566.877401
1013.386147	2565.796073
1013.679464	2565.453275
1013.972745	2568.709860
1014.265992	2565.869170
1014.559204	2568.379664
1014.852380	2562.738613
1015.145521	2565.057544
1015.438628	2565.876732
1015.731699	2565.803635
1016.024736	2565.544015
1016.317737	2566.025446
1016.610703	2561.402707
1016.903635	2565.634756
1017.196531	2567.815055
1017.489393	2566.239695
1017.782219	2563.865311
1018.075011	2566.123748
1018.367768	2563.933367
1018.660490	2564.548387
1018.953177	2564.548387
1019.245829	2564.548387
