Dividing Wavelength (nm)	Counts (n)	Blue Motor Position (mm): 49.700000	Red Motor Position (mm): 0.000000	
326.493990	2286.927004
326.888308	2286.927004
327.282561	2286.927004
327.676750	2246.103740
328.070874	2243.021075
328.464933	2242.988307
328.858929	2248.296642
329.252859	2254.986253
329.646726	2261.892634
330.040528	2274.719850
330.434265	2288.835081
330.827938	2306.975673
331.221547	2322.031079
331.615091	2340.325426
332.008571	2357.795545
332.401986	2378.620551
332.795338	2396.746020
333.188625	2418.221335
333.581847	2437.720518
333.975006	2455.735082
334.368100	2473.064048
334.761129	2494.292347
335.154095	2510.466889
335.546996	2539.829090
335.939833	2576.906776
336.332606	2591.974785
336.725315	2606.127824
337.117960	2618.745832
337.510540	2625.412758
337.903056	2639.898514
338.295508	2648.460914
338.687896	2659.080104
339.080220	2664.065806
339.472480	2669.588390
339.864676	2678.405368
340.256807	2681.535924
340.648875	2684.631193
341.040879	2686.675381
341.432818	2689.309383
341.824694	2692.578572
342.216506	2693.082687
342.608253	2693.743078
342.999937	2693.745599
343.391557	2692.681915
343.783113	2695.520085
344.174605	2692.676874
344.566033	2690.897347
344.957397	2691.403983
345.348697	2689.231246
345.739934	2689.493386
346.131106	2686.788807
346.522215	2687.227387
346.913260	2683.191943
347.304241	2680.968794
347.695159	2679.600121
348.086012	2679.700944
348.476802	2679.320337
348.867528	2673.956549
349.258191	2671.473781
349.648789	2671.657783
350.039324	2663.786022
350.429796	2672.565191
350.820203	2670.606703
351.210548	2668.991013
351.600828	2666.046979
351.991045	2666.808193
352.381198	2665.094201
352.771288	2663.196207
353.161314	2664.335507
353.551276	2663.813748
353.941175	2662.200579
354.331010	2662.714776
354.720782	2662.321566
355.110490	2664.040600
355.500135	2663.004643
355.889717	2663.763336
356.279235	2662.082112
356.668689	2662.573624
357.058080	2663.821310
357.447408	2663.677637
357.836672	2665.484890
358.225873	2665.081598
358.615010	2664.292657
359.004084	2667.851712
359.393095	2667.629901
359.782043	2668.769202
360.170927	2670.536127
360.559748	2667.216527
360.948505	2668.786846
361.337199	2671.249450
361.725830	2670.533606
362.114398	2669.381702
362.502903	2667.760971
362.891344	2672.303051
363.279722	2670.964625
363.668037	2674.029646
364.056289	2672.494615
364.444478	2672.194666
364.832603	2676.673731
365.220665	2676.083916
365.608665	2677.913855
365.996601	2678.841427
366.384474	2678.584329
366.772284	2678.959895
367.160031	2679.852179
367.547715	2680.187416
367.935336	2682.098013
368.322893	2679.620286
368.710388	2678.912004
369.097820	2679.705985
369.485189	2681.659432
369.872495	2687.194619
370.259738	2688.331400
370.646918	2694.204344
371.034035	2695.227698
371.421090	2702.779347
371.808081	2710.986345
372.195010	2717.481872
372.581875	2725.867831
372.968678	2734.468040
373.355418	2744.971284
373.742096	2761.100455
374.128710	2775.641664
374.515262	2789.603139
374.901751	2808.915800
375.288177	2822.201761
375.674540	2841.116170
376.060841	2864.544932
376.447079	2888.412275
376.833254	2913.227355
377.219367	2932.328287
377.605417	2969.826910
377.991404	2988.453973
378.377329	3028.674819
378.763191	3047.080072
379.148991	3089.685384
379.534727	3127.983029
379.920402	3168.813855
380.306013	3187.879499
380.691563	3250.659508
381.077049	3271.855040
381.462474	3310.722336
381.847835	3372.264742
382.233134	3410.809404
382.618371	3438.064403
383.003545	3502.263497
383.388657	3526.080428
383.773706	3587.895057
384.158693	3619.006537
384.543618	3650.047442
384.928480	3708.242522
385.313280	3759.246396
385.698017	3782.004685
386.082692	3872.387533
386.467305	3872.818551
386.851856	3912.903286
387.236344	3991.336078
387.620770	4014.240561
388.005133	4067.598654
388.389435	4109.508286
388.773674	4122.411119
389.157851	4197.834343
389.541965	4268.476032
389.926018	4232.235177
390.310008	4333.862318
390.693936	4387.301069
391.077802	4419.582098
391.461606	4416.012961
391.845348	4483.516531
392.229027	4546.437693
392.612645	4546.288979
392.996200	4644.571314
393.379694	4700.573492
393.763125	4805.666427
394.146494	4838.141540
394.529801	4893.649685
394.913047	4979.243436
395.296230	4925.897946
395.679351	5029.072721
396.062410	5089.667390
396.445408	5057.136824
396.828343	5117.111432
397.211217	5171.439947
397.594028	5056.814191
397.976778	5171.548332
398.359466	5222.900045
398.742092	5242.036265
399.124656	5169.869627
399.507158	5284.790291
399.889598	5344.147357
400.271977	5463.365604
400.654294	5467.438857
401.036549	5513.880486
401.418742	5436.047592
401.800874	5636.209126
402.182944	5700.551893
402.564952	5800.155010
402.946898	5865.730340
403.328783	5692.475964
403.710606	5723.690789
404.092367	6040.751639
404.474067	6068.820784
404.855705	5960.420853
405.237282	5900.519342
405.618797	6163.304610
406.000250	6129.891842
406.381642	6345.650706
406.762972	6366.745415
407.144240	6415.649648
407.525447	6405.002731
407.906593	6409.605305
408.287677	6579.948414
408.668700	6500.759448
409.049661	6603.702331
409.430560	6636.096785
409.811399	6502.135683
410.192176	6756.696309
410.572891	6786.731503
410.953545	6971.855275
411.334138	6698.425611
411.714669	6872.247117
412.095139	6663.986969
412.475547	6917.141112
412.855894	6984.783314
413.236180	7175.414547
413.616405	6820.376164
413.996568	7041.919752
414.376670	7107.530369
414.756711	6995.273956
415.136691	7100.061900
415.516609	7303.724515
415.896466	7271.831656
416.276262	7492.858525
416.655997	7481.594067
417.035670	7640.387893
417.415283	7991.063157
417.794834	8070.352945
418.174324	7924.361130
418.553753	7851.052671
418.933121	8131.557594
419.312428	8240.774192
419.691674	8008.321547
420.070859	8494.311463
420.449983	8174.936723
420.829045	8544.816263
421.208047	8308.313051
421.586988	8624.978171
421.965867	8653.160742
422.344686	8734.716528
422.723444	8827.942587
423.102141	8142.416240
423.480777	8924.216022
423.859352	8443.637785
424.237866	9056.347185
424.616319	8923.008666
424.994712	9366.400832
425.373044	8887.849138
425.751314	9391.737671
426.129524	9276.048231
426.507673	9339.201286
426.885762	9489.319286
427.263789	9421.830839
427.641756	9363.943269
428.019662	9440.352038
428.397508	9725.315862
428.775292	9363.958393
429.153016	9765.259445
429.530679	9592.489020
429.908282	9594.064381
430.285824	9326.497578
430.663305	10017.370069
431.040726	9471.821441
431.418086	9444.637019
431.795385	9786.187795
432.172624	9884.414677
432.549802	9785.565212
432.926920	9857.968784
433.303977	9724.153876
433.680974	9926.533518
434.057910	10042.086846
434.434786	10115.317168
434.811601	9924.728785
435.188355	10490.686524
435.565050	10242.195448
435.941683	10153.498867
436.318257	10628.120981
436.694770	10820.078037
437.071222	10857.289314
437.447614	10672.878865
437.823946	10619.193098
438.200218	10688.745897
438.576429	10548.448065
438.952580	10800.800665
439.328670	10800.783021
439.704700	10619.004054
440.080670	10610.852508
440.456580	11105.717376
440.832429	10909.732438
441.208218	10518.438076
441.583947	10784.709302
441.959616	10987.585497
442.335224	10805.617487
442.710773	10895.496219
443.086261	11142.255659
443.461689	10401.803420
443.837057	11101.772673
444.212365	11318.154119
444.587612	10951.899169
444.962800	11157.071610
445.337927	10884.667821
445.712995	10602.567372
446.088002	11620.293155
446.462949	11329.315234
446.837837	11293.979266
447.212664	11192.762979
447.587431	11815.191724
447.962139	12589.868356
448.336786	14897.756478
448.711374	15350.736918
449.085901	13152.077998
449.460369	12810.847335
449.834776	12258.722522
450.209124	13219.309346
450.583412	13645.107885
450.957640	14561.163677
451.331808	13569.462851
451.705917	12674.194257
452.079965	11890.703167
452.453954	12808.107468
452.827883	12476.150008
453.201752	12757.136361
453.575562	12334.486023
453.949311	12740.336716
454.323001	12727.814490
454.696632	12969.429432
455.070202	13246.949993
455.443713	13415.120364
455.817164	13929.297892
456.190556	13891.847160
456.563888	14244.841355
456.937160	14385.907963
457.310373	13750.689811
457.683526	13879.382907
458.056619	13384.079459
458.429653	13616.804327
458.802628	12946.948407
459.175542	13375.093603
459.548398	14320.783817
459.921194	14705.179360
460.293930	14770.222847
460.666607	15595.061481
461.039224	16674.596851
461.411782	17410.507010
461.784280	17142.312584
462.156719	17284.200900
462.529099	16940.043847
462.901419	15909.805921
463.273680	15655.835111
463.645882	15575.980713
464.018024	15293.134174
464.390106	15534.847419
464.762130	16233.450519
465.134094	17041.214764
465.505999	19144.754673
465.877845	22435.095624
466.249631	25190.363465
466.621358	24782.022441
466.993026	23367.086503
467.364634	22773.233539
467.736184	21289.793361
468.107674	20515.799806
468.479105	20636.306068
468.850477	20084.803837
469.221790	19703.264108
469.593043	19004.045987
469.964238	18423.289941
470.335373	18059.850475
470.706449	18587.649200
471.077467	18184.011573
471.448425	20088.052861
471.819324	24258.140692
472.190164	26012.608424
472.560945	22271.868104
472.931667	20018.278250
473.302330	19438.810218
473.672934	19106.872923
474.043479	19288.374626
474.413965	19099.971583
474.784393	18681.792748
475.154761	19491.397015
475.525070	19363.790288
475.895321	19112.113202
476.265513	19726.927284
476.635645	20314.410751
477.005719	20057.049764
477.375734	20241.636654
477.745691	20737.648383
478.115588	21290.662960
478.485427	21865.417513
478.855207	22983.253049
479.224928	24779.937924
479.594591	27014.540272
479.964194	26847.612545
480.333739	27113.722453
480.703226	26696.929936
481.072653	26426.766939
481.442022	27091.979957
481.811333	28023.620476
482.180584	27879.123362
482.549777	26923.192044
482.918912	26617.846835
483.287988	26759.609122
483.657005	26349.047470
484.025964	26168.395202
484.394864	26013.788054
484.763706	25648.548897
485.132489	25163.763816
485.501213	25323.301212
485.869879	25235.801905
486.238487	25107.010506
486.607036	25206.898449
486.975527	24994.597817
487.343959	25272.483861
487.712333	25156.257538
488.080648	24823.198586
488.448905	25340.920045
488.817104	25125.471212
489.185244	25826.733520
489.553326	25763.482163
489.921350	26854.357608
490.289315	29243.531815
490.657222	30913.812278
491.025070	31428.360331
491.392861	31144.873565
491.760593	30293.611723
492.128267	29364.925321
492.495883	28271.357899
492.863440	27423.912211
493.230939	26561.446405
493.598380	26386.099951
493.965763	26011.534659
494.333088	25492.620967
494.700354	25484.638300
495.067563	25305.750435
495.434713	25067.502984
495.801805	25263.371975
496.168839	25007.238510
496.535815	24914.498923
496.902733	25118.506858
497.269593	24849.866290
497.636395	24998.262736
498.003139	24915.063532
498.369825	24655.522247
498.736453	24876.677667
499.103023	24740.775721
499.469535	24733.075358
499.835989	24957.580624
500.202385	24973.866072
500.568723	24538.267529
500.935003	24684.677761
501.301226	24410.197016
501.667390	25254.766726
502.033497	25429.548571
502.399546	25179.348543
502.765537	24699.019843
503.131470	25086.780356
503.497345	25236.699230
503.863163	24490.973945
504.228923	25007.218345
504.594625	25278.785303
504.960269	24858.728638
505.325856	25325.907489
505.691385	24704.799526
506.056856	25309.075076
506.422270	25299.345649
506.787625	24810.797347
507.152924	25262.033549
507.518164	25302.861854
507.883347	25119.900737
508.248472	24801.829135
508.613540	25559.998509
508.978550	25361.641708
509.343503	25389.431068
509.708398	25574.353194
510.073236	25751.706028
510.438016	25966.688554
510.802738	25616.472035
511.167403	25881.737550
511.532010	25638.156558
511.896561	26368.009771
512.261053	26342.587232
512.625488	26168.843864
512.989866	26053.361112
513.354186	25887.900361
513.718449	26022.042944
514.082655	26398.919605
514.446803	26098.411383
514.810894	26603.361079
515.174927	26093.891989
515.538904	26131.519161
515.902822	26640.285010
516.266684	26373.393723
516.630488	26291.429602
516.994235	26214.718364
517.357925	26570.903610
517.721558	26720.638482
518.085133	26863.703908
518.448651	26735.668682
518.812112	26531.733845
519.175516	26744.188232
519.538863	26886.898257
519.902152	26676.669538
520.265385	26933.879290
520.628560	26754.235252
520.991678	26717.575981
521.354739	26763.712621
521.717743	26877.509107
522.080690	26638.185370
522.443580	26975.201628
522.806413	26932.699660
523.169189	27063.406697
523.531908	27101.119569
523.894569	26739.174805
524.257174	26839.289600
524.619722	26941.947657
524.982213	26685.915014
525.344647	26677.561822
525.707025	26864.611315
526.069345	26796.160008
526.431608	26761.156756
526.793815	26927.179596
527.155964	26452.890198
527.518057	26625.544677
527.880093	26539.731635
528.242072	26757.338082
528.603995	26481.281977
528.965860	26265.563442
529.327669	26301.491746
529.689421	26293.430941
530.051117	26151.008262
530.412755	26323.340106
530.774337	26089.372595
531.135862	25993.767112
531.497331	26171.316550
531.858743	25784.624762
532.220098	26211.013116
532.581396	25920.340186
532.942638	25799.148327
533.303824	25935.468688
533.664953	25907.366776
534.026025	25576.258750
534.387040	25809.036550
534.747999	25850.706727
535.108902	26027.101742
535.469748	25527.747727
535.830537	25677.202815
536.191270	25821.886451
536.551947	25627.088705
536.912567	25248.064512
537.273131	25731.869087
537.633638	25378.365736
537.994089	25603.526352
538.354483	25078.530508
538.714821	25593.940597
539.075103	25643.217876
539.435328	25401.640743
539.795497	25024.529668
540.155609	25334.941236
540.515665	25651.818085
540.875665	24867.225503
541.235609	25235.476750
541.595496	25140.720702
541.955328	25515.417065
542.315102	25426.924650
542.674821	24929.062817
543.034483	24816.861856
543.394090	24988.624049
543.753640	24810.459590
544.113134	25433.851195
544.472571	25012.183882
544.831953	25321.398177
545.191278	24984.999460
545.550548	24850.985426
545.909761	25059.928650
546.268918	25296.414218
546.628019	25287.254442
546.987064	24954.611384
547.346053	24682.792369
547.704986	24783.197030
548.063863	24940.055053
548.422684	24981.931918
548.781449	24461.271466
549.140158	24881.731423
549.498811	24454.516320
549.857408	24242.792900
550.215949	24589.362144
550.574434	24320.915661
550.932864	24498.518031
551.291237	24709.414703
551.649555	24529.579101
552.007817	24605.052736
552.366022	24435.705254
552.724173	24452.245280
553.082267	24442.107520
553.440305	24912.185034
553.798288	24134.463545
554.156215	24621.139058
554.514086	24772.116574
554.871902	24171.589122
555.229661	24436.592497
555.587365	24275.210039
555.945014	24197.757752
556.302606	24387.189190
556.660143	24404.974381
557.017625	24614.071360
557.375050	24131.559840
557.732421	24518.962431
558.089735	24340.553476
558.446994	24407.492437
558.804197	24445.258241
559.161345	24307.715399
559.518437	24132.805005
559.875474	24281.539208
560.232455	24467.835048
560.589381	24268.812815
560.946251	24288.874087
561.303065	24580.187244
561.659825	24665.753269
562.016528	24271.703917
562.373177	24003.509491
562.729770	24363.037022
563.086307	24200.265726
563.442789	24375.002200
563.799216	24248.121399
564.155587	24221.448654
564.511904	24208.845770
564.868164	24170.144832
565.224370	24115.375216
565.580520	24078.479011
565.936615	24186.185783
566.292654	23904.470983
566.648638	24106.946406
567.004567	23956.097439
567.360441	23878.403176
567.716260	23607.761270
568.072023	23906.585747
568.427732	23706.895561
568.783385	23448.876704
569.138982	23721.577921
569.494525	23741.510643
569.850013	23507.238142
570.205445	23615.219657
570.560823	23444.858904
570.916145	23213.404408
571.271412	23413.265993
571.626625	23165.571419
571.981782	23260.322427
572.336884	23057.194173
572.691931	23209.240415
573.046923	22950.515796
573.401860	22813.572852
573.756743	22860.473227
574.111570	22751.445672
574.466342	22665.869565
574.821059	22749.774530
575.175722	22463.623514
575.530330	22408.135533
575.884882	22388.865723
576.239380	22319.464158
576.593823	22219.190567
576.948211	22194.130991
577.302544	22046.440307
577.656823	21899.457905
578.011047	22018.353518
578.365216	21878.683310
578.719330	21748.878639
579.073389	21625.687963
579.427394	21798.133233
579.781344	21538.012215
580.135239	21438.131834
580.489080	21362.300277
580.842866	21157.962147
581.196597	21378.008513
581.550273	21320.360398
581.903895	21197.820030
582.257463	21513.005571
582.610975	21052.100437
582.964434	21396.045761
583.317837	21036.301461
583.671186	21133.154629
584.024481	21123.778083
584.377721	20881.026361
584.730906	20989.897640
585.084037	20943.463572
585.437113	20890.977598
585.790135	21093.470666
586.143103	20530.318329
586.496016	20576.875905
586.848874	20799.105090
587.201679	20700.941222
587.554428	20426.014335
587.907124	20755.030282
588.259765	20494.009418
588.612352	20569.543547
588.964884	20136.276538
589.317362	20314.657767
589.669786	20374.521469
590.022155	20356.053202
590.374470	20625.996908
590.726731	20361.974037
591.078937	20173.661735
591.431090	20245.891388
591.783188	20018.800010
592.135232	19968.370827
592.487222	20074.618186
592.839157	20074.698844
593.191038	19952.639907
593.542866	19847.650316
593.894639	19543.129336
594.246358	19764.617471
594.598022	19646.331837
594.949633	19396.893024
595.301190	19404.479961
595.652692	19572.829293
596.004141	19758.008518
596.355535	19108.642368
596.706876	19127.203896
597.058162	19020.553246
597.409395	19277.755435
597.760573	19293.072981
598.111698	19069.381862
598.462768	19026.680768
598.813785	19001.603548
599.164748	18788.382905
599.515657	18866.661942
599.866511	18660.647628
600.217312	18998.112549
600.568060	18503.658536
600.918753	18818.720569
601.269392	18710.993632
601.619978	18518.532460
601.970510	18692.979069
602.320988	18653.655548
602.671412	18851.543522
603.021783	18790.812741
603.372100	18481.926122
603.722363	18644.689856
604.072572	18596.108256
604.422728	18740.169310
604.772830	18484.731524
605.122878	18456.342266
605.472872	18426.360003
605.822813	18414.311646
606.172701	18408.791582
606.522534	18567.310665
606.872314	18605.094113
607.222041	18450.766750
607.571714	18662.374224
607.921333	18480.040730
608.270899	18554.450682
608.620411	18706.978353
608.969870	18526.542854
609.319276	18509.158435
609.668627	18535.385038
610.017926	18666.354215
610.367171	18781.174055
610.716362	18839.719495
611.065500	18638.711048
611.414585	18796.849523
611.763616	18774.189537
612.112594	18711.139825
612.461518	18690.791208
612.810389	18879.000166
613.159207	18731.750583
613.507971	18656.196290
613.856682	18897.811232
614.205340	18808.897881
614.553945	18965.183732
614.902496	18712.821050
615.250994	18898.728722
615.599439	18869.066573
615.947830	18846.875413
616.296169	18935.546789
616.644454	18883.312873
616.992686	18868.179329
617.340864	19093.009750
617.688990	18825.009408
618.037063	19009.389610
618.385082	18868.827118
618.733048	19125.948649
619.080961	19033.287200
619.428821	19063.889525
619.776628	18932.459082
620.124382	18863.133134
620.472083	18921.860056
620.819731	18913.897554
621.167326	18606.130070
621.514868	18653.481628
621.862357	18451.230536
622.209793	18436.079348
622.557176	18266.978883
622.904506	18104.308411
623.251783	18044.606026
623.599007	17786.385523
623.946179	17726.504177
624.293297	17658.935071
624.640363	17375.501237
624.987376	17390.838948
625.334336	17205.707614
625.681243	17054.452834
626.028097	17076.865804
626.374899	16988.736352
626.721647	16855.594438
627.068343	16695.908328
627.414987	16632.470448
627.761577	16587.079899
628.108115	16607.955317
628.454600	16346.652149
628.801032	16442.187055
629.147412	16390.482461
629.493739	16389.990948
629.840014	16201.812237
630.186236	16299.872762
630.532405	16066.747123
630.878521	16251.129845
631.224585	16163.103737
631.570597	15988.301728
631.916556	16016.333064
632.262462	15992.939589
632.608316	15905.586475
632.954117	15841.500807
633.299866	15838.753378
633.645562	15755.879330
633.991206	15529.803744
634.336797	15406.023253
634.682336	15376.035949
635.027823	15227.962137
635.373257	15088.004583
635.718639	15017.632596
636.063968	14952.808398
636.409245	14699.485377
636.754470	14735.703546
637.099642	14589.220218
637.444762	14378.557961
637.789829	14409.881170
638.134845	14227.900558
638.479808	14271.481333
638.824719	14179.452549
639.169577	14039.875602
639.514383	14067.531372
639.859137	13907.212597
640.203839	14007.425694
640.548489	13855.848280
640.893086	13847.553062
641.237632	13723.301222
641.582125	13891.431265
641.926566	13692.920709
642.270955	13713.957444
642.615292	13659.936439
642.959576	13667.326771
643.303809	13689.618753
643.647990	13625.954021
643.992118	13697.563611
644.336195	13459.232981
644.680219	13698.932285
645.024192	13603.001647
645.368112	13844.820756
645.711981	13873.013409
646.055797	14065.043562
646.399562	14046.683680
646.743274	14302.076095
647.086935	14574.782354
647.430544	14544.779927
647.774101	14588.816926
648.117606	14712.940216
648.461059	14699.482856
648.804460	14675.484443
649.147810	14400.628132
649.491108	14321.363550
649.834354	14337.371734
650.177548	14007.425694
650.520690	13818.246314
650.863781	13737.562647
651.206820	13796.352583
651.549807	13623.047796
651.892742	13398.247622
652.235626	13339.671935
652.578458	13354.646683
652.921238	13053.604098
653.263967	13250.461156
653.606644	13085.186927
653.949269	13068.500708
654.291843	12851.010208
654.634365	13027.871529
654.976836	12870.534597
655.319255	12866.466385
655.661622	12821.711022
656.003938	12757.466557
656.346203	12670.249554
656.688416	12762.111980
657.030577	12710.404865
657.372687	12598.622320
657.714746	12596.807504
658.056753	12786.377574
658.398708	12597.341867
658.740612	12600.238010
659.082465	12712.585164
659.424266	12684.536184
659.766016	12721.772667
660.107715	12625.443779
660.449362	12705.497302
660.790958	12656.872853
661.132503	12592.232657
661.473996	12677.639886
661.815438	12678.017972
662.156829	12712.340668
662.498168	12678.648117
662.839456	12679.338755
663.180693	12685.783870
663.521879	12797.765541
663.863013	12757.118717
664.204097	12734.652815
664.545129	12865.904297
664.886110	12844.035771
665.227040	12938.696038
665.567918	12929.080037
665.908746	12955.372175
666.249522	12944.682408
666.590248	13002.869926
666.930922	13113.167852
667.271545	13082.875558
667.612118	13168.416377
667.952639	13064.079616
668.293109	13102.276439
668.633528	13038.667160
668.973896	13013.985670
669.314213	13076.992532
669.654480	12829.164367
669.994695	12919.101073
670.334859	12944.604270
670.674973	12875.464845
671.015035	12897.958473
671.355047	12854.246628
671.695008	12831.667300
672.034918	12842.094927
672.374777	12881.239487
672.714585	12799.159420
673.054342	12835.745594
673.394049	12791.325467
673.733705	12883.477759
674.073310	12776.383487
674.412864	12789.939149
674.752368	12639.266623
675.091820	12701.877753
675.431223	12668.946416
675.770574	12525.298737
676.109875	12441.305552
676.449125	12394.211093
676.788324	12363.926361
677.127473	12184.078157
677.466571	12182.749813
677.805619	12054.928836
678.144616	12006.266578
678.483562	11990.414670
678.822458	11848.959893
679.161303	11822.902169
679.500098	11807.609829
679.838842	11761.493353
680.177535	11805.351392
680.516179	11870.069725
680.854771	11811.957824
681.193314	12021.735359
681.531805	12196.963346
681.870247	12651.088128
682.208638	13045.102193
682.546978	13341.355681
682.885268	13358.044420
683.223508	13067.389134
683.561697	12920.310950
683.899836	12825.852329
684.237925	12616.430196
684.575963	12530.939788
684.913951	12447.521295
685.251889	12409.127867
685.589776	12508.166376
685.927614	12422.723859
686.265401	12399.486661
686.603137	12465.162813
686.940824	12607.867796
687.278460	12748.223601
687.616046	12765.413936
687.953582	12916.222574
688.291068	12865.924461
688.628504	13102.112601
688.965889	13102.956995
689.303224	13049.551011
689.640510	12921.825816
689.977745	12606.846962
690.314930	12400.023543
690.652065	12306.363946
690.989150	12001.643840
691.326185	11775.588419
691.663170	11574.063253
692.000105	11337.854949
692.336990	11207.823426
692.673825	10944.954980
693.010610	10844.346152
693.347345	10634.591302
693.684030	10447.657756
694.020665	10380.630574
694.357251	10185.951295
694.693786	10108.703174
695.030272	9966.063726
695.366707	9846.036373
695.703093	9782.056569
696.039429	9772.755640
696.375716	9669.850567
696.711952	9555.181961
697.048139	9610.027194
697.384276	9559.303104
697.720363	9587.039533
698.056400	9508.374848
698.392388	9451.787896
698.728326	9421.520808
699.064214	9360.865645
699.400053	9396.246983
699.735842	9214.468017
700.071581	9181.723202
700.407270	9108.200493
700.742910	9026.243935
701.078501	8926.222401
701.414042	8789.912122
701.749533	8742.467302
702.084974	8598.391126
702.420366	8727.767298
702.755709	8597.319880
703.091002	8462.665620
703.426246	8501.981579
703.761440	8451.476779
704.096584	8407.260819
704.431679	8341.667845
704.766725	8325.929363
705.101721	8283.087117
705.436668	8342.643309
705.771565	8223.057057
706.106413	8309.613669
706.441212	8337.196342
706.775961	8309.089389
707.110661	8361.608129
707.445311	8479.477868
707.779913	8378.564050
708.114465	8499.453440
708.448967	8534.794449
708.783421	8710.453455
709.117825	8876.393116
709.452180	8903.741376
709.786485	8991.747319
710.120742	9284.955950
710.454949	9292.190006
710.789107	9399.112879
711.123216	9627.199885
711.457275	9796.633066
711.791286	9933.613818
712.125247	9947.913051
712.459159	9938.907030
712.793023	10148.092229
713.126837	9722.442404
713.460602	9886.675635
713.794318	9716.801353
714.127985	9745.447710
714.461602	9392.733299
714.795171	9353.175365
715.128691	9099.139019
715.462162	8868.382723
715.795584	8800.115417
716.128957	8634.836147
716.462281	8460.833161
716.795556	8508.096498
717.128782	8293.487017
717.461960	8048.260089
717.795088	8114.168134
718.128167	8022.361161
718.461198	7860.086418
718.794180	7815.078997
719.127113	7807.061042
719.459997	7620.803010
719.792833	7409.308962
720.125619	7476.658778
720.458357	7331.692837
720.791046	7330.246026
721.123686	7310.686349
721.456278	7142.636965
721.788821	7167.114287
722.121315	7075.025009
722.453761	7151.232132
722.786158	7079.070535
723.118506	7089.052020
723.450805	7052.022224
723.783056	7113.055474
724.115259	7030.806528
724.447412	7034.978083
724.779518	7086.440702
725.111574	7091.398677
725.443582	7161.667321
725.775542	7132.589945
726.107453	7324.501631
726.439315	7238.902839
726.771129	7324.796538
727.102895	7506.840166
727.434612	7600.885411
727.766281	7648.126064
728.097901	7713.910601
728.429473	7734.186122
728.760996	7724.224802
729.092471	7701.189249
729.423897	7629.183928
729.755276	7626.796942
730.086606	7534.684979
730.417887	7649.489696
730.749120	7864.643622
731.080305	8051.466262
731.411442	8153.869741
731.742530	8130.488870
732.073570	8235.594407
732.404562	8323.023138
732.735506	8191.280144
733.066401	8319.267478
733.397249	8227.939415
733.728048	7984.789441
734.058798	7652.348030
734.389501	7419.681136
734.720156	7253.678461
735.050762	7034.663011
735.381320	6952.799714
735.711831	6886.228757
736.042293	6781.357633
736.372707	6795.014119
736.703073	6668.337485
737.033391	6710.327776
737.363661	6720.861267
737.693883	6753.709425
738.024056	6836.943916
738.354182	6869.013216
738.684260	6901.916828
739.014290	7032.646550
739.344272	7138.173023
739.674207	7161.667321
740.004093	7248.786021
740.333931	7260.809173
740.663722	7261.164574
740.993464	7342.853952
741.323159	7306.824825
741.652806	7063.276600
741.982405	7116.624611
742.311956	7150.405383
742.641460	6960.492515
742.970915	6771.721468
743.300323	6761.752586
743.629683	6728.581794
743.958996	6588.770433
744.288260	6491.483725
744.617477	6440.343740
744.946647	6429.043994
745.275768	6276.929697
745.604842	6226.114866
745.933869	6209.368153
746.262847	6166.616648
746.591778	6153.003012
746.920662	6112.797290
747.249498	6118.392970
747.578286	6163.279404
747.907027	6239.073152
748.235720	6298.820908
748.564365	6268.231186
748.892963	6319.663558
749.221514	6444.210305
749.550017	6254.123517
749.878473	6153.035780
750.206881	6214.827723
750.535242	6171.546897
750.863555	6098.805567
751.191821	6103.947544
751.520039	6101.467296
751.848210	6007.265775
752.176334	6046.095262
752.504411	6082.860397
752.832440	6007.109499
753.160421	5934.978149
753.488356	5986.271890
753.816243	6007.250652
754.144082	5862.385534
754.471875	5844.345765
754.799620	5879.222988
755.127318	5892.539196
755.454969	5845.727041
755.782572	5820.995140
756.110129	5856.144586
756.437638	5830.424619
756.765100	5778.777998
757.092515	5794.571933
757.419882	5850.294327
757.747203	5815.684285
758.074477	5872.256113
758.401703	5851.393298
758.728882	5822.837682
759.056014	5896.297376
759.383099	6003.167317
759.710138	6013.179048
760.037129	6002.471638
760.364073	6003.983984
760.690970	6082.454585
761.017820	6059.471964
761.344623	6025.852509
761.671379	6139.306197
761.998088	6266.827225
762.324751	6535.177926
762.651366	7188.342586
762.977935	8579.038136
763.304456	10239.886600
763.630931	11081.340876
763.957359	10596.775086
764.283740	9623.280388
764.610074	8729.214109
764.936362	7737.903973
765.262602	7157.263873
765.588796	6628.401464
765.914943	6305.833153
766.241044	6125.742973
766.567097	5904.849693
766.893104	5648.801928
767.219064	5477.816072
767.544978	5416.266104
767.870845	5330.485830
768.196665	5226.295262
768.522438	5158.511908
768.848165	5122.641578
769.173846	5051.087440
769.499479	5000.343185
769.825066	4960.018996
770.150607	4896.714706
770.476101	4876.776943
770.801548	4864.685735
771.126949	4775.681643
771.452303	4720.680134
771.777611	4694.599725
772.102872	4714.534968
772.428087	4674.203217
772.753256	4630.856855
773.078378	4577.649997
773.403453	4510.708515
773.728482	4500.384232
774.053465	4456.019557
774.378401	4442.181590
774.703291	4432.666412
775.028135	4360.842573
775.352932	4314.095953
775.677683	4303.128923
776.002388	4316.717353
776.327046	4321.203980
776.651658	4253.677724
776.976224	4188.987118
777.300743	4197.902398
777.625216	4213.978638
777.949643	4198.963561
778.274024	4166.296884
778.598359	4132.306904
778.922647	4159.201460
779.246889	4141.229747
779.571086	4132.942090
779.895236	4118.388279
780.219339	4109.677165
780.543397	4109.079788
780.867409	4160.416378
781.191374	4171.269983
781.515294	4102.059981
781.839167	4099.304991
782.162995	4129.919918
782.486776	4117.876602
782.810511	4126.673415
783.134201	4108.893265
783.457844	4057.533990
783.781441	4008.344931
784.104993	4013.885159
784.428498	4034.727810
784.751958	4024.660626
785.075372	4003.296216
785.398739	3969.442347
785.722061	3985.586642
786.045337	4026.422509
786.368568	4054.259761
786.691752	3966.636945
787.014891	4032.781925
787.337983	4165.041637
787.661030	4330.731761
787.984031	4485.069207
788.306987	4650.146830
788.629897	4739.135799
788.952760	4688.704096
789.275579	4625.321668
789.598351	4549.754772
789.921078	4392.276688
790.243759	4198.464487
790.566395	4188.871171
790.888984	4185.072662
791.211529	4072.115527
791.534027	4014.356507
791.856480	3992.666943
792.178888	3935.464970
792.501249	3899.728231
792.823566	3903.955238
793.145836	3928.714865
793.468062	3873.093294
793.790241	3834.659537
794.112375	3863.709186
794.434464	3935.651493
794.756507	3953.688741
795.078505	3926.448867
795.400457	3977.641784
795.722364	4124.435143
796.044226	4225.689238
796.366042	4296.613232
796.687812	4266.701545
797.009538	4268.720528
797.331218	4233.997060
797.652852	4209.532340
797.974442	4183.565357
798.295986	4179.628216
798.617484	4094.465483
798.938938	4019.170809
799.260346	4064.299218
799.581709	4047.721384
799.903026	3967.627532
800.224299	3936.001853
800.545526	3928.977005
800.866708	3888.171385
801.187845	3836.928057
801.508936	3867.227912
801.829983	3854.625027
802.150984	3782.208852
802.471940	3779.148872
802.792851	3782.410498
803.113717	3785.626754
803.434538	3777.525620
803.755314	3720.053946
804.076045	3704.602809
804.396731	3727.676170
804.717372	3748.458327
805.037967	3728.966706
805.358518	3717.331723
805.679024	3754.512753
805.999485	3765.885596
806.319901	3770.876338
806.640272	3781.654325
806.960598	3794.418527
807.280879	3768.806945
807.601115	3787.560037
807.921306	3802.439003
808.241453	3840.945856
808.561554	3807.235660
808.881611	3743.971700
809.201623	3792.528094
809.521590	3797.828867
809.841513	3768.897685
810.161390	3799.300884
810.481223	3771.534209
810.801011	3722.839183
811.120755	3720.938668
811.440453	3753.847321
811.760107	3748.367586
812.079716	3698.003939
812.399281	3681.166485
812.718801	3701.885627
813.038276	3679.621371
813.357707	3672.619209
813.677093	3686.646219
813.996434	3629.655975
814.315731	3648.341012
814.634983	3651.128770
814.954191	3671.467305
815.273354	3694.233156
815.592473	3682.134387
815.911547	3700.806820
816.230577	3748.775920
816.549562	3796.578661
816.868502	3835.871935
817.187399	3854.574616
817.506250	3854.748535
817.825058	3840.837471
818.143821	3937.299950
818.462539	4032.960886
818.781213	4074.507555
819.099843	4147.082526
819.418429	4421.215431
819.736970	4661.446577
820.055466	4921.479374
820.373919	5290.769099
820.692327	5702.880906
821.010691	6223.100256
821.329011	7754.564986
821.647286	10699.468431
821.965517	15492.872251
822.283704	19459.894844
822.601847	21353.851303
822.919945	19406.042718
823.237999	16724.620220
823.556010	14201.464747
823.873976	12023.119156
824.191897	9908.055168
824.509775	8590.907533
824.827609	7470.954712
825.145398	6954.070085
825.463144	6829.162895
825.780845	6936.312620
826.098502	7178.456883
826.416116	8167.571597
826.733685	9549.450169
827.051210	10621.721236
827.368692	10522.707933
827.686129	9170.431017
828.003522	7671.022985
828.320872	6641.274050
828.638177	5922.919709
828.955439	5341.251214
829.272656	4846.482129
829.589830	4582.726439
829.906960	4403.241197
830.224046	4207.755333
830.541088	4084.904935
830.858086	4034.458108
831.175041	3957.973722
831.491952	3951.145479
831.808819	3958.064463
832.125642	4046.019995
832.442421	4205.827092
832.759157	4505.443030
833.075849	5101.330100
833.392497	6005.312328
833.709101	6798.868081
834.025662	7086.208809
834.342179	6641.362270
834.658653	5970.016689
834.975083	5300.546417
835.291469	4715.497828
835.607811	4321.105678
835.924110	4177.268956
836.240366	3970.982420
836.556578	3768.718724
836.872746	3657.994821
837.188871	3613.476392
837.504952	3548.349725
837.820990	3463.885193
838.136984	3423.681991
838.452935	3446.926751
838.768842	3439.312088
839.084706	3467.802169
839.400526	3643.501504
839.716303	4018.853217
840.032037	4580.412549
840.347727	4792.614879
840.663373	4468.602278
840.978977	4077.900252
841.294537	3768.133951
841.610054	3543.336298
841.925527	3438.747479
842.240957	3367.311808
842.556344	3313.898263
842.871687	3250.251175
843.186987	3199.068340
843.502244	3167.258659
843.817458	3131.262300
844.132629	3102.832713
844.447756	3110.013837
844.762840	3088.800661
845.077881	3057.358985
845.392879	3042.225441
845.707833	3037.927857
846.022745	3039.704864
846.337613	3037.668238
846.652438	3025.040147
846.967221	3021.624766
847.281960	3006.092971
847.596656	3003.184225
847.911309	3007.139010
848.225919	2997.865808
848.540485	2996.439161
848.855009	2993.366578
849.169490	2980.859475
849.483928	2972.758341
849.798323	2974.162302
850.112675	2971.946715
850.426984	2985.388952
850.741251	2979.183291
851.055474	2967.621405
851.369654	2962.885241
851.683792	2968.790953
851.997887	2978.326295
852.311938	2979.871409
852.625947	2964.740386
852.939914	2969.103504
853.253837	2974.754638
853.567718	2959.764767
853.881555	2965.753658
854.195350	2976.899649
854.509103	2967.271045
854.822812	2961.236784
855.136479	2958.149077
855.450103	2958.799386
855.763685	2956.364508
856.077224	2954.975671
856.390720	2966.136785
856.704173	2974.636171
857.017584	2965.514203
857.330953	2966.308184
857.644278	2974.089205
857.957561	2981.731595
858.270802	2986.177892
858.584000	2983.730412
858.897155	2970.573001
859.210268	2971.707260
859.523339	2967.613843
859.836367	2969.242136
860.149352	2964.178297
860.462295	2957.594550
860.775195	2962.381126
861.088054	2963.540591
861.400869	2946.282201
861.713642	2947.718930
862.026373	2962.895323
862.339062	2965.642752
862.651708	2970.860346
862.964312	2972.014771
863.276873	2963.923719
863.589392	2975.180615
863.901869	2992.436485
864.214303	3013.450535
864.526696	3026.418903
864.839045	3020.598891
865.151353	3023.298429
865.463619	3023.222811
865.775842	3028.329500
866.088023	3044.173847
866.400162	3048.708365
866.712258	3014.262160
867.024313	3006.466016
867.336325	3019.305835
867.648296	3042.008671
867.960224	3033.446271
868.272110	3019.363808
868.583954	3023.464787
868.895755	3031.835623
869.207515	3021.221473
869.519233	3031.994419
869.830909	3039.967004
870.142542	3049.368756
870.454134	3048.688200
870.765684	3049.393962
871.077191	3048.756256
871.388657	3062.818554
871.700081	3076.381779
872.011463	3083.449476
872.322803	3086.713623
872.634101	3082.295052
872.945357	3105.557457
873.256571	3130.402783
873.567744	3120.461628
873.878874	3116.017851
874.189963	3139.940646
874.501010	3135.743886
874.812015	3126.528657
875.122979	3127.922536
875.433900	3127.983029
875.744780	3134.662558
876.055618	3140.354021
876.366415	3137.513331
876.677169	3146.965494
876.987882	3142.264618
877.298554	3142.884680
877.609183	3167.629184
877.919771	3189.011238
878.230317	3220.783110
878.540822	3270.778753
878.851285	3308.897438
879.161707	3361.597660
879.472087	3479.469920
879.782425	3734.922829
880.092722	4200.962379
880.402977	4750.410339
880.713191	5422.617958
881.023363	6665.438821
881.333494	7979.075293
881.643583	8488.395669
881.953631	8141.453379
882.263637	7437.947757
882.573602	6808.620193
882.883526	6224.453806
883.193408	5657.482795
883.503248	5214.325042
883.813048	4888.341350
884.122806	4548.050862
884.432522	4221.522725
884.742197	3981.528513
885.051831	3791.756798
885.361424	3665.798527
885.670975	3590.135849
885.980485	3495.203361
886.289954	3414.179416
886.599382	3367.599154
886.908768	3332.860563
887.218113	3291.812968
887.527417	3227.465159
887.836680	3180.748787
888.145901	3172.360307
888.455082	3162.910664
888.764221	3105.491922
889.073319	3079.504773
889.382376	3075.413877
889.691392	3082.267326
890.000366	3078.713312
890.309300	3063.801579
890.618193	3078.662901
890.927044	3094.870210
891.235855	3092.316866
891.544625	3085.276895
891.853353	3097.582351
892.162041	3114.744959
892.470687	3157.877072
892.779293	3208.949001
893.087858	3258.374994
893.396381	3337.188393
893.704864	3474.794249
894.013306	3734.786718
894.321707	4049.417732
894.630068	4233.974375
894.938387	4219.357549
895.246665	4180.691899
895.554903	4050.045356
895.863100	3836.618026
896.171256	3666.257273
896.479371	3518.957278
896.787446	3392.958678
897.095480	3290.353554
897.403473	3225.592371
897.711425	3190.117771
898.019336	3182.921524
898.327207	3146.189157
898.635038	3110.049125
898.942827	3095.853235
899.250576	3085.838983
899.558284	3052.123746
899.865952	3032.553987
900.173579	3009.379803
900.481165	3003.610202
900.788711	2989.416834
901.096216	2964.737865
901.403681	2958.559931
901.711105	2961.965230
902.018489	2960.571351
902.325832	2959.865590
902.633135	2969.390850
902.940397	3008.036335
903.247619	3104.193824
903.554800	3314.883808
903.861941	3694.535625
904.169041	4145.865088
904.476101	4430.599539
904.783121	4353.979042
905.090100	4081.550047
905.397039	3794.970533
905.703938	3542.012995
906.010796	3355.404603
906.317614	3243.647263
906.624391	3143.106491
906.931129	3070.299627
907.237826	3007.464164
907.544483	2962.892803
907.851099	2931.599840
908.157675	2907.679565
908.464211	2886.254661
908.770707	2877.236037
909.077163	2859.539067
909.383578	2844.899556
909.689954	2833.408246
909.996289	2831.429593
910.302584	2833.746003
910.608839	2834.303050
910.915054	2827.252997
911.221229	2818.763694
911.527363	2824.306442
911.833458	2831.389263
912.139513	2835.976713
912.445527	2840.324709
912.751502	2847.236131
913.057436	2857.101669
913.363331	2873.407281
913.669186	2897.990468
913.975000	2935.670572
914.280775	2999.816734
914.586510	3071.537230
914.892205	3153.892040
915.197859	3298.051396
915.503475	3508.557377
915.809050	3739.953901
916.114585	3884.030077
916.420081	3885.973442
916.725536	3820.307372
917.030952	3691.931869
917.336328	3556.097979
917.641665	3424.806168
917.946961	3320.013182
918.252218	3244.874784
918.557435	3163.165242
918.862612	3099.283741
919.167750	3049.209959
919.472848	3009.137828
919.777906	2982.696976
920.082925	2951.840073
920.387904	2923.425609
920.692843	2904.533885
920.997743	2892.167935
921.302603	2879.098743
921.607423	2867.322608
921.912204	2858.067050
922.216946	2843.621623
922.521647	2834.371106
922.826310	2824.881134
923.130932	2818.030206
923.435516	2809.114925
923.740059	2800.799542
924.044564	2793.139509
924.349028	2789.893006
924.653454	2781.998559
924.957840	2774.688886
925.262186	2771.399533
925.566493	2763.527771
925.870761	2761.012235
926.174989	2757.672471
926.479178	2750.569485
926.783328	2747.469175
927.087438	2743.791654
927.391509	2745.966912
927.695541	2739.761251
927.999533	2738.132958
928.303486	2735.821589
928.607400	2734.087432
928.911275	2734.132803
929.215110	2734.873852
929.518906	2732.996023
929.822663	2731.919736
930.126381	2731.377812
930.430060	2732.149109
930.733699	2733.013667
931.037299	2735.929974
931.340861	2735.408215
931.644383	2735.108266
931.947866	2733.190107
932.251309	2735.642628
932.554714	2731.377812
932.858080	2731.705487
933.161407	2729.873028
933.464694	2727.483521
933.767943	2721.908005
934.071153	2723.821123
934.374323	2723.911863
934.677455	2726.808006
934.980548	2723.374981
935.283602	2726.661813
935.586617	2724.579816
935.889593	2723.478324
936.192530	2722.664178
936.495428	2724.108468
936.798287	2725.956051
937.101108	2729.063923
937.403890	2734.452916
937.706632	2740.310737
938.009336	2745.798033
938.312002	2753.889085
938.614628	2764.505755
938.917216	2769.577156
939.219765	2771.817948
939.522275	2770.172012
939.824747	2768.281579
940.127179	2764.460384
940.429573	2762.716145
940.731929	2755.769435
941.034246	2755.794641
941.336524	2752.515370
941.638763	2749.407499
941.940964	2747.885071
942.243126	2744.000862
942.545250	2742.057497
942.847335	2738.339646
943.149381	2735.851836
943.451389	2731.410580
943.753359	2732.837226
944.055290	2729.537791
944.357182	2728.234653
944.659036	2728.562328
944.960851	2725.567882
945.262628	2724.836915
945.564367	2723.841287
945.866067	2726.994529
946.167729	2725.434292
946.469352	2727.279354
946.770937	2726.999570
947.072484	2723.871534
947.373992	2722.263406
947.675462	2720.236862
947.976893	2719.957078
948.278286	2715.639330
948.579641	2716.380380
948.880958	2715.891388
949.182236	2714.227807
949.483476	2714.573126
949.784678	2715.142776
950.085841	2715.750235
950.386967	2718.051522
950.688054	2716.322406
950.989103	2716.834083
951.290114	2720.867007
951.591087	2720.728375
951.892021	2723.710217
952.192917	2726.787842
952.493776	2729.416803
952.794596	2725.804817
953.095378	2728.343038
953.396122	2725.580485
953.696828	2725.111658
953.997496	2725.615773
954.298126	2720.057901
954.598718	2720.854404
954.899272	2715.654453
955.199788	2715.170503
955.500266	2714.971377
955.800706	2710.794781
956.101108	2709.441231
956.401472	2709.053062
956.701798	2705.919985
957.002087	2701.549305
957.302337	2700.989737
957.602550	2700.042000
957.902724	2696.142667
958.202861	2697.980168
958.502960	2696.044365
958.803022	2694.927749
959.103045	2693.002029
959.403031	2694.554704
959.702979	2691.923222
960.002889	2692.112265
960.302762	2692.316432
960.602596	2691.976154
960.902393	2691.187213
961.202153	2691.792152
961.501875	2689.828622
961.801559	2689.473221
962.101205	2689.954651
962.400814	2688.548169
962.700385	2691.504806
962.999918	2686.072963
963.299414	2686.758560
963.598873	2685.959537
963.898293	2683.131449
964.197677	2688.437264
964.497022	2689.770649
964.796331	2688.805268
965.095601	2688.033972
965.394835	2687.187058
965.694030	2687.129084
965.993189	2687.925587
966.292309	2688.855680
966.591393	2685.631862
966.890439	2688.457428
967.189447	2687.668488
967.488419	2685.929290
967.787353	2686.214115
968.086249	2687.282840
968.385108	2686.960206
968.683930	2690.688139
968.982714	2686.788807
969.281462	2685.644465
969.580172	2685.347037
969.878844	2686.314938
970.177480	2687.423992
970.476078	2684.966429
970.774639	2688.437264
971.073162	2687.091276
971.371649	2686.166224
971.670098	2687.136646
971.968510	2688.026410
972.266885	2686.443487
972.565223	2688.732171
972.863524	2686.390555
973.161788	2687.318128
973.460014	2688.646472
973.758204	2686.050277
974.056356	2686.309897
974.354471	2689.753005
974.652550	2686.327541
974.950591	2688.737212
975.248595	2688.454908
975.546563	2688.588498
975.844493	2685.644465
976.142386	2685.924249
976.440243	2685.589012
976.738062	2684.873168
977.035845	2688.127233
977.333590	2687.912984
977.631299	2689.137984
977.928971	2682.907118
978.226606	2683.693538
978.524204	2684.386697
978.821765	2681.551048
979.119290	2685.218487
979.416777	2683.917869
979.714228	2685.762932
980.011642	2684.671522
980.309020	2687.270237
980.606360	2682.438291
980.903664	2687.078673
981.200931	2684.167407
981.498162	2686.025072
981.795356	2687.406348
982.092513	2685.440298
982.389633	2690.526822
982.686717	2695.227698
982.983764	2698.353213
983.280775	2703.928730
983.577749	2703.414532
983.874686	2703.475026
984.171587	2701.463605
984.468451	2697.281968
984.765279	2696.745085
985.062070	2692.417255
985.358824	2692.122347
985.655543	2690.012624
985.952224	2687.484486
986.248869	2688.717048
986.545478	2685.626821
986.842050	2686.864424
987.138586	2685.969619
987.435086	2684.149762
987.731549	2683.998528
988.027975	2683.060873
988.324366	2682.080369
988.620719	2682.652540
988.917037	2681.833352
989.213318	2681.548527
989.509563	2683.323013
989.805772	2682.450894
990.101944	2680.905780
990.398080	2680.129442
990.694180	2681.193126
990.990244	2682.178671
991.286271	2681.586336
991.582262	2682.707992
991.878217	2682.990297
992.174136	2682.793692
992.470019	2682.965091
992.765865	2680.016016
993.061676	2679.156500
993.357450	2678.012158
993.653188	2678.904442
993.948890	2682.755883
994.244556	2679.905111
994.540186	2684.807633
994.835780	2682.808816
995.131337	2682.050122
995.426859	2685.233611
995.722345	2683.922911
996.017795	2686.158662
996.313208	2685.233611
996.608586	2685.868796
996.903928	2684.734536
997.199234	2685.929290
997.494504	2689.397604
997.789738	2686.062880
998.084936	2687.239990
998.380099	2684.495082
998.675225	2683.907787
998.970316	2683.330575
999.265371	2683.663291
999.560390	2681.866120
999.855373	2681.397292
1000.150320	2682.758404
1000.445232	2682.594567
1000.740108	2680.716737
1001.034948	2679.579957
1001.329752	2680.323527
1001.624521	2679.622806
1001.919254	2679.350584
1002.213951	2679.090965
1002.508613	2680.179854
1002.803239	2680.860410
1003.097829	2680.003413
1003.392384	2678.291942
1003.686903	2680.018537
1003.981386	2679.534586
1004.275834	2682.894515
1004.570246	2680.295800
1004.864623	2679.648012
1005.158964	2680.384021
1005.453270	2678.977539
1005.747540	2679.413598
1006.041775	2680.220183
1006.335974	2680.817560
1006.630138	2678.745646
1006.924266	2678.231448
1007.218359	2678.576767
1007.512416	2675.297496
1007.806438	2675.121056
1008.100425	2674.604338
1008.394376	2673.689368
1008.688292	2680.368897
1008.982172	2679.955522
1009.276017	2676.174657
1009.569827	2677.049297
1009.863602	2677.692044
1010.157341	2677.679442
1010.451045	2679.877385
1010.744714	2678.254133
1011.038347	2679.247240
1011.331945	2679.829494
1011.625508	2676.787157
1011.919036	2678.483506
1012.212528	2677.571057
1012.505986	2678.060049
1012.799408	2677.971828
1013.092795	2680.091634
1013.386147	2678.246571
1013.679464	2678.775892
1013.972745	2679.675738
1014.265992	2680.623475
1014.559204	2678.526355
1014.852380	2677.785306
1015.145521	2678.133145
1015.438628	2678.276818
1015.731699	2679.443845
1016.024736	2678.614576
1016.317737	2677.255985
1016.610703	2674.722805
1016.903635	2678.198680
1017.196531	2677.228258
1017.489393	2678.244051
1017.782219	2677.213135
1018.075011	2677.608865
1018.367768	2678.009637
1018.660490	2679.166582
1018.953177	2679.166582
1019.245829	2679.166582
