Dividing Wavelength (nm)	Counts (n)	Blue Motor Position (mm): 32.800000	Red Motor Position (mm): 0.000000	
326.493990	2223.272354
326.888308	2223.272354
327.282561	2223.272354
327.676750	2181.846673
328.070874	2178.625375
328.464933	2177.218893
328.858929	2181.574450
329.252859	2186.900429
329.646726	2195.795545
330.040528	2208.151413
330.434265	2219.350337
330.827938	2241.284397
331.221547	2256.773342
331.615091	2273.262957
332.008571	2290.107972
332.401986	2309.760910
332.795338	2331.342090
333.188625	2348.585357
333.581847	2369.488501
333.975006	2384.755636
334.368100	2405.910838
334.761129	2423.476738
335.154095	2440.518359
335.546996	2466.898717
335.939833	2506.731394
336.332606	2521.592716
336.725315	2533.620909
337.117960	2546.445604
337.510540	2555.360885
337.903056	2565.924622
338.295508	2578.434246
338.687896	2588.587130
339.080220	2595.599375
339.472480	2602.195724
339.864676	2607.194028
340.256807	2612.081427
340.648875	2614.901953
341.040879	2615.330451
341.432818	2624.036523
341.824694	2621.470576
342.216506	2623.839918
342.608253	2624.028962
342.999937	2624.633900
343.391557	2625.868983
343.783113	2624.467542
344.174605	2624.026441
344.566033	2622.438478
344.957397	2621.447891
345.348697	2624.059209
345.739934	2619.287757
346.131106	2618.952520
346.522215	2616.086624
346.913260	2613.865996
347.304241	2610.440532
347.695159	2609.661673
348.086012	2610.251488
348.476802	2608.101436
348.867528	2604.439038
349.258191	2601.258070
349.648789	2597.802359
350.039324	2596.025352
350.429796	2599.501228
350.820203	2597.651124
351.210548	2598.455188
351.600828	2598.288830
351.991045	2596.448809
352.381198	2593.381267
352.771288	2594.114755
353.161314	2593.686257
353.551276	2594.949066
353.941175	2593.197265
354.331010	2591.354723
354.720782	2592.020155
355.110490	2590.137284
355.500135	2591.866400
355.889717	2592.783890
356.279235	2591.337079
356.668689	2591.581575
357.058080	2590.023858
357.447408	2592.751123
357.836672	2592.181472
358.225873	2593.663572
358.615010	2593.230032
359.004084	2592.446133
359.393095	2593.456884
359.782043	2597.121803
360.170927	2594.749940
360.559748	2593.620722
360.948505	2595.753130
361.337199	2596.466453
361.725830	2598.871083
362.114398	2596.713470
362.502903	2597.565425
362.891344	2596.806731
363.279722	2598.210692
363.668037	2599.173553
364.056289	2597.940991
364.444478	2603.304778
364.832603	2601.623553
365.220665	2602.760334
365.608665	2602.054572
365.996601	2604.065992
366.384474	2602.848554
366.772284	2603.009871
367.160031	2604.249995
367.547715	2607.105808
367.935336	2603.181270
368.322893	2605.535489
368.710388	2601.825200
369.097820	2605.109511
369.485189	2600.133892
369.872495	2607.630088
370.259738	2607.554471
370.646918	2607.186467
371.034035	2607.400716
371.421090	2608.451796
371.808081	2607.279728
372.195010	2608.570263
372.581875	2609.094543
372.968678	2607.236878
373.355418	2609.144955
373.742096	2608.711416
374.128710	2609.376848
374.515262	2611.582353
374.901751	2610.785851
375.288177	2611.657970
375.674540	2609.661673
376.060841	2610.629575
376.447079	2609.770058
376.833254	2612.940944
377.219367	2611.496653
377.605417	2613.739967
377.991404	2614.067642
378.377329	2614.486057
378.763191	2610.687548
379.148991	2614.488578
379.534727	2611.915069
379.920402	2612.925820
380.306013	2613.397168
380.691563	2616.767180
381.077049	2612.953547
381.462474	2612.197374
381.847835	2614.685183
382.233134	2615.239710
382.618371	2613.845831
383.003545	2614.279370
383.388657	2614.783486
383.773706	2615.882457
384.158693	2618.274485
384.543618	2619.197016
384.928480	2616.547889
385.313280	2620.878241
385.698017	2618.975205
386.082692	2622.682974
386.467305	2619.774228
386.851856	2619.716255
387.236344	2622.370422
387.620770	2620.701800
388.005133	2616.409258
388.389435	2620.492592
388.773674	2618.186264
389.157851	2623.333283
389.541965	2624.865793
389.926018	2623.643313
390.310008	2622.937552
390.693936	2625.279168
391.077802	2626.486524
391.461606	2625.349744
391.845348	2625.248921
392.229027	2624.858232
392.612645	2626.489045
392.996200	2626.655403
393.379694	2627.837553
393.763125	2629.987606
394.146494	2629.365023
394.529801	2631.809983
394.913047	2628.966772
395.296230	2630.826958
395.679351	2632.273769
396.062410	2634.209572
396.445408	2635.036321
396.828343	2634.675879
397.211217	2634.320477
397.594028	2635.089253
397.976778	2635.643780
398.359466	2638.890283
398.742092	2635.154788
399.124656	2635.933647
399.507158	2635.868112
399.889598	2640.064872
400.271977	2640.349697
400.654294	2640.193422
401.036549	2639.916158
401.418742	2640.495891
401.800874	2642.320788
402.182944	2639.603607
402.564952	2641.375572
402.946898	2644.458238
403.328783	2644.228865
403.710606	2644.649802
404.092367	2647.024185
404.474067	2647.699700
404.855705	2646.368835
405.237282	2645.141314
405.618797	2647.709782
406.000250	2648.972591
406.381642	2651.944351
406.762972	2648.181130
407.144240	2648.284473
407.525447	2652.244300
407.906593	2647.319092
408.287677	2654.001142
408.668700	2652.463590
409.049661	2658.724703
409.430560	2659.619508
409.811399	2661.366268
410.192176	2664.698470
410.572891	2668.686023
410.953545	2670.619306
411.334138	2672.426559
411.714669	2680.061387
412.095139	2682.697910
412.475547	2694.209385
412.855894	2703.729604
413.236180	2714.736963
413.616405	2723.541339
413.996568	2741.414750
414.376670	2757.296905
414.756711	2775.031684
415.136691	2803.640232
415.516609	2831.709377
415.896466	2861.300950
416.276262	2903.170253
416.655997	2943.212138
417.035670	2995.133502
417.415283	3068.759554
417.794834	3124.741568
418.174324	3168.783608
418.553753	3223.021382
418.933121	3320.655929
419.312428	3398.556880
419.691674	3442.004064
420.070859	3588.699121
420.449983	3624.519039
420.829045	3770.107562
421.208047	3817.882577
421.586988	3972.976196
421.965867	4067.069333
422.344686	4186.499308
422.723444	4299.698418
423.102141	4215.922003
423.480777	4527.135115
423.859352	4486.531141
424.237866	4795.553872
424.616319	4853.232234
424.994712	5106.000729
425.373044	5062.114964
425.751314	5354.181774
426.129524	5411.857615
426.507673	5589.901086
426.885762	5774.089724
427.263789	5847.960272
427.641756	5918.291930
428.019662	6099.604590
428.397508	6336.180899
428.775292	6281.219719
429.153016	6623.294775
429.530679	6638.859338
429.908282	6780.354444
430.285824	6710.332817
430.663305	7244.957264
431.040726	7011.261975
431.418086	7101.949812
431.795385	7424.011487
432.172624	7586.681960
432.549802	7636.259188
432.926920	7798.513765
433.303977	7803.159189
433.680974	8047.052732
434.057910	8205.743214
434.434786	8347.802930
434.811601	8330.806679
435.188355	8856.399900
435.565050	8717.271616
435.941683	8748.882171
436.318257	9245.100588
436.694770	9413.926310
437.071222	9565.720493
437.447614	9517.668215
437.823946	9479.131114
438.200218	9694.995842
438.576429	9584.249254
438.952580	9846.043935
439.328670	9964.942069
439.704700	9816.165016
440.080670	9860.791831
440.456580	10440.625346
440.832429	10243.405325
441.208218	9909.577597
441.583947	10261.465259
441.959616	10425.005331
442.335224	10274.405901
442.710773	10455.617737
443.086261	10671.283340
443.461689	10010.960242
443.837057	10645.346604
444.212365	10958.659356
444.587612	10631.160797
444.962800	10876.160874
445.337927	10684.907058
445.712995	10259.335371
446.088002	11353.195180
446.462949	11013.469302
446.837837	11010.537871
447.212664	11033.212981
447.587431	11524.120542
447.962139	12221.513765
448.336786	14454.180310
448.711374	15045.837852
449.085901	12935.038681
449.460369	12531.832072
449.834776	11998.301555
450.209124	12844.464269
450.583412	13246.831525
450.957640	14210.984966
451.331808	13401.708374
451.705917	12362.416536
452.079965	11703.351205
452.453954	12594.859098
452.827883	12220.747510
453.201752	12511.584278
453.575562	12018.330059
453.949311	12442.081890
454.323001	12392.335784
454.696632	12616.586472
455.070202	12905.948702
455.443713	13161.071416
455.817164	13610.069345
456.190556	13625.795225
456.563888	13982.940810
456.937160	14161.022090
457.310373	13494.377385
457.683526	13567.958067
458.056619	13134.270122
458.429653	13262.081016
458.802628	12718.642111
459.175542	13077.448756
459.548398	14025.805741
459.921194	14351.756667
460.293930	14418.050360
460.666607	15305.792511
461.039224	16333.749316
461.411782	17025.821601
461.784280	16934.700224
462.156719	16970.663816
462.529099	16663.055129
462.901419	15589.412868
463.273680	15380.399068
463.645882	15234.664351
464.018024	14973.741790
464.390106	15194.819071
464.762130	15916.515697
465.134094	16669.679205
465.505999	18636.934041
465.877845	21900.314901
466.249631	24741.468879
466.621358	24451.607574
466.993026	22998.623527
467.364634	22445.170370
467.736184	20991.757825
468.107674	20184.117088
468.479105	20317.319496
468.850477	19775.934861
469.221790	19365.030411
469.593043	18690.680303
469.964238	18138.081621
470.335373	17793.115463
470.706449	18222.233602
471.077467	17772.875230
471.448425	19590.243959
471.819324	23587.584052
472.190164	25662.568345
472.560945	22150.794712
472.931667	19751.366798
473.302330	19108.299569
473.672934	18601.998845
474.043479	18963.867991
474.413965	18788.864335
474.784393	18404.899812
475.154761	19090.211909
475.525070	19087.656044
475.895321	18743.952696
476.265513	19320.327980
476.635645	19909.996786
477.005719	19687.613846
477.375734	19880.173320
477.745691	20370.995182
478.115588	20872.295082
478.485427	21385.005634
478.855207	22448.497532
479.224928	24206.854514
479.594591	26414.826966
479.964194	26497.917785
480.333739	26688.518770
480.703226	26261.379284
481.072653	25927.324704
481.442022	26483.653840
481.811333	27392.631852
482.180584	27330.545001
482.549777	26377.058642
482.918912	26026.196855
483.287988	26138.380172
483.657005	25823.373591
484.025964	25543.234152
484.394864	25488.308260
484.763706	25179.890468
485.132489	24600.550985
485.501213	24764.229689
485.869879	24686.303533
486.238487	24496.181457
486.607036	24640.124043
486.975527	24332.049049
487.343959	24664.603886
487.712333	24615.475321
488.080648	24277.246666
488.448905	24750.336269
488.817104	24492.380427
489.185244	25159.889690
489.553326	25157.074205
489.921350	26122.223274
490.289315	28397.006138
490.657222	30182.386225
491.025070	30685.458091
491.392861	30466.054473
491.760593	29638.475972
492.128267	28726.637106
492.495883	27697.979581
492.863440	26824.791241
493.230939	25946.523939
493.598380	25789.063498
493.965763	25389.093311
494.333088	24939.291318
494.700354	24861.924730
495.067563	24746.714200
495.434713	24496.118442
495.801805	24636.872499
496.168839	24462.314985
496.535815	24295.233502
496.902733	24505.734443
497.269593	24173.439226
497.636395	24353.116031
498.003139	24344.067160
498.369825	24088.468057
498.736453	24289.854591
499.103023	24165.388503
499.469535	24178.979454
499.835989	24392.389140
500.202385	24408.747684
500.568723	23925.142234
500.935003	24164.302134
501.301226	23775.505664
501.667390	24610.144301
502.033497	24854.836867
502.399546	24578.770680
502.765537	24148.997191
503.131470	24539.490009
503.497345	24671.956409
503.863163	23881.362333
504.228923	24493.693647
504.594625	24695.397774
504.960269	24207.245203
505.325856	24713.059457
505.691385	24116.219609
506.056856	24710.246493
506.422270	24693.136817
506.787625	24259.862247
507.152924	24670.504557
507.518164	24703.274577
507.883347	24508.116388
508.248472	24197.737587
508.613540	24973.518232
508.978550	24766.160451
509.343503	24753.827268
509.708398	25018.374419
510.073236	25169.888818
510.438016	25387.480142
510.802738	25059.054010
511.167403	25319.848022
511.532010	25003.750032
511.896561	25785.834639
512.261053	25758.418324
512.625488	25587.283754
512.989866	25480.736447
513.354186	25336.945095
513.718449	25423.264772
514.082655	25812.351108
514.446803	25564.936319
514.810894	26006.758165
515.174927	25506.521949
515.538904	25536.549582
515.902822	26026.330445
516.266684	25779.450018
516.630488	25677.376735
516.994235	25658.331256
517.357925	25954.093231
517.721558	26144.190102
518.085133	26245.161893
518.448651	26147.577757
518.812112	25877.545831
519.175516	26070.332157
519.538863	26233.602527
519.902152	26024.813058
520.265385	26303.561139
520.628560	26094.020538
520.991678	26105.849606
521.354739	26178.169999
521.717743	26242.336326
522.080690	26032.193307
522.443580	26367.442641
522.806413	26360.329573
523.169189	26453.245600
523.531908	26496.022311
523.894569	26106.958660
524.257174	26183.390114
524.619722	26371.135286
524.982213	26065.795118
525.344647	26122.117409
525.707025	26261.142350
526.069345	26242.911017
526.431608	26191.077873
526.793815	26381.353705
527.155964	25835.492525
527.518057	26007.965522
527.880093	25931.513903
528.242072	26166.386302
528.603995	25881.518260
528.965860	25673.195098
529.327669	25715.724792
529.689421	25700.729880
530.051117	25545.467383
530.412755	25723.639404
530.774337	25515.527970
531.135862	25392.700257
531.497331	25602.326557
531.858743	25153.258052
532.220098	25622.322294
532.581396	25301.478057
532.942638	25248.117444
533.303824	25341.202349
533.664953	25357.497879
534.026025	25019.024728
534.387040	25252.220943
534.747999	25313.065149
535.108902	25472.423584
535.469748	24973.480423
535.830537	25159.226778
536.191270	25271.120229
536.551947	25137.925382
536.912567	24777.684528
537.273131	25143.412678
537.633638	24836.502191
537.994089	25054.232146
538.354483	24588.616053
538.714821	25098.881646
539.075103	25137.335567
539.435328	24919.474542
539.795497	24472.692200
540.155609	24874.628438
540.515665	25176.699417
540.875665	24399.461879
541.235609	24702.762900
541.595496	24674.116543
541.955328	25028.862539
542.315102	24948.458656
542.674821	24480.372398
543.034483	24372.161510
543.394090	24533.879205
543.753640	24335.471993
544.113134	24955.531395
544.472571	24549.952924
544.831953	24850.995508
545.191278	24469.221366
545.550548	24387.169025
545.909761	24592.129738
546.268918	24824.342928
546.628019	24790.254646
546.987064	24493.373534
547.346053	24249.560649
547.704986	24363.354614
548.063863	24525.125241
548.422684	24539.989083
548.781449	24063.925199
549.140158	24463.597959
549.498811	24040.420820
549.857408	23791.773468
550.215949	24223.596186
550.574434	23893.700558
550.932864	24115.791111
551.291237	24268.321303
551.649555	24139.391273
552.007817	24189.485218
552.366022	24048.070771
552.724173	24091.417132
553.082267	24038.716910
553.440305	24519.254818
553.798288	23770.484675
554.156215	24284.213540
554.514086	24381.737182
554.871902	23751.451799
555.229661	24036.221538
555.587365	23895.225507
555.945014	23758.486729
556.302606	24007.953268
556.660143	23968.775941
557.017625	24204.429719
557.375050	23745.815789
557.732421	24127.980621
558.089735	23941.475572
558.446994	24008.376725
558.804197	24035.820767
559.161345	23966.502381
559.518437	23739.141301
559.875474	23930.768162
560.232455	24099.893832
560.589381	23937.639254
560.946251	23915.584206
561.303065	24227.757658
561.659825	24312.126409
562.016528	23918.886162
562.373177	23670.037164
562.729770	24031.092164
563.086307	23882.670513
563.442789	24061.422267
563.799216	23890.166709
564.155587	23887.797366
564.511904	23875.635583
564.868164	23809.966992
565.224370	23789.041163
565.580520	23698.101268
565.936615	23824.772861
566.292654	23517.721221
566.648638	23802.566578
567.004567	23647.445233
567.360441	23587.868877
567.716260	23314.812258
568.072023	23631.303459
568.427732	23408.524788
568.783385	23183.086908
569.138982	23418.609616
569.494525	23446.134316
569.850013	23194.056459
570.205445	23294.594711
570.560823	23096.736984
570.916145	22874.659034
571.271412	23038.824209
571.626625	22800.387714
571.981782	22912.578593
572.336884	22728.410120
572.691931	22855.487526
573.046923	22582.040218
573.401860	22466.512095
573.756743	22490.311382
574.111570	22374.319473
574.466342	22315.824445
574.821059	22405.670409
575.175722	22100.277309
575.530330	22090.338674
575.884882	22115.088219
576.239380	22024.992718
576.593823	21904.599882
576.948211	21885.163713
577.302544	21739.781877
577.656823	21607.761620
578.011047	21704.478677
578.365216	21587.717992
578.719330	21457.731840
579.073389	21346.269408
579.427394	21495.157366
579.781344	21272.086308
580.135239	21150.397896
580.489080	21117.141404
580.842866	20885.132380
581.196597	21083.073286
581.550273	21062.218033
581.903895	20937.197417
582.257463	21263.720514
582.610975	20785.998090
582.964434	21096.235739
583.317837	20806.807973
583.671186	20885.752442
584.024481	20860.062722
584.377721	20629.336673
584.730906	20700.674041
585.084037	20713.896987
585.437113	20624.232504
585.790135	20835.068682
586.143103	20288.045516
586.496016	20301.936415
586.848874	20546.482788
587.201679	20483.286884
587.554428	20140.453134
587.907124	20489.273254
588.259765	20256.586195
588.612352	20330.000519
588.964884	19900.564787
589.317362	20086.215360
589.669786	20130.834613
590.022155	20158.155146
590.374470	20358.452791
590.726731	20150.333796
591.078937	19923.312994
591.431090	20003.923565
591.783188	19760.521533
592.135232	19732.021370
592.487222	19833.066258
592.839157	19851.819350
593.191038	19735.514890
593.542866	19625.164032
593.894639	19332.083950
594.246358	19557.872190
594.598022	19456.146747
594.949633	19212.379232
595.301190	19173.126287
595.652692	19344.346557
596.004141	19583.072918
596.355535	18910.633407
596.706876	18929.499925
597.058162	18817.523295
597.409395	19042.383962
597.760573	19115.326938
598.111698	18894.032887
598.462768	18841.478858
598.813785	18798.608886
599.164748	18607.836501
599.515657	18652.904416
599.866511	18448.334393
600.217312	18810.705134
600.568060	18332.617227
600.918753	18637.836407
601.269392	18537.230100
601.619978	18327.787802
601.970510	18526.626033
602.320988	18471.072518
602.671412	18680.300567
603.021783	18596.176312
603.372100	18314.353127
603.722363	18475.150811
604.072572	18400.826559
604.422728	18539.226397
604.772830	18299.378379
605.122878	18259.180218
605.472872	18238.587105
605.822813	18227.239468
606.172701	18201.484213
606.522534	18390.282986
606.872314	18424.852698
607.222041	18256.407584
607.571714	18476.837077
607.921333	18295.000137
608.270899	18380.941728
608.620411	18553.089570
608.969870	18320.578952
609.319276	18319.174990
609.668627	18357.596144
610.017926	18490.758223
610.367171	18602.462631
610.716362	18646.101379
611.065500	18461.970714
611.414585	18600.673021
611.763616	18582.121575
612.112594	18534.444863
612.461518	18488.404004
612.810389	18691.413790
613.159207	18545.578251
613.507971	18449.060319
613.856682	18736.930368
614.205340	18653.688316
614.553945	18802.087282
614.902496	18554.496052
615.250994	18784.768398
615.599439	18725.141630
615.947830	18702.834524
616.296169	18764.807949
616.644454	18728.849399
616.992686	18699.275470
617.340864	18905.635103
617.688990	18670.301438
618.037063	18838.595318
618.385082	18690.486218
618.733048	18969.551892
619.080961	18844.967337
619.428821	18870.236120
619.776628	18766.958001
620.124382	18691.703657
620.472083	18736.401047
620.819731	18747.705835
621.167326	18444.848435
621.514868	18483.017532
621.862357	18254.746524
622.209793	18263.908821
622.557176	18090.654445
622.904506	17919.915606
623.251783	17845.228391
623.599007	17585.422445
623.946179	17535.661216
624.293297	17471.361298
624.640363	17222.678658
624.987376	17250.851147
625.334336	17047.191052
625.681243	16884.601237
626.028097	16897.733443
626.374899	16825.034964
626.721647	16690.746187
627.068343	16526.679314
627.414987	16462.079448
627.761577	16432.475272
628.108115	16466.099769
628.454600	16196.929880
628.801032	16295.373532
629.147412	16217.573405
629.493739	16241.362610
629.840014	16053.738425
630.186236	16147.970193
630.532405	15907.822227
630.878521	16105.158194
631.224585	16008.161353
631.570597	15823.639999
631.916556	15858.023189
632.262462	15828.645865
632.608316	15753.283135
632.954117	15698.342120
633.299866	15686.061869
633.645562	15610.159737
633.991206	15359.082549
634.336797	15238.861112
634.682336	15199.613208
635.027823	15092.400469
635.373257	14967.016891
635.718639	14871.534916
636.063968	14813.410412
636.409245	14563.371702
636.754470	14600.151961
637.099642	14440.440645
637.444762	14213.833218
637.789829	14256.569600
638.134845	14091.484414
638.479808	14125.565135
638.824719	14066.727307
639.169577	13919.497889
639.514383	13970.300117
639.859137	13788.876552
640.203839	13872.295045
640.548489	13711.003328
640.893086	13699.552347
641.237632	13572.147265
641.582125	13728.755751
641.926566	13546.543245
642.270955	13557.699318
642.615292	13527.901058
642.959576	13530.698898
643.303809	13566.400350
643.647990	13497.535668
643.992118	13556.801993
644.336195	13327.058968
644.680219	13539.374724
645.024192	13446.320065
645.368112	13703.345815
645.711981	13758.773301
646.055797	13935.662349
646.399562	13911.605963
646.743274	14178.227548
647.086935	14448.246872
647.430544	14412.545420
647.774101	14446.190081
648.117606	14596.741620
648.461059	14568.223813
648.804460	14555.300815
649.147810	14274.054842
649.491108	14184.082848
649.834354	14195.052399
650.177548	13892.169794
650.520690	13703.081154
650.863781	13618.571251
651.206820	13666.237881
651.549807	13494.301768
651.892742	13291.448258
652.235626	13229.270666
652.578458	13233.779978
652.921238	12929.984924
653.263967	13117.815796
653.606644	12952.269344
653.949269	12931.860233
654.291843	12729.281466
654.634365	12888.914643
654.976836	12742.454001
655.319255	12745.483734
655.661622	12699.621837
656.003938	12623.092081
656.346203	12549.831512
656.688416	12624.337246
657.030577	12577.971233
657.372687	12494.799756
657.714746	12473.949544
658.056753	12660.096670
658.398708	12474.425933
658.740612	12486.819610
659.082465	12585.432141
659.424266	12551.265721
659.766016	12574.225656
660.107715	12485.425731
660.449362	12568.032598
660.790958	12513.262982
661.132503	12461.402112
661.473996	12533.155375
661.815438	12541.632076
662.156829	12556.387533
662.498168	12542.763815
662.839456	12533.770396
663.180693	12556.891648
663.521879	12649.664002
663.863013	12621.279786
664.204097	12589.404570
664.545129	12724.333573
664.886110	12691.334180
665.227040	12782.818520
665.567918	12786.790949
665.908746	12819.939056
666.249522	12806.607725
666.590248	12855.496835
666.930922	12964.211838
667.271545	12947.011421
667.612118	13029.714070
667.952639	12932.092126
668.293109	12947.881020
668.633528	12897.633319
668.973896	12879.399466
669.314213	12958.706898
669.654480	12695.505735
669.994695	12761.650715
670.334859	12788.149540
670.674973	12735.572826
671.015035	12768.660439
671.355047	12709.540307
671.695008	12683.500227
672.034918	12681.657685
672.374777	12735.353536
672.714585	12640.068166
673.054342	12676.659381
673.394049	12639.216211
673.733705	12732.432187
674.073310	12634.653967
674.412864	12647.720638
674.752368	12519.869414
675.091820	12532.963812
675.431223	12515.473528
675.770574	12387.765978
676.109875	12312.173876
676.449125	12269.918924
676.788324	12217.753064
677.127473	12047.215871
677.466571	12036.130374
677.805619	11934.039447
678.144616	11859.395082
678.483562	11830.189157
678.822458	11697.969774
679.161303	11678.112669
679.500098	11658.195070
679.838842	11613.293512
680.177535	11647.795169
680.516179	11708.173069
680.854771	11650.643421
681.193314	11870.057122
681.531805	12028.462779
681.870247	12451.423148
682.208638	12862.274666
682.546978	13169.424608
682.885268	13209.595043
683.223508	12906.583888
683.561697	12743.641192
683.899836	12650.478149
684.237925	12452.562449
684.575963	12367.487937
684.913951	12289.097994
685.251889	12244.077970
685.589776	12340.177486
685.927614	12260.696133
686.265401	12229.347718
686.603137	12268.310796
686.940824	12421.297213
687.278460	12552.110114
687.616046	12601.417640
687.953582	12772.741253
688.291068	12695.248636
688.628504	12924.200200
688.965889	12935.051283
689.303224	12903.647416
689.640510	12797.238740
689.977745	12471.645737
690.314930	12258.541040
690.652065	12161.403047
690.989150	11870.629293
691.326185	11649.403298
691.663170	11444.729931
692.000105	11197.695748
692.336990	11086.011505
692.673825	10824.110960
693.010610	10710.564011
693.347345	10501.862762
693.684030	10306.482763
694.020665	10247.637374
694.357251	10054.772910
694.693786	9991.211522
695.030272	9828.800668
695.366707	9708.748110
695.703093	9634.552408
696.039429	9636.853694
696.375716	9559.726561
696.711952	9428.099514
697.048139	9474.974683
697.384276	9427.066077
697.720363	9444.959653
698.056400	9376.294096
698.392388	9326.754677
698.728326	9294.173700
699.064214	9231.146674
699.400053	9271.735524
699.735842	9081.525228
700.071581	9042.778919
700.407270	8971.796953
700.742910	8891.612360
701.078501	8800.858987
701.414042	8675.056993
701.749533	8610.825132
702.084974	8466.781722
702.420366	8589.362419
702.755709	8466.360786
703.091002	8335.036208
703.426246	8360.773818
703.761440	8314.531314
704.096584	8272.394830
704.431679	8201.233902
704.766725	8188.898199
705.101721	8143.815160
705.436668	8186.430554
705.771565	8076.576250
706.106413	8158.870566
706.441212	8201.682565
706.775961	8159.530957
707.110661	8194.851801
707.445311	8338.955705
707.779913	8235.047442
708.114465	8362.863377
708.448967	8399.883090
708.783421	8545.413640
709.117825	8726.801917
709.452180	8764.731558
709.786485	8845.798353
710.120742	9143.987645
710.454949	9136.188980
710.789107	9236.041634
711.123216	9454.603380
711.457275	9619.635633
711.791286	9776.029870
712.125247	9775.505590
712.459159	9765.566955
712.793023	10007.262556
713.126837	9583.823277
713.460602	9724.327796
713.794318	9556.961488
714.127985	9588.715716
714.461602	9265.113969
714.795171	9211.294610
715.128691	8967.814441
715.462162	8716.850679
715.795584	8655.560331
716.128957	8515.766614
716.462281	8345.007610
716.795556	8392.996874
717.128782	8184.693876
717.461960	7925.762571
717.795088	7996.767223
718.128167	7904.446052
718.461198	7735.544713
718.794180	7672.232862
719.127113	7672.646236
719.459997	7512.501381
719.792833	7280.721730
720.125619	7344.129363
720.458357	7203.090482
720.791046	7199.541509
721.123686	7189.628080
721.456278	7028.681682
721.788821	7044.861265
722.121315	6941.194978
722.453761	7008.436408
722.786158	6947.292253
723.118506	6969.024668
723.450805	6933.121570
723.783056	6998.021384
724.115259	6907.328506
724.447412	6896.646301
724.779518	6944.872499
725.111574	6951.247038
725.443582	7030.090685
725.775542	7010.218456
726.107453	7211.325207
726.439315	7116.140660
726.771129	7178.575351
727.102895	7347.960640
727.434612	7458.074564
727.766281	7484.313770
728.097901	7576.014879
728.429473	7562.517189
728.760996	7544.762245
729.092471	7515.465580
729.423897	7460.726211
729.755276	7471.589897
730.086606	7399.045173
730.417887	7495.875656
730.749120	7700.201183
731.080305	7890.534988
731.411442	8011.580653
731.742530	8002.249477
732.073570	8107.980118
732.404562	8199.638377
732.735506	8042.132566
733.066401	8188.449536
733.397249	8113.853062
733.728048	7875.529993
734.058798	7543.736371
734.389501	7315.425033
734.720156	7136.249823
735.050762	6904.749956
735.381320	6811.039947
735.711831	6759.441217
736.042293	6653.113200
736.372707	6668.730695
736.703073	6534.101640
737.033391	6571.693524
737.363661	6585.980154
737.693883	6618.477953
738.024056	6699.219593
738.354182	6743.508650
738.684260	6770.602332
739.014290	6890.574231
739.344272	7002.717219
739.674207	7030.078082
740.004093	7100.679441
740.333931	7115.818026
740.663722	7123.629294
740.993464	7200.650563
741.323159	7187.258738
741.652806	6934.570902
741.982405	6957.114942
742.311956	7006.649319
742.641460	6841.886768
742.970915	6651.583210
743.300323	6642.352857
743.629683	6588.291523
743.958996	6453.155833
744.288260	6365.782554
744.617477	6313.873793
744.946647	6314.718186
745.275768	6149.017980
745.604842	6105.001145
745.933869	6090.543116
746.262847	6044.033431
746.591778	6035.826432
746.920662	5994.715822
747.249498	5984.499924
747.578286	6030.129928
747.907027	6106.468121
748.235720	6172.716444
748.564365	6141.458770
748.892963	6173.719634
749.221514	6324.371996
749.550017	6153.665924
749.878473	6035.483634
750.206881	6085.033135
750.535242	6026.928796
750.863555	5960.463703
751.191821	5977.122196
751.520039	5972.993491
751.848210	5885.826899
752.176334	5906.656947
752.504411	5955.236026
752.832440	5878.784408
753.160421	5807.999046
753.488356	5856.815059
753.816243	5890.789915
754.144082	5739.706535
754.471875	5712.280137
754.799620	5757.456437
755.127318	5768.930103
755.454969	5723.867229
755.782572	5690.756931
756.110129	5733.654629
756.437638	5717.316250
756.765100	5657.013967
757.092515	5659.000182
757.419882	5707.720413
757.747203	5689.156364
758.074477	5752.473257
758.401703	5733.702520
758.728882	5686.885325
759.056014	5748.047124
759.383099	5872.092276
759.710138	5881.345314
760.037129	5871.043716
760.364073	5874.958172
760.690970	5960.914886
761.017820	5936.137615
761.344623	5896.783847
761.671379	6002.582543
761.998088	6117.404904
762.324751	6364.013109
762.651366	6974.897612
762.977935	8298.359293
763.304456	9933.772615
763.630931	10830.372073
763.957359	10411.210213
764.283740	9467.574269
764.610074	8621.766956
764.936362	7623.636138
765.262602	7033.639657
765.588796	6499.358008
765.914943	6160.932747
766.241044	5997.188508
766.567097	5794.685358
766.893104	5537.251276
767.219064	5357.902145
767.544978	5295.613648
767.870845	5217.080033
768.196665	5112.599599
768.522438	5041.705853
768.848165	5007.541953
769.173846	4939.531746
769.499479	4896.145056
769.825066	4845.231922
770.150607	4781.226913
770.476101	4758.171196
770.801548	4752.396554
771.126949	4677.376623
771.452303	4623.436277
771.777611	4582.852468
772.102872	4604.153863
772.428087	4568.152463
772.753256	4523.248385
773.078378	4476.295078
773.403453	4405.610540
773.728482	4391.454980
774.053465	4348.645501
774.378401	4337.174356
774.703291	4334.734437
775.028135	4265.005197
775.352932	4214.767578
775.677683	4202.154612
776.002388	4224.807036
776.327046	4232.063777
776.651658	4160.713806
776.976224	4097.717027
777.300743	4103.007718
777.625216	4125.037561
777.949643	4117.536324
778.274024	4074.212647
778.598359	4030.352088
778.922647	4054.216911
779.246889	4044.870612
779.571086	4039.927760
779.895236	4021.532590
780.219339	4010.676465
780.543397	4002.998788
780.867409	4058.690935
781.191374	4071.934046
781.515294	4006.751927
781.839167	4000.067357
782.162995	4018.467568
782.486776	4009.338039
782.810511	4020.594935
783.134201	4014.774923
783.457844	3967.257007
783.781441	3910.334818
784.104993	3916.984100
784.428498	3941.095939
784.751958	3935.154939
785.075372	3912.442021
785.398739	3876.289386
785.722061	3886.752301
786.045337	3930.968261
786.368568	3962.646872
786.691752	3876.135631
787.014891	3928.513219
787.337983	4054.615162
787.661030	4218.646746
787.984031	4374.854460
788.306987	4544.769071
788.629897	4630.105723
788.952760	4581.869443
789.275579	4517.841748
789.598351	4448.253660
789.921078	4307.000529
790.243759	4108.719346
790.566395	4090.939196
790.888984	4084.841920
791.211529	3976.999037
791.534027	3918.103236
791.856480	3909.618974
792.178888	3844.635981
792.501249	3797.801141
792.823566	3807.898572
793.145836	3837.109538
793.468062	3782.818832
793.790241	3736.563725
794.112375	3770.667130
794.434464	3832.837160
794.756507	3855.519832
795.078505	3835.186338
795.400457	3871.119682
795.722364	4010.258049
796.044226	4115.154378
796.366042	4190.869989
796.687812	4168.290661
797.009538	4173.450282
797.331218	4131.863283
797.652852	4103.345476
797.974442	4082.714553
798.295986	4082.094492
798.617484	4002.338397
798.938938	3918.955191
799.260346	3959.324751
799.581709	3952.284780
799.903026	3875.644118
800.224299	3843.446268
800.545526	3837.129703
800.866708	3794.962971
801.187845	3734.275041
801.508936	3773.449847
801.829983	3769.991616
802.150984	3690.414482
802.471940	3682.210004
802.792851	3691.077393
803.113717	3691.095038
803.434538	3695.412786
803.755314	3634.815596
804.076045	3612.465640
804.396731	3632.277375
804.717372	3659.131602
805.037967	3642.682317
805.358518	3629.945841
805.679024	3658.675377
805.999485	3675.734642
806.319901	3677.448634
806.640272	3687.987166
806.960598	3701.343703
807.280879	3677.856968
807.601115	3692.887168
807.921306	3710.548850
808.241453	3746.429263
808.561554	3719.882547
808.881611	3657.011796
809.201623	3692.108309
809.521590	3705.812686
809.841513	3676.377389
810.161390	3706.599106
810.481223	3686.852907
810.801011	3630.097076
811.120755	3625.590284
811.440453	3658.884585
811.760107	3661.543794
812.079716	3615.530662
812.399281	3585.205601
812.718801	3610.764251
813.038276	3582.115374
813.357707	3581.331474
813.677093	3598.620111
813.996434	3543.195145
814.315731	3554.628482
814.634983	3556.891960
814.954191	3574.641863
815.273354	3602.779063
815.592473	3595.461828
815.911547	3605.493725
816.230577	3643.597286
816.549562	3697.323383
816.868502	3739.590938
817.187399	3762.674381
817.506250	3760.000049
817.825058	3731.111717
818.143821	3825.260306
818.462539	3929.624793
818.781213	3972.827482
819.099843	4032.381153
819.418429	4280.289976
819.736970	4523.079507
820.055466	4771.893216
820.373919	5136.116582
820.692327	5548.702257
821.010691	5996.913766
821.329011	7400.741521
821.647286	10181.268063
821.965517	14788.229849
822.283704	18832.861006
822.601847	20963.013166
822.919945	19101.889742
823.237999	16494.161352
823.556010	13989.030524
823.873976	11873.467462
824.191897	9781.310478
824.509775	8436.824665
824.827609	7308.962274
825.145398	6767.895232
825.463144	6656.505897
825.780845	6770.065449
826.098502	6969.808567
826.416116	7854.775563
826.733685	9196.047640
827.051210	10301.597885
827.368692	10324.247789
827.686129	9044.293786
828.003522	7536.015843
828.320872	6516.001377
828.638177	5813.032638
828.955439	5247.485752
829.272656	4751.975617
829.589830	4469.948266
829.906960	4295.355464
830.224046	4110.720684
830.541088	3987.557733
830.858086	3939.049231
831.175041	3861.160883
831.491952	3847.322916
831.808819	3855.986139
832.125642	3934.565124
832.442421	4079.977207
832.759157	4358.795864
833.075849	4918.084157
833.392497	5793.946829
833.709101	6567.017854
834.025662	6897.528503
834.342179	6522.060844
834.658653	5854.725501
834.975083	5203.655440
835.291469	4626.869302
835.607811	4222.775451
835.924110	4078.240529
836.240366	3882.046383
836.556578	3676.377389
836.872746	3566.139957
837.188871	3527.244935
837.504952	3460.890747
837.820990	3379.531565
838.136984	3336.091943
838.452935	3360.181096
838.768842	3355.880992
839.084706	3378.661966
839.400526	3536.253477
839.716303	3879.994634
840.032037	4413.010953
840.347727	4669.819933
840.663373	4382.738825
840.978977	3999.278416
841.294537	3692.095707
841.610054	3464.056592
841.925527	3359.006507
842.240957	3290.003193
842.556344	3234.663927
842.871687	3175.132941
843.186987	3126.838687
843.502244	3089.009869
843.817458	3057.056515
844.132629	3022.000332
844.447756	3032.105324
844.762840	3016.011441
845.077881	2982.853251
845.392879	2967.190386
845.707833	2963.676702
846.022745	2961.604788
846.337613	2962.923050
846.652438	2949.034671
846.967221	2948.933848
847.281960	2934.856426
847.596656	2931.219233
847.911309	2929.243101
848.225919	2926.528439
848.540485	2918.760021
848.855009	2920.002666
849.169490	2908.171078
849.483928	2900.972310
849.798323	2897.869480
850.112675	2893.942421
850.426984	2905.645460
850.741251	2906.701581
851.055474	2892.606515
851.369654	2886.967985
851.683792	2893.057698
851.997887	2900.717732
852.311938	2903.482805
852.625947	2888.467728
852.939914	2896.606671
853.253837	2899.059192
853.567718	2888.598798
853.881555	2885.589229
854.195350	2900.450551
854.509103	2892.916546
854.822812	2886.846997
855.136479	2882.461193
855.450103	2887.328427
855.763685	2880.721995
856.077224	2877.195708
856.390720	2891.366391
856.704173	2899.417114
857.017584	2889.788510
857.330953	2889.599467
857.644278	2899.596075
857.957561	2908.735687
858.270802	2909.431366
858.584000	2909.227199
858.897155	2897.594737
859.210268	2894.242370
859.523339	2894.935528
859.836367	2892.062071
860.149352	2888.129971
860.462295	2882.748539
860.775195	2891.386556
861.088054	2892.367060
861.400869	2873.419884
861.713642	2872.104143
862.026373	2887.222563
862.339062	2889.440671
862.651708	2895.240518
862.964312	2896.392422
863.276873	2888.480331
863.589392	2903.702095
863.901869	2913.247520
864.214303	2936.464554
864.526696	2947.938220
864.839045	2943.688527
865.151353	2945.873867
865.463619	2944.338836
865.775842	2945.399999
866.088023	2964.284161
866.400162	2970.832620
866.712258	2940.855399
867.024313	2928.373502
867.336325	2939.514452
867.648296	2962.353399
867.960224	2953.992646
868.272110	2940.169802
868.583954	2947.537448
868.895755	2957.864252
869.207515	2945.158023
869.519233	2951.855196
869.830909	2964.253914
870.142542	2968.344811
870.454134	2969.373206
870.765684	2974.348825
871.077191	2971.707260
871.388657	2980.511635
871.700081	2996.015704
872.011463	3006.471057
872.322803	3004.356293
872.634101	3007.746469
872.945357	3021.687780
873.256571	3046.376831
873.567744	3040.322405
873.878874	3034.983823
874.189963	3061.071794
874.501010	3057.144736
874.812015	3047.377500
875.122979	3048.879764
875.433900	3046.328940
875.744780	3050.079558
876.055618	3059.549366
876.366415	3054.377142
876.677169	3064.761919
876.987882	3062.795869
877.298554	3058.987277
877.609183	3080.510484
877.919771	3104.715584
878.230317	3129.082001
878.540822	3180.100998
878.851285	3220.969633
879.161707	3262.730551
879.472087	3369.103938
879.782425	3603.222685
880.092722	4043.401115
880.402977	4575.079008
880.713191	5216.119693
881.023363	6389.279372
881.333494	7687.371447
881.643583	8231.495949
881.953631	7930.619723
882.263637	7275.884743
882.573602	6679.347365
882.883526	6097.867912
883.193408	5524.592938
883.503248	5061.199994
883.813048	4750.430504
884.122806	4446.930357
884.432522	4130.499651
884.742197	3889.963516
885.051831	3699.785987
885.361424	3567.435534
885.670975	3491.649347
885.980485	3406.345463
886.289954	3327.842094
886.599382	3282.852317
886.908768	3244.257243
887.218113	3200.084132
887.527417	3140.638846
887.836680	3092.266454
888.145901	3087.293356
888.455082	3073.964545
888.764221	3024.583923
889.073319	2999.126096
889.382376	2995.425889
889.691392	3000.414111
890.000366	2998.695077
890.309300	2984.325268
890.618193	2999.363030
890.927044	3012.870802
891.235855	3015.948426
891.544625	3000.512413
891.853353	3014.297448
892.162041	3032.135571
892.470687	3072.444637
892.779293	3122.727627
893.087858	3168.176149
893.396381	3239.422776
893.704864	3368.060420
894.013306	3607.490022
894.321707	3914.554264
894.630068	4117.851396
894.938387	4112.553143
895.246665	4067.661668
895.554903	3945.771609
895.863100	3742.620671
896.171256	3573.716811
896.479371	3432.388063
896.787446	3309.681338
897.095480	3208.200390
897.403473	3144.034063
897.711425	3104.186263
898.019336	3099.876076
898.327207	3066.790983
898.635038	3029.284799
898.942827	3017.770803
899.250576	3004.467198
899.558284	2974.048876
899.865952	2953.722944
900.173579	2934.153185
900.481165	2927.927360
900.788711	2913.784403
901.096216	2888.107285
901.403681	2876.053887
901.711105	2884.008827
902.018489	2882.831718
902.325832	2880.071686
902.633135	2895.127092
902.940397	2925.641196
903.247619	3010.554392
903.554800	3206.834237
903.861941	3557.005386
904.169041	3988.465141
904.476101	4287.392961
904.783121	4237.397318
905.090100	3984.202846
905.397039	3709.215465
905.703938	3460.484934
906.010796	3278.055659
906.317614	3163.308915
906.624391	3068.373906
906.931129	2993.356495
907.237826	2932.479522
907.544483	2887.121740
907.851099	2854.694518
908.157675	2833.713235
908.464211	2815.360915
908.770707	2801.961528
909.077163	2790.051802
909.383578	2773.282404
909.689954	2760.566093
909.996289	2759.565424
910.302584	2761.339910
910.608839	2763.520209
910.915054	2755.174579
911.221229	2748.363980
911.527363	2750.698034
911.833458	2758.224477
912.139513	2763.709252
912.445527	2767.038935
912.751502	2776.665018
913.057436	2784.637603
913.363331	2799.176290
913.669186	2819.708910
913.975000	2858.450177
914.280775	2916.612490
914.586510	2986.515650
914.892205	3067.058165
915.197859	3199.927857
915.503475	3390.924573
915.809050	3610.413891
916.114585	3759.011983
916.420081	3775.988068
916.725536	3714.778378
917.030952	3593.289091
917.336328	3465.652117
917.641665	3330.816375
917.946961	3233.930439
918.252218	3159.707011
918.557435	3083.739343
918.862612	3022.121319
919.167750	2970.446972
919.472848	2932.655962
919.777906	2905.970614
920.082925	2880.066645
920.387904	2849.182016
920.692843	2830.169304
920.997743	2818.007521
921.302603	2807.433700
921.607423	2797.411887
921.912204	2782.840431
922.216946	2773.630243
922.521647	2762.421238
922.826310	2754.592326
923.130932	2745.059504
923.435516	2738.795870
923.740059	2731.115672
924.044564	2725.280537
924.349028	2717.522201
924.653454	2710.215048
924.957840	2704.914275
925.262186	2701.942515
925.566493	2697.324818
925.870761	2693.266689
926.174989	2690.277285
926.479178	2685.747808
926.783328	2676.956036
927.087438	2674.929492
927.391509	2673.840603
927.695541	2673.517969
927.999533	2669.222906
928.303486	2666.966990
928.607400	2668.867505
928.911275	2668.275169
929.215110	2666.059582
929.518906	2663.244098
929.822663	2666.278872
930.126381	2664.353151
930.430060	2664.748882
930.733699	2663.531443
931.037299	2667.304747
931.340861	2667.652587
931.644383	2668.267607
931.947866	2667.604696
932.251309	2666.130158
932.554714	2665.689057
932.858080	2661.956083
933.161407	2660.405928
933.464694	2659.201092
933.767943	2654.971564
934.071153	2660.796617
934.374323	2659.556493
934.677455	2659.012049
934.980548	2658.112203
935.283602	2657.083807
935.586617	2655.150525
935.889593	2655.311842
936.192530	2656.993067
936.495428	2657.867707
936.798287	2657.875269
937.101108	2663.047492
937.403890	2665.096722
937.706632	2671.637619
938.009336	2676.953515
938.312002	2687.633200
938.614628	2694.368181
938.917216	2701.025025
939.219765	2701.511496
939.522275	2700.014274
939.824747	2698.617874
940.127179	2698.721218
940.429573	2692.941535
940.731929	2687.860052
941.034246	2685.641944
941.336524	2684.427026
941.638763	2680.525173
941.940964	2680.419309
942.243126	2678.299503
942.545250	2677.021571
942.847335	2671.746003
943.149381	2669.573266
943.451389	2664.776608
943.753359	2663.070178
944.055290	2661.451967
944.357182	2661.583037
944.659036	2659.594302
944.960851	2659.185969
945.262628	2656.854435
945.564367	2661.174704
945.866067	2657.973571
946.167729	2659.259065
946.469352	2659.357368
946.770937	2659.135557
947.072484	2658.074394
947.373992	2657.293015
947.675462	2654.588436
947.976893	2650.794968
948.278286	2649.141470
948.579641	2650.779845
948.880958	2647.041829
949.182236	2649.045688
949.483476	2649.688435
949.784678	2650.240441
950.085841	2648.561737
950.386967	2650.154742
950.688054	2649.711120
950.989103	2650.757159
951.290114	2652.027530
951.591087	2653.731440
951.892021	2660.151350
952.192917	2658.616318
952.493776	2661.419200
952.794596	2661.830054
953.095378	2661.106648
953.396122	2659.639672
953.696828	2660.821823
953.997496	2656.751091
954.298126	2656.032727
954.598718	2653.134063
954.899272	2651.404948
955.199788	2648.876809
955.500266	2645.080820
955.800706	2644.604431
956.101108	2640.241312
956.401472	2640.861374
956.701798	2638.444141
957.002087	2637.861888
957.302337	2633.055148
957.602550	2635.411887
957.902724	2630.768984
958.202861	2631.368882
958.502960	2630.375774
958.803022	2631.915847
959.103045	2627.182203
959.403031	2628.351751
959.702979	2624.550721
960.002889	2627.232615
960.302762	2627.635907
960.602596	2624.943931
960.902393	2625.218674
961.202153	2622.866976
961.501875	2622.193982
961.801559	2621.952006
962.101205	2623.272789
962.400814	2625.745475
962.700385	2623.608025
962.999918	2618.627365
963.299414	2618.435802
963.598873	2621.465535
963.898293	2617.717437
964.197677	2623.424023
964.497022	2623.164404
964.796331	2621.594084
965.095601	2622.493930
965.394835	2621.533591
965.694030	2621.100051
965.993189	2620.767335
966.292309	2620.911008
966.591393	2622.383025
966.890439	2620.502675
967.189447	2618.844135
967.488419	2621.382356
967.787353	2623.461832
968.086249	2620.923611
968.385108	2623.018210
968.683930	2621.024434
968.982714	2622.914867
969.281462	2620.500154
969.580172	2620.938734
969.878844	2619.514608
970.177480	2623.381173
970.476078	2622.884620
970.774639	2622.083076
971.073162	2622.534260
971.371649	2622.085597
971.670098	2620.449742
971.968510	2622.098200
972.266885	2621.092490
972.565223	2621.946965
972.863524	2623.232459
973.161788	2621.841101
973.460014	2622.758591
973.758204	2620.754732
974.056356	2622.829167
974.354471	2620.280864
974.652550	2623.837398
974.950591	2621.175669
975.248595	2621.831019
975.546563	2620.900926
975.844493	2619.446553
976.142386	2618.874382
976.440243	2622.541821
976.738062	2619.733899
977.035845	2621.152983
977.333590	2619.350771
977.631299	2619.065946
977.928971	2615.438836
978.226606	2616.011007
978.524204	2615.721140
978.821765	2613.898763
979.119290	2617.639299
979.416777	2618.854217
979.714228	2616.386572
980.011642	2618.370267
980.309020	2617.939248
980.606360	2618.425719
980.903664	2620.399331
981.200931	2621.931842
981.498162	2619.559979
981.795356	2620.550566
982.092513	2621.064763
982.389633	2626.143726
982.686717	2628.566000
982.983764	2632.271248
983.280775	2635.585807
983.577749	2638.308030
983.874686	2634.683440
984.171587	2634.328039
984.468451	2631.192441
984.765279	2626.741103
985.062070	2627.774539
985.358824	2624.286061
985.655543	2623.376132
985.952224	2620.853035
986.248869	2622.330093
986.545478	2618.823970
986.842050	2619.849845
987.138586	2617.409927
987.435086	2619.547376
987.731549	2616.071500
988.027975	2615.658126
988.324366	2617.891357
988.620719	2619.040740
988.917037	2615.511932
989.213318	2618.541666
989.509563	2618.002262
989.805772	2616.903291
990.101944	2616.124432
990.398080	2615.035543
990.694180	2615.131325
990.990244	2614.707868
991.286271	2614.576798
991.582262	2615.587550
991.878217	2615.340533
992.174136	2615.620317
992.470019	2615.229628
992.765865	2614.397837
993.061676	2611.116046
993.357450	2614.392796
993.653188	2613.208125
993.948890	2614.929679
994.244556	2616.416819
994.540186	2617.278857
994.835780	2615.937910
995.131337	2616.631068
995.426859	2617.034361
995.722345	2618.960082
996.017795	2619.958230
996.313208	2621.964609
996.608586	2621.649537
996.903928	2620.873199
997.199234	2622.330093
997.494504	2619.847325
997.789738	2619.413785
998.084936	2619.592746
998.380099	2617.525873
998.675225	2617.614093
998.970316	2615.108640
999.265371	2614.080245
999.560390	2617.021758
999.855373	2615.219545
1000.150320	2615.935389
1000.445232	2613.649226
1000.740108	2615.942951
1001.034948	2615.932869
1001.329752	2614.201232
1001.624521	2614.027312
1001.919254	2612.509925
1002.213951	2615.206942
1002.508613	2613.273660
1002.803239	2612.663680
1003.097829	2611.446242
1003.392384	2612.444390
1003.686903	2613.518156
1003.981386	2612.041098
1004.275834	2613.951695
1004.570246	2617.155348
1004.864623	2612.353649
1005.158964	2612.265429
1005.453270	2611.930192
1005.747540	2614.440687
1006.041775	2614.672580
1006.335974	2614.014710
1006.630138	2611.957919
1006.924266	2612.456993
1007.218359	2612.656119
1007.512416	2610.785851
1007.806438	2608.799636
1008.100425	2612.240223
1008.394376	2610.440532
1008.688292	2612.625872
1008.982172	2611.632764
1009.276017	2614.032354
1009.569827	2615.199381
1009.863602	2613.356839
1010.157341	2612.605707
1010.451045	2614.770883
1010.744714	2612.643516
1011.038347	2615.837087
1011.331945	2613.344236
1011.625508	2613.341716
1011.919036	2612.020933
1012.212528	2614.256685
1012.505986	2610.659822
1012.799408	2612.187291
1013.092795	2610.942126
1013.386147	2612.630913
1013.679464	2611.753752
1013.972745	2612.353649
1014.265992	2612.777106
1014.559204	2613.170316
1014.852380	2614.198712
1015.145521	2612.129318
1015.438628	2613.951695
1015.731699	2612.066304
1016.024736	2612.454472
1016.317737	2611.579832
1016.610703	2614.211315
1016.903635	2613.772734
1017.196531	2614.370111
1017.489393	2612.275512
1017.782219	2613.298866
1018.075011	2610.649739
1018.367768	2612.759462
1018.660490	2608.746704
1018.953177	2608.746704
1019.245829	2608.746704
