Dividing Wavelength (nm)	Counts (n)	Blue Motor Position (mm): 20.800000	Red Motor Position (mm): 0.000000	
326.493990	2187.918743
326.888308	2187.918743
327.282561	2187.918743
327.676750	2145.936013
328.070874	2143.612041
328.464933	2145.739408
328.858929	2147.753349
329.252859	2151.844246
329.646726	2161.170380
330.040528	2173.944664
330.434265	2186.325738
330.827938	2203.271577
331.221547	2220.436705
331.615091	2237.926989
332.008571	2257.219484
332.401986	2275.513832
332.795338	2295.275155
333.188625	2312.120170
333.581847	2331.765547
333.975006	2350.362363
334.368100	2368.893645
334.761129	2387.959289
335.154095	2404.496794
335.546996	2425.863725
335.939833	2459.102572
336.332606	2475.156127
336.725315	2487.219608
337.117960	2502.312823
337.510540	2512.322034
337.903056	2523.581451
338.295508	2531.213758
338.687896	2538.959491
339.080220	2546.695141
339.472480	2552.968857
339.864676	2561.211144
340.256807	2563.865311
340.648875	2568.898903
341.040879	2572.755386
341.432818	2574.870150
341.824694	2580.569174
342.216506	2577.378124
342.608253	2580.211253
342.999937	2579.437435
343.391557	2581.111098
343.783113	2581.481623
344.174605	2579.820563
344.566033	2577.443659
344.957397	2576.107753
345.348697	2575.223031
345.739934	2573.758576
346.131106	2571.550550
346.522215	2569.193811
346.913260	2568.709860
347.304241	2562.862122
347.695159	2565.261711
348.086012	2562.985630
348.476802	2560.089487
348.867528	2557.972202
349.258191	2552.749567
349.648789	2551.731254
350.039324	2548.676315
350.429796	2552.033723
350.820203	2551.151521
351.210548	2549.475337
351.600828	2552.126984
351.991045	2546.803526
352.381198	2546.241437
352.771288	2544.421581
353.161314	2544.605583
353.551276	2545.933927
353.941175	2545.903680
354.331010	2546.014585
354.720782	2544.038453
355.110490	2545.359235
355.500135	2542.785726
355.889717	2546.324616
356.279235	2542.647095
356.668689	2543.617517
357.058080	2544.688762
357.447408	2544.925696
357.836672	2543.693134
358.225873	2544.552651
358.615010	2548.525080
359.004084	2544.245140
359.393095	2544.068700
359.782043	2546.017106
360.170927	2547.811757
360.559748	2548.678835
360.948505	2550.090358
361.337199	2549.041798
361.725830	2549.276212
362.114398	2551.413661
362.502903	2551.156562
362.891344	2550.972560
363.279722	2551.232180
363.668037	2553.344423
364.056289	2552.535318
364.444478	2553.735112
364.832603	2552.709238
365.220665	2554.564382
365.608665	2552.968857
365.996601	2554.080432
366.384474	2554.236707
366.772284	2555.723848
367.160031	2557.014383
367.547715	2559.401369
367.935336	2554.897098
368.322893	2556.452294
368.710388	2555.136553
369.097820	2554.466080
369.485189	2551.761501
369.872495	2560.921277
370.259738	2560.999415
370.646918	2559.124106
371.034035	2561.246432
371.421090	2559.497151
371.808081	2562.312636
372.195010	2563.431772
372.581875	2558.446071
372.968678	2562.325239
373.355418	2561.954714
373.742096	2561.483366
374.128710	2559.817265
374.515262	2562.136195
374.901751	2562.100907
375.288177	2564.427400
375.674540	2561.012018
376.060841	2561.730382
376.447079	2563.043603
376.833254	2563.076371
377.219367	2564.934036
377.605417	2563.827502
377.991404	2562.758778
378.377329	2564.049313
378.763191	2564.268603
379.148991	2564.654252
379.534727	2565.964952
379.920402	2563.376319
380.306013	2566.181721
380.691563	2565.158367
381.077049	2564.371947
381.462474	2567.245405
381.847835	2565.594427
382.233134	2563.530074
382.618371	2566.907647
383.003545	2566.748851
383.388657	2568.369582
383.773706	2569.488718
384.158693	2567.474777
384.543618	2566.479149
384.928480	2565.924623
385.313280	2568.606516
385.698017	2566.353121
386.082692	2566.711042
386.467305	2566.431258
386.851856	2573.546847
387.236344	2567.668862
387.620770	2566.058213
388.005133	2564.414797
388.389435	2568.175498
388.773674	2565.231464
389.157851	2569.249263
389.541965	2568.959397
389.926018	2572.067268
390.310008	2573.007444
390.693936	2573.176322
391.077802	2569.738255
391.461606	2572.823442
391.845348	2573.786302
392.229027	2572.248750
392.612645	2576.029615
392.996200	2575.132290
393.379694	2574.214800
393.763125	2573.592217
394.146494	2572.878894
394.529801	2572.561302
394.913047	2572.583987
395.296230	2574.078689
395.679351	2574.890315
396.062410	2574.043401
396.445408	2573.743452
396.828343	2574.474419
397.211217	2575.344018
397.594028	2572.652042
397.976778	2575.311251
398.359466	2575.243195
398.742092	2577.625141
399.124656	2576.127918
399.507158	2573.705643
399.889598	2578.708989
400.271977	2579.432394
400.654294	2575.127249
401.036549	2576.463155
401.418742	2580.702765
401.800874	2578.524987
402.182944	2578.542631
402.564952	2577.531879
402.946898	2580.289390
403.328783	2577.688155
403.710606	2580.667477
404.092367	2581.852148
404.474067	2577.221848
404.855705	2579.964236
405.237282	2579.818042
405.618797	2580.480954
406.000250	2579.248392
406.381642	2581.358115
406.762972	2577.763772
407.144240	2577.126066
407.525447	2579.099678
407.906593	2575.475088
408.287677	2581.166551
408.668700	2582.429360
409.049661	2581.242168
409.430560	2580.387693
409.811399	2581.942889
410.192176	2585.169227
410.572891	2583.286356
410.953545	2583.591346
411.334138	2584.070256
411.714669	2581.758887
412.095139	2585.335585
412.475547	2581.625296
412.855894	2583.316603
413.236180	2581.300142
413.616405	2584.017324
413.996568	2584.279464
414.376670	2585.859865
414.756711	2583.185533
415.136691	2583.626634
415.516609	2583.561099
415.896466	2584.362643
416.276262	2582.799885
416.655997	2584.965061
417.035670	2586.316090
417.415283	2588.128385
417.794834	2586.306007
418.174324	2585.035637
418.553753	2587.498240
418.933121	2587.916656
419.312428	2587.725092
419.691674	2586.585792
420.070859	2588.309866
420.449983	2586.787438
420.829045	2587.276430
421.208047	2589.676019
421.586988	2586.114444
421.965867	2590.596029
422.344686	2589.560072
422.723444	2588.564444
423.102141	2590.991760
423.480777	2588.352716
423.859352	2589.645772
424.237866	2589.270206
424.616319	2587.972109
424.994712	2593.585434
425.373044	2592.436051
425.751314	2585.582602
426.129524	2584.660071
426.507673	2587.956985
426.885762	2586.298446
427.263789	2589.764239
427.641756	2591.957141
428.019662	2590.432192
428.397508	2591.082501
428.775292	2590.285998
429.153016	2590.800196
429.530679	2592.302460
429.908282	2590.696853
430.285824	2592.955289
430.663305	2593.673654
431.040726	2593.582913
431.418086	2592.425968
431.795385	2594.296236
432.172624	2592.844384
432.549802	2590.424630
432.926920	2592.970413
433.303977	2594.518047
433.680974	2594.717173
434.057910	2592.640217
434.434786	2596.090887
434.811601	2594.754981
435.188355	2595.221288
435.565050	2595.813624
435.941683	2597.396546
436.318257	2595.180959
436.694770	2595.490990
437.071222	2594.865887
437.447614	2595.337235
437.823946	2598.412338
438.200218	2594.618870
438.576429	2594.709611
438.952580	2596.905033
439.328670	2595.042327
439.704700	2596.153902
440.080670	2595.375043
440.456580	2597.381422
440.832429	2597.933429
441.208218	2596.461412
441.583947	2598.215733
441.959616	2597.492328
442.335224	2598.283789
442.710773	2599.783532
443.086261	2600.824531
443.461689	2597.459560
443.837057	2599.254211
444.212365	2598.508120
444.587612	2597.716659
444.962800	2597.086515
445.337927	2599.213882
445.712995	2594.293716
446.088002	2599.750765
446.462949	2599.874273
446.837837	2600.653131
447.212664	2598.563573
447.587431	2600.459047
447.962139	2600.390991
448.336786	2607.660335
448.711374	2604.607917
449.085901	2605.263267
449.460369	2604.575149
449.834776	2604.348297
450.209124	2603.788729
450.583412	2605.825355
450.957640	2607.304934
451.331808	2604.738987
451.705917	2602.810745
452.079965	2605.979110
452.453954	2603.602206
452.827883	2606.054728
453.201752	2604.986003
453.575562	2603.377875
453.949311	2605.459872
454.323001	2604.726384
454.696632	2604.023143
455.070202	2607.499018
455.443713	2605.971549
455.817164	2608.550099
456.190556	2607.239399
456.563888	2612.716612
456.937160	2610.314503
457.310373	2610.967332
457.683526	2609.109667
458.056619	2608.698813
458.429653	2609.787702
458.802628	2611.126128
459.175542	2611.002620
459.548398	2613.129987
459.921194	2612.784668
460.293930	2611.811725
460.666607	2616.416819
461.039224	2613.457662
461.411782	2616.530245
461.784280	2618.443363
462.156719	2617.230966
462.529099	2618.060236
462.901419	2617.165431
463.273680	2613.573609
463.645882	2612.255347
464.018024	2612.134359
464.390106	2611.063114
464.762130	2619.096193
465.134094	2618.244238
465.505999	2622.743468
465.877845	2627.819909
466.249631	2629.675054
466.621358	2630.993316
466.993026	2631.033645
467.364634	2633.070271
467.736184	2629.551546
468.107674	2627.172121
468.479105	2626.216822
468.850477	2629.773357
469.221790	2630.350569
469.593043	2628.296298
469.964238	2629.722945
470.335373	2629.589354
470.706449	2629.065074
471.077467	2630.138840
471.448425	2633.924747
471.819324	2639.515386
472.190164	2645.637868
472.560945	2642.038484
472.931667	2639.669142
473.302330	2639.805253
473.672934	2640.818525
474.043479	2642.691313
474.413965	2640.785757
474.784393	2644.914462
475.154761	2648.130718
475.525070	2649.648106
475.895321	2651.732623
476.265513	2657.267810
476.635645	2661.157060
477.005719	2663.539005
477.375734	2667.937412
477.745691	2670.200890
478.115588	2675.415963
478.485427	2683.325534
478.855207	2689.962213
479.224928	2703.961497
479.594591	2723.720300
479.964194	2731.387895
480.333739	2736.663462
480.703226	2740.802249
481.072653	2747.779206
481.442022	2760.893768
481.811333	2779.404885
482.180584	2785.819753
482.549777	2795.599592
482.918912	2797.444654
483.287988	2819.471976
483.657005	2834.827330
484.025964	2845.058352
484.394864	2859.718027
484.763706	2872.106663
485.132489	2884.623848
485.501213	2902.688823
485.869879	2929.701846
486.238487	2950.577264
486.607036	2978.023826
486.975527	2994.505878
487.343959	3033.521889
487.712333	3056.628017
488.080648	3084.860999
488.448905	3125.575878
488.817104	3157.982936
489.185244	3215.023592
489.553326	3258.190992
489.921350	3332.875686
490.289315	3476.067141
490.657222	3606.166719
491.025070	3682.015919
491.392861	3733.617170
491.760593	3764.348044
492.128267	3785.024337
492.495883	3797.332314
492.863440	3825.303156
493.230939	3843.277390
493.598380	3920.107095
493.965763	3970.705156
494.333088	4012.022453
494.700354	4081.499635
495.067563	4164.068694
495.434713	4230.256524
495.801805	4304.961383
496.168839	4390.781986
496.535815	4472.403307
496.902733	4577.244184
497.269593	4620.565340
497.636395	4748.840020
498.003139	4842.769319
498.369825	4937.404379
498.736453	5037.695615
499.103023	5115.435248
499.469535	5236.249021
499.835989	5369.262385
500.202385	5498.938506
500.568723	5539.678591
500.935003	5669.763046
501.301226	5748.737762
501.667390	5970.246062
502.033497	6166.294014
502.399546	6212.942331
502.765537	6307.506816
503.131470	6475.034440
503.497345	6633.908924
503.863163	6623.287213
504.228923	6866.790068
504.594625	7052.085239
504.960269	7076.141625
505.325856	7331.528999
505.691385	7363.769699
506.056856	7612.790096
506.422270	7793.641490
506.787625	7821.705594
507.152924	8109.789892
507.518164	8233.973676
507.883347	8326.534302
508.248472	8397.480980
508.613540	8768.938401
508.978550	8906.491325
509.343503	9056.105210
509.708398	9301.727869
510.073236	9500.238425
510.438016	9729.996573
510.802738	9821.632148
511.167403	10062.092665
511.532010	10126.891657
511.896561	10568.826929
512.261053	10769.953844
512.625488	10869.718279
512.989866	11006.504948
513.354186	11104.270565
513.718449	11361.379493
514.082655	11652.463278
514.446803	11770.428798
514.810894	12112.670212
515.174927	12085.624422
515.538904	12282.541974
515.902822	12670.171416
516.266684	12789.198100
516.630488	12901.283114
516.994235	13109.906225
517.357925	13409.703644
517.721558	13706.362945
518.085133	13938.321557
518.448651	14084.167179
518.812112	14155.847346
519.175516	14383.578950
519.538863	14706.225399
519.902152	14755.477472
520.265385	15120.136897
520.628560	15183.584860
520.991678	15389.881478
521.354739	15616.095695
521.717743	15853.649988
522.080690	15892.348405
522.443580	16308.097404
522.806413	16456.834128
523.169189	16724.935292
523.531908	16905.209474
523.894569	16883.156947
524.257174	17105.844877
524.619722	17402.441163
524.982213	17365.882716
525.344647	17640.010580
525.707025	17861.284466
526.069345	18065.536896
526.431608	18212.461325
526.793815	18549.470022
527.155964	18275.526160
527.518057	18590.535261
527.880093	18723.626763
528.242072	18983.120158
528.603995	18946.644889
528.965860	18967.694227
529.327669	19214.519202
529.689421	19322.500717
530.051117	19341.566361
530.412755	19680.450366
530.774337	19628.554208
531.135862	19685.897333
531.497331	19988.868159
531.858743	19774.593914
532.220098	20316.928807
532.581396	20145.965636
532.942638	20302.390119
533.303824	20467.286262
533.664953	20604.937488
534.026025	20478.908642
534.387040	20766.627456
534.747999	20987.823205
535.108902	21214.924665
535.469748	20927.803227
535.830537	21218.902135
536.191270	21389.855224
536.551947	21451.236313
536.912567	21255.299266
537.273131	21601.132502
537.633638	21467.680557
537.994089	21771.518461
538.354483	21474.344962
538.714821	21992.255465
539.075103	22140.510758
539.435328	22035.821116
539.795497	21726.669836
540.155609	22188.058921
540.515665	22525.745653
540.875665	21918.621851
541.235609	22247.347932
541.595496	22333.733144
541.955328	22706.992777
542.315102	22712.790104
542.674821	22414.885638
543.034483	22352.493798
543.394090	22569.215522
543.753640	22437.195265
544.113134	23088.966046
544.472571	22797.680615
544.831953	23128.985245
545.191278	22799.402169
545.550548	22822.074758
545.909761	23052.460530
546.268918	23318.832579
546.628019	23331.813550
546.987064	23126.384010
547.346053	22946.256021
547.704986	23115.543009
548.063863	23312.609274
548.422684	23313.390653
548.781449	22951.803811
549.140158	23378.855077
549.498811	23020.524820
549.857408	22784.487915
550.215949	23264.151183
550.574434	22970.163693
550.932864	23218.601837
551.291237	23373.760991
551.649555	23289.145224
552.007817	23373.208985
552.366022	23270.016565
552.724173	23348.958514
553.082267	23303.877996
553.440305	23785.766933
553.798288	23107.383901
554.156215	23651.863805
554.514086	23734.289191
554.871902	23132.992963
555.229661	23443.749850
555.587365	23328.761131
555.945014	23170.484024
556.302606	23464.869764
556.660143	23396.728488
557.017625	23673.248379
557.375050	23247.659048
557.732421	23635.384273
558.089735	23455.594041
558.446994	23539.224263
558.804197	23558.970463
559.161345	23550.899575
559.518437	23289.356952
559.875474	23520.713146
560.232455	23687.048538
560.589381	23545.162742
560.946251	23506.360981
561.303065	23858.349466
561.659825	23939.020531
562.016528	23556.575915
562.373177	23302.131236
562.729770	23656.541995
563.086307	23541.417165
563.442789	23724.670669
563.799216	23544.598133
564.155587	23563.777203
564.511904	23547.595099
564.868164	23482.813752
565.224370	23487.096212
565.580520	23378.696281
565.936615	23522.328836
566.292654	23184.977341
566.648638	23518.661397
567.004567	23345.464994
567.360441	23300.296256
567.716260	23026.291900
568.072023	23361.042160
568.427732	23117.705664
568.783385	22916.495570
569.138982	23128.287046
569.494525	23181.718235
569.850013	22923.054111
570.205445	23025.598742
570.560823	22833.283764
570.916145	22609.206996
571.271412	22771.295215
571.626625	22547.432697
571.981782	22643.554898
572.336884	22451.570115
572.691931	22596.215942
573.046923	22328.616373
573.401860	22212.720246
573.756743	22203.094162
574.111570	22121.180454
574.466342	22066.786404
574.821059	22159.273933
575.175722	21867.751567
575.530330	21851.501408
575.884882	21874.736086
576.239380	21789.540586
576.593823	21667.166577
576.948211	21657.351450
577.302544	21502.986278
577.656823	21374.078933
578.011047	21471.237091
578.365216	21349.175633
578.719330	21221.578988
579.073389	21128.864607
579.427394	21281.813215
579.781344	21065.038558
580.135239	20941.023653
580.489080	20919.271074
580.842866	20685.117040
581.196597	20866.591017
581.550273	20852.221207
581.903895	20742.177860
582.257463	21059.866334
582.610975	20580.402192
582.964434	20880.242461
583.317837	20608.194073
583.671186	20696.668844
584.024481	20658.424130
584.377721	20441.778023
584.730906	20484.895012
585.084037	20526.998729
585.437113	20424.844787
585.790135	20618.067173
586.143103	20092.819272
586.496016	20102.851168
586.848874	20341.295224
587.201679	20303.799122
587.554428	19957.164342
587.907124	20279.011768
588.259765	20071.684234
588.612352	20155.264044
588.964884	19717.132322
589.317362	19888.317304
589.669786	19943.928793
590.022155	19993.727831
590.374470	20162.634211
590.726731	19983.937910
591.078937	19717.298680
591.431090	19826.321194
591.783188	19575.664942
592.135232	19551.054029
592.487222	19651.093207
592.839157	19680.692342
593.191038	19557.947807
593.542866	19451.327403
593.894639	19173.983283
594.246358	19392.658455
594.598022	19302.378951
594.949633	19063.927333
595.301190	19001.593466
595.652692	19170.010854
596.004141	19422.965872
596.355535	18748.421679
596.706876	18765.581766
597.058162	18653.650507
597.409395	18868.796871
597.760573	18973.100864
598.111698	18743.975381
598.462768	18679.428447
598.813785	18633.579153
599.164748	18471.924472
599.515657	18484.247573
599.866511	18290.326988
600.217312	18637.662487
600.568060	18175.497065
600.918753	18489.402153
601.269392	18396.798677
601.619978	18169.203184
601.970510	18375.151963
602.320988	18320.831009
602.671412	18546.936842
603.021783	18429.447710
603.372100	18177.521088
603.722363	18299.950550
604.072572	18242.831757
604.422728	18376.354278
604.772830	18143.521026
605.122878	18083.543898
605.472872	18088.905165
605.822813	18070.598215
606.172701	18020.973096
606.522534	18237.069718
606.872314	18261.857071
607.222041	18088.287624
607.571714	18303.980953
607.921333	18139.246127
608.270899	18203.672073
608.620411	18399.949398
608.969870	18164.963574
609.319276	18170.665119
609.668627	18197.373152
610.017926	18326.724118
610.367171	18449.488817
610.716362	18483.927460
611.065500	18313.402869
611.414585	18428.951157
611.763616	18418.805834
612.112594	18374.864617
612.461518	18339.599225
612.810389	18544.234783
613.159207	18392.138131
613.507971	18287.423283
613.856682	18568.732270
614.205340	18505.667436
614.553945	18650.310742
614.902496	18379.784783
615.250994	18641.037540
615.599439	18564.190191
615.947830	18562.624913
616.296169	18598.601107
616.644454	18578.267613
616.992686	18542.354433
617.340864	18747.277337
617.688990	18517.292337
618.037063	18695.444193
618.385082	18537.441828
618.733048	18818.750816
619.080961	18684.129323
619.428821	18720.229026
619.776628	18628.162433
620.124382	18538.024082
620.472083	18572.432477
620.819731	18600.115974
621.167326	18295.673131
621.514868	18328.584304
621.862357	18080.005008
622.209793	18102.828832
622.557176	17939.228266
622.904506	17765.232841
623.251783	17666.378335
623.599007	17445.318698
623.946179	17389.682003
624.293297	17330.471131
624.640363	17086.718739
624.987376	17110.828058
625.334336	16905.980771
625.681243	16744.767192
626.028097	16746.564363
626.374899	16683.756627
626.721647	16552.101853
627.068343	16379.399484
627.414987	16311.638815
627.761577	16285.253416
628.108115	16330.112123
628.454600	16049.105605
628.801032	16148.970863
629.147412	16088.134218
629.493739	16107.530057
629.840014	15911.000675
630.186236	16014.795512
630.532405	15778.541837
630.878521	15979.845192
631.224585	15866.827564
631.570597	15684.617579
631.916556	15731.843108
632.262462	15702.112903
632.608316	15626.026768
632.954117	15560.423713
633.299866	15557.136880
633.645562	15470.126565
633.991206	15235.506224
634.336797	15098.777529
634.682336	15072.618981
635.027823	14971.082581
635.373257	14848.612790
635.718639	14746.297531
636.063968	14693.738461
636.409245	14447.094968
636.754470	14478.881964
637.099642	14321.098889
637.444762	14097.942132
637.789829	14141.510304
638.134845	13979.989214
638.479808	13999.730373
638.824719	13958.491214
639.169577	13801.335763
639.514383	13857.403476
639.859137	13675.228779
640.203839	13756.998815
640.548489	13596.354886
640.893086	13584.450201
641.237632	13456.147795
641.582125	13594.595523
641.926566	13433.684413
642.270955	13448.858286
642.615292	13415.266558
642.959576	13424.388526
643.303809	13453.304584
643.647990	13394.239905
643.992118	13443.078603
644.336195	13222.273544
644.680219	13413.383687
645.024192	13348.554448
645.368112	13581.077669
645.711981	13637.127738
646.055797	13815.478720
646.399562	13783.784986
646.743274	14050.361202
647.086935	14324.690712
647.430544	14290.143684
647.774101	14315.369618
648.117606	14471.668072
648.461059	14442.923413
648.804460	14438.635912
649.147810	14165.859077
649.491108	14062.076843
649.834354	14083.274895
650.177548	13786.144246
650.520690	13588.525974
650.863781	13514.234490
651.206820	13557.694277
651.549807	13380.046536
651.892742	13205.574722
652.235626	13133.917241
652.578458	13133.418167
652.921238	12817.451247
653.263967	13013.504240
653.606644	12843.960154
653.949269	12812.982264
654.291843	12621.965383
654.634365	12775.040019
654.976836	12625.347997
655.319255	12638.712096
655.661622	12589.880959
656.003938	12517.459743
656.346203	12439.747836
656.688416	12509.756860
657.030577	12466.836476
657.372687	12392.557595
657.714746	12362.109025
658.056753	12551.490052
658.398708	12372.513967
658.740612	12378.059236
659.082465	12475.386273
659.424266	12436.995366
659.766016	12452.801904
660.107715	12367.452648
660.449362	12444.985595
660.790958	12404.505129
661.132503	12356.891431
661.473996	12404.744584
661.815438	12421.864343
662.156829	12435.046960
662.498168	12426.487081
662.839456	12408.724575
663.180693	12436.836569
663.521879	12525.565918
663.863013	12505.630675
664.204097	12479.472128
664.545129	12598.100560
664.886110	12565.564953
665.227040	12655.970486
665.567918	12659.771516
665.908746	12698.298534
666.249522	12680.543590
666.590248	12728.099315
666.930922	12834.087054
667.271545	12822.625991
667.612118	12903.481058
667.952639	12815.575937
668.293109	12817.846977
668.633528	12772.816870
668.973896	12754.388933
669.314213	12836.897497
669.654480	12576.466449
669.994695	12634.674132
670.334859	12660.447031
670.674973	12610.431223
671.015035	12647.750885
671.355047	12583.950042
671.695008	12561.277452
672.034918	12562.129407
672.374777	12611.540277
672.714585	12514.026717
673.054342	12556.528685
673.394049	12505.348371
673.733705	12595.829521
674.073310	12504.556910
674.412864	12528.668748
674.752368	12407.900346
675.091820	12408.563258
675.431223	12397.417267
675.770574	12271.942948
676.109875	12195.410671
676.449125	12156.800473
676.788324	12097.513983
677.127473	11937.550610
677.466571	11917.799369
677.805619	11827.620689
678.144616	11744.106414
678.483562	11706.128881
678.822458	11580.631877
679.161303	11561.868702
679.500098	11547.854294
679.838842	11505.753098
680.177535	11520.160716
680.516179	11584.904255
680.854771	11526.194977
681.193314	11744.986095
681.531805	11891.020760
681.870247	12294.376082
682.208638	12702.820449
682.546978	13015.815609
682.885268	13090.747320
683.223508	12771.266716
683.561697	12608.865944
683.899836	12515.932273
684.237925	12319.385247
684.575963	12227.550547
684.913951	12161.899600
685.251889	12109.113678
685.589776	12194.117615
685.927614	12132.033284
686.265401	12092.893766
686.603137	12133.931279
686.940824	12287.169753
687.278460	12399.476578
687.616046	12451.884414
687.953582	12632.947536
688.291068	12542.703321
688.628504	12772.509360
688.965889	12775.612190
689.303224	12754.482194
689.640510	12646.349444
689.977745	12351.091584
690.314930	12126.742593
690.652065	12037.738502
690.989150	11748.356106
691.326185	11529.186902
691.663170	11318.012967
692.000105	11075.286451
692.336990	10972.149484
692.673825	10722.947605
693.010610	10598.451270
693.347345	10394.362677
693.684030	10195.176606
694.020665	10136.898347
694.357251	9940.923492
694.693786	9888.581191
695.030272	9718.611127
695.366707	9604.048386
695.703093	9532.859732
696.039429	9530.087097
696.375716	9458.419533
696.711952	9328.846756
697.048139	9359.612918
697.384276	9321.320313
697.720363	9339.453344
698.056400	9274.167881
698.392388	9231.280265
698.728326	9192.964975
699.064214	9122.149366
699.400053	9164.752157
699.735842	8985.619797
700.071581	8942.424670
700.407270	8873.426397
700.742910	8788.198130
701.078501	8702.460706
701.414042	8575.305162
701.749533	8514.753342
702.084974	8374.528607
702.420366	8481.098599
702.755709	8361.237605
703.091002	8235.357473
703.426246	8258.403107
703.761440	8216.385090
704.096584	8170.210641
704.431679	8103.410312
704.766725	8092.256759
705.101721	8041.880508
705.436668	8081.088082
705.771565	7976.587484
706.106413	8058.342396
706.441212	8097.557532
706.775961	8050.450470
707.110661	8084.264009
707.445311	8240.610355
707.779913	8123.206923
708.114465	8256.653827
708.448967	8297.835013
708.783421	8429.885517
709.117825	8618.076831
709.452180	8649.218559
709.786485	8739.427487
710.120742	9014.946709
710.454949	9022.994911
710.789107	9119.323799
711.123216	9327.566303
711.457275	9484.341147
711.791286	9661.469649
712.125247	9648.178647
712.459159	9635.981575
712.793023	9889.896932
713.126837	9467.009660
713.460602	9617.838462
713.794318	9439.938663
714.127985	9473.880752
714.461602	9160.416765
714.795171	9104.727138
715.128691	8868.405408
715.462162	8607.162733
715.795584	8552.814054
716.128957	8419.846059
716.462281	8242.117660
716.795556	8290.011142
717.128782	8095.049558
717.461960	7818.421282
717.795088	7892.869042
718.128167	7801.911503
718.461198	7640.153479
718.794180	7574.903304
719.127113	7571.923982
719.459997	7424.077022
719.792833	7190.895931
720.125619	7257.867659
720.458357	7107.462314
720.791046	7093.901610
721.123686	7105.037519
721.456278	6944.345699
721.788821	6961.019315
722.121315	6856.937132
722.453761	6913.219094
722.786158	6862.192535
723.118506	6870.848196
723.450805	6839.557754
723.783056	6910.025523
724.115259	6813.051368
724.447412	6810.467776
724.779518	6852.473191
725.111574	6856.246494
725.443582	6936.239523
725.775542	6922.963645
726.107453	7104.089782
726.439315	7022.322267
726.771129	7072.423774
727.102895	7238.313024
727.434612	7357.909357
727.766281	7388.254583
728.097901	7471.521842
728.429473	7462.533464
728.760996	7434.487005
729.092471	7408.930876
729.423897	7360.069492
729.755276	7371.923765
730.086606	7299.192518
730.417887	7393.636015
730.749120	7576.193840
731.080305	7770.326154
731.411442	7895.989516
731.742530	7893.688229
732.073570	8001.957091
732.404562	8088.690142
732.735506	7934.413191
733.066401	8070.100888
733.397249	8013.115685
733.728048	7777.698841
734.058798	7446.888243
734.389501	7226.057979
734.720156	7052.007101
735.050762	6814.493138
735.381320	6711.177210
735.711831	6667.964439
736.042293	6557.926133
736.372707	6582.153918
736.703073	6444.613597
737.033391	6480.274720
737.363661	6487.433158
737.693883	6513.848804
738.024056	6599.286280
738.354182	6641.042157
738.684260	6674.933834
739.014290	6790.421628
739.344272	6898.914820
739.674207	6928.443379
740.004093	6991.664489
740.333931	7013.361616
740.663722	7019.501741
740.993464	7095.333298
741.323159	7094.224244
741.652806	6846.655699
741.982405	6841.397776
742.311956	6904.195429
742.641460	6755.370485
742.970915	6558.619292
743.300323	6549.056223
743.629683	6491.554302
743.958996	6360.980855
744.288260	6281.547394
744.617477	6222.162602
744.946647	6233.033850
745.275768	6057.087498
745.604842	6016.153329
745.933869	6001.967522
746.262847	5959.485719
746.591778	5942.625580
746.920662	5906.165435
747.249498	5896.703189
747.578286	5940.599036
747.907027	6015.245922
748.235720	6079.714718
748.564365	6048.303288
748.892963	6066.055711
749.221514	6229.789867
749.550017	6071.018727
749.878473	5941.725734
750.206881	5996.427294
750.535242	5937.481082
750.863555	5865.768148
751.191821	5886.494852
751.520039	5890.411829
751.848210	5793.508249
752.176334	5813.698070
752.504411	5869.347368
752.832440	5792.520183
753.160421	5719.572166
753.488356	5768.889774
753.816243	5800.434794
754.144082	5654.102701
754.471875	5618.350838
754.799620	5665.727602
755.127318	5681.340055
755.454969	5630.351305
755.782572	5593.991983
756.110129	5638.192820
756.437638	5633.786851
756.765100	5572.325103
757.092515	5561.950409
757.419882	5610.156442
757.747203	5592.633392
758.074477	5660.784751
758.401703	5648.234798
758.728882	5595.232107
759.056014	5648.386033
759.383099	5776.781701
759.710138	5792.893228
760.037129	5771.838849
760.364073	5779.549294
760.690970	5860.439649
761.017820	5847.521692
761.344623	5794.544206
761.671379	5891.092385
761.998088	6007.238049
762.324751	6238.347226
762.651366	6816.166801
762.977935	8093.385977
763.304456	9701.796359
763.630931	10621.592687
763.957359	10266.637483
764.283740	9339.927212
764.610074	8526.035444
764.936362	7540.101699
765.262602	6947.372912
765.588796	6407.117495
765.914943	6061.697634
766.241044	5899.120422
766.567097	5713.530343
766.893104	5457.192711
767.219064	5276.787459
767.544978	5212.946287
767.870845	5140.988857
768.196665	5029.105488
768.522438	4959.338440
768.848165	4926.001289
769.173846	4864.332854
769.499479	4823.789375
769.825066	4768.495479
770.150607	4705.198751
770.476101	4678.599103
770.801548	4678.513403
771.126949	4607.861632
771.452303	4555.358015
771.777611	4510.703474
772.102872	4524.105381
772.428087	4487.582222
772.753256	4454.025781
773.078378	4408.615067
773.403453	4341.421528
773.728482	4321.967715
774.053465	4277.731590
774.378401	4267.208181
774.703291	4269.370836
775.028135	4202.081515
775.352932	4149.807270
775.677683	4133.622646
776.002388	4156.590143
776.327046	4167.892409
776.651658	4093.570678
776.976224	4028.970812
777.300743	4040.167215
777.625216	4057.589443
777.949643	4056.825708
778.274024	4008.274355
778.598359	3961.046305
778.922647	3983.035818
779.246889	3977.170436
779.571086	3977.160354
779.895236	3962.750215
780.219339	3943.112401
780.543397	3936.251390
780.867409	3987.013289
781.191374	4005.584900
781.515294	3943.767751
781.839167	3937.536884
782.162995	3954.384421
782.486776	3943.445117
782.810511	3952.239410
783.134201	3950.480047
783.457844	3912.537802
783.781441	3853.180737
784.104993	3855.103937
784.428498	3872.037172
784.751958	3871.054148
785.075372	3851.222248
785.398739	3813.343018
785.722061	3825.162003
786.045337	3866.018035
786.368568	3897.936100
786.691752	3815.309068
787.014891	3858.620142
787.337983	3981.175633
787.661030	4137.809324
787.984031	4298.203716
788.306987	4470.074294
788.629897	4549.908527
788.952760	4505.856404
789.275579	4440.286116
789.598351	4378.413515
789.921078	4246.317640
790.243759	4041.379612
790.566395	4021.086448
790.888984	4019.180892
791.211529	3913.374634
791.534027	3855.000593
791.856480	3846.851568
792.178888	3785.795633
792.501249	3731.028538
792.823566	3744.571598
793.145836	3771.715690
793.468062	3726.453691
793.790241	3676.546267
794.112375	3705.684137
794.434464	3767.758385
794.756507	3794.847025
795.078505	3775.753655
795.400457	3804.213489
795.722364	3938.638377
796.044226	4046.904717
796.366042	4114.882156
796.687812	4101.543263
797.009538	4111.055920
797.331218	4064.712593
797.652852	4036.532543
797.974442	4019.889174
798.295986	4018.076879
798.617484	3938.119138
798.938938	3850.980273
799.260346	3890.291191
799.581709	3886.578381
799.903026	3816.435766
800.224299	3781.268677
800.545526	3775.030249
800.866708	3739.911051
801.187845	3673.733304
801.508936	3708.577759
801.829983	3713.611351
802.150984	3633.802324
802.471940	3619.354377
802.792851	3633.696460
803.113717	3630.555821
803.434538	3632.224443
803.755314	3578.629416
804.076045	3552.357442
804.396731	3568.617684
804.717372	3597.972323
805.037967	3583.688214
805.358518	3574.420052
805.679024	3597.881582
805.999485	3610.313068
806.319901	3614.141824
806.640272	3627.926859
806.960598	3644.434117
807.280879	3618.915797
807.601115	3629.103969
807.921306	3643.161226
808.241453	3687.294007
808.561554	3666.027900
808.881611	3599.918208
809.201623	3627.841160
809.521590	3644.522338
809.841513	3619.495529
810.161390	3648.162051
810.481223	3630.144967
810.801011	3570.747572
811.120755	3560.330027
811.440453	3598.388218
811.760107	3603.532716
812.079716	3564.327662
812.399281	3525.974564
812.718801	3550.015827
813.038276	3526.264430
813.357707	3520.537679
813.677093	3539.968807
813.996434	3491.339316
814.315731	3496.347703
814.634983	3496.940038
814.954191	3510.984693
815.273354	3540.664486
815.592473	3538.398488
815.911547	3542.494425
816.230577	3579.620002
816.549562	3630.054226
816.868502	3671.237933
817.187399	3698.946635
817.506250	3697.716593
817.825058	3666.395904
818.143821	3750.573091
818.462539	3857.085110
818.781213	3901.306112
819.099843	3955.138073
819.418429	4186.343033
819.736970	4429.792955
820.055466	4664.718286
820.373919	5023.134242
820.692327	5426.625675
821.010691	5841.346278
821.329011	7152.336145
821.647286	9795.060226
821.965517	14236.450355
822.283704	18232.033605
822.601847	20464.564038
822.919945	18730.167661
823.237999	16209.686519
823.556010	13761.455195
823.873976	11712.513503
824.191897	9645.771496
824.509775	8302.064541
824.827609	7177.799013
825.145398	6634.284490
825.463144	6513.223701
825.780845	6627.239478
826.098502	6799.856147
826.416116	7631.712067
826.733685	8917.889374
827.051210	10034.499910
827.368692	10131.232090
827.686129	8921.047657
828.003522	7423.116683
828.320872	6410.532877
828.638177	5721.308844
828.955439	5173.509340
829.272656	4681.409546
829.589830	4395.797934
829.906960	4222.447776
830.224046	4044.943708
830.541088	3917.397475
830.858086	3870.991133
831.175041	3796.896254
831.491952	3777.833131
831.808819	3786.284625
832.125642	3855.270295
832.442421	3995.530318
832.759157	4258.242489
833.075849	4788.884425
833.392497	5634.273322
833.709101	6398.933182
834.025662	6745.036120
834.342179	6415.563948
834.658653	5762.187560
834.975083	5128.512001
835.291469	4559.728695
835.607811	4147.495901
835.924110	4014.908514
836.240366	3820.224193
836.556578	3615.248357
836.872746	3506.215761
837.188871	3470.219402
837.504952	3406.801687
837.820990	3321.880930
838.136984	3275.915689
838.452935	3298.986530
838.768842	3296.012249
839.084706	3316.592759
839.400526	3468.086994
839.716303	3789.178247
840.032037	4296.840084
840.347727	4574.287547
840.663373	4316.407322
840.978977	3941.000157
841.294537	3638.127634
841.610054	3412.858633
841.925527	3305.406439
842.240957	3235.684761
842.556344	3183.004703
842.871687	3126.349696
843.186987	3076.427149
843.502244	3040.060265
843.817458	3007.239833
844.132629	2973.340594
844.447756	2981.590442
844.762840	2971.956797
845.077881	2939.338011
845.392879	2919.569127
845.707833	2917.630803
846.022745	2914.406985
846.337613	2913.741553
846.652438	2907.858526
846.967221	2903.029101
847.281960	2888.278685
847.596656	2885.092675
847.911309	2885.107799
848.225919	2878.526572
848.540485	2870.743031
848.855009	2875.816952
849.169490	2865.308667
849.483928	2855.009590
849.798323	2851.574043
850.112675	2851.395082
850.426984	2861.280785
850.741251	2858.850949
851.055474	2848.393075
851.369654	2841.801767
851.683792	2849.577747
851.997887	2858.339272
852.311938	2856.615197
852.625947	2848.118332
852.939914	2849.202181
853.253837	2856.474045
853.567718	2840.914524
853.881555	2838.693895
854.195350	2851.569002
854.509103	2850.651512
854.822812	2842.898218
855.136479	2841.307734
855.450103	2843.510718
855.763685	2835.371775
856.077224	2830.093687
856.390720	2844.042560
856.704173	2855.375073
857.017584	2847.268898
857.330953	2841.789164
857.644278	2855.619569
857.957561	2861.366485
858.270802	2864.802031
858.584000	2866.402598
858.897155	2851.004393
859.210268	2850.467510
859.523339	2849.716378
859.836367	2849.071111
860.149352	2844.839062
860.462295	2837.700788
860.775195	2846.923579
861.088054	2847.505832
861.400869	2830.872545
861.713642	2827.230312
862.026373	2841.065758
862.339062	2842.991479
862.651708	2850.848117
862.964312	2854.742409
863.276873	2846.343846
863.589392	2855.450691
863.901869	2869.838144
864.214303	2888.873541
864.526696	2905.269894
864.839045	2903.923906
865.151353	2900.140520
865.463619	2898.804614
865.775842	2899.573390
866.088023	2914.157448
866.400162	2921.822522
866.712258	2896.987278
867.024313	2883.562685
867.336325	2893.791186
867.648296	2913.575195
867.960224	2908.851633
868.272110	2893.866804
868.583954	2895.283368
868.895755	2909.811973
869.207515	2900.190931
869.519233	2901.940212
869.830909	2912.335071
870.142542	2922.210691
870.454134	2921.550300
870.765684	2926.175559
871.077191	2926.155394
871.388657	2930.717638
871.700081	2944.752211
872.011463	2956.440126
872.322803	2956.674539
872.634101	2956.661937
872.945357	2972.846561
873.256571	2996.461846
873.567744	2992.872545
873.878874	2983.198570
874.189963	3008.991634
874.501010	3008.658918
874.812015	3001.223216
875.122979	3000.116683
875.433900	2994.024448
875.744780	2998.364882
876.055618	3008.447189
876.366415	3004.847806
876.677169	3016.482789
876.987882	3014.171420
877.298554	3006.836541
877.609183	3026.902854
877.919771	3046.568395
878.230317	3075.252560
878.540822	3125.449850
878.851285	3164.072650
879.161707	3200.184955
879.472087	3296.720531
879.782425	3511.942512
880.092722	3935.177624
880.402977	4446.116211
880.713191	5050.714394
881.023363	6161.603221
881.333494	7423.842609
881.643583	7987.620049
881.953631	7707.664611
882.263637	7104.709844
882.573602	6538.789913
882.883526	5968.390917
883.193408	5402.120626
883.503248	4946.249084
883.813048	4647.865708
884.122806	4356.955843
884.432522	4050.138617
884.742197	3823.198474
885.051831	3629.265286
885.361424	3493.683453
885.670975	3422.172165
885.980485	3345.680217
886.289954	3268.732045
886.599382	3224.296794
886.908768	3185.608459
887.218113	3143.812252
887.527417	3090.691094
887.836680	3038.454658
888.145901	3033.763864
888.455082	3021.944879
888.764221	2976.851758
889.073319	2946.153651
889.382376	2942.977724
889.691392	2946.786316
890.000366	2944.694237
890.309300	2933.412135
890.618193	2950.022737
890.927044	2963.500262
891.235855	2962.852473
891.544625	2947.184567
891.853353	2959.933645
892.162041	2979.148003
892.470687	3013.337109
892.779293	3062.969789
893.087858	3113.209928
893.396381	3178.432377
893.704864	3294.595685
894.013306	3521.805530
894.321707	3817.413750
894.630068	4023.085265
894.938387	4023.571737
895.246665	3974.042400
895.554903	3862.290102
895.863100	3668.366995
896.171256	3502.949094
896.479371	3369.844988
896.787446	3251.798809
897.095480	3150.597646
897.403473	3086.396031
897.711425	3050.097203
898.019336	3042.018753
898.327207	3015.109074
898.635038	2980.322592
898.942827	2966.509831
899.250576	2954.506843
899.558284	2924.635486
899.865952	2905.491704
900.173579	2885.740464
900.481165	2880.233003
900.788711	2866.616847
901.096216	2840.564163
901.403681	2830.927998
901.711105	2838.033504
902.018489	2837.272290
902.325832	2836.649707
902.633135	2844.244206
902.940397	2874.861654
903.247619	2953.118005
903.554800	3133.997126
903.861941	3461.856128
904.169041	3878.210065
904.476101	4177.407587
904.783121	4143.523472
905.090100	3911.320364
905.397039	3640.716267
905.703938	3398.965213
906.010796	3216.152810
906.317614	3106.079216
906.624391	3017.070083
906.931129	2948.555761
907.237826	2888.641648
907.544483	2841.322857
907.851099	2812.391675
908.157675	2787.926956
908.464211	2770.597989
908.770707	2757.299425
909.077163	2746.501274
909.383578	2733.550550
909.689954	2719.820967
909.996289	2720.178889
910.302584	2719.659650
910.608839	2720.123436
910.915054	2714.787375
911.221229	2706.048535
911.527363	2711.805532
911.833458	2715.785523
912.139513	2720.766183
912.445527	2723.377501
912.751502	2733.265724
913.057436	2740.661097
913.363331	2753.541245
913.669186	2772.879111
913.975000	2805.142496
914.280775	2865.137268
914.586510	2933.974224
914.892205	3006.037518
915.197859	3126.596712
915.503475	3314.273829
915.809050	3518.178419
916.114585	3664.949093
916.420081	3688.261909
916.725536	3629.421561
917.030952	3520.966177
917.336328	3396.023700
917.641665	3270.067951
917.946961	3167.477949
918.252218	3101.075871
918.557435	3026.880168
918.862612	2973.023001
919.167750	2919.561565
919.472848	2882.272150
919.777906	2854.490351
920.082925	2832.173163
920.387904	2803.627629
920.692843	2786.170113
920.997743	2775.745007
921.302603	2762.562390
921.607423	2752.928745
921.912204	2741.560943
922.216946	2729.573079
922.521647	2720.579661
922.826310	2712.274360
923.130932	2705.874615
923.435516	2697.279448
923.740059	2692.462625
924.044564	2683.867458
924.349028	2678.359997
924.653454	2674.319512
924.957840	2667.188800
925.262186	2659.997594
925.566493	2658.470125
925.870761	2653.323107
926.174989	2648.675163
926.479178	2645.446304
926.783328	2640.959677
927.087438	2640.745428
927.391509	2635.336270
927.695541	2635.250570
927.999533	2631.976341
928.303486	2626.794035
928.607400	2628.744961
928.911275	2625.261524
929.215110	2628.679426
929.518906	2626.599950
929.822663	2628.281175
930.126381	2626.703294
930.430060	2625.427882
930.733699	2627.658592
931.037299	2628.271093
931.340861	2628.951648
931.644383	2630.300157
931.947866	2626.544497
932.251309	2626.758747
932.554714	2628.318984
932.858080	2623.663478
933.161407	2621.336986
933.464694	2623.398817
933.767943	2621.430247
934.071153	2620.757253
934.374323	2621.896554
934.677455	2619.254989
934.980548	2616.552931
935.283602	2615.554782
935.586617	2618.007303
935.889593	2618.345061
936.192530	2619.698611
936.495428	2619.640637
936.798287	2621.168107
937.101108	2623.933180
937.403890	2628.646659
937.706632	2634.940539
938.009336	2637.309882
938.312002	2644.317085
938.614628	2654.578354
938.917216	2660.393325
939.219765	2660.307625
939.522275	2662.140085
939.824747	2656.761174
940.127179	2657.323262
940.429573	2653.794455
940.731929	2651.152890
941.034246	2648.591984
941.336524	2646.215080
941.638763	2644.760707
941.940964	2639.210397
942.243126	2639.449851
942.545250	2639.550674
942.847335	2634.174284
943.149381	2631.507513
943.451389	2627.474590
943.753359	2625.690022
944.055290	2624.422172
944.357182	2623.829836
944.659036	2621.659619
944.960851	2622.309928
945.262628	2622.103241
945.564367	2620.805144
945.866067	2620.674074
946.167729	2621.702469
946.469352	2621.513426
946.770937	2620.477469
947.072484	2619.885133
947.373992	2618.403034
947.675462	2617.936727
947.976893	2615.060749
948.278286	2612.366252
948.579641	2610.995058
948.880958	2609.558330
949.182236	2613.230810
949.483476	2611.383227
949.784678	2612.020933
950.085841	2611.753752
950.386967	2613.273660
950.688054	2613.911366
950.989103	2615.698455
951.290114	2614.455811
951.591087	2614.105450
951.892021	2618.559310
952.192917	2620.485031
952.493776	2624.477624
952.794596	2622.733385
953.095378	2622.481327
953.396122	2623.723972
953.696828	2621.750360
953.997496	2622.171297
954.298126	2617.069649
954.598718	2616.056377
954.899272	2615.665687
955.199788	2610.828700
955.500266	2610.659822
955.800706	2605.764861
956.101108	2604.149172
956.401472	2602.422576
956.701798	2598.366968
957.002087	2598.951742
957.302337	2598.170363
957.602550	2595.899323
957.902724	2596.509303
958.202861	2591.064857
958.502960	2590.762387
958.803022	2590.679208
959.103045	2588.700556
959.403031	2592.206678
959.702979	2589.640731
960.002889	2590.258272
960.302762	2586.706779
960.602596	2590.394383
960.902393	2589.383632
961.202153	2587.112592
961.501875	2586.048909
961.801559	2584.145873
962.101205	2589.113930
962.400814	2587.972109
962.700385	2587.407500
962.999918	2583.495564
963.299414	2581.774010
963.598873	2584.831470
963.898293	2580.357446
964.197677	2585.635534
964.497022	2583.785431
964.796331	2586.996646
965.095601	2586.459763
965.394835	2584.395410
965.694030	2584.171079
965.993189	2584.677715
966.292309	2584.549165
966.591393	2585.854824
966.890439	2582.638568
967.189447	2582.288208
967.488419	2583.906418
967.787353	2586.578230
968.086249	2583.737540
968.385108	2585.133939
968.683930	2584.987746
968.982714	2584.944896
969.281462	2582.578074
969.580172	2582.641089
969.878844	2585.509505
970.177480	2585.199474
970.476078	2582.550348
970.774639	2588.819023
971.073162	2584.899526
971.371649	2582.714185
971.670098	2583.109916
971.968510	2585.340627
972.266885	2585.428847
972.565223	2584.713003
972.863524	2581.925245
973.161788	2585.910277
973.460014	2583.508167
973.758204	2583.372056
974.056356	2586.169896
974.354471	2584.672674
974.652550	2582.736871
974.950591	2583.800554
975.248595	2586.563106
975.546563	2585.252406
975.844493	2583.596387
976.142386	2583.462797
976.440243	2582.356263
976.738062	2583.309042
977.035845	2584.594536
977.333590	2584.551686
977.631299	2580.796026
977.928971	2581.990780
978.226606	2578.880388
978.524204	2580.312076
978.821765	2576.984914
979.119290	2580.279308
979.416777	2582.878023
979.714228	2581.567323
980.011642	2577.743608
980.309020	2581.327868
980.606360	2582.555389
980.903664	2582.754515
981.200931	2584.115626
981.498162	2586.661409
981.795356	2584.216449
982.092513	2584.191243
982.389633	2588.871955
982.686717	2591.717686
982.983764	2595.364961
983.280775	2598.261104
983.577749	2600.814448
983.874686	2599.932246
984.171587	2596.453850
984.468451	2592.481421
984.765279	2594.046699
985.062070	2588.234249
985.358824	2587.508323
985.655543	2587.697366
985.952224	2587.473035
986.248869	2583.752663
986.545478	2583.848445
986.842050	2579.707137
987.138586	2582.245358
987.435086	2582.179823
987.731549	2580.022209
988.027975	2580.428022
988.324366	2579.881057
988.620719	2582.396593
988.917037	2577.554564
989.213318	2579.603793
989.509563	2578.295614
989.805772	2580.533886
990.101944	2577.771334
990.398080	2578.872826
990.694180	2578.729153
990.990244	2576.634554
991.286271	2579.717219
991.582262	2579.712178
991.878217	2578.789647
992.174136	2579.076993
992.470019	2579.971798
992.765865	2574.139183
993.061676	2575.805284
993.357450	2577.569688
993.653188	2574.113977
993.948890	2581.176633
994.244556	2578.088927
994.540186	2580.922055
994.835780	2579.835687
995.131337	2579.623958
995.426859	2581.514391
995.722345	2581.947930
996.017795	2577.912486
996.313208	2580.496078
996.608586	2582.293249
996.903928	2584.450863
997.199234	2583.535893
997.494504	2583.724937
997.789738	2581.496747
998.084936	2581.922724
998.380099	2580.876685
998.675225	2583.798033
998.970316	2581.632858
999.265371	2578.144379
999.560390	2580.228897
999.855373	2578.487178
1000.150320	2580.808629
1000.445232	2579.122363
1000.740108	2582.633527
1001.034948	2579.414750
1001.329752	2578.666139
1001.624521	2578.295614
1001.919254	2576.143041
1002.213951	2577.466344
1002.508613	2579.172775
1002.803239	2576.024574
1003.097829	2575.986766
1003.392384	2576.059862
1003.686903	2576.049780
1003.981386	2578.575398
1004.275834	2578.847620
1004.570246	2578.247723
1004.864623	2576.427867
1005.158964	2576.924420
1005.453270	2576.556416
1005.747540	2577.068093
1006.041775	2578.267888
1006.335974	2575.177660
1006.630138	2576.677404
1006.924266	2579.359297
1007.218359	2576.500963
1007.512416	2572.936867
1007.806438	2571.419480
1008.100425	2571.611044
1008.394376	2571.981569
1008.688292	2576.518607
1008.982172	2577.748649
1009.276017	2577.312589
1009.569827	2575.764955
1009.863602	2575.931313
1010.157341	2575.081878
1010.451045	2576.863926
1010.744714	2576.921900
1011.038347	2577.854513
1011.331945	2575.908628
1011.625508	2576.203535
1011.919036	2574.000551
1012.212528	2576.387537
1012.505986	2575.417115
1012.799408	2576.455593
1013.092795	2574.570201
1013.386147	2575.563309
1013.679464	2572.019377
1013.972745	2575.016343
1014.265992	2573.594738
1014.559204	2576.352249
1014.852380	2576.410222
1015.145521	2575.583473
1015.438628	2576.032136
1015.731699	2575.729667
1016.024736	2575.578432
1016.317737	2575.664132
1016.610703	2574.151786
1016.903635	2577.305027
1017.196531	2575.719584
1017.489393	2576.377455
1017.782219	2571.439645
1018.075011	2575.911148
1018.367768	2573.819069
1018.660490	2576.029615
1018.953177	2576.029615
1019.245829	2576.029615
