Dividing Wavelength (nm)	Counts (n)	Blue Motor Position (mm): 47.600000	Red Motor Position (mm): 0.000000	
326.493990	2279.080448
326.888308	2279.080448
327.282561	2279.080448
327.676750	2238.746176
328.070874	2232.469940
328.464933	2236.548233
328.858929	2238.547051
329.252859	2246.242372
329.646726	2253.282343
330.040528	2265.229878
330.434265	2276.721188
330.827938	2297.543674
331.221547	2312.679738
331.615091	2330.220433
332.008571	2349.593588
332.401986	2367.852647
332.795338	2388.115565
333.188625	2410.347053
333.581847	2430.322625
333.975006	2446.666046
334.368100	2466.999540
334.761129	2486.599546
335.154095	2501.329798
335.546996	2529.093953
335.939833	2570.451579
336.332606	2581.529514
336.725315	2595.924529
337.117960	2609.331478
337.510540	2619.945627
337.903056	2631.225209
338.295508	2639.585962
338.687896	2649.650626
339.080220	2654.137253
339.472480	2661.386432
339.864676	2666.213337
340.256807	2674.490912
340.648875	2676.585511
341.040879	2677.248423
341.432818	2681.921572
341.824694	2683.489371
342.216506	2684.893333
342.608253	2683.202026
342.999937	2683.945596
343.391557	2684.926100
343.783113	2685.793179
344.174605	2684.613549
344.566033	2682.536593
344.957397	2684.308559
345.348697	2681.167920
345.739934	2682.188754
346.131106	2677.369411
346.522215	2679.663136
346.913260	2674.329595
347.304241	2673.896056
347.695159	2672.078720
348.086012	2668.950684
348.476802	2670.765499
348.867528	2661.676299
349.258191	2664.199396
349.648789	2661.255362
350.039324	2657.338386
350.429796	2662.921464
350.820203	2660.063129
351.210548	2658.649086
351.600828	2655.425268
351.991045	2655.309321
352.381198	2655.064825
352.771288	2655.248827
353.161314	2653.154228
353.551276	2654.220432
353.941175	2653.897798
354.331010	2653.078611
354.720782	2657.290495
355.110490	2655.510967
355.500135	2657.136740
355.889717	2656.173879
356.279235	2654.674136
356.668689	2656.436019
357.058080	2654.681698
357.447408	2655.495844
357.836672	2657.083808
358.225873	2655.067346
358.615010	2656.317552
359.004084	2658.943993
359.393095	2657.794610
359.782043	2658.528098
360.170927	2661.482214
360.559748	2658.820485
360.948505	2665.182421
361.337199	2662.555980
361.725830	2660.355516
362.114398	2661.580517
362.502903	2663.458347
362.891344	2664.658141
363.279722	2662.369457
363.668037	2664.017915
364.056289	2664.733758
364.444478	2668.184428
364.832603	2666.825837
365.220665	2665.575631
365.608665	2669.341373
365.996601	2669.800118
366.384474	2667.191321
366.772284	2671.279697
367.160031	2670.011847
367.547715	2672.562670
367.935336	2674.538803
368.322893	2670.105108
368.710388	2668.794408
369.097820	2669.449758
369.485189	2671.156188
369.872495	2673.091992
370.259738	2674.601817
370.646918	2677.807991
371.034035	2678.647343
371.421090	2682.098013
371.808081	2686.791327
372.195010	2691.461956
372.581875	2695.257945
372.968678	2703.437217
373.355418	2710.341077
373.742096	2722.959085
374.128710	2737.767475
374.515262	2750.075452
374.901751	2766.481887
375.288177	2777.582508
375.674540	2802.730304
376.060841	2822.983139
376.447079	2841.801767
376.833254	2867.541898
377.219367	2887.852707
377.605417	2923.680188
377.991404	2944.429577
378.377329	2984.073211
378.763191	3004.431910
379.148991	3049.794733
379.534727	3088.810743
379.920402	3131.030407
380.306013	3153.357677
380.691563	3215.948643
381.077049	3242.452510
381.462474	3281.468520
381.847835	3340.399608
382.233134	3379.619785
382.618371	3408.303951
383.003545	3476.767861
383.388657	3500.327694
383.773706	3563.637024
384.158693	3592.623659
384.543618	3624.342599
384.928480	3683.808050
385.313280	3744.823655
385.698017	3763.503651
386.082692	3855.192157
386.467305	3855.413968
386.851856	3890.984349
387.236344	3972.285558
387.620770	3996.278930
388.005133	4051.960994
388.389435	4095.347685
388.773674	4106.919654
389.157851	4179.101415
389.541965	4249.019698
389.926018	4213.532496
390.310008	4313.059996
390.693936	4366.755846
391.077802	4401.249942
391.461606	4401.799427
391.845348	4463.843428
392.229027	4526.129405
392.612645	4525.448849
392.996200	4627.393583
393.379694	4685.681924
393.763125	4793.912976
394.146494	4818.768385
394.529801	4876.620667
394.913047	4960.936486
395.296230	4907.875821
395.679351	5016.232902
396.062410	5072.192230
396.445408	5040.707704
396.828343	5102.189616
397.211217	5155.676259
397.594028	5038.368609
397.976778	5155.590559
398.359466	5203.602508
398.742092	5226.668308
399.124656	5145.167973
399.507158	5270.032313
399.889598	5327.481302
400.271977	5449.643583
400.654294	5450.303975
401.036549	5492.689996
401.418742	5415.172173
401.800874	5617.151043
402.182944	5678.418707
402.564952	5783.531806
402.946898	5843.297205
403.328783	5678.133882
403.710606	5700.703127
404.092367	6023.031984
404.474067	6045.026538
404.855705	5940.220949
405.237282	5881.413369
405.618797	6140.667309
406.000250	6111.380725
406.381642	6321.037273
406.762972	6342.588205
407.144240	6396.092492
407.525447	6383.202261
407.906593	6393.435804
408.287677	6560.108953
408.668700	6478.089380
409.049661	6587.220278
409.430560	6614.795390
409.811399	6474.374049
410.192176	6741.519915
410.572891	6762.851558
410.953545	6949.873324
411.334138	6675.934503
411.714669	6851.958993
412.095139	6643.693804
412.475547	6890.806124
412.855894	6960.686599
413.236180	7148.978736
413.616405	6805.020809
413.996568	7026.768564
414.376670	7079.496513
414.756711	6971.729247
415.136691	7068.365645
415.516609	7279.605115
415.896466	7255.437823
416.276262	7461.590769
416.655997	7454.089532
417.035670	7622.857280
417.415283	7970.318809
417.794834	8038.497894
418.174324	7898.157212
418.553753	7818.980850
418.933121	8111.410623
419.312428	8215.349133
419.691674	7992.139443
420.070859	8470.514697
420.449983	8153.199268
420.829045	8515.131429
421.208047	8281.839432
421.586988	8603.318853
421.965867	8628.509499
422.344686	8712.835400
422.723444	8796.233729
423.102141	8117.081921
423.480777	8891.297287
423.859352	8415.102333
424.237866	9031.779122
424.616319	8899.451354
424.994712	9333.701387
425.373044	8863.260910
425.751314	9353.795427
426.129524	9241.874249
426.507673	9314.981062
426.885762	9468.287592
427.263789	9391.682218
427.641756	9335.942180
428.019662	9411.698120
428.397508	9687.164410
428.775292	9337.499897
429.153016	9732.660823
429.530679	9566.380884
429.908282	9570.060927
430.285824	9301.647211
430.663305	9986.558537
431.040726	9439.111914
431.418086	9418.899408
431.795385	9757.012117
432.172624	9859.140853
432.549802	9755.227548
432.926920	9830.544908
433.303977	9701.367861
433.680974	9897.284743
434.057910	10008.500159
434.434786	10085.460934
434.811601	9894.915401
435.188355	10460.532863
435.565050	10218.983455
435.941683	10131.947934
436.318257	10606.091139
436.694770	10783.068406
437.071222	10827.324696
437.447614	10653.800619
437.823946	10583.295041
438.200218	10666.025417
438.576429	10521.619044
438.952580	10772.988619
439.328670	10781.379620
439.704700	10599.353637
440.080670	10576.802035
440.456580	11094.536097
440.832429	10888.622606
441.208218	10487.034208
441.583947	10773.490214
441.959616	10968.509771
442.335224	10780.550350
442.710773	10883.873839
443.086261	11117.241453
443.461689	10380.368434
443.837057	11069.680688
444.212365	11300.933538
444.587612	10930.441498
444.962800	11140.093004
445.337927	10879.798066
445.712995	10565.446836
446.088002	11598.331368
446.462949	11305.107613
446.837837	11266.935996
447.212664	11176.727069
447.587431	11788.418156
447.962139	12552.256307
448.336786	14860.333472
448.711374	15326.725903
449.085901	13132.500677
449.460369	12792.552988
449.834776	12237.834501
450.209124	13177.969364
450.583412	13601.723715
450.957640	14524.070867
451.331808	13550.039285
451.705917	12628.382772
452.079965	11867.213911
452.453954	12786.057461
452.827883	12440.219184
453.201752	12730.937485
453.575562	12290.945577
453.949311	12702.916231
454.323001	12689.741176
454.696632	12932.558433
455.070202	13196.941746
455.443713	13386.514337
455.817164	13901.768151
456.190556	13856.037324
456.563888	14211.723495
456.937160	14350.342623
457.310373	13717.541704
457.683526	13830.980268
458.056619	13347.195857
458.429653	13568.197521
458.802628	12918.400352
459.175542	13333.804032
459.548398	14291.487152
459.921194	14661.565817
460.293930	14740.815276
460.666607	15561.578137
461.039224	16627.396527
461.411782	17368.748612
461.784280	17113.371320
462.156719	17232.385400
462.529099	16904.733085
462.901419	15872.793770
463.273680	15623.622138
463.645882	15541.388316
464.018024	15258.511529
464.390106	15486.878319
464.762130	16189.189188
465.134094	17006.299732
465.505999	19081.422658
465.877845	22356.226772
466.249631	25158.052189
466.621358	24742.824950
466.993026	23328.181398
467.364634	22735.263568
467.736184	21256.070563
468.107674	20475.276490
468.479105	20593.839388
468.850477	20041.386899
469.221790	19664.076699
469.593043	18969.493919
469.964238	18384.836019
470.335373	18032.661012
470.706449	18547.118323
471.077467	18138.651271
471.448425	20020.327479
471.819324	24180.590102
472.190164	25972.359852
472.560945	22271.684102
472.931667	19989.911677
473.302330	19393.943949
473.672934	19050.611125
474.043479	19240.216483
474.413965	19063.803825
474.784393	18645.135998
475.154761	19430.451985
475.525070	19330.153188
475.895321	19072.847655
476.265513	19670.481485
476.635645	20269.216806
477.005719	20013.695841
477.375734	20194.048161
477.745691	20679.387768
478.115588	21237.814024
478.485427	21805.377371
478.855207	22921.156116
479.224928	24710.359919
479.594591	26938.655783
479.964194	26830.177714
480.333739	27057.105254
480.703226	26644.915310
481.072653	26366.447013
481.442022	27007.954004
481.811333	27936.277444
482.180584	27791.906360
482.549777	26870.277572
482.918912	26542.436214
483.287988	26670.267273
483.657005	26277.397551
484.025964	26082.935041
484.394864	25940.819873
484.763706	25581.912404
485.132489	25079.899181
485.501213	25243.963533
485.869879	25149.099100
486.238487	25023.430696
486.607036	25127.328877
486.975527	24899.652725
487.343959	25179.865262
487.712333	25086.699697
488.080648	24754.333904
488.448905	25266.336174
488.817104	25027.637539
489.185244	25743.902322
489.553326	25682.879154
489.921350	26744.999858
490.289315	29116.381313
490.657222	30802.354887
491.025070	31317.933856
491.392861	31061.954146
491.760593	30193.512052
492.128267	29264.351781
492.495883	28202.798207
492.863440	27331.253283
493.230939	26469.296634
493.598380	26298.325901
493.965763	25926.835712
494.333088	25430.093015
494.700354	25404.413377
495.067563	25228.887962
495.434713	24998.015719
495.801805	25183.227711
496.168839	24939.165289
496.535815	24816.037627
496.902733	25047.396342
497.269593	24744.039868
497.636395	24908.731843
498.003139	24831.939947
498.369825	24560.831734
498.736453	24789.972341
499.103023	24650.680219
499.469535	24647.184179
499.835989	24877.496854
500.202385	24891.486056
500.568723	24435.743063
500.935003	24605.103147
501.301226	24314.934332
501.667390	25159.047817
502.033497	25350.856159
502.399546	25098.871563
502.765537	24609.647747
503.131470	25006.043757
503.497345	25148.153883
503.863163	24404.039247
504.228923	24929.682879
504.594625	25194.852612
504.960269	24756.705767
505.325856	25220.093669
505.691385	24619.838440
506.056856	25213.424223
506.422270	25224.081222
506.787625	24731.845317
507.152924	25168.373952
507.518164	25212.093358
507.883347	25021.015983
508.248472	24708.524939
508.613540	25470.913758
508.978550	25271.773058
509.343503	25298.239116
509.708398	25488.366233
510.073236	25662.533057
510.438016	25876.008279
510.802738	25520.967375
511.167403	25782.268023
511.532010	25539.302052
511.896561	26273.122652
512.261053	26250.530721
512.625488	26076.419350
512.989866	25966.073533
513.354186	25795.533819
513.718449	25930.964417
514.082655	26300.601982
514.446803	26010.140780
514.810894	26510.865988
515.174927	25998.720046
515.538904	26042.878033
515.902822	26546.544755
516.266684	26283.169672
516.630488	26189.260537
516.994235	26119.901822
517.357925	26474.234444
517.721558	26619.762473
518.085133	26758.217763
518.448651	26641.174774
518.812112	26430.663751
519.175516	26638.815514
519.538863	26789.954348
519.902152	26586.904232
520.265385	26826.238052
520.628560	26656.157083
520.991678	26617.405734
521.354739	26661.465418
521.717743	26779.040249
522.080690	26541.027212
522.443580	26875.918623
522.806413	26841.243047
523.169189	26960.229401
523.531908	27013.516918
523.894569	26629.539791
524.257174	26740.606492
524.619722	26854.521446
524.982213	26583.234272
525.344647	26583.370383
525.707025	26772.471626
526.069345	26710.407460
526.431608	26680.954519
526.793815	26854.881888
527.155964	26368.997837
527.518057	26532.893310
527.880093	26442.954084
528.242072	26661.152867
528.603995	26389.366619
528.965860	26182.520515
529.327669	26213.548817
529.689421	26205.913989
530.051117	26059.730610
530.412755	26220.102317
530.774337	25995.057647
531.135862	25902.239923
531.497331	26077.399854
531.858743	25680.676170
532.220098	26128.315508
532.581396	25830.718552
532.942638	25716.551541
533.303824	25833.355076
533.664953	25829.934653
534.026025	25488.633414
534.387040	25745.608752
534.747999	25781.779031
535.108902	25949.175586
535.469748	25445.644975
535.830537	25583.417189
536.191270	25744.668577
536.551947	25549.112137
536.912567	25177.833677
537.273131	25633.042307
537.633638	25301.536030
537.994089	25524.584403
538.354483	25015.742937
538.714821	25510.753997
539.075103	25563.721401
539.435328	25324.969834
539.795497	24938.366266
540.155609	25259.598672
540.515665	25585.673105
540.875665	24792.613906
541.235609	25154.578834
541.595496	25075.513377
541.955328	25433.057214
542.315102	25352.340779
542.674821	24858.567321
543.034483	24752.335086
543.394090	24921.836323
543.753640	24732.745162
544.113134	25358.664906
544.472571	24934.487098
544.831953	25252.246149
545.191278	24891.478494
545.550548	24783.713748
545.909761	24984.507947
546.268918	25231.181687
546.628019	25210.548245
546.987064	24887.735437
547.346053	24618.356341
547.704986	24714.851587
548.063863	24886.270982
548.422684	24904.247737
548.781449	24393.198245
549.140158	24818.288502
549.498811	24391.925354
549.857408	24169.106354
550.215949	24525.805797
550.574434	24247.672737
550.932864	24429.396250
551.291237	24634.838393
551.649555	24456.149654
552.007817	24536.369535
552.366022	24372.040522
552.724173	24385.457553
553.082267	24355.616443
553.440305	24850.400652
553.798288	24072.626231
554.156215	24560.254522
554.514086	24704.426481
554.871902	24101.078503
555.229661	24366.369224
555.587365	24208.407189
555.945014	24128.714109
556.302606	24321.664272
556.660143	24331.580222
557.017625	24561.411467
557.375050	24074.645213
557.732421	24459.862464
558.089735	24288.506083
558.446994	24334.577188
558.804197	24371.170923
559.161345	24249.374126
559.518437	24060.343460
559.875474	24226.787236
560.232455	24410.433950
560.589381	24208.921387
560.946251	24228.503749
561.303065	24512.540001
561.659825	24613.657985
562.016528	24210.007756
562.373177	23955.716832
562.729770	24313.595905
563.086307	24159.712164
563.442789	24333.936961
563.799216	24184.018087
564.155587	24159.966742
564.511904	24142.511747
564.868164	24120.872594
565.224370	24073.493309
565.580520	24013.228836
565.936615	24132.973884
566.292654	23841.365819
566.648638	24060.179622
567.004567	23901.181630
567.360441	23836.425488
567.716260	23568.014293
568.072023	23861.822821
568.427732	23667.924921
568.783385	23409.341455
569.138982	23667.766124
569.494525	23688.570966
569.850013	23464.509322
570.205445	23574.308173
570.560823	23390.643815
570.916145	23161.505729
571.271412	23358.808929
571.626625	23098.577005
571.981782	23205.164642
572.336884	23008.534436
572.691931	23145.328666
573.046923	22891.776272
573.401860	22763.090738
573.756743	22796.236324
574.111570	22692.423843
574.466342	22601.889761
574.821059	22687.768337
575.175722	22401.450963
575.530330	22349.332994
575.884882	22354.918593
576.239380	22273.209051
576.593823	22168.204337
576.948211	22147.873363
577.302544	21990.922079
577.656823	21851.433353
578.011047	21967.876445
578.365216	21827.439981
578.719330	21709.446734
579.073389	21595.289805
579.427394	21745.498546
579.781344	21488.646716
580.135239	21380.415663
580.489080	21325.865338
580.842866	21117.186774
581.196597	21344.346208
581.550273	21285.089965
581.903895	21160.354175
582.257463	21472.492338
582.610975	21021.936693
582.964434	21353.700069
583.317837	21004.269969
583.671186	21094.312539
584.024481	21081.450035
584.377721	20846.960763
584.730906	20945.359045
585.084037	20902.395812
585.437113	20852.037205
585.790135	21056.735778
586.143103	20505.939309
586.496016	20528.932011
586.848874	20763.312898
587.201679	20662.487300
587.554428	20384.160155
587.907124	20710.678210
588.259765	20459.091866
588.612352	20537.149092
588.964884	20101.071640
589.317362	20273.985738
589.669786	20343.783033
590.022155	20324.419962
590.374470	20571.476829
590.726731	20322.693366
591.078937	20133.617330
591.431090	20213.454083
591.783188	19974.228648
592.135232	19935.010992
592.487222	20028.794097
592.839157	20031.849036
593.191038	19924.031358
593.542866	19815.623866
593.894639	19508.045425
594.246358	19727.494414
594.598022	19610.201887
594.949633	19378.896105
595.301190	19367.845896
595.652692	19532.923520
596.004141	19750.212374
596.355535	19069.989321
596.706876	19104.319578
597.058162	18993.888062
597.409395	19237.544672
597.760573	19273.480537
598.111698	19043.576195
598.462768	19006.700155
598.813785	18982.187544
599.164748	18764.490357
599.515657	18829.591817
599.866511	18633.001941
600.217312	18974.023396
600.568060	18479.791193
600.918753	18796.572260
601.269392	18697.997537
601.619978	18498.929934
601.970510	18674.871244
602.320988	18632.432290
602.671412	18824.525458
603.021783	18770.517056
603.372100	18462.477350
603.722363	18622.087843
604.072572	18568.288649
604.422728	18727.417711
604.772830	18465.146641
605.122878	18427.320343
605.472872	18399.525942
605.822813	18393.221979
606.172701	18376.104741
606.522534	18551.425989
606.872314	18582.003108
607.222041	18427.794212
607.571714	18631.232496
607.921333	18459.311506
608.270899	18548.260145
608.620411	18688.580662
608.969870	18496.232916
609.319276	18492.936002
609.668627	18502.937651
610.017926	18631.227455
610.367171	18756.467360
610.716362	18817.614036
611.065500	18618.823696
611.414585	18770.494371
611.763616	18756.210261
612.112594	18685.422379
612.461518	18666.097116
612.810389	18855.374799
613.159207	18705.660091
613.507971	18634.431108
613.856682	18862.240850
614.205340	18783.576165
614.553945	18945.261092
614.902496	18693.624336
615.250994	18893.553977
615.599439	18845.461370
615.947830	18832.548454
616.296169	18917.302853
616.644454	18868.691007
616.992686	18839.822839
617.340864	19070.954702
617.688990	18801.792374
618.037063	18984.713162
618.385082	18845.937759
618.733048	19116.289798
619.080961	19005.762500
619.428821	19043.636689
619.776628	18908.989990
620.124382	18831.502415
620.472083	18898.827024
620.819731	18893.279234
621.167326	18589.469057
621.514868	18635.416653
621.862357	18423.264735
622.209793	18419.662831
622.557176	18251.351307
622.904506	18076.423268
623.251783	18027.075413
623.599007	17767.682842
623.946179	17712.739306
624.293297	17636.930435
624.640363	17357.998351
624.987376	17380.106331
625.334336	17186.258843
625.681243	17033.350564
626.028097	17067.658137
626.374899	16961.304914
626.721647	16842.069022
627.068343	16685.891556
627.414987	16605.195286
627.761577	16569.125830
628.108115	16587.757934
628.454600	16334.581106
628.801032	16428.487720
629.147412	16373.486211
629.493739	16371.200048
629.840014	16180.798187
630.186236	16275.380316
630.532405	16047.011005
630.878521	16240.936632
631.224585	16151.524207
631.570597	15972.341435
631.916556	16004.246897
632.262462	15969.891434
632.608316	15883.942281
632.954117	15837.402349
633.299866	15810.850592
633.645562	15737.804273
633.991206	15504.424055
634.336797	15381.487957
634.682336	15353.469224
635.027823	15207.908427
635.373257	15068.195369
635.718639	14997.228526
636.063968	14936.661583
636.409245	14688.278892
636.754470	14717.948602
637.099642	14576.728239
637.444762	14357.833777
637.789829	14391.153284
638.134845	14221.112644
638.479808	14258.029014
638.824719	14153.180575
639.169577	14029.349672
639.514383	14060.193972
639.859137	13885.056726
640.203839	13989.295184
640.548489	13841.942258
640.893086	13826.954907
641.237632	13708.495353
641.582125	13870.276063
641.926566	13679.652392
642.270955	13692.870297
642.615292	13648.324141
642.959576	13661.330318
643.303809	13679.173482
643.647990	13617.898257
643.992118	13684.131457
644.336195	13450.221918
644.680219	13685.164893
645.024192	13580.477772
645.368112	13832.404394
645.711981	13861.098642
646.055797	14055.881265
646.399562	14032.762533
646.743274	14301.236743
647.086935	14553.664960
647.430544	14530.208472
647.774101	14579.508436
648.117606	14701.834554
648.461059	14696.987485
648.804460	14668.308361
649.147810	14392.774015
649.491108	14313.383403
649.834354	14324.289940
650.177548	13994.303571
650.520690	13810.273729
650.863781	13736.947626
651.206820	13782.270119
651.549807	13614.694604
651.892742	13388.712280
652.235626	13330.149196
652.578458	13338.351153
652.921238	13042.914332
653.263967	13244.943613
653.606644	13083.420003
653.949269	13053.077298
654.291843	12847.768746
654.634365	13007.754804
654.976836	12860.220396
655.319255	12849.921318
655.661622	12824.932319
656.003938	12747.522881
656.346203	12664.825273
656.688416	12754.162081
657.030577	12691.566073
657.372687	12598.589552
657.714746	12596.832710
658.056753	12779.357768
658.398708	12588.076226
658.740612	12590.455651
659.082465	12706.881099
659.424266	12676.477900
659.766016	12698.117053
660.107715	12618.746606
660.449362	12696.302237
660.790958	12637.391313
661.132503	12582.649424
661.473996	12661.674552
661.815438	12671.739215
662.156829	12698.386754
662.498168	12669.798371
662.839456	12669.760562
663.180693	12691.114890
663.521879	12781.041513
663.863013	12747.369126
664.204097	12726.123183
664.545129	12860.971528
664.886110	12832.993124
665.227040	12924.606013
665.567918	12920.215168
665.908746	12944.213581
666.249522	12935.444493
666.590248	12993.770643
666.930922	13094.578597
667.271545	13068.427611
667.612118	13158.994461
667.952639	13054.241804
668.293109	13094.684461
668.633528	13021.418852
668.973896	13008.148014
669.314213	13074.855083
669.654480	12809.518991
669.994695	12901.429308
670.334859	12926.892176
670.674973	12869.906973
671.015035	12893.628122
671.355047	12844.754136
671.695008	12821.794201
672.034918	12828.977845
672.374777	12859.822145
672.714585	12782.624435
673.054342	12823.959376
673.394049	12780.214764
673.733705	12870.585008
674.073310	12764.892177
674.412864	12777.331224
674.752368	12623.636525
675.091820	12684.329497
675.431223	12652.063592
675.770574	12517.066533
676.109875	12431.336671
676.449125	12393.427194
676.788324	12344.149915
677.127473	12169.415961
677.466571	12170.078873
677.805619	12043.160263
678.144616	11991.085143
678.483562	11966.809467
678.822458	11833.072697
679.161303	11812.406487
679.500098	11793.534927
679.838842	11751.847105
680.177535	11797.716564
680.516179	11863.072603
680.854771	11796.529373
681.193314	12009.336641
681.531805	12191.133252
681.870247	12630.232875
682.208638	13036.335626
682.546978	13326.486797
682.885268	13350.210467
683.223508	13062.516858
683.561697	12913.039085
683.899836	12820.359992
684.237925	12609.649844
684.575963	12515.347499
684.913951	12433.753904
685.251889	12395.514231
685.589776	12492.982420
685.927614	12403.743915
686.265401	12385.628529
686.603137	12453.903396
686.940824	12597.540992
687.278460	12732.429666
687.616046	12755.344231
687.953582	12909.633786
688.291068	12852.615815
688.628504	13092.549533
688.965889	13089.671034
689.303224	13039.839228
689.640510	12922.271958
689.977745	12608.717230
690.314930	12388.035680
690.652065	12294.207204
690.989150	11992.428611
691.326185	11766.103488
691.663170	11556.940974
692.000105	11333.159114
692.336990	11199.518125
692.673825	10947.392377
693.010610	10842.591830
693.347345	10626.142328
693.684030	10445.406880
694.020665	10373.540191
694.357251	10178.382002
694.693786	10097.683212
695.030272	9954.090985
695.366707	9842.484880
695.703093	9782.711919
696.039429	9766.940669
696.375716	9670.483232
696.711952	9542.072440
697.048139	9593.595553
697.384276	9550.145848
697.720363	9576.581659
698.056400	9511.182770
698.392388	9449.594994
698.728326	9418.201208
699.064214	9356.207619
699.400053	9392.791272
699.735842	9201.976037
700.071581	9172.886059
700.407270	9095.892516
700.742910	9020.237400
701.078501	8922.718799
701.414042	8782.448694
701.749533	8734.484635
702.084974	8589.294363
702.420366	8718.710865
702.755709	8586.824198
703.091002	8457.195968
703.426246	8487.798292
703.761440	8441.071838
704.096584	8400.246053
704.431679	8331.514962
704.766725	8316.038619
705.101721	8276.165613
705.436668	8327.865166
705.771565	8213.229328
706.106413	8299.501114
706.441212	8329.392636
706.775961	8296.499107
707.110661	8340.336981
707.445311	8470.328174
707.779913	8365.194910
708.114465	8487.674784
708.448967	8528.069550
708.783421	8693.409314
709.117825	8858.557514
709.452180	8896.847598
709.786485	8975.298034
710.120742	9267.889124
710.454949	9277.406822
710.789107	9388.188699
711.123216	9610.357390
711.457275	9788.272312
711.791286	9926.326831
712.125247	9935.849570
712.459159	9927.551831
712.793023	10140.235591
713.126837	9720.579698
713.460602	9884.260922
713.794318	9712.423111
714.127985	9735.446061
714.461602	9390.663905
714.795171	9349.903656
715.128691	9100.830327
715.462162	8853.163479
715.795584	8795.235580
716.128957	8626.225857
716.462281	8453.405020
716.795556	8502.412598
717.128782	8289.378477
717.461960	8042.495529
717.795088	8108.184284
718.128167	8013.680294
718.461198	7852.038216
718.794180	7803.549878
719.127113	7801.029301
719.459997	7616.512988
719.792833	7397.719349
720.125619	7470.997562
720.458357	7324.058009
720.791046	7322.313770
721.123686	7305.357849
721.456278	7145.780124
721.788821	7160.679254
722.121315	7064.103350
722.453761	7141.848024
722.786158	7072.207004
723.118506	7076.681028
723.450805	7041.796244
723.783056	7099.315809
724.115259	7025.793101
724.447412	7022.521392
724.779518	7079.660350
725.111574	7081.575989
725.443582	7150.445712
725.775542	7130.407126
726.107453	7321.431568
726.439315	7230.663073
726.771129	7316.173645
727.102895	7496.243660
727.434612	7596.058506
727.766281	7637.864795
728.097901	7709.431536
728.429473	7725.974082
728.760996	7716.431178
729.092471	7683.348606
729.423897	7620.606405
729.755276	7608.200125
730.086606	7523.972527
730.417887	7630.613095
730.749120	7861.084567
731.080305	8043.203811
731.411442	8149.471334
731.742530	8128.636246
732.073570	8229.361020
732.404562	8320.542890
732.735506	8190.685288
733.066401	8311.015109
733.397249	8236.547185
733.728048	7982.619224
734.058798	7647.964747
734.389501	7421.143071
734.720156	7251.324242
735.050762	7027.605396
735.381320	6949.374250
735.711831	6878.316666
736.042293	6774.090810
736.372707	6784.813344
736.703073	6660.531258
737.033391	6703.265119
737.363661	6712.503033
737.693883	6743.506130
738.024056	6827.048131
738.354182	6862.303441
738.684260	6892.273100
739.014290	7030.899790
739.344272	7138.336861
739.674207	7162.698237
740.004093	7242.013231
740.333931	7256.350272
740.663722	7257.698781
740.993464	7328.756365
741.323159	7307.906153
741.652806	7064.700726
741.982405	7102.945440
742.311956	7137.709237
742.641460	6951.708304
742.970915	6765.407423
743.300323	6755.115907
743.629683	6716.629218
743.958996	6575.234935
744.288260	6483.551470
744.617477	6435.078255
744.946647	6421.333549
745.275768	6264.019302
745.604842	6219.037086
745.933869	6199.921031
746.262847	6158.578528
746.591778	6145.837012
746.920662	6108.756805
747.249498	6110.392659
747.578286	6154.134751
747.907027	6231.879426
748.235720	6291.672552
748.564365	6265.811432
748.892963	6308.482279
749.221514	6437.671929
749.550017	6248.593371
749.878473	6145.383308
750.206881	6212.322269
750.535242	6160.249671
750.863555	6090.011274
751.191821	6096.191729
751.520039	6086.227888
751.848210	5998.814281
752.176334	6031.186050
752.504411	6071.464869
752.832440	5994.433518
753.160421	5929.314413
753.488356	5979.690663
753.816243	6000.513149
754.144082	5853.324060
754.471875	5834.603735
754.799620	5866.133632
755.127318	5883.936467
755.454969	5847.667885
755.782572	5811.059026
756.110129	5852.872877
756.437638	5828.589639
756.765100	5775.839005
757.092515	5784.580366
757.419882	5839.602039
757.747203	5812.236136
758.074477	5867.645978
758.401703	5845.926167
758.728882	5814.459284
759.056014	5886.542743
759.383099	5994.108363
759.710138	6008.584037
760.037129	5996.543241
760.364073	5995.535010
760.690970	6075.643986
761.017820	6050.796138
761.344623	6022.459813
761.671379	6127.000741
761.998088	6258.882366
762.324751	6519.721749
762.651366	7171.099319
762.977935	8558.558448
763.304456	10226.595598
763.630931	11067.623897
763.957359	10591.179406
764.283740	9621.878947
764.610074	8737.138803
764.936362	7738.907162
765.262602	7153.651886
765.588796	6622.485670
765.914943	6295.846627
766.241044	6120.023784
766.567097	5905.391618
766.893104	5646.772863
767.219064	5475.870186
767.544978	5413.256535
767.870845	5323.783616
768.196665	5223.038677
768.522438	5152.644005
768.848165	5114.081698
769.173846	5040.516140
769.499479	4999.970140
769.825066	4950.176143
770.150607	4891.363521
770.476101	4870.125140
770.801548	4858.754818
771.126949	4769.095376
771.452303	4721.332964
771.777611	4688.368859
772.102872	4706.887537
772.428087	4666.805323
772.753256	4623.942913
773.078378	4570.753698
773.403453	4505.637114
773.728482	4492.777131
774.053465	4448.127631
774.378401	4436.124644
774.703291	4425.777676
775.028135	4347.876725
775.352932	4307.118996
775.677683	4296.167090
776.002388	4309.894152
776.327046	4314.358093
776.651658	4240.928646
776.976224	4183.741797
777.300743	4187.152138
777.625216	4208.254408
777.949643	4195.233107
778.274024	4159.098117
778.598359	4124.745174
778.922647	4150.397085
779.246889	4137.985764
779.571086	4124.276346
779.895236	4109.815797
780.219339	4101.434878
780.543397	4100.729117
780.867409	4154.798012
781.191374	4162.289167
781.515294	4092.297787
781.839167	4091.917180
782.162995	4118.020274
782.486776	4106.400415
782.810511	4116.805356
783.134201	4100.608129
783.457844	4050.617527
783.781441	4004.135568
784.104993	4010.346269
784.428498	4026.205739
784.751958	4018.149976
785.075372	3997.002335
785.398739	3964.877582
785.722061	3977.437617
786.045337	4020.829349
786.368568	4046.221641
786.691752	3960.048157
787.014891	4020.617620
787.337983	4157.265657
787.661030	4317.657528
787.984031	4479.246674
788.306987	4643.469822
788.629897	4731.977360
788.952760	4686.208724
789.275579	4616.393785
789.598351	4544.905182
789.921078	4389.942633
790.243759	4193.347716
790.566395	4186.085934
790.888984	4177.533616
791.211529	4065.816606
791.534027	4007.462729
791.856480	3988.969257
792.178888	3930.451543
792.501249	3889.111561
792.823566	3898.314187
793.145836	3922.070624
793.468062	3864.694732
793.790241	3825.114112
794.112375	3858.524360
794.434464	3926.043054
794.756507	3947.304120
795.078505	3919.426539
795.400457	3964.983447
795.722364	4111.451651
796.044226	4214.795305
796.366042	4287.995379
796.687812	4256.372221
797.009538	4262.852624
797.331218	4225.951378
797.652852	4204.382802
797.974442	4176.832896
798.295986	4174.912216
798.617484	4091.516408
798.938938	4006.930888
799.260346	4051.650963
799.581709	4040.625960
799.903026	3961.273157
800.224299	3929.168569
800.545526	3922.690686
800.866708	3881.615365
801.187845	3830.009073
801.508936	3861.163404
801.829983	3846.201259
802.150984	3777.286165
802.471940	3772.565125
802.792851	3774.692492
803.113717	3775.105866
803.434538	3774.599230
803.755314	3711.975497
804.076045	3694.137374
804.396731	3716.194943
804.717372	3740.647059
805.037967	3721.493195
805.358518	3711.698233
805.679024	3743.465064
805.999485	3759.465687
806.319901	3761.719082
806.640272	3774.659724
806.960598	3787.005510
807.280879	3761.898043
807.601115	3779.476547
807.921306	3797.362561
808.241453	3833.933611
808.561554	3804.810865
808.881611	3739.911051
809.201623	3782.738173
809.521590	3791.023310
809.841513	3763.488527
810.161390	3792.669246
810.481223	3762.951644
810.801011	3716.908266
811.120755	3711.420970
811.440453	3741.254518
811.760107	3741.990527
812.079716	3695.158208
812.399281	3673.503931
812.718801	3697.036037
813.038276	3669.211389
813.357707	3665.042354
813.677093	3682.089016
813.996434	3624.080459
814.315731	3640.224754
814.634983	3644.676093
814.954191	3667.557890
815.273354	3683.336702
815.592473	3676.692461
815.911547	3691.044626
816.230577	3740.286617
816.549562	3791.552631
816.868502	3826.916325
817.187399	3845.845858
817.506250	3848.666383
817.825058	3829.386490
818.143821	3925.072632
818.462539	4022.528218
818.781213	4065.788879
819.099843	4139.130106
819.418429	4410.124893
819.736970	4648.576511
820.055466	4908.758023
820.373919	5282.662924
820.692327	5698.061563
821.010691	6205.002514
821.329011	7724.686067
821.647286	10667.890644
821.965517	15454.400686
822.283704	19458.818558
822.601847	21385.850027
822.919945	19436.934909
823.237999	16757.017195
823.556010	14220.048961
823.873976	12043.046837
824.191897	9927.279609
824.509775	8598.023121
824.827609	7470.889177
825.145398	6952.109076
825.463144	6827.806825
825.780845	6931.725170
826.098502	7172.286511
826.416116	8146.113926
826.733685	9521.136528
827.051210	10612.702612
827.368692	10528.364108
827.686129	9178.481740
828.003522	7668.172212
828.320872	6641.067363
828.638177	5922.637405
828.955439	5344.938818
829.272656	4838.494420
829.589830	4574.083381
829.906960	4397.138881
830.224046	4202.764591
830.541088	4079.989810
830.858086	4029.684136
831.175041	3951.631951
831.491952	3943.256073
831.808819	3952.025161
832.125642	4032.875186
832.442421	4198.625804
832.759157	4493.707224
833.075849	5089.246454
833.392497	5990.156099
833.709101	6783.580782
834.025662	7081.999446
834.342179	6644.500389
834.658653	5965.567871
834.975083	5301.663033
835.291469	4712.382395
835.607811	4319.109381
835.924110	4171.466588
836.240366	3965.364054
836.556578	3758.845625
836.872746	3652.792351
837.188871	3608.644446
837.504952	3540.120042
837.820990	3456.547793
838.136984	3415.883326
838.452935	3442.278807
838.768842	3432.612395
839.084706	3459.380922
839.400526	3634.379536
839.716303	4005.085825
840.032037	4562.937389
840.347727	4786.237820
840.663373	4466.845435
840.978977	4069.789035
841.294537	3762.523146
841.610054	3538.486708
841.925527	3430.507713
842.240957	3361.335520
842.556344	3303.752941
842.871687	3242.651635
843.186987	3190.742874
843.502244	3160.591733
843.817458	3121.255610
844.132629	3095.064295
844.447756	3101.408587
844.762840	3084.331678
845.077881	3050.586194
845.392879	3033.562218
845.707833	3033.337887
846.022745	3031.641538
846.337613	3030.240098
846.652438	3016.596215
846.967221	3014.360463
847.281960	3000.293123
847.596656	2999.859584
847.911309	2996.655931
848.225919	2990.772904
848.540485	2986.167810
848.855009	2984.945330
849.169490	2973.138948
849.483928	2965.814151
849.798323	2966.716518
850.112675	2962.061012
850.426984	2977.862509
850.741251	2971.724904
851.055474	2958.499437
851.369654	2953.445680
851.683792	2962.396249
851.997887	2972.975110
852.311938	2973.133907
852.625947	2956.810651
852.939914	2962.519757
853.253837	2965.660396
853.567718	2952.588684
853.881555	2953.486010
854.195350	2967.850778
854.509103	2959.858028
854.822812	2953.148252
855.136479	2948.230607
855.450103	2955.532718
855.763685	2948.066769
856.077224	2945.677262
856.390720	2957.561783
856.704173	2963.129737
857.017584	2958.973306
857.330953	2957.907102
857.644278	2967.205510
857.957561	2977.232365
858.270802	2979.153044
858.584000	2976.738332
858.897155	2961.786269
859.210268	2961.836681
859.523339	2960.029427
859.836367	2961.793831
860.149352	2953.695218
860.462295	2947.711368
860.775195	2954.055660
861.088054	2956.861062
861.400869	2937.863474
861.713642	2939.138886
862.026373	2953.969960
862.339062	2954.211936
862.651708	2960.599078
862.964312	2964.503451
863.276873	2957.783593
863.589392	2968.402784
863.901869	2981.003148
864.214303	3005.356962
864.526696	3016.916328
864.839045	3012.664115
865.151353	3016.654188
865.463619	3011.948271
865.775842	3016.802902
866.088023	3041.176881
866.400162	3039.036911
866.712258	3007.005419
867.024313	3000.157012
867.336325	3009.894001
867.648296	3030.706404
867.960224	3024.273892
868.272110	3008.532889
868.583954	3016.223169
868.895755	3027.780014
869.207515	3014.514218
869.519233	3024.692308
869.830909	3031.434851
870.142542	3041.320554
870.454134	3038.167312
870.765684	3041.812066
871.077191	3042.885832
871.388657	3056.983419
871.700081	3068.991447
872.011463	3076.737180
872.322803	3076.159968
872.634101	3075.784402
872.945357	3093.884665
873.256571	3120.698562
873.567744	3111.765637
873.878874	3110.381841
874.189963	3131.695839
874.501010	3129.197948
874.812015	3122.410034
875.122979	3120.040692
875.433900	3117.580608
875.744780	3124.731485
876.055618	3134.158443
876.366415	3127.088225
876.677169	3139.514669
876.987882	3136.094246
877.298554	3133.203144
877.609183	3158.547545
877.919771	3183.591997
878.230317	3208.263404
878.540822	3263.832043
878.851285	3300.120789
879.161707	3350.320599
879.472087	3470.297540
879.782425	3722.259451
880.092722	4190.393600
880.402977	4738.591354
880.713191	5408.636317
881.023363	6646.688249
881.333494	7967.377296
881.643583	8481.075914
881.953631	8138.161506
882.263637	7444.813809
882.573602	6811.639844
882.883526	6223.690071
883.193408	5654.097660
883.503248	5200.401376
883.813048	4884.867995
884.122806	4543.914595
884.432522	4218.092219
884.742197	3976.033656
885.051831	3786.060294
885.361424	3655.824605
885.670975	3581.883481
885.980485	3488.662464
886.289954	3408.067017
886.599382	3360.188658
886.908768	3327.363185
887.218113	3282.945578
887.527417	3219.069118
887.836680	3169.829647
888.145901	3164.697753
888.455082	3152.735095
888.764221	3097.141250
889.073319	3072.469843
889.382376	3068.331056
889.691392	3071.466654
890.000366	3074.375399
890.309300	3060.691187
890.618193	3070.110583
890.927044	3086.471648
891.235855	3083.164651
891.544625	3075.179463
891.853353	3087.588264
892.162041	3105.459154
892.470687	3147.840134
892.779293	3198.793597
893.087858	3250.162955
893.396381	3326.541477
893.704864	3464.621201
894.013306	3722.786251
894.321707	4035.516751
894.630068	4228.915577
894.938387	4210.303637
895.246665	4173.351979
895.554903	4040.535219
895.863100	3829.709124
896.171256	3657.372239
896.479371	3513.830424
896.787446	3386.067421
897.095480	3280.896349
897.403473	3221.619942
897.711425	3185.941175
898.019336	3174.626305
898.327207	3139.784371
898.635038	3100.912033
898.942827	3086.438881
899.250576	3079.829928
899.558284	3045.998744
899.865952	3024.301618
900.173579	3003.209431
900.481165	2995.027638
900.788711	2979.382417
901.096216	2957.738223
901.403681	2946.478806
901.711105	2956.341823
902.018489	2951.530042
902.325832	2950.579784
902.633135	2963.701908
902.940397	3000.532578
903.247619	3092.798296
903.554800	3304.254535
903.861941	3681.461393
904.169041	4136.080208
904.476101	4424.250206
904.783121	4343.682485
905.090100	4078.895879
905.397039	3788.714461
905.703938	3536.271121
906.010796	3345.682738
906.317614	3238.099473
906.624391	3138.481232
906.931129	3063.000036
907.237826	2997.964110
907.544483	2953.619600
907.851099	2922.331679
908.157675	2901.191600
908.464211	2878.214021
908.770707	2866.402597
909.077163	2851.551358
909.383578	2836.894203
909.689954	2825.498675
909.996289	2825.458346
910.302584	2826.063284
910.608839	2824.003973
910.915054	2817.274033
911.221229	2810.062662
911.527363	2815.434012
911.833458	2820.996925
912.139513	2827.807524
912.445527	2829.665189
912.751502	2837.350428
913.057436	2849.436594
913.363331	2865.999305
913.669186	2891.343706
913.975000	2926.667071
914.280775	2990.299036
914.586510	3061.754871
914.892205	3147.245278
915.197859	3288.611835
915.503475	3501.184690
915.809050	3727.489648
916.114585	3875.082029
916.420081	3877.907596
916.725536	3807.240702
917.030952	3684.360056
917.336328	3550.099006
917.641665	3412.057090
917.946961	3310.152685
918.252218	3234.001015
918.557435	3152.538490
918.862612	3090.554983
919.167750	3039.321736
919.472848	3003.514420
919.777906	2974.661376
920.082925	2944.853034
920.387904	2913.648291
920.692843	2898.144223
920.997743	2887.053684
921.302603	2871.063144
921.607423	2861.704242
921.912204	2846.671521
922.216946	2835.908658
922.521647	2824.964313
922.826310	2817.271512
923.130932	2810.712971
923.435516	2799.443472
923.740059	2791.685136
924.044564	2782.316151
924.349028	2777.703496
924.653454	2771.845675
924.957840	2765.876949
925.262186	2761.443254
925.566493	2755.479569
925.870761	2751.945720
926.174989	2747.093609
926.479178	2741.508011
926.783328	2739.189080
927.087438	2739.365521
927.391509	2737.964080
927.695541	2732.297823
927.999533	2728.249776
928.303486	2724.524364
928.607400	2725.562841
928.911275	2727.170969
929.215110	2724.229456
929.518906	2722.117213
929.822663	2722.102089
930.126381	2719.810885
930.430060	2721.666029
930.733699	2724.531925
931.037299	2725.099055
931.340861	2726.576113
931.644383	2728.010322
931.947866	2723.420351
932.251309	2722.865824
932.554714	2723.995042
932.858080	2716.433312
933.161407	2720.219218
933.464694	2719.573951
933.767943	2712.957436
934.071153	2719.092520
934.374323	2714.706717
934.677455	2717.887685
934.980548	2714.908363
935.283602	2715.094885
935.586617	2713.048177
935.889593	2716.040102
936.192530	2715.717468
936.495428	2714.558002
936.798287	2719.881461
937.101108	2722.800289
937.403890	2724.557131
937.706632	2729.048799
938.009336	2735.148595
938.312002	2747.020513
938.614628	2754.738519
938.917216	2762.053233
939.219765	2759.797317
939.522275	2758.257245
939.824747	2754.163828
940.127179	2756.013931
940.429573	2753.768097
940.731929	2749.967067
941.034246	2747.285173
941.336524	2741.505490
941.638763	2739.801580
941.940964	2737.427197
942.243126	2733.903430
942.545250	2735.957701
942.847335	2733.416959
943.149381	2728.184241
943.451389	2725.887996
943.753359	2720.312480
944.055290	2718.837942
944.357182	2719.095041
944.659036	2717.804506
944.960851	2718.336347
945.262628	2714.182437
945.564367	2718.306100
945.866067	2717.849876
946.167729	2720.251986
946.469352	2719.057232
946.770937	2716.443394
947.072484	2715.924155
947.373992	2716.912221
947.675462	2712.561706
947.976893	2711.513146
948.278286	2709.637836
948.579641	2707.883515
948.880958	2704.130376
949.182236	2711.427446
949.483476	2705.655325
949.784678	2708.231354
950.085841	2705.680531
950.386967	2707.278576
950.688054	2707.694472
950.989103	2708.306972
951.290114	2712.637323
951.591087	2713.151521
951.892021	2715.046994
952.192917	2719.034547
952.493776	2719.216029
952.794596	2720.882130
953.095378	2718.623693
953.396122	2719.137891
953.696828	2718.923642
953.997496	2714.240410
954.298126	2712.589432
954.598718	2711.480378
954.899272	2707.316385
955.199788	2705.960315
955.500266	2702.933102
955.800706	2700.460416
956.101108	2697.823892
956.401472	2697.468491
956.701798	2695.283151
957.002087	2692.863397
957.302337	2692.593695
957.602550	2692.490352
957.902724	2687.827284
958.202861	2688.051616
958.502960	2687.045905
958.803022	2687.111440
959.103045	2688.971626
959.403031	2683.106244
959.702979	2683.832170
960.002889	2684.961388
960.302762	2682.229083
960.602596	2683.766635
960.902393	2682.443332
961.202153	2681.609021
961.501875	2685.258816
961.801559	2680.774710
962.101205	2681.553568
962.400814	2682.801254
962.700385	2680.578105
962.999918	2679.494257
963.299414	2676.550223
963.598873	2677.397137
963.898293	2674.543844
964.197677	2679.353105
964.497022	2679.000224
964.796331	2678.854030
965.095601	2681.057015
965.394835	2680.724298
965.694030	2680.540296
965.993189	2677.671880
966.292309	2678.261695
966.591393	2678.412929
966.890439	2677.840758
967.189447	2675.778927
967.488419	2678.291942
967.787353	2677.235820
968.086249	2676.338495
968.385108	2677.008968
968.683930	2676.802281
968.982714	2681.850996
969.281462	2678.617096
969.580172	2678.165913
969.878844	2678.274298
970.177480	2677.119873
970.476078	2678.848989
970.774639	2678.526355
971.073162	2679.716068
971.371649	2679.721109
971.670098	2681.742612
971.968510	2679.771520
972.266885	2682.002231
972.565223	2680.999041
972.863524	2679.567354
973.161788	2679.872343
973.460014	2679.849658
973.758204	2679.884946
974.056356	2677.931499
974.354471	2678.425532
974.652550	2678.304545
974.950591	2680.247909
975.248595	2679.312775
975.546563	2679.204391
975.844493	2677.301355
976.142386	2677.213135
976.440243	2679.335461
976.738062	2677.079544
977.035845	2674.228772
977.333590	2679.670697
977.631299	2675.960408
977.928971	2671.171312
978.226606	2674.871519
978.524204	2675.088288
978.821765	2674.364883
979.119290	2676.214986
979.416777	2675.917558
979.714228	2676.633402
980.011642	2678.188598
980.309020	2675.819256
980.606360	2677.266067
980.903664	2676.189781
981.200931	2678.216324
981.498162	2678.685152
981.795356	2678.838907
982.092513	2680.772189
982.389633	2682.592046
982.686717	2688.086904
982.983764	2688.099507
983.280775	2692.843232
983.577749	2693.816175
983.874686	2694.332893
984.171587	2690.131092
984.468451	2688.601101
984.765279	2686.753518
985.062070	2682.317303
985.358824	2683.035667
985.655543	2681.498116
985.952224	2678.589370
986.248869	2680.487364
986.545478	2680.913342
986.842050	2678.332271
987.138586	2676.628361
987.435086	2676.618279
987.731549	2675.272291
988.027975	2675.640295
988.324366	2673.638957
988.620719	2674.720284
988.917037	2672.885304
989.213318	2672.595438
989.509563	2672.736590
989.805772	2672.222392
990.101944	2676.033505
990.398080	2672.237516
990.694180	2673.394461
990.990244	2672.802125
991.286271	2674.657270
991.582262	2672.396312
991.878217	2672.023267
992.174136	2672.177022
992.470019	2673.447393
992.765865	2671.294820
993.061676	2666.972031
993.357450	2670.243740
993.653188	2668.174346
993.948890	2673.273473
994.244556	2672.910510
994.540186	2674.906807
994.835780	2674.443021
995.131337	2674.657270
995.426859	2675.075686
995.722345	2676.232630
996.017795	2678.387724
996.313208	2678.932168
996.608586	2677.245902
996.903928	2679.096006
997.199234	2676.678772
997.494504	2676.429235
997.789738	2679.060718
998.084936	2676.666170
998.380099	2675.796571
998.675225	2677.669359
998.970316	2676.295645
999.265371	2675.100891
999.560390	2674.072496
999.855373	2673.296158
1000.150320	2673.394461
1000.445232	2673.419667
1000.740108	2673.933864
1001.034948	2672.610561
1001.329752	2671.589728
1001.624521	2671.067968
1001.919254	2672.691220
1002.213951	2672.597958
1002.508613	2671.998061
1002.803239	2670.445386
1003.097829	2672.456806
1003.392384	2673.412105
1003.686903	2673.243226
1003.981386	2671.690551
1004.275834	2672.345901
1004.570246	2671.622495
1004.864623	2671.572084
1005.158964	2671.015036
1005.453270	2672.781961
1005.747540	2670.097546
1006.041775	2670.034532
1006.335974	2670.647032
1006.630138	2671.975376
1006.924266	2672.882784
1007.218359	2672.303051
1007.512416	2666.727535
1007.806438	2668.035714
1008.100425	2669.429593
1008.394376	2669.240550
1008.688292	2669.633760
1008.982172	2671.677948
1009.276017	2670.775581
1009.569827	2667.592093
1009.863602	2671.572084
1010.157341	2669.568225
1010.451045	2669.593431
1010.744714	2669.878256
1011.038347	2672.837413
1011.331945	2669.394305
1011.625508	2667.506393
1011.919036	2668.484377
1012.212528	2669.898421
1012.505986	2670.205931
1012.799408	2672.096364
1013.092795	2668.683502
1013.386147	2669.114521
1013.679464	2671.758606
1013.972745	2672.114008
1014.265992	2670.054696
1014.559204	2668.428924
1014.852380	2670.463030
1015.145521	2667.889521
1015.438628	2669.275838
1015.731699	2671.209121
1016.024736	2669.195180
1016.317737	2668.423883
1016.610703	2670.513441
1016.903635	2672.482012
1017.196531	2670.289110
1017.489393	2668.169305
1017.782219	2668.774243
1018.075011	2670.760458
1018.367768	2669.706857
1018.660490	2670.329439
1018.953177	2670.329439
1019.245829	2670.329439
