Dividing Wavelength (nm)	Counts (n)	Blue Motor Position (mm): 18.800000	Red Motor Position (mm): 0.000000	
326.493990	2182.260047
326.888308	2182.260047
327.282561	2182.260047
327.676750	2141.499798
328.070874	2138.107101
328.464933	2139.528707
328.858929	2142.533234
329.252859	2147.675211
329.646726	2154.329534
330.040528	2167.880156
330.434265	2179.222752
330.827938	2199.883921
331.221547	2214.611652
331.615091	2232.492625
332.008571	2252.909298
332.401986	2268.703233
332.795338	2291.572427
333.188625	2305.266722
333.581847	2326.560556
333.975006	2343.720643
334.368100	2366.284848
334.761129	2380.057280
335.154095	2399.874056
335.546996	2422.095462
335.939833	2448.261571
336.332606	2465.187245
336.725315	2478.168216
337.117960	2490.803868
337.510540	2501.501197
337.903056	2512.632065
338.295508	2522.739578
338.687896	2534.122503
339.080220	2539.874460
339.472480	2547.902498
339.864676	2550.032385
340.256807	2556.772408
340.648875	2559.572769
341.040879	2561.173335
341.432818	2567.275652
341.824694	2568.845971
342.216506	2570.015519
342.608253	2571.676579
342.999937	2570.433935
343.391557	2573.196487
343.783113	2571.059038
344.174605	2568.997206
344.566033	2569.362689
344.957397	2565.468398
345.348697	2566.547205
345.739934	2565.357493
346.131106	2564.744992
346.522215	2562.607543
346.913260	2558.345248
347.304241	2556.464897
347.695159	2551.958106
348.086012	2555.439022
348.476802	2553.752757
348.867528	2548.419216
349.258191	2547.486602
349.648789	2543.327650
350.039324	2540.335726
350.429796	2544.892929
350.820203	2542.687424
351.210548	2541.593493
351.600828	2541.825387
351.991045	2540.111394
352.381198	2538.127700
352.771288	2538.467978
353.161314	2537.764737
353.551276	2537.041332
353.941175	2536.940508
354.331010	2539.120807
354.720782	2533.973789
355.110490	2536.373379
355.500135	2537.273225
355.889717	2536.161650
356.279235	2535.471012
356.668689	2536.685930
357.058080	2533.527647
357.447408	2536.517052
357.836672	2537.517721
358.225873	2536.154088
358.615010	2539.534182
359.004084	2537.280786
359.393095	2538.417567
359.782043	2538.092412
360.170927	2539.831610
360.559748	2540.116435
360.948505	2541.333874
361.337199	2540.131559
361.725830	2542.558874
362.114398	2541.021323
362.502903	2539.874460
362.891344	2542.924358
363.279722	2540.678524
363.668037	2545.719678
364.056289	2544.645912
364.444478	2544.719009
364.832603	2547.466438
365.220665	2543.683052
365.608665	2547.237065
365.996601	2546.511139
366.384474	2546.362425
366.772284	2546.952240
367.160031	2547.494164
367.547715	2548.046170
367.935336	2550.143290
368.322893	2546.453166
368.710388	2547.325285
369.097820	2548.081458
369.485189	2544.098947
369.872495	2551.002807
370.259738	2553.941800
370.646918	2549.896274
371.034035	2553.485575
371.421090	2551.713610
371.808081	2551.126315
372.195010	2551.678322
372.581875	2551.290153
372.968678	2551.280071
373.355418	2549.702189
373.742096	2551.131357
374.128710	2551.406099
374.515262	2552.646223
374.901751	2553.588919
375.288177	2554.990360
375.674540	2553.586398
376.060841	2552.830225
376.447079	2553.788045
376.833254	2552.515153
377.219367	2552.220246
377.605417	2555.738971
377.991404	2553.329300
378.377329	2554.219063
378.763191	2557.203426
379.148991	2554.760987
379.534727	2556.936245
379.920402	2553.949362
380.306013	2557.205947
380.691563	2555.252500
381.077049	2557.321893
381.462474	2555.156718
381.847835	2555.169321
382.233134	2558.619991
382.618371	2558.073025
383.003545	2557.044630
383.388657	2559.224929
383.773706	2559.126627
384.158693	2557.616801
384.543618	2556.976574
384.928480	2555.428940
385.313280	2558.226781
385.698017	2559.469425
386.082692	2559.736606
386.467305	2558.796431
386.851856	2562.219374
387.236344	2560.828016
387.620770	2558.446071
388.005133	2557.170659
388.389435	2558.559497
388.773674	2555.693601
389.157851	2561.682492
389.541965	2561.475804
389.926018	2564.089643
390.310008	2564.936556
390.693936	2561.372461
391.077802	2561.130485
391.461606	2561.627039
391.845348	2561.092677
392.229027	2564.092163
392.612645	2564.659293
392.996200	2564.969324
393.379694	2564.437482
393.763125	2564.137533
394.146494	2565.622153
394.529801	2566.358162
394.913047	2563.688871
395.296230	2564.039231
395.679351	2565.586865
396.062410	2565.571742
396.445408	2565.455795
396.828343	2565.594427
397.211217	2562.418500
397.594028	2565.211299
397.976778	2568.057031
398.359466	2568.994685
398.742092	2568.631722
399.124656	2567.235323
399.507158	2565.775908
399.889598	2568.994685
400.271977	2569.942422
400.654294	2567.507545
401.036549	2567.683985
401.418742	2567.525189
401.800874	2566.151474
402.182944	2570.461661
402.564952	2568.278841
402.946898	2568.004098
403.328783	2570.464182
403.710606	2570.590210
404.092367	2568.316650
404.474067	2570.507031
404.855705	2569.395457
405.237282	2569.342525
405.618797	2570.002916
406.000250	2571.832855
406.381642	2570.628019
406.762972	2571.263204
407.144240	2566.721125
407.525447	2569.415622
407.906593	2568.460323
408.287677	2575.883422
408.668700	2570.297823
409.049661	2571.479974
409.430560	2570.801939
409.811399	2572.876374
410.192176	2572.470561
410.572891	2574.623133
410.953545	2574.807136
411.334138	2573.602300
411.714669	2574.202197
412.095139	2574.746642
412.475547	2574.134142
412.855894	2574.469378
413.236180	2573.776220
413.616405	2573.128431
413.996568	2575.162537
414.376670	2576.969791
414.756711	2573.408215
415.136691	2573.972825
415.516609	2574.234965
415.896466	2576.208576
416.276262	2574.905438
416.655997	2575.442321
417.035670	2575.530541
417.415283	2577.269739
417.794834	2577.552044
418.174324	2573.647670
418.553753	2575.966601
418.933121	2577.360480
419.312428	2575.333936
419.691674	2576.253947
420.070859	2578.794688
420.449983	2577.637743
420.829045	2577.468865
421.208047	2577.310068
421.586988	2578.295614
421.965867	2579.939030
422.344686	2578.194791
422.723444	2577.877198
423.102141	2579.626479
423.480777	2578.560275
423.859352	2577.408371
424.237866	2578.436766
424.616319	2578.162023
424.994712	2580.312076
425.373044	2581.073290
425.751314	2577.854513
426.129524	2578.598083
426.507673	2577.599935
426.885762	2574.176991
427.263789	2579.876016
427.641756	2577.862075
428.019662	2580.914493
428.397508	2584.849114
428.775292	2580.168403
429.153016	2581.312745
429.530679	2581.244689
429.908282	2579.238310
430.285824	2577.799060
430.663305	2582.681418
431.040726	2579.704617
431.418086	2581.831983
431.795385	2580.866602
432.172624	2582.532704
432.549802	2580.949782
432.926920	2580.959864
433.303977	2580.990111
433.680974	2582.482292
434.057910	2584.014803
434.434786	2584.196285
434.811601	2583.435070
435.188355	2582.489854
435.565050	2585.217118
435.941683	2583.304000
436.318257	2585.383476
436.694770	2584.163517
437.071222	2581.158989
437.447614	2585.441450
437.823946	2584.765935
438.200218	2586.174937
438.576429	2582.154617
438.952580	2583.702252
439.328670	2584.501274
439.704700	2583.959350
440.080670	2586.353898
440.456580	2586.217787
440.832429	2585.990935
441.208218	2585.348188
441.583947	2584.140832
441.959616	2584.765935
442.335224	2585.486820
442.710773	2586.409351
443.086261	2588.919846
443.461689	2585.912798
443.837057	2586.038826
444.212365	2585.713672
444.587612	2581.751325
444.962800	2581.584967
445.337927	2586.865576
445.712995	2583.503126
446.088002	2586.134608
446.462949	2587.362129
446.837837	2589.862542
447.212664	2588.274578
447.587431	2590.119640
447.962139	2591.460587
448.336786	2590.588468
448.711374	2592.345310
449.085901	2590.664085
449.460369	2588.897161
449.834776	2590.482603
450.209124	2589.237438
450.583412	2591.861359
450.957640	2592.287337
451.331808	2592.448653
451.705917	2591.195927
452.079965	2590.434712
452.453954	2590.835484
452.827883	2593.696339
453.201752	2591.735330
453.575562	2590.938828
453.949311	2589.446646
454.323001	2591.775659
454.696632	2593.212388
455.070202	2592.093252
455.443713	2590.459918
455.817164	2592.690629
456.190556	2594.570979
456.563888	2596.148860
456.937160	2593.499734
457.310373	2593.119127
457.683526	2594.336566
458.056619	2594.397059
458.429653	2592.907398
458.802628	2595.150712
459.175542	2595.125506
459.548398	2597.046186
459.921194	2596.930239
460.293930	2597.315887
460.666607	2595.367482
461.039224	2598.508120
461.411782	2599.289499
461.784280	2601.661362
462.156719	2598.427462
462.529099	2600.181783
462.901419	2599.203800
463.273680	2596.894951
463.645882	2594.697008
464.018024	2597.724221
464.390106	2595.450661
464.762130	2600.159098
465.134094	2600.028028
465.505999	2603.609768
465.877845	2604.958277
466.249631	2608.605552
466.621358	2606.851230
466.993026	2608.169492
467.364634	2612.278032
467.736184	2607.869543
468.107674	2606.831065
468.479105	2605.069182
468.850477	2605.832917
469.221790	2605.444748
469.593043	2603.934922
469.964238	2602.155395
470.335373	2602.208327
470.706449	2603.876949
471.077467	2604.040787
471.448425	2607.869543
471.819324	2611.453803
472.190164	2614.168465
472.560945	2611.829369
472.931667	2608.764348
473.302330	2610.440532
473.672934	2607.720829
474.043479	2606.619337
474.413965	2610.271653
474.784393	2606.548761
475.154761	2610.385079
475.525070	2608.850047
475.895321	2607.647732
476.265513	2611.698299
476.635645	2613.959257
477.005719	2611.993207
477.375734	2610.869030
477.745691	2611.852055
478.115588	2615.171654
478.485427	2613.157713
478.855207	2618.544186
479.224928	2620.427057
479.594591	2624.717079
479.964194	2623.517285
480.333739	2625.972327
480.703226	2622.516616
481.072653	2626.357975
481.442022	2625.516102
481.811333	2623.053498
482.180584	2624.170114
482.549777	2629.922071
482.918912	2621.256327
483.287988	2628.548356
483.657005	2629.354941
484.025964	2630.075826
484.394864	2629.831330
484.763706	2631.479787
485.132489	2629.279323
485.501213	2632.971969
485.869879	2630.559777
486.238487	2632.709829
486.607036	2632.445168
486.975527	2633.289561
487.343959	2636.672176
487.712333	2635.434572
488.080648	2637.030097
488.448905	2638.595376
488.817104	2639.817856
489.185244	2640.019502
489.553326	2642.761889
489.921350	2645.952940
490.289315	2653.436533
490.657222	2657.706390
491.025070	2663.581855
491.392861	2666.813234
491.760593	2665.068995
492.128267	2668.270128
492.495883	2665.255518
492.863440	2663.808707
493.230939	2664.769047
493.598380	2670.510921
493.965763	2668.194511
494.333088	2671.879594
494.700354	2673.613751
495.067563	2676.850172
495.434713	2680.220183
495.801805	2687.262675
496.168839	2687.257634
496.535815	2693.596885
496.902733	2696.072091
497.269593	2702.854964
497.636395	2712.017261
498.003139	2715.785523
498.369825	2719.780638
498.736453	2727.448233
499.103023	2735.148595
499.469535	2742.128073
499.835989	2753.465628
500.202385	2760.918974
500.568723	2763.268152
500.935003	2781.265071
501.301226	2784.267078
501.667390	2810.289514
502.033497	2823.923315
502.399546	2834.895386
502.765537	2843.934175
503.131470	2863.718183
503.497345	2881.541183
503.863163	2887.640979
504.228923	2915.563930
504.594625	2942.650049
504.960269	2947.297993
505.325856	2977.048363
505.691385	2993.069150
506.056856	3028.248842
506.422270	3055.375291
506.787625	3073.107549
507.152924	3111.319495
507.518164	3138.209010
507.883347	3158.751712
508.248472	3184.421267
508.613540	3239.785739
508.978550	3273.490894
509.343503	3316.623006
509.708398	3360.017259
510.073236	3406.610123
510.438016	3461.382260
510.802738	3490.671363
511.167403	3550.116650
511.532010	3581.593614
511.896561	3673.675330
512.261053	3734.423755
512.625488	3773.374230
512.989866	3824.032785
513.354186	3865.130792
513.718449	3942.552832
514.082655	4016.524203
514.446803	4073.688367
514.810894	4166.725382
515.174927	4200.060012
515.538904	4269.456536
515.902822	4371.260117
516.266684	4440.792752
516.630488	4497.604036
516.994235	4576.059513
517.357925	4677.744627
517.721558	4782.038538
518.085133	4874.032034
518.448651	4952.200166
518.812112	5020.190208
519.175516	5114.674034
519.538863	5237.647941
519.902152	5298.227487
520.265385	5436.050112
520.628560	5500.660060
520.991678	5605.833653
521.354739	5716.149223
521.717743	5832.441080
522.080690	5901.104116
522.443580	6070.340692
522.806413	6157.071223
523.169189	6301.172606
523.531908	6389.546553
523.894569	6471.671991
524.257174	6595.444921
524.619722	6737.607980
524.982213	6791.878521
525.344647	6943.536594
525.707025	7073.245482
526.069345	7206.954526
526.431608	7328.194276
526.793815	7507.087182
527.155964	7489.362485
527.518057	7661.396901
527.880093	7789.084287
528.242072	7928.084022
528.603995	8001.309302
528.965860	8091.293898
529.327669	8282.094010
529.689421	8379.942806
530.051117	8476.387641
530.412755	8685.565278
530.774337	8736.964883
531.135862	8839.181839
531.497331	9031.832054
531.858743	9050.265033
532.220098	9352.172175
532.581396	9350.725364
532.942638	9525.565182
533.303824	9662.414865
533.664953	9814.070417
534.026025	9876.162309
534.387040	10060.522346
534.747999	10266.944993
535.108902	10421.776472
535.469748	10424.720506
535.830537	10637.797476
536.191270	10786.067893
536.551947	10954.697009
536.912567	10928.593915
537.273131	11191.986642
537.633638	11213.388860
537.994089	11485.059162
538.354483	11435.224835
538.714821	11778.235025
539.075103	11984.307312
539.435328	12035.477544
539.795497	11998.760300
540.155609	12328.597955
540.515665	12594.571753
540.875665	12406.526632
541.235609	12679.943693
541.595496	12863.565201
541.955328	13159.175942
542.315102	13273.249692
542.674821	13244.580650
543.034483	13319.887927
543.394090	13519.668854
543.753640	13571.486874
544.113134	14024.774825
544.472571	14004.910158
544.831953	14327.370085
545.191278	14231.751999
545.550548	14377.234658
545.909761	14570.394029
546.268918	14873.488363
546.628019	14980.297810
546.987064	15023.008986
547.346053	15028.549214
547.704986	15207.653849
548.063863	15454.690552
548.422684	15538.504776
548.781449	15475.644108
549.140158	15837.790518
549.498811	15761.502737
549.857408	15689.562951
550.215949	16104.018894
550.574434	16038.854418
550.932864	16298.554500
551.291237	16497.007083
551.649555	16587.909169
552.007817	16741.538332
552.366022	16808.184907
552.724173	16930.294256
553.082267	17037.953138
553.440305	17469.458263
553.798288	17114.535826
554.156215	17603.802492
554.514086	17790.453734
554.871902	17461.110112
555.229661	17785.059699
555.587365	17822.454978
555.945014	17811.528277
556.302606	18155.506369
556.660143	18191.580866
557.017625	18519.079426
557.375050	18302.763514
557.732421	18678.813426
558.089735	18673.295883
558.446994	18812.484662
558.804197	18950.529098
559.161345	19051.649603
559.518437	18917.249921
559.875474	19219.991374
560.232455	19421.224153
560.589381	19431.787891
560.946251	19471.098809
561.303065	19848.237610
561.659825	20018.187509
562.016528	19802.710950
562.373177	19700.788902
562.729770	20047.796727
563.086307	20079.654298
563.442789	20293.391660
563.799216	20253.029661
564.155587	20329.110755
564.511904	20415.576626
564.868164	20422.772873
565.224370	20527.220540
565.580520	20484.451390
565.936615	20706.521779
566.292654	20487.057667
566.648638	20874.704754
567.004567	20755.584809
567.360441	20786.270312
567.716260	20617.348809
568.072023	21008.658294
568.427732	20841.029846
568.783385	20723.853266
569.138982	20979.454889
569.494525	21092.885892
569.850013	20941.336205
570.205445	21086.062690
570.560823	20949.500353
570.916145	20822.276754
571.271412	21002.994557
571.626625	20866.800224
571.981782	20999.047334
572.336884	20862.888289
572.691931	21041.229189
573.046923	20831.265131
573.401860	20802.283537
573.756743	20850.209787
574.111570	20804.589865
574.466342	20778.050711
574.821059	20920.115467
575.175722	20667.238588
575.530330	20707.169567
575.884882	20778.171699
576.239380	20728.697815
576.593823	20665.469143
576.948211	20681.142090
577.302544	20558.873945
577.656823	20481.575412
578.011047	20598.061354
578.365216	20518.655619
578.719330	20423.103069
579.073389	20359.874397
579.427394	20526.812206
579.781344	20345.161789
580.135239	20266.282855
580.489080	20260.760271
580.842866	20054.080525
581.196597	20252.104610
581.550273	20237.747403
581.903895	20176.520069
582.257463	20501.041828
582.610975	20058.519261
582.964434	20363.554439
583.317837	20113.329206
583.671186	20214.396779
584.024481	20198.539829
584.377721	20007.296097
584.730906	20055.930628
585.084037	20118.854311
585.437113	20023.263951
585.790135	20236.711446
586.143103	19740.251054
586.496016	19768.602503
586.848874	20016.251706
587.201679	19979.126129
587.554428	19653.099586
587.907124	19975.922476
588.259765	19786.317118
588.612352	19868.059427
588.964884	19449.283216
589.317362	19635.732811
589.669786	19684.899185
590.022155	19771.813718
590.374470	19921.299053
590.726731	19751.570965
591.078937	19505.224900
591.431090	19627.651842
591.783188	19363.961687
592.135232	19344.281022
592.487222	19451.138360
592.839157	19497.615278
593.191038	19384.524553
593.542866	19272.215207
593.894639	19007.688221
594.246358	19214.748574
594.598022	19144.840373
594.949633	18916.208923
595.301190	18863.438124
595.652692	19022.794038
596.004141	19280.376835
596.355535	18611.582078
596.706876	18628.091857
597.058162	18525.307771
597.409395	18734.041787
597.760573	18840.906687
598.111698	18629.024470
598.462768	18563.219769
598.813785	18521.095887
599.164748	18366.042598
599.515657	18383.167397
599.866511	18182.181635
600.217312	18551.448674
600.568060	18083.191017
600.918753	18391.818017
601.269392	18293.976783
601.619978	18060.909117
601.970510	18295.768913
602.320988	18230.304489
602.671412	18434.871992
603.021783	18332.576898
603.372100	18083.380060
603.722363	18218.009115
604.072572	18150.992016
604.422728	18298.904511
604.772830	18055.885607
605.122878	18006.164707
605.472872	17999.800250
605.822813	17987.280545
606.172701	17947.493238
606.522534	18159.330084
606.872314	18180.160132
607.222041	18012.125871
607.571714	18239.991066
607.921333	18053.987613
608.270899	18134.237741
608.620411	18328.128080
608.969870	18075.994770
609.319276	18084.413497
609.668627	18112.956510
610.017926	18257.272142
610.367171	18373.009472
610.716362	18399.956960
611.065500	18237.614162
611.414585	18358.054889
611.763616	18341.635851
612.112594	18305.856262
612.461518	18264.443183
612.810389	18464.491291
613.159207	18313.470925
613.507971	18214.182879
613.856682	18502.962857
614.205340	18439.716541
614.553945	18579.848015
614.902496	18324.019539
615.250994	18575.000945
615.599439	18508.245986
615.947830	18496.961363
616.296169	18535.619451
616.644454	18502.720881
616.992686	18488.756885
617.340864	18686.438172
617.688990	18451.608623
618.037063	18631.897928
618.385082	18469.434142
618.733048	18755.449047
619.080961	18615.436040
619.428821	18655.228388
619.776628	18551.375578
620.124382	18472.085789
620.472083	18509.622221
620.819731	18538.039205
621.167326	18233.964367
621.514868	18269.159182
621.862357	18027.634981
622.209793	18044.169966
622.557176	17877.980767
622.904506	17718.269452
623.251783	17604.992204
623.599007	17392.802477
623.946179	17334.577150
624.293297	17278.353162
624.640363	17027.129780
624.987376	17039.525977
625.334336	16847.001792
625.681243	16684.190166
626.028097	16685.274014
626.374899	16624.213038
626.721647	16508.183321
627.068343	16328.945096
627.414987	16258.550424
627.761577	16228.643778
628.108115	16278.029442
628.454600	15994.404044
628.801032	16096.981443
629.147412	16029.240938
629.493739	16049.473609
629.840014	15851.313413
630.186236	15969.170549
630.532405	15723.963785
630.878521	15926.086328
631.224585	15809.060982
631.570597	15638.158305
631.916556	15680.783781
632.262462	15660.467931
632.608316	15571.713377
632.954117	15515.270098
633.299866	15519.424008
633.645562	15437.318736
633.991206	15189.309090
634.336797	15061.662033
634.682336	15024.034861
635.027823	14924.015848
635.373257	14808.109639
635.718639	14693.259552
636.063968	14661.263348
636.409245	14405.578546
636.754470	14432.710036
637.099642	14282.334937
637.444762	14053.237180
637.789829	14094.360392
638.134845	13937.320888
638.479808	13958.392911
638.824719	13915.185182
639.169577	13761.840843
639.514383	13809.031085
639.859137	13635.842244
640.203839	13709.420405
640.548489	13549.343606
640.893086	13541.005537
641.237632	13412.642637
641.582125	13554.437692
641.926566	13397.748548
642.270955	13401.292479
642.615292	13374.168551
642.959576	13380.782545
643.303809	13413.214808
643.647990	13347.258872
643.992118	13401.882294
644.336195	13179.065815
644.680219	13365.243188
645.024192	13301.941419
645.368112	13534.391544
645.711981	13594.749279
646.055797	13775.487247
646.399562	13737.716402
646.743274	14012.217311
647.086935	14283.300318
647.430544	14246.036109
647.774101	14273.570891
648.117606	14435.654069
648.461059	14404.509821
648.804460	14401.845571
649.147810	14132.796670
649.491108	14023.469166
649.834354	14045.554461
650.177548	13746.427516
650.520690	13558.941963
650.863781	13470.835197
651.206820	13522.441488
651.549807	13343.064632
651.892742	13156.073112
652.235626	13097.631016
652.578458	13098.919030
652.921238	12779.456070
653.263967	12981.538284
653.606644	12812.379846
653.949269	12771.647323
654.291843	12592.015888
654.634365	12741.196233
654.976836	12594.239037
655.319255	12608.480296
655.661622	12557.176473
656.003938	12474.304945
656.346203	12413.269175
656.688416	12476.190337
657.030577	12432.917072
657.372687	12357.781195
657.714746	12326.815907
658.056753	12515.294567
658.398708	12338.771004
658.740612	12345.158146
659.082465	12436.491250
659.424266	12405.339440
659.766016	12418.779156
660.107715	12328.769354
660.449362	12405.415058
660.790958	12365.698327
661.132503	12309.580202
661.473996	12372.226621
661.815438	12389.520299
662.156829	12397.818039
662.498168	12384.733724
662.839456	12383.176007
663.180693	12407.582754
663.521879	12490.179539
663.863013	12465.359418
664.204097	12451.952469
664.545129	12567.011765
664.886110	12541.049822
665.227040	12623.069395
665.567918	12628.589459
665.908746	12660.605827
666.249522	12644.224597
666.590248	12688.100280
666.930922	12801.228813
667.271545	12791.842185
667.612118	12869.715409
667.952639	12776.617900
668.293109	12774.845935
668.633528	12744.130184
668.973896	12713.157335
669.314213	12804.956747
669.654480	12544.636603
669.994695	12607.542642
670.334859	12621.000002
670.674973	12574.528125
671.015035	12613.617232
671.355047	12552.712532
671.695008	12529.336701
672.034918	12522.810928
672.374777	12572.357908
672.714585	12482.764002
673.054342	12515.692818
673.394049	12470.997948
673.733705	12560.244016
674.073310	12478.337868
674.412864	12499.525838
674.752368	12367.646733
675.091820	12374.860624
675.431223	12372.982794
675.770574	12239.409861
676.109875	12170.041064
676.449125	12127.168571
676.788324	12060.239692
677.127473	11905.128429
677.466571	11890.546892
677.805619	11788.264401
678.144616	11704.709796
678.483562	11682.243894
678.822458	11543.536546
679.161303	11531.238651
679.500098	11519.500325
679.838842	11469.013169
680.177535	11493.026705
680.516179	11551.476363
680.854771	11501.505926
681.193314	11710.769263
681.531805	11856.783764
681.870247	12255.090370
682.208638	12670.723423
682.546978	12989.503307
682.885268	13052.837843
683.223508	12743.321079
683.561697	12587.804004
683.899836	12484.601502
684.237925	12281.316973
684.575963	12203.922659
684.913951	12133.447328
685.251889	12075.695870
685.589776	12169.806650
685.927614	12103.313831
686.265401	12061.217676
686.603137	12110.217691
686.940824	12258.790577
687.278460	12372.624872
687.616046	12429.695775
687.953582	12603.096344
688.291068	12516.360771
688.628504	12745.831574
688.965889	12765.033329
689.303224	12727.847258
689.640510	12630.104326
689.977745	12328.809684
690.314930	12103.391969
690.652065	12008.542659
690.989150	11728.062942
691.326185	11490.491005
691.663170	11288.955756
692.000105	11048.407018
692.336990	10943.737541
692.673825	10694.613800
693.010610	10576.560059
693.347345	10373.068843
693.684030	10172.151136
694.020665	10117.613413
694.357251	9916.587321
694.693786	9870.775836
695.030272	9691.018372
695.366707	9576.841278
695.703093	9511.868367
696.039429	9504.919137
696.375716	9436.712325
696.711952	9305.627202
697.048139	9340.000309
697.384276	9294.771077
697.720363	9309.148448
698.056400	9250.182071
698.392388	9206.560967
698.728326	9165.974637
699.064214	9094.854039
699.400053	9149.061566
699.735842	8967.522054
700.071581	8919.368953
700.407270	8847.587963
700.742910	8766.541333
701.078501	8681.595370
701.414042	8556.839415
701.749533	8484.408117
702.084974	8357.537398
702.420366	8462.925239
702.755709	8345.960388
703.091002	8205.428142
703.426246	8249.571006
703.761440	8190.826440
704.096584	8149.002507
704.431679	8083.240655
704.766725	8069.599293
705.101721	8020.745471
705.436668	8061.848519
705.771565	7958.182231
706.106413	8033.759210
706.441212	8083.666633
706.775961	8032.559415
707.110661	8063.353303
707.445311	8213.720840
707.779913	8110.125129
708.114465	8245.507836
708.448967	8283.883619
708.783421	8408.614368
709.117825	8597.319880
709.452180	8633.210375
709.786485	8720.286226
710.120742	8998.880552
710.454949	8995.865942
710.789107	9103.711346
711.123216	9306.769023
711.457275	9465.305750
711.791286	9641.173963
712.125247	9631.106779
712.459159	9620.447259
712.793023	9875.426300
713.126837	9444.160630
713.460602	9599.246687
713.794318	9426.745964
714.127985	9460.980440
714.461602	9145.547882
714.795171	9089.681815
715.128691	8850.267336
715.462162	8593.178573
715.795584	8536.508442
716.128957	8400.132627
716.462281	8224.037562
716.795556	8269.922144
717.128782	8076.036846
717.461960	7797.603837
717.795088	7868.575722
718.128167	7783.153370
718.461198	7618.307639
718.794180	7554.544604
719.127113	7551.013276
719.459997	7408.661174
719.792833	7173.249372
720.125619	7239.066676
720.458357	7088.971362
720.791046	7079.521719
721.123686	7085.616474
721.456278	6928.019922
721.788821	6946.014321
722.121315	6834.738411
722.453761	6896.583287
722.786158	6847.994125
723.118506	6860.629778
723.450805	6828.031156
723.783056	6893.447689
724.115259	6798.162320
724.447412	6793.786598
724.779518	6840.485327
725.111574	6839.847621
725.443582	6923.936587
725.775542	6902.577219
726.107453	7089.619150
726.439315	7009.699217
726.771129	7060.100673
727.102895	7226.834316
727.434612	7340.857655
727.766281	7376.977522
728.097901	7451.180786
728.429473	7441.461441
728.760996	7415.852380
729.092471	7393.636015
729.423897	7345.616504
729.755276	7355.920622
730.086606	7286.685415
730.417887	7376.357460
730.749120	7563.094401
731.080305	7752.586333
731.411442	7884.568782
731.742530	7882.297742
732.073570	7981.774831
732.404562	8072.596259
732.735506	7913.212618
733.066401	8062.987820
733.397249	7996.381574
733.728048	7761.373064
734.058798	7427.421828
734.389501	7214.450722
734.720156	7035.514966
735.050762	6798.469830
735.381320	6693.472678
735.711831	6652.016749
736.042293	6545.224946
736.372707	6569.490540
736.703073	6433.462565
737.033391	6462.958356
737.363661	6478.222970
737.693883	6494.941957
738.024056	6579.736685
738.354182	6634.085365
738.684260	6664.428070
739.014290	6775.938393
739.344272	6887.887296
739.674207	6914.060967
740.004093	6983.644014
740.333931	7002.923907
740.663722	7001.802250
740.993464	7080.109013
741.323159	7081.860814
741.652806	6826.859088
741.982405	6827.942936
742.311956	6890.443161
742.641460	6741.262816
742.970915	6543.878958
743.300323	6532.833790
743.629683	6478.729606
743.958996	6348.249421
744.288260	6261.778509
744.617477	6208.138112
744.946647	6220.514144
745.275768	6047.065685
745.604842	6002.668243
745.933869	5986.125696
746.262847	5942.935611
746.591778	5934.693324
746.920662	5892.942488
747.249498	5876.508327
747.578286	5924.663949
747.907027	6004.780486
748.235720	6066.471606
748.564365	6034.787954
748.892963	6052.394184
749.221514	6215.044492
749.550017	6057.354680
749.878473	5928.752324
750.206881	5980.955993
750.535242	5925.951963
750.863555	5854.584348
751.191821	5874.393563
751.520039	5879.409511
751.848210	5785.321415
752.176334	5800.006296
752.504411	5857.992168
752.832440	5782.347134
753.160421	5708.310228
753.488356	5756.881746
753.816243	5796.192663
754.144082	5645.963758
754.471875	5611.227688
754.799620	5657.457589
755.127318	5666.866903
755.454969	5617.803873
755.782572	5584.711218
756.110129	5622.610613
756.437638	5622.872753
756.765100	5555.717022
757.092515	5550.529675
757.419882	5598.113126
757.747203	5584.030663
758.074477	5647.133306
758.401703	5638.275999
758.728882	5585.495118
759.056014	5631.288959
759.383099	5769.817347
759.710138	5780.179438
760.037129	5764.992962
760.364073	5765.232417
760.690970	5851.710891
761.017820	5838.258572
761.344623	5786.979955
761.671379	5884.669955
761.998088	5993.848744
762.324751	6226.734928
762.651366	6800.766076
762.977935	8077.503822
763.304456	9690.186582
763.630931	10615.739907
763.957359	10255.428477
764.283740	9336.330349
764.610074	8522.557048
764.936362	7533.341511
765.262602	6932.166271
765.588796	6392.868674
765.914943	6052.668927
766.241044	5894.686727
766.567097	5709.416762
766.893104	5447.838850
767.219064	5264.635758
767.544978	5200.522363
767.870845	5128.201970
768.196665	5023.708933
768.522438	4949.183035
768.848165	4912.685082
769.173846	4853.627964
769.499479	4811.771264
769.825066	4756.195063
770.150607	4700.790262
770.476101	4672.053164
770.801548	4670.180376
771.126949	4599.301753
771.452303	4545.232857
771.777611	4496.759642
772.102872	4517.110780
772.428087	4480.020491
772.753256	4440.638997
773.078378	4397.655599
773.403453	4331.450125
773.728482	4315.416736
774.053465	4269.022997
774.378401	4257.584619
774.703291	4260.556379
775.028135	4192.281512
775.352932	4139.069612
775.677683	4125.027478
776.002388	4143.916682
776.327046	4159.740864
776.651658	4083.011982
776.976224	4020.428577
777.300743	4026.223383
777.625216	4046.879511
777.949643	4048.381775
778.274024	4000.664733
778.598359	3953.666056
778.922647	3975.337977
779.246889	3973.255980
779.571086	3965.739620
779.895236	3952.181436
780.219339	3936.309363
780.543397	3929.077828
780.867409	3982.108246
781.191374	3995.414372
781.515294	3935.464970
781.839167	3929.400462
782.162995	3946.865540
782.486776	3933.272068
782.810511	3937.526802
783.134201	3943.301444
783.457844	3902.515989
783.781441	3842.843851
784.104993	3845.109849
784.428498	3865.977706
784.751958	3864.122561
785.075372	3841.757482
785.398739	3801.423210
785.722061	3814.210097
786.045337	3854.372969
786.368568	3890.505440
786.691752	3805.093170
787.014891	3851.081096
787.337983	3970.780773
787.661030	4127.371615
787.984031	4287.065286
788.306987	4459.240855
788.629897	4538.409655
788.952760	4501.198378
789.275579	4430.279426
789.598351	4371.401270
789.921078	4234.831371
790.243759	4038.236453
790.566395	4013.247453
790.888984	4009.592617
791.211529	3907.000095
791.534027	3844.832586
791.856480	3837.633818
792.178888	3774.624436
792.501249	3724.044019
792.823566	3733.428127
793.145836	3763.919546
793.468062	3716.661249
793.790241	3667.280627
794.112375	3698.145091
794.434464	3756.360336
794.756507	3784.280766
795.078505	3768.343158
795.400457	3798.088487
795.722364	3931.547994
796.044226	4036.265362
796.366042	4109.130200
796.687812	4093.220318
797.009538	4099.357923
797.331218	4054.516859
797.652852	4028.481820
797.974442	4007.676978
798.295986	4010.318543
798.617484	3932.518416
798.938938	3842.372503
799.260346	3880.584449
799.581709	3880.839027
799.903026	3814.121877
800.224299	3772.045886
800.545526	3764.095986
800.866708	3730.239597
801.187845	3666.232067
801.508936	3703.579455
801.829983	3704.386040
802.150984	3625.618011
802.471940	3610.653346
802.792851	3624.156076
803.113717	3624.473669
803.434538	3630.737303
803.755314	3572.511976
804.076045	3538.448899
804.396731	3561.673495
804.717372	3588.021085
805.037967	3576.318047
805.358518	3564.879669
805.679024	3591.706169
805.999485	3599.913167
806.319901	3607.253087
806.640272	3622.091724
806.960598	3634.913898
807.280879	3610.340794
807.601115	3618.908235
807.921306	3635.400370
808.241453	3678.237575
808.561554	3657.828463
808.881611	3587.196857
809.201623	3623.664564
809.521590	3633.751912
809.841513	3612.253912
810.161390	3637.933550
810.481223	3620.793627
810.801011	3564.869586
811.120755	3552.085220
811.440453	3589.190633
811.760107	3593.210953
812.079716	3553.675704
812.399281	3518.135570
812.718801	3540.911503
813.038276	3514.236237
813.357707	3512.607944
813.677093	3532.349103
813.996434	3483.699448
814.315731	3488.304542
814.634983	3490.139522
814.954191	3504.199300
815.273354	3535.076367
815.592473	3528.094369
815.911547	3532.104607
816.230577	3573.056420
816.549562	3623.914101
816.868502	3666.005215
817.187399	3689.028164
817.506250	3686.598328
817.825058	3655.650685
818.143821	3739.958942
818.462539	3846.022298
818.781213	3894.261099
819.099843	3946.031229
819.418429	4178.960263
819.736970	4422.521090
820.055466	4655.654291
820.373919	5012.164691
820.692327	5411.051030
821.010691	5822.313402
821.329011	7126.316229
821.647286	9767.790104
821.965517	14206.896590
822.283704	18220.368375
822.601847	20471.117538
822.919945	18733.983814
823.237999	16209.870522
823.556010	13761.409825
823.873976	11708.682226
824.191897	9638.066092
824.509775	8282.835059
824.827609	7164.296282
825.145398	6619.760926
825.463144	6498.876577
825.780845	6617.026100
826.098502	6785.146060
826.416116	7611.068542
826.733685	8904.686592
827.051210	10020.336788
827.368692	10124.343354
827.686129	8927.601157
828.003522	7415.895230
828.320872	6403.155148
828.638177	5712.028079
828.955439	5168.216129
829.272656	4669.958565
829.589830	4384.982138
829.906960	4215.947208
830.224046	4033.936349
830.541088	3906.896751
830.858086	3860.828167
831.175041	3790.786375
831.491952	3769.729476
831.808819	3780.313378
832.125642	3847.479192
832.442421	3985.163185
832.759157	4250.269904
833.075849	4775.963948
833.392497	5616.306650
833.709101	6383.461881
834.025662	6739.740388
834.342179	6407.107413
834.658653	5753.738586
834.975083	5122.190394
835.291469	4553.765010
835.607811	4142.459788
835.924110	4004.647245
836.240366	3812.697751
836.556578	3606.696040
836.872746	3497.497086
837.188871	3464.064153
837.504952	3400.119638
837.820990	3314.745177
838.136984	3269.299175
838.452935	3293.620221
838.768842	3287.419602
839.084706	3311.579332
839.400526	3458.206333
839.716303	3776.797173
840.032037	4283.352477
840.347727	4562.302204
840.663373	4310.436076
840.978977	3930.204526
841.294537	3629.580358
841.610054	3402.423445
841.925527	3293.693318
842.240957	3226.023389
842.556344	3175.488343
842.871687	3118.437605
843.186987	3069.828279
843.502244	3033.544574
843.817458	3000.167094
844.132629	2967.013946
844.447756	2973.776654
844.762840	2964.299285
845.077881	2933.366765
845.392879	2913.171902
845.707833	2913.532345
846.022745	2908.503794
846.337613	2909.383475
846.652438	2896.659603
846.967221	2894.519633
847.281960	2881.097561
847.596656	2879.393651
847.911309	2879.118908
848.225919	2872.094060
848.540485	2867.867053
848.855009	2867.695653
849.169490	2856.012779
849.483928	2849.529856
849.798323	2845.131449
850.112675	2843.603979
850.426984	2853.212418
850.741251	2852.799044
851.055474	2840.619616
851.369654	2840.972497
851.683792	2840.387723
851.997887	2851.087572
852.311938	2847.954495
852.625947	2840.107939
852.939914	2842.681448
853.253837	2850.830473
853.567718	2833.667865
853.881555	2830.431444
854.195350	2848.892150
854.509103	2845.444000
854.822812	2838.562825
855.136479	2834.056034
855.450103	2832.510920
855.763685	2828.581341
856.077224	2824.003973
856.390720	2833.504027
856.704173	2845.827128
857.017584	2839.704647
857.330953	2836.876559
857.644278	2847.858713
857.957561	2853.398941
858.270802	2857.860362
858.584000	2857.613346
858.897155	2844.438290
859.210268	2843.850996
859.523339	2842.013495
859.836367	2840.828824
860.149352	2837.007629
860.462295	2831.290961
860.775195	2838.124245
861.088054	2841.393433
861.400869	2822.385763
861.713642	2817.788230
862.026373	2834.635767
862.339062	2837.269769
862.651708	2841.133814
862.964312	2848.272088
863.276873	2838.008298
863.589392	2847.667149
863.901869	2856.022862
864.214303	2882.642675
864.526696	2898.194634
864.839045	2892.319169
865.151353	2892.278840
865.463619	2887.804816
865.775842	2890.857235
866.088023	2910.011099
866.400162	2917.887902
866.712258	2889.659961
867.024313	2876.943650
867.336325	2884.487737
867.648296	2904.977507
867.960224	2898.038358
868.272110	2884.606204
868.583954	2893.783625
868.895755	2908.637384
869.207515	2891.744478
869.519233	2895.099366
869.830909	2905.479102
870.142542	2916.622572
870.454134	2915.006882
870.765684	2917.822367
871.077191	2917.587953
871.388657	2921.681370
871.700081	2937.303906
872.011463	2947.252623
872.322803	2949.432922
872.634101	2950.224383
872.945357	2963.187710
873.256571	2989.678974
873.567744	2980.998107
873.878874	2976.209011
874.189963	3000.749348
874.501010	3001.959224
874.812015	2993.162411
875.122979	2990.641834
875.433900	2986.230824
875.744780	2990.097389
876.055618	3000.832527
876.366415	2997.868328
876.677169	3006.980214
876.987882	3006.090450
877.298554	2998.024604
877.609183	3015.676204
877.919771	3039.505738
878.230317	3066.649831
878.540822	3116.912656
878.851285	3152.820794
879.161707	3190.516022
879.472087	3286.393727
879.782425	3500.148733
880.092722	3915.522166
880.402977	4430.980146
880.713191	5035.684194
881.023363	6145.474049
881.333494	7408.298211
881.643583	7993.011563
881.953631	7702.091616
882.263637	7104.246058
882.573602	6531.318923
882.883526	5958.686696
883.193408	5393.366662
883.503248	4932.925314
883.813048	4634.196620
884.122806	4344.773895
884.432522	4041.684602
884.742197	3812.107936
885.051831	3620.672639
885.361424	3484.783296
885.670975	3410.632964
885.980485	3333.452898
886.289954	3259.042947
886.599382	3216.893860
886.908768	3179.039836
887.218113	3134.723052
887.527417	3078.415884
887.836680	3032.150695
888.145901	3025.894623
888.455082	3019.187368
888.764221	2966.950932
889.073319	2933.916250
889.382376	2937.283741
889.691392	2940.981428
890.000366	2938.203752
890.309300	2925.311001
890.618193	2940.426901
890.927044	2957.586988
891.235855	2956.616566
891.544625	2941.727518
891.853353	2952.170268
892.162041	2968.483442
892.470687	3007.196983
892.779293	3059.022565
893.087858	3101.819441
893.396381	3170.323681
893.704864	3283.931124
894.013306	3511.929909
894.321707	3805.156184
894.630068	4010.273173
894.938387	4015.475643
895.246665	3965.679126
895.554903	3854.105788
895.863100	3658.241838
896.171256	3494.452229
896.479371	3361.428782
896.787446	3242.240781
897.095480	3141.763023
897.403473	3080.346646
897.711425	3043.899104
898.019336	3032.279244
898.327207	3003.297651
898.635038	2973.154071
898.942827	2958.809468
899.250576	2948.424691
899.558284	2916.650298
899.865952	2896.785632
900.173579	2877.762838
900.481165	2870.934595
900.788711	2858.372039
901.096216	2832.679799
901.403681	2820.457521
901.711105	2829.075374
902.018489	2827.273161
902.325832	2825.826350
902.633135	2835.742300
902.940397	2865.074253
903.247619	2943.943105
903.554800	3124.668471
903.861941	3452.519911
904.169041	3862.156511
904.476101	4164.721524
904.783121	4136.332266
905.090100	3897.613467
905.397039	3632.073208
905.703938	3385.669170
906.010796	3207.913044
906.317614	3099.651745
906.624391	3008.805111
906.931129	2938.523865
907.237826	2879.318034
907.544483	2834.913030
907.851099	2802.982362
908.157675	2781.980915
908.464211	2762.282606
908.770707	2749.301635
909.077163	2736.671024
909.383578	2724.836915
909.689954	2712.924669
909.996289	2712.581870
910.302584	2711.654298
910.608839	2711.127497
910.915054	2706.729091
911.221229	2701.672813
911.527363	2703.550643
911.833458	2708.725387
912.139513	2714.409288
912.445527	2715.034392
912.751502	2724.642831
913.057436	2736.792012
913.363331	2748.232910
913.669186	2768.883997
913.975000	2797.346352
914.280775	2854.928931
914.586510	2923.097934
914.892205	2998.717763
915.197859	3118.495578
915.503475	3301.595327
915.809050	3507.513858
916.114585	3653.369563
916.420081	3676.579035
916.725536	3625.297897
917.030952	3508.512007
917.336328	3387.330230
917.641665	3259.569748
917.946961	3162.214985
918.252218	3094.860128
918.557435	3017.876668
918.862612	2959.956331
919.167750	2912.728281
919.472848	2872.149513
919.777906	2850.338961
920.082925	2824.757626
920.387904	2796.605302
920.692843	2778.517642
920.997743	2766.247473
921.302603	2753.518560
921.607423	2744.739391
921.912204	2734.518451
922.216946	2723.188458
922.521647	2715.888867
922.826310	2706.673638
923.130932	2700.301619
923.435516	2692.029086
923.740059	2686.360308
924.044564	2678.342353
924.349028	2672.267763
924.653454	2666.029335
924.957840	2657.779487
925.262186	2655.563900
925.566493	2651.674649
925.870761	2646.988897
926.174989	2641.627630
926.479178	2640.039666
926.783328	2633.314767
927.087438	2633.224026
927.391509	2632.651855
927.695541	2629.438120
927.999533	2624.006277
928.303486	2622.874537
928.607400	2624.470063
928.911275	2623.928139
929.215110	2622.171297
929.518906	2620.293467
929.822663	2620.790020
930.126381	2619.877572
930.430060	2619.113837
930.733699	2619.237345
931.037299	2623.592902
931.340861	2623.103910
931.644383	2625.185907
931.947866	2622.955196
932.251309	2619.718775
932.554714	2619.441512
932.858080	2618.886985
933.161407	2618.420678
933.464694	2615.433794
933.767943	2612.159565
934.071153	2615.131325
934.374323	2613.646705
934.677455	2614.218876
934.980548	2614.052518
935.283602	2613.639144
935.586617	2609.500356
935.889593	2612.469596
936.192530	2610.226282
936.495428	2610.337188
936.798287	2612.245265
937.101108	2618.309773
937.403890	2617.901439
937.706632	2622.050309
938.009336	2632.175466
938.312002	2641.393216
938.614628	2648.816315
938.917216	2652.138436
939.219765	2655.823519
939.522275	2652.166162
939.824747	2651.941831
940.127179	2650.018630
940.429573	2646.245327
940.731929	2644.450676
941.034246	2642.252733
941.336524	2639.359111
941.638763	2637.929943
941.940964	2635.472381
942.243126	2632.510703
942.545250	2631.351238
942.847335	2627.439302
943.149381	2623.517285
943.451389	2620.621142
943.753359	2616.315996
944.055290	2616.321037
944.357182	2618.919752
944.659036	2616.638630
944.960851	2616.348764
945.262628	2614.259206
945.564367	2613.808022
945.866067	2614.319699
946.167729	2614.949844
946.469352	2616.726850
946.770937	2614.102930
947.072484	2609.954060
947.373992	2612.401540
947.675462	2611.935234
947.976893	2608.640840
948.278286	2604.832248
948.579641	2604.320571
948.880958	2603.022474
949.182236	2607.733432
949.483476	2604.398709
949.784678	2605.076744
950.085841	2606.011878
950.386967	2604.560026
950.688054	2607.100767
950.989103	2607.529265
951.290114	2607.178905
951.591087	2609.757455
951.892021	2612.862806
952.192917	2615.398506
952.493776	2615.524535
952.794596	2617.961933
953.095378	2617.115019
953.396122	2615.733743
953.696828	2610.793412
953.997496	2613.313989
954.298126	2610.228803
954.598718	2608.729060
954.899272	2605.139758
955.199788	2603.249326
955.500266	2599.675147
955.800706	2598.238419
956.101108	2597.820003
956.401472	2596.811772
956.701798	2592.239446
957.002087	2592.257090
957.302337	2594.034096
957.602550	2591.208530
957.902724	2588.876996
958.202861	2588.940010
958.502960	2585.975812
958.803022	2588.100658
959.103045	2585.824577
959.403031	2583.815677
959.702979	2583.699731
960.002889	2585.701069
960.302762	2581.897518
960.602596	2579.669328
960.902393	2579.850810
961.202153	2577.872157
961.501875	2582.136973
961.801559	2582.762076
962.101205	2580.057497
962.400814	2579.381983
962.700385	2580.823753
962.999918	2578.777044
963.299414	2575.490212
963.598873	2579.692014
963.898293	2573.665314
964.197677	2578.764441
964.497022	2576.979873
964.796331	2578.517425
965.095601	2579.538258
965.394835	2578.000707
965.694030	2579.024061
965.993189	2579.162692
966.292309	2580.329720
966.591393	2580.004565
966.890439	2578.209914
967.189447	2578.174626
967.488419	2578.214956
967.787353	2578.668659
968.086249	2576.818556
968.385108	2577.342836
968.683930	2577.352918
968.982714	2576.642116
969.281462	2576.994996
969.580172	2577.955336
969.878844	2576.180850
970.177480	2579.031622
970.476078	2576.453072
970.774639	2579.797878
971.073162	2578.973649
971.371649	2578.845100
971.670098	2577.020202
971.968510	2579.505491
972.266885	2578.572877
972.565223	2581.708475
972.863524	2579.558423
973.161788	2578.668659
973.460014	2579.155131
973.758204	2576.798391
974.056356	2578.439287
974.354471	2577.673032
974.652550	2577.718402
974.950591	2578.439287
975.248595	2579.457600
975.546563	2577.214287
975.844493	2577.562126
976.142386	2579.248392
976.440243	2573.551888
976.738062	2577.592373
977.035845	2576.720253
977.333590	2578.204873
977.631299	2575.734708
977.928971	2573.995510
978.226606	2570.706157
978.524204	2577.156313
978.821765	2571.270766
979.119290	2575.379307
979.416777	2575.391909
979.714228	2574.688668
980.011642	2576.097671
980.309020	2574.368555
980.606360	2577.504153
980.903664	2575.394430
981.200931	2575.089440
981.498162	2577.173957
981.795356	2577.219328
982.092513	2580.884247
982.389633	2584.166038
982.686717	2582.928434
982.983764	2586.447160
983.280775	2592.544435
983.577749	2595.047368
983.874686	2592.564600
984.171587	2588.221646
984.468451	2588.534197
984.765279	2585.494382
985.062070	2582.789803
985.358824	2581.748804
985.655543	2581.469020
985.952224	2579.608835
986.248869	2578.741756
986.545478	2578.124215
986.842050	2578.343505
987.138586	2574.519790
987.435086	2575.734708
987.731549	2575.097002
988.027975	2574.489543
988.324366	2572.253791
988.620719	2575.220510
988.917037	2572.677248
989.213318	2575.709502
989.509563	2572.215982
989.805772	2574.240006
990.101944	2572.309244
990.398080	2571.243040
990.694180	2574.282856
990.990244	2574.522310
991.286271	2572.100036
991.582262	2573.289748
991.878217	2571.931157
992.174136	2574.005592
992.470019	2572.420149
992.765865	2571.999213
993.061676	2564.886145
993.357450	2569.813873
993.653188	2567.865467
993.948890	2572.601631
994.244556	2573.413257
994.540186	2572.349573
994.835780	2571.595921
995.131337	2572.462999
995.426859	2572.775551
995.722345	2574.489543
996.017795	2576.266550
996.313208	2577.471385
996.608586	2575.906107
996.903928	2577.310068
997.199234	2575.331416
997.494504	2579.387024
997.789738	2575.601117
998.084936	2576.911817
998.380099	2576.810994
998.675225	2575.606158
998.970316	2574.610531
999.265371	2573.602300
999.560390	2574.129100
999.855373	2573.453586
1000.150320	2571.714388
1000.445232	2573.476271
1000.740108	2574.628175
1001.034948	2569.594582
1001.329752	2570.381002
1001.624521	2570.774212
1001.919254	2570.194480
1002.213951	2573.277145
1002.508613	2572.175653
1002.803239	2571.963925
1003.097829	2569.642473
1003.392384	2572.510890
1003.686903	2573.561971
1003.981386	2570.975859
1004.275834	2574.184553
1004.570246	2571.056517
1004.864623	2572.959553
1005.158964	2570.600293
1005.453270	2570.335632
1005.747540	2573.884604
1006.041775	2572.606672
1006.335974	2572.589028
1006.630138	2570.769171
1006.924266	2569.801270
1007.218359	2569.299675
1007.512416	2568.485529
1007.806438	2569.259346
1008.100425	2570.033163
1008.394376	2564.046793
1008.688292	2568.137689
1008.982172	2570.076013
1009.276017	2569.551733
1009.569827	2570.433935
1009.863602	2569.806311
1010.157341	2570.892680
1010.451045	2570.507031
1010.744714	2568.861095
1011.038347	2571.502659
1011.331945	2567.890672
1011.625508	2569.985272
1011.919036	2569.455951
1012.212528	2570.270097
1012.505986	2569.889490
1012.799408	2569.536609
1013.092795	2571.658935
1013.386147	2571.454768
1013.679464	2569.730694
1013.972745	2569.254305
1014.265992	2570.365879
1014.559204	2570.784295
1014.852380	2571.565674
1015.145521	2569.710529
1015.438628	2568.833368
1015.731699	2569.350087
1016.024736	2570.486867
1016.317737	2571.414439
1016.610703	2567.469736
1016.903635	2569.483677
1017.196531	2570.416291
1017.489393	2569.768502
1017.782219	2571.916034
1018.075011	2569.617268
1018.367768	2568.825807
1018.660490	2570.317988
1018.953177	2570.317988
1019.245829	2570.317988
