Dividing Wavelength (nm)	Counts (n)	Blue Motor Position (mm): 45.600000	Red Motor Position (mm): 0.000000	
326.493990	2270.092071
326.888308	2270.092071
327.282561	2270.092071
327.676750	2231.552450
328.070874	2225.999619
328.464933	2227.111193
328.858929	2232.356514
329.252859	2235.187122
329.646726	2243.613410
330.040528	2259.069588
330.434265	2270.611310
330.827938	2288.827519
331.221547	2307.222689
331.615091	2324.302119
332.008571	2341.835252
332.401986	2360.250587
332.795338	2381.433515
333.188625	2402.727349
333.581847	2420.499937
333.975006	2441.642536
334.368100	2456.932356
334.761129	2479.254585
335.154095	2494.713283
335.546996	2520.665143
335.939833	2561.969837
336.332606	2573.806467
336.725315	2588.259455
337.117960	2602.530961
337.510540	2613.487909
337.903056	2624.598612
338.295508	2631.399129
338.687896	2639.981693
339.080220	2648.158445
339.472480	2655.145484
339.864676	2660.262255
340.256807	2666.299037
340.648875	2666.281393
341.040879	2670.042093
341.432818	2673.686848
341.824694	2674.997548
342.216506	2675.867147
342.608253	2676.714061
342.999937	2677.591221
343.391557	2676.232630
343.783113	2676.593073
344.174605	2674.717764
344.566033	2674.947136
344.957397	2674.127949
345.348697	2669.943791
345.739934	2673.984276
346.131106	2671.193997
346.522215	2665.850374
346.913260	2666.752741
347.304241	2665.164777
347.695159	2662.205620
348.086012	2659.392656
348.476802	2659.894251
348.867528	2653.171872
349.258191	2651.415030
349.648789	2652.529125
350.039324	2648.559216
350.429796	2654.318735
350.820203	2653.232366
351.210548	2649.713641
351.600828	2650.847900
351.991045	2648.060142
352.381198	2648.198774
352.771288	2646.010913
353.161314	2643.873464
353.551276	2646.762045
353.941175	2646.923362
354.331010	2645.315234
354.720782	2644.730460
355.110490	2647.876140
355.500135	2645.605100
355.889717	2647.649288
356.279235	2647.961840
356.668689	2649.091058
357.058080	2648.150883
357.447408	2647.659370
357.836672	2647.379586
358.225873	2649.282622
358.615010	2647.024185
359.004084	2650.215235
359.393095	2652.148518
359.782043	2651.999804
360.170927	2648.917138
360.559748	2654.061636
360.948505	2653.943169
361.337199	2653.731440
361.725830	2655.652120
362.114398	2654.762356
362.502903	2655.458035
362.891344	2654.873262
363.279722	2656.335196
363.668037	2658.064312
364.056289	2658.742347
364.444478	2656.264620
364.832603	2658.664209
365.220665	2658.949034
365.608665	2660.168994
365.996601	2661.336021
366.384474	2661.610764
366.772284	2661.046154
367.160031	2661.819972
367.547715	2664.398522
367.935336	2663.022287
368.322893	2659.657317
368.710388	2659.377532
369.097820	2660.789056
369.485189	2661.550270
369.872495	2665.943635
370.259738	2666.268790
370.646918	2666.818276
371.034035	2668.128976
371.421090	2667.791218
371.808081	2669.205262
372.195010	2669.643842
372.581875	2669.989161
372.968678	2671.060407
373.355418	2672.401353
373.742096	2676.328412
374.128710	2679.743794
374.515262	2681.999710
374.901751	2688.739733
375.288177	2696.382122
375.674540	2705.607434
376.060841	2716.077910
376.447079	2728.801783
376.833254	2746.022364
377.219367	2760.692122
377.605417	2783.498302
377.991404	2801.966569
378.377329	2832.601661
378.763191	2855.007069
379.148991	2889.024775
379.534727	2927.072884
379.920402	2958.234777
380.306013	2988.211998
380.691563	3042.701830
381.077049	3072.396747
381.462474	3110.351594
381.847835	3167.951818
382.233134	3214.035526
382.618371	3249.197574
383.003545	3315.072852
383.388657	3348.576360
383.773706	3414.159251
384.158693	3455.857155
384.543618	3495.657065
384.928480	3560.713155
385.313280	3623.510808
385.698017	3655.154131
386.082692	3750.431939
386.467305	3760.526849
386.851856	3803.487563
387.236344	3887.647105
387.620770	3920.477620
388.005133	3980.732011
388.389435	4031.864435
388.773674	4046.077968
389.157851	4129.067963
389.541965	4199.392059
389.926018	4167.857121
390.310008	4270.863018
390.693936	4331.135053
391.077802	4370.118296
391.461606	4370.876990
391.845348	4437.553811
392.229027	4501.836084
392.612645	4500.817771
392.996200	4607.060088
393.379694	4664.778779
393.763125	4768.936580
394.146494	4801.845232
394.529801	4854.716853
394.913047	4941.185245
395.296230	4892.548193
395.679351	5003.350233
396.062410	5053.983583
396.445408	5025.811094
396.828343	5084.800156
397.211217	5141.230832
397.594028	5020.832955
397.976778	5141.860977
398.359466	5186.243295
398.742092	5208.845308
399.124656	5127.118122
399.507158	5244.221605
399.889598	5309.653262
400.271977	5432.917035
400.654294	5429.249596
401.036549	5473.326924
401.418742	5394.490840
401.800874	5596.222693
402.182944	5658.745604
402.564952	5758.948619
402.946898	5821.390871
403.328783	5660.411705
403.710606	5679.532802
404.092367	6003.172358
404.474067	6025.386202
404.855705	5924.036325
405.237282	5860.880750
405.618797	6117.112517
406.000250	6091.581594
406.381642	6298.105064
406.762972	6319.459392
407.144240	6375.670778
407.525447	6356.055648
407.906593	6376.429471
408.287677	6534.636002
408.668700	6453.541481
409.049661	6566.024747
409.430560	6594.199756
409.811399	6456.480474
410.192176	6722.852522
410.572891	6731.503142
410.953545	6928.483708
411.334138	6660.846330
411.714669	6834.435942
412.095139	6628.625795
412.475547	6865.544903
412.855894	6940.937879
413.236180	7126.742207
413.616405	6789.224354
413.996568	7009.167376
414.376670	7056.972638
414.756711	6947.929959
415.136691	7044.034516
415.516609	7248.665033
415.896466	7232.818166
416.276262	7441.539579
416.655997	7422.345386
417.035670	7601.208045
417.415283	7949.710572
417.794834	8008.576126
418.174324	7869.392388
418.553753	7792.164432
418.933121	8089.138805
419.312428	8191.759053
419.691674	7969.202193
420.070859	8444.872868
420.449983	8127.514589
420.829045	8492.703335
421.208047	8260.054085
421.586988	8568.287875
421.965867	8592.694622
422.344686	8694.485600
422.723444	8751.357377
423.102141	8094.283303
423.480777	8850.968057
423.859352	8383.698466
424.237866	9000.322322
424.616319	8866.729224
424.994712	9290.849059
425.373044	8841.586469
425.751314	9323.823246
426.129524	9198.996715
426.507673	9281.671638
426.885762	9441.990413
427.263789	9358.362712
427.641756	9295.055902
428.019662	9382.411536
428.397508	9644.866608
428.775292	9309.554260
429.153016	9700.755361
429.530679	9531.934680
429.908282	9548.096619
430.285824	9272.431203
430.663305	9957.695410
431.040726	9409.948839
431.418086	9385.063183
431.795385	9723.584226
432.172624	9821.581736
432.549802	9722.901149
432.926920	9799.476276
433.303977	9671.317543
433.680974	9871.930260
434.057910	9978.956477
434.434786	10046.240757
434.811601	9873.939160
435.188355	10431.062277
435.565050	10179.148258
435.941683	10097.521895
436.318257	10572.774153
436.694770	10748.602037
437.071222	10794.688266
437.447614	10624.453542
437.823946	10548.725328
438.200218	10639.279575
438.576429	10486.973714
438.952580	10731.920859
439.328670	10757.066135
439.704700	10559.929293
440.080670	10550.827490
440.456580	11071.581203
440.832429	10863.152176
441.208218	10459.050763
441.583947	10764.358164
441.959616	10938.656058
442.335224	10752.312327
442.710773	10856.485250
443.086261	11089.694068
443.461689	10361.375887
443.837057	11039.106089
444.212365	11275.546287
444.587612	10910.443240
444.962800	11133.040430
445.337927	10871.676767
445.712995	10535.152022
446.088002	11584.667320
446.462949	11279.213727
446.837837	11236.341234
447.212664	11171.040647
447.587431	11752.280645
447.962139	12501.572547
448.336786	14790.291681
448.711374	15289.096210
449.085901	13115.028037
449.460369	12752.231319
449.834776	12206.660005
450.209124	13129.425573
450.583412	13552.292681
450.957640	14473.717302
451.331808	13530.724104
451.705917	12596.396650
452.079965	11841.020076
452.453954	12756.705343
452.827883	12416.472828
453.201752	12698.144779
453.575562	12252.083322
453.949311	12657.528203
454.323001	12641.237714
454.696632	12878.948282
455.070202	13157.008246
455.443713	13351.057381
455.817164	13851.235625
456.190556	13818.037106
456.563888	14183.130070
456.937160	14322.490248
457.310373	13684.890151
457.683526	13796.763437
458.056619	13314.420796
458.429653	13523.157332
458.802628	12885.743758
459.175542	13290.886169
459.548398	14243.949071
459.921194	14597.807824
460.293930	14681.362428
460.666607	15526.048085
461.039224	16581.005309
461.411782	17315.619891
461.784280	17086.953153
462.156719	17210.007718
462.529099	16870.576748
462.901419	15823.493806
463.273680	15586.342805
463.645882	15486.953937
464.018024	15210.018150
464.390106	15440.154385
464.762130	16153.051677
465.134094	16947.630784
465.505999	19000.098764
465.877845	22273.559411
466.249631	25083.143163
466.621358	24686.502658
466.993026	23277.984109
467.364634	22690.825797
467.736184	21200.827078
468.107674	20413.640823
468.479105	20556.912936
468.850477	20009.884729
469.221790	19607.812381
469.593043	18919.069778
469.964238	18346.404783
470.335373	17990.569897
470.706449	18499.043360
471.077467	18078.747240
471.448425	19953.794331
471.819324	24070.584564
472.190164	25919.064774
472.560945	22248.023446
472.931667	19950.547828
473.302330	19342.461166
473.672934	18974.230083
474.043479	19205.689621
474.413965	19009.245937
474.784393	18613.101986
475.154761	19377.771928
475.525070	19288.818248
475.895321	19008.371297
476.265513	19619.838053
476.635645	20209.247240
477.005719	19962.777667
477.375734	20146.739453
477.745691	20630.823813
478.115588	21181.970642
478.485427	21740.953945
478.855207	22839.146626
479.224928	24628.771364
479.594591	26848.835024
479.964194	26747.165034
480.333739	26988.031364
480.703226	26574.729846
481.072653	26289.987832
481.442022	26913.555878
481.811333	27835.812289
482.180584	27717.824083
482.549777	26767.412828
482.918912	26450.238552
483.287988	26579.466010
483.657005	26199.713370
484.025964	25985.340823
484.394864	25857.600505
484.763706	25515.800192
485.132489	24973.230886
485.501213	25150.119933
485.869879	25065.514248
486.238487	24921.644759
486.607036	25032.716502
486.975527	24799.220338
487.343959	25081.290539
487.712333	24996.901624
488.080648	24655.224819
488.448905	25157.333825
488.817104	24929.667755
489.185244	25634.695806
489.553326	25581.680511
489.921350	26639.475905
490.289315	28986.614451
490.657222	30685.947083
491.025070	31199.733921
491.392861	30955.371550
491.760593	30102.277250
492.128267	29172.202009
492.495883	28099.651158
492.863440	27238.927071
493.230939	26380.879836
493.598380	26215.719033
493.965763	25836.271383
494.333088	25332.347563
494.700354	25308.507946
495.067563	25146.238245
495.434713	24897.797581
495.801805	25083.473359
496.168839	24854.415931
496.535815	24724.538164
496.902733	24937.085813
497.269593	24633.023578
497.636395	24802.822242
498.003139	24725.528751
498.369825	24479.414579
498.736453	24701.525297
499.103023	24561.192177
499.469535	24552.481063
499.835989	24784.424551
500.202385	24794.688340
500.568723	24336.903680
500.935003	24525.591548
501.301226	24212.258631
501.667390	25066.736728
502.033497	25255.595995
502.399546	24993.871891
502.765537	24517.414797
503.131470	24905.160186
503.497345	25058.897734
503.863163	24300.501508
504.228923	24835.985473
504.594625	25087.019811
504.960269	24654.561907
505.325856	25120.362002
505.691385	24528.994327
506.056856	25132.249043
506.422270	25126.794515
506.787625	24633.583146
507.152924	25068.065072
507.518164	25116.490396
507.883347	24926.138947
508.248472	24600.916469
508.613540	25367.870053
508.978550	25181.743092
509.343503	25188.432703
509.708398	25396.193776
510.073236	25562.607306
510.438016	25778.315758
510.802738	25430.662666
511.167403	25700.901279
511.532010	25430.347593
511.896561	26183.140577
512.261053	26142.980225
512.625488	25975.576108
512.989866	25873.147424
513.354186	25688.797469
513.718449	25832.041855
514.082655	26199.403339
514.446803	25922.339003
514.810894	26424.931959
515.174927	25909.428608
515.538904	25946.738188
515.902822	26441.771934
516.266684	26186.213160
516.630488	26101.110921
516.994235	26038.565326
517.357925	26382.626596
517.721558	26534.317436
518.085133	26663.393660
518.448651	26536.243157
518.812112	26299.772712
519.175516	26528.568000
519.538863	26668.160071
519.902152	26479.623437
520.265385	26721.533287
520.628560	26516.653233
520.991678	26514.858582
521.354739	26559.061940
521.717743	26663.023135
522.080690	26438.485101
522.443580	26766.228157
522.806413	26733.818579
523.169189	26860.913629
523.531908	26894.656592
523.894569	26525.762598
524.257174	26628.700439
524.619722	26763.568948
524.982213	26461.858411
525.344647	26490.240107
525.707025	26664.230491
526.069345	26607.010874
526.431608	26589.271054
526.793815	26756.105520
527.155964	26266.347342
527.518057	26419.568172
527.880093	26347.814908
528.242072	26560.226446
528.603995	26289.647555
528.965860	26068.101446
529.327669	26105.408505
529.689421	26098.910458
530.051117	25959.391484
530.412755	26122.654292
530.774337	25906.330819
531.135862	25808.051004
531.497331	25980.276984
531.858743	25572.823204
532.220098	26020.281061
532.581396	25719.712345
532.942638	25613.419616
533.303824	25745.056746
533.664953	25732.143830
534.026025	25390.509875
534.387040	25650.794731
534.747999	25675.025037
535.108902	25857.396339
535.469748	25357.596182
535.830537	25517.335224
536.191270	25645.272147
536.551947	25474.301414
536.912567	25102.228972
537.273131	25530.595979
537.633638	25205.648243
537.994089	25430.002274
538.354483	24909.707307
538.714821	25434.831700
539.075103	25476.968184
539.435328	25248.795479
539.795497	24849.541135
540.155609	25174.309910
540.515665	25506.663101
540.875665	24717.588933
541.235609	25058.328084
541.595496	24988.777805
541.955328	25348.186868
542.315102	25272.320023
542.674821	24783.358347
543.034483	24673.105792
543.394090	24835.108312
543.753640	24654.254397
544.113134	25270.827842
544.472571	24854.650345
544.831953	25168.431925
545.191278	24822.051723
545.550548	24709.855803
545.909761	24894.692230
546.268918	25141.549972
546.628019	25117.052485
546.987064	24805.841893
547.346053	24534.388362
547.704986	24630.974349
548.063863	24794.796725
548.422684	24825.850233
548.781449	24323.476567
549.140158	24738.504681
549.498811	24304.226921
549.857408	24079.898095
550.215949	24462.067968
550.574434	24170.565768
550.932864	24372.063208
551.291237	24556.667741
551.649555	24378.268868
552.007817	24451.287461
552.366022	24304.136180
552.724173	24312.426358
553.082267	24282.413848
553.440305	24775.307624
553.798288	24010.395707
554.156215	24496.836807
554.514086	24641.202850
554.871902	24019.449620
555.229661	24302.525532
555.587365	24133.989676
555.945014	24051.329877
556.302606	24248.018056
556.660143	24251.859415
557.017625	24482.789631
557.375050	23999.773996
557.732421	24376.544793
558.089735	24218.852460
558.446994	24265.004223
558.804197	24291.777792
559.161345	24176.922663
559.518437	24000.310879
559.875474	24157.433562
560.232455	24335.066180
560.589381	24144.001408
560.946251	24165.910262
561.303065	24446.964672
561.659825	24543.916142
562.016528	24159.243336
562.373177	23888.697212
562.729770	24249.235494
563.086307	24087.595937
563.442789	24260.958697
563.799216	24124.895435
564.155587	24112.209371
564.511904	24091.379323
564.868164	24043.417786
565.224370	24014.335369
565.580520	23950.156439
565.936615	24057.336411
566.292654	23773.602629
566.648638	23997.898687
567.004567	23832.889119
567.360441	23784.131079
567.716260	23501.947451
568.072023	23801.472648
568.427732	23601.943779
568.783385	23359.605431
569.138982	23609.145067
569.494525	23638.378718
569.850013	23389.766654
570.205445	23494.221883
570.560823	23316.097753
570.916145	23092.832611
571.271412	23270.679477
571.626625	23026.065048
571.981782	23126.376448
572.336884	22933.912756
572.691931	23074.724786
573.046923	22818.329181
573.401860	22679.823479
573.756743	22726.983473
574.111570	22609.622891
574.466342	22539.097149
574.821059	22611.324280
575.175722	22312.603147
575.530330	22277.118466
575.884882	22279.092077
576.239380	22217.151420
576.593823	22098.674222
576.948211	22091.064601
577.302544	21934.340169
577.656823	21793.180299
578.011047	21902.795148
578.365216	21770.883276
578.719330	21643.090026
579.073389	21527.740864
579.427394	21687.316068
579.781344	21440.264242
580.135239	21320.604894
580.489080	21266.266296
580.842866	21051.563554
581.196597	21267.196389
581.550273	21225.322045
581.903895	21106.678489
582.257463	21407.615209
582.610975	20949.477668
582.964434	21284.356477
583.317837	20952.285591
583.671186	21035.192407
584.024481	21028.454905
584.377721	20786.227462
584.730906	20881.777493
585.084037	20845.536638
585.437113	20786.744181
585.790135	20988.095427
586.143103	20444.618713
586.496016	20462.608071
586.848874	20703.018177
587.201679	20622.589088
587.554428	20316.510391
587.907124	20651.127060
588.259765	20398.950901
588.612352	20470.444544
588.964884	20050.178672
589.317362	20219.982377
589.669786	20284.554517
590.022155	20277.791809
590.374470	20520.604025
590.726731	20267.699419
591.078937	20092.680640
591.431090	20146.593260
591.783188	19926.998077
592.135232	19887.697242
592.487222	19980.409102
592.839157	19992.444857
593.191038	19860.696822
593.542866	19759.145298
593.894639	19454.382343
594.246358	19680.830973
594.598022	19554.444205
594.949633	19326.324432
595.301190	19318.548452
595.652692	19474.756166
596.004141	19695.669610
596.355535	19019.045941
596.706876	19057.550274
597.058162	18939.143652
597.409395	19186.134985
597.760573	19225.186283
598.111698	19004.371142
598.462768	18946.796124
598.813785	18917.126413
599.164748	18726.573318
599.515657	18789.076064
599.866511	18580.100072
600.217312	18924.569676
600.568060	18435.144214
600.918753	18757.639428
601.269392	18646.726482
601.619978	18440.510522
601.970510	18633.100243
602.320988	18586.663655
602.671412	18775.341440
603.021783	18717.819354
603.372100	18416.965813
603.722363	18577.962623
604.072572	18522.083953
604.422728	18669.268002
604.772830	18418.077388
605.122878	18383.187562
605.472872	18361.513121
605.822813	18341.759360
606.172701	18330.043718
606.522534	18505.768259
606.872314	18533.751704
607.222041	18377.972488
607.571714	18581.546883
607.921333	18410.651768
608.270899	18489.523141
608.620411	18636.833218
608.969870	18443.641079
609.319276	18439.293084
609.668627	18463.445252
610.017926	18594.641281
610.367171	18711.248210
610.716362	18770.411192
611.065500	18571.416685
611.414585	18725.993585
611.763616	18702.819401
612.112594	18639.961254
612.461518	18610.110061
612.810389	18807.125915
613.159207	18661.139141
613.507971	18579.696780
613.856682	18820.769798
614.205340	18744.328262
614.553945	18900.475482
614.902496	18643.691707
615.250994	18854.369088
615.599439	18805.117015
615.947830	18789.524727
616.296169	18869.427015
616.644454	18831.517538
616.992686	18795.952198
617.340864	19021.838740
617.688990	18758.781250
618.037063	18936.938147
618.385082	18797.136869
618.733048	19067.020081
619.080961	18964.624164
619.428821	18983.301639
619.776628	18857.444192
620.124382	18795.153175
620.472083	18850.305918
620.819731	18853.381022
621.167326	18549.061688
621.514868	18592.584490
621.862357	18379.260503
622.209793	18365.558647
622.557176	18202.691569
622.904506	18041.278864
623.251783	17972.762022
623.599007	17708.562710
623.946179	17662.710895
624.293297	17583.443792
624.640363	17315.869428
624.987376	17345.881938
625.334336	17148.974469
625.681243	16995.418402
626.028097	17017.052514
626.374899	16920.443841
626.721647	16796.025644
627.068343	16624.384438
627.414987	16565.957465
627.761577	16533.721806
628.108115	16550.914662
628.454600	16288.396575
628.801032	16376.160543
629.147412	16325.638099
629.493739	16334.260993
629.840014	16143.619678
630.186236	16240.939153
630.532405	16007.521127
630.878521	16205.464553
631.224585	16114.063393
631.570597	15931.419868
631.916556	15954.152952
632.262462	15928.833756
632.608316	15848.175295
632.954117	15797.017666
633.299866	15783.499812
633.645562	15696.393714
633.991206	15459.625842
634.336797	15333.188662
634.682336	15314.740559
635.027823	15164.776315
635.373257	15043.692841
635.718639	14960.788545
636.063968	14899.326797
636.409245	14648.312624
636.754470	14679.650957
637.099642	14533.994378
637.444762	14306.565243
637.789829	14348.502602
638.134845	14180.470862
638.479808	14211.335326
638.824719	14126.558242
639.169577	13996.123427
639.514383	14030.499055
639.859137	13867.258932
640.203839	13958.662613
640.548489	13810.092248
640.893086	13796.874342
641.237632	13671.410105
641.582125	13827.620339
641.926566	13635.217141
642.270955	13659.442406
642.615292	13616.017907
642.959576	13619.476138
643.303809	13648.427485
643.647990	13573.500815
643.992118	13643.441784
644.336195	13418.661775
644.680219	13646.020334
645.024192	13548.426116
645.368112	13787.308753
645.711981	13835.086288
646.055797	14015.176468
646.399562	14003.455786
646.743274	14266.417494
647.086935	14527.052709
647.430544	14497.892155
647.774101	14537.099729
648.117606	14673.601572
648.461059	14651.347398
648.804460	14638.817611
649.147810	14356.591133
649.491108	14280.184885
649.834354	14283.156645
650.177548	13960.462305
650.520690	13771.119087
650.863781	13699.930433
651.206820	13751.798865
651.549807	13577.793358
651.892742	13362.531047
652.235626	13295.249287
652.578458	13297.379175
652.921238	13004.601563
653.263967	13207.175289
653.606644	13037.749670
653.949269	13018.741999
654.291843	12809.813898
654.634365	12976.361019
654.976836	12820.067605
655.319255	12819.308912
655.661622	12782.901699
656.003938	12706.785317
656.346203	12627.240950
656.688416	12714.599105
657.030577	12664.611024
657.372687	12563.742576
657.714746	12555.074312
658.056753	12749.415834
658.398708	12549.463508
658.740612	12558.774519
659.082465	12663.738904
659.424266	12642.860965
659.766016	12665.951971
660.107715	12583.259403
660.449362	12659.121207
660.790958	12608.445008
661.132503	12544.477807
661.473996	12624.168367
661.815438	12632.766055
662.156829	12662.266887
662.498168	12636.632620
662.839456	12640.695790
663.180693	12651.657779
663.521879	12754.968665
663.863013	12715.902243
664.204097	12685.977954
664.545129	12820.022235
664.886110	12799.192187
665.227040	12895.374882
665.567918	12889.239798
665.908746	12905.936099
666.249522	12901.194894
666.590248	12959.079943
666.930922	13064.538361
667.271545	13039.168754
667.612118	13128.422383
667.952639	13024.962783
668.293109	13050.042523
668.633528	12995.262825
668.973896	12973.870689
669.314213	13041.860731
669.654480	12786.899334
669.994695	12863.781971
670.334859	12895.110222
670.674973	12824.718070
671.015035	12866.012682
671.355047	12811.616111
671.695008	12785.964200
672.034918	12799.391313
672.374777	12833.552692
672.714585	12753.426072
673.054342	12783.778859
673.394049	12736.578536
673.733705	12841.857993
674.073310	12732.522928
674.412864	12750.814754
674.752368	12598.889501
675.091820	12654.571566
675.431223	12626.046197
675.770574	12481.483548
676.109875	12405.404975
676.449125	12359.260773
676.788324	12310.669092
677.127473	12145.316725
677.466571	12144.603402
677.805619	12028.109898
678.144616	11960.621451
678.483562	11934.404930
678.822458	11805.013634
679.161303	11777.604881
679.500098	11763.928231
679.838842	11721.184287
680.177535	11758.514031
680.516179	11830.746204
680.854771	11770.305290
681.193314	11977.423617
681.531805	12148.306129
681.870247	12588.411463
682.208638	13005.773631
682.546978	13300.313127
682.885268	13321.395232
683.223508	13024.514120
683.561697	12873.123229
683.899836	12785.734827
684.237925	12571.120305
684.575963	12487.195176
684.913951	12408.598546
685.251889	12365.816794
685.589776	12458.301803
685.927614	12379.180893
686.265401	12354.764064
686.603137	12410.239442
686.940824	12561.350549
687.278460	12698.409440
687.616046	12719.173952
687.953582	12871.313455
688.291068	12819.019045
688.628504	13053.485631
688.965889	13057.815983
689.303224	13004.586439
689.640510	12895.866395
689.977745	12576.844535
690.314930	12359.220444
690.652065	12270.675097
690.989150	11971.205353
691.326185	11740.466701
691.663170	11542.848429
692.000105	11306.922429
692.336990	11179.527430
692.673825	10923.391444
693.010610	10809.426079
693.347345	10602.002763
693.684030	10418.661039
694.020665	10350.688641
694.357251	10154.217231
694.693786	10078.027753
695.030272	9932.340927
695.366707	9811.817021
695.703093	9747.998534
696.039429	9736.300536
696.375716	9642.063727
696.711952	9525.812199
697.048139	9574.408922
697.384276	9529.686325
697.720363	9551.501919
698.056400	9480.346032
698.392388	9424.779914
698.728326	9386.348678
699.064214	9329.214760
699.400053	9366.307570
699.735842	9184.251340
700.071581	9149.885795
700.407270	9072.771264
700.742910	8995.268565
701.078501	8897.354234
701.414042	8763.075539
701.749533	8709.606541
702.084974	8574.123011
702.420366	8691.370167
702.755709	8565.858039
703.091002	8435.191332
703.426246	8464.913975
703.761440	8421.381091
704.096584	8374.095068
704.431679	8310.347157
704.766725	8297.744272
705.101721	8246.989935
705.436668	8302.503121
705.771565	8191.315432
706.106413	8270.401053
706.441212	8307.874471
706.775961	8270.108667
707.110661	8321.571286
707.445311	8443.141231
707.779913	8348.886778
708.114465	8471.769944
708.448967	8508.172116
708.783421	8667.848143
709.117825	8839.743928
709.452180	8876.758600
709.786485	8961.064336
710.120742	9245.632430
710.454949	9252.974870
710.789107	9363.305563
711.123216	9585.892670
711.457275	9760.044371
711.791286	9902.167101
712.125247	9907.382174
712.459159	9892.878775
712.793023	10110.679306
713.126837	9693.589360
713.460602	9856.322848
713.794318	9685.596611
714.127985	9710.446979
714.461602	9367.474597
714.795171	9326.353906
715.128691	9068.985358
715.462162	8834.422990
715.795584	8767.156353
716.128957	8608.332281
716.462281	8439.743493
716.795556	8486.341399
717.128782	8276.251313
717.461960	8025.779063
717.795088	8093.406142
718.128167	8001.730239
718.461198	7837.600352
718.794180	7787.967672
719.127113	7775.795806
719.459997	7600.391378
719.792833	7382.124540
720.125619	7449.983512
720.458357	7308.445556
720.791046	7298.131355
721.123686	7284.545446
721.456278	7127.067361
721.788821	7139.304762
722.121315	7044.997377
722.453761	7121.491845
722.786158	7053.269910
723.118506	7061.847433
723.450805	7026.231681
723.783056	7084.804848
724.115259	7004.605131
724.447412	7005.590677
724.779518	7055.649335
725.111574	7058.167391
725.443582	7129.406457
725.775542	7109.698066
726.107453	7313.635424
726.439315	7218.962555
726.771129	7291.340921
727.102895	7473.036708
727.434612	7570.222593
727.766281	7614.297401
728.097901	7687.646189
728.429473	7694.653393
728.760996	7684.802979
729.092471	7652.350551
729.423897	7587.276816
729.755276	7582.021413
730.086606	7501.032756
730.417887	7610.698017
730.749120	7834.232861
731.080305	8018.900409
731.411442	8123.960575
731.742530	8104.257226
732.073570	8222.951193
732.404562	8304.166702
732.735506	8168.121083
733.066401	8294.772512
733.397249	8218.126809
733.728048	7972.962894
734.058798	7643.805795
734.389501	7412.971360
734.720156	7234.476706
735.050762	7011.670308
735.381320	6928.892042
735.711831	6860.032401
736.042293	6757.918788
736.372707	6771.023268
736.703073	6641.427805
737.033391	6682.319125
737.363661	6685.540422
737.693883	6725.005095
738.024056	6809.583054
738.354182	6844.596388
738.684260	6882.624332
739.014290	7008.640575
739.344272	7112.372398
739.674207	7144.842470
740.004093	7218.491207
740.333931	7229.125521
740.663722	7238.817139
740.993464	7309.975546
741.323159	7289.011908
741.652806	7038.794237
741.982405	7084.285609
742.311956	7115.684436
742.641460	6934.185253
742.970915	6744.219453
743.300323	6737.638227
743.629683	6701.296548
743.958996	6558.773047
744.288260	6466.714016
744.617477	6418.286172
744.946647	6405.627834
745.275768	6253.122848
745.604842	6204.790786
745.933869	6185.911664
746.262847	6142.361136
746.591778	6132.261185
746.920662	6088.965235
747.249498	6087.639411
747.578286	6138.330734
747.907027	6216.118258
748.235720	6277.620335
748.564365	6252.611171
748.892963	6294.934178
749.221514	6424.816986
749.550017	6232.905301
749.878473	6132.064580
750.206881	6191.363672
750.535242	6137.262009
750.863555	6068.609056
751.191821	6079.886117
751.520039	6075.913687
751.848210	5983.078319
752.176334	6015.059399
752.504411	6054.508948
752.832440	5980.267876
753.160421	5910.216002
753.488356	5961.439166
753.816243	5987.617878
754.144082	5842.783007
754.471875	5821.816848
754.799620	5854.639801
755.127318	5867.000710
755.454969	5823.646787
755.782572	5795.181912
756.110129	5837.275547
756.437638	5811.739582
756.765100	5757.713536
757.092515	5765.986070
757.419882	5819.722249
757.747203	5793.851048
758.074477	5851.708370
758.401703	5832.153734
758.728882	5794.128311
759.056014	5867.320824
759.383099	5978.080015
759.710138	5994.012582
760.037129	5978.765612
760.364073	5981.608823
760.690970	6062.209311
761.017820	6038.954468
761.344623	6001.798644
761.671379	6111.660509
761.998088	6239.050467
762.324751	6503.990828
762.651366	7143.940103
762.977935	8520.066718
763.304456	10177.572897
763.630931	11041.276306
763.957359	10570.273741
764.283740	9600.471687
764.610074	8733.700736
764.936362	7724.108855
765.262602	7137.384082
765.588796	6606.764832
765.914943	6282.694257
766.241044	6102.084838
766.567097	5885.027877
766.893104	5634.984125
767.219064	5453.898317
767.544978	5396.706427
767.870845	5307.165452
768.196665	5205.170307
768.522438	5135.176407
768.848165	5102.572744
769.173846	5028.336713
769.499479	4986.207790
769.825066	4938.150470
770.150607	4874.705028
770.476101	4853.217110
770.801548	4845.153785
771.126949	4761.248820
771.452303	4706.224626
771.777611	4673.681457
772.102872	4689.165361
772.428087	4652.158251
772.753256	4608.635449
773.078378	4559.141401
773.403453	4491.988190
773.728482	4477.799863
774.053465	4430.012245
774.378401	4423.672994
774.703291	4415.657559
775.028135	4337.693594
775.352932	4294.500988
775.677683	4279.949698
776.002388	4298.594405
776.327046	4305.120179
776.651658	4229.197881
776.976224	4172.946166
777.300743	4173.835930
777.625216	4199.134960
777.949643	4188.959391
778.274024	4150.744925
778.598359	4110.629943
778.922647	4139.480466
779.246889	4123.189978
779.571086	4117.347280
779.895236	4098.977316
780.219339	4086.220676
780.543397	4085.247733
780.867409	4135.699601
781.191374	4151.732991
781.515294	4082.913679
781.839167	4080.652722
782.162995	4106.947380
782.486776	4089.376438
782.810511	4098.332048
783.134201	4087.765790
783.457844	4042.362637
783.781441	3990.887416
784.104993	3995.253055
784.428498	4016.042773
784.751958	4008.309643
785.075372	3983.965911
785.398739	3951.178247
785.722061	3967.627532
786.045337	4008.377699
786.368568	4038.861556
786.691752	3949.313020
787.014891	4008.914582
787.337983	4142.600941
787.661030	4303.423831
787.984031	4466.258141
788.306987	4629.097492
788.629897	4718.772058
788.952760	4671.528884
789.275579	4607.241570
789.598351	4535.480745
789.921078	4381.034915
790.243759	4182.121066
790.566395	4175.698636
790.888984	4165.719672
791.211529	4057.712951
791.534027	3995.926049
791.856480	3981.326867
792.178888	3920.727157
792.501249	3879.430025
792.823566	3891.498547
793.145836	3908.807349
793.468062	3855.623176
793.790241	3817.983400
794.112375	3846.070189
794.434464	3917.397475
794.756507	3934.978499
795.078505	3912.973862
795.400457	3954.659163
795.722364	4099.811627
796.044226	4205.769119
796.366042	4277.955921
796.687812	4244.243205
797.009538	4248.152620
797.331218	4212.877146
797.652852	4186.653063
797.974442	4167.131195
798.295986	4162.347140
798.617484	4077.421342
798.938938	3997.627438
799.260346	4041.031773
799.581709	4028.854866
799.903026	3955.324596
800.224299	3918.088113
800.545526	3912.386568
800.866708	3871.858212
801.187845	3816.037515
801.508936	3851.733925
801.829983	3835.138447
802.150984	3765.482304
802.471940	3757.965943
802.792851	3764.479114
803.113717	3765.711676
803.434538	3766.369547
803.755314	3706.152964
804.076045	3686.784851
804.396731	3708.048438
804.717372	3728.966706
805.037967	3714.533882
805.358518	3699.589382
805.679024	3732.692118
805.999485	3749.136362
806.319901	3752.796240
806.640272	3763.634721
806.960598	3782.264305
807.280879	3752.478647
807.601115	3771.178808
807.921306	3786.244296
808.241453	3823.107733
808.561554	3789.962147
808.881611	3727.005697
809.201623	3772.519754
809.521590	3782.178605
809.841513	3749.421188
810.161390	3781.961836
810.481223	3753.708689
810.801011	3703.856718
811.120755	3699.755740
811.440453	3730.337900
811.760107	3731.172211
812.079716	3683.306455
812.399281	3658.713186
812.718801	3683.424922
813.038276	3656.162362
813.357707	3653.140190
813.677093	3668.064526
813.996434	3613.431021
814.315731	3633.134371
814.634983	3633.696460
814.954191	3649.006444
815.273354	3675.981658
815.592473	3665.886748
815.911547	3683.051877
816.230577	3726.461252
816.549562	3775.834313
816.868502	3814.043739
817.187399	3838.778160
817.506250	3837.051565
817.825058	3818.611024
818.143821	3911.491763
818.462539	4012.319881
818.781213	4053.927044
819.099843	4122.620327
819.418429	4391.505391
819.736970	4637.813648
820.055466	4892.991814
820.373919	5265.714565
820.692327	5679.923491
821.010691	6184.172466
821.329011	7683.678801
821.647286	10599.245252
821.965517	15361.111613
822.283704	19375.717657
822.601847	21353.931962
822.919945	19424.556356
823.237999	16746.166112
823.556010	14219.350761
823.873976	12044.584389
824.191897	9926.808261
824.509775	8599.167463
824.827609	7459.097918
825.145398	6932.337670
825.463144	6813.041285
825.780845	6919.659168
826.098502	7152.585682
826.416116	8113.928679
826.733685	9490.733330
827.051210	10580.774464
827.368692	10510.949442
827.686129	9176.162809
828.003522	7659.216602
828.320872	6635.665767
828.638177	5914.077526
828.955439	5337.258620
829.272656	4836.483000
829.589830	4563.549890
829.906960	4382.731263
830.224046	4193.887119
830.541088	4068.077563
830.858086	4017.905480
831.175041	3943.767751
831.491952	3933.307356
831.808819	3945.713636
832.125642	4024.020399
832.442421	4185.322199
832.759157	4476.892455
833.075849	5067.186365
833.392497	5970.125074
833.709101	6758.921978
834.025662	7064.292393
834.342179	6638.859338
834.658653	5958.152334
834.975083	5292.720026
835.291469	4707.472311
835.607811	4309.435407
835.924110	4162.538704
836.240366	3957.255358
836.556578	3750.162237
836.872746	3645.540651
837.188871	3597.352261
837.504952	3529.757950
837.820990	3444.113787
838.136984	3403.345976
838.452935	3431.407559
838.768842	3423.999583
839.084706	3449.275929
839.400526	3619.651805
839.716303	3985.952126
840.032037	4548.436510
840.347727	4778.970996
840.663373	4459.329075
840.978977	4067.664189
841.294537	3752.539141
841.610054	3528.386756
841.925527	3423.533277
842.240957	3351.646423
842.556344	3296.554173
842.871687	3234.343814
843.186987	3186.238603
843.502244	3146.468941
843.817458	3110.384361
844.132629	3086.169179
844.447756	3092.153028
844.762840	3075.469330
845.077881	3042.525389
845.392879	3024.135260
845.707833	3023.527801
846.022745	3022.902698
846.337613	3022.098634
846.652438	3008.948784
846.967221	3006.350069
847.281960	2991.380363
847.596656	2988.821978
847.911309	2989.124447
848.225919	2982.621358
848.540485	2977.872591
848.855009	2979.425267
849.169490	2967.379430
849.483928	2957.765949
849.798323	2956.046916
850.112675	2951.532563
850.426984	2968.710294
850.741251	2960.541104
851.055474	2949.435443
851.369654	2947.640792
851.683792	2952.034157
851.997887	2960.314253
852.311938	2965.773822
852.625947	2948.457459
852.939914	2953.952316
853.253837	2958.678398
853.567718	2943.872529
853.881555	2944.444700
854.195350	2958.922894
854.509103	2949.269084
854.822812	2949.276646
855.136479	2943.910338
855.450103	2944.336315
855.763685	2940.893207
856.077224	2934.700150
856.390720	2946.531738
856.704173	2956.482976
857.017584	2950.242027
857.330953	2947.290432
857.644278	2958.015486
857.957561	2966.920685
858.270802	2967.881024
858.584000	2968.924543
858.897155	2954.035495
859.210268	2953.889302
859.523339	2950.327727
859.836367	2952.709672
860.149352	2944.348918
860.462295	2939.191818
860.775195	2947.613065
861.088054	2944.948816
861.400869	2928.449119
861.713642	2928.272679
862.026373	2946.236830
862.339062	2947.827314
862.651708	2952.170268
862.964312	2957.125723
863.276873	2949.874023
863.589392	2962.577731
863.901869	2975.420070
864.214303	2997.084429
864.526696	3011.363497
864.839045	3004.928464
865.151353	3005.548526
865.463619	3005.787981
865.775842	3005.490553
866.088023	3026.151722
866.400162	3030.681198
866.712258	3000.998885
867.024313	2991.065291
867.336325	3001.679440
867.648296	3023.830270
867.960224	3015.950947
868.272110	2999.783967
868.583954	3006.592045
868.895755	3018.348016
869.207515	3005.117507
869.519233	3013.291738
869.830909	3024.359592
870.142542	3031.457536
870.454134	3028.757998
870.765684	3035.208155
871.077191	3034.235212
871.388657	3044.526728
871.700081	3057.497616
872.011463	3068.091601
872.322803	3071.222158
872.634101	3068.038669
872.945357	3087.923500
873.256571	3113.598097
873.567744	3105.557457
873.878874	3100.380192
874.189963	3122.778038
874.501010	3122.142853
874.812015	3108.574587
875.122979	3108.980400
875.433900	3111.316975
875.744780	3115.445680
876.055618	3123.730816
876.366415	3121.018675
876.677169	3131.088380
876.987882	3125.772483
877.298554	3124.471866
877.609183	3146.360556
877.919771	3173.577745
878.230317	3203.552446
878.540822	3252.776793
878.851285	3292.115437
879.161707	3342.206862
879.472087	3461.069708
879.782425	3710.495918
880.092722	4170.042462
880.402977	4720.261719
880.713191	5381.124220
881.023363	6623.284693
881.333494	7938.753624
881.643583	8452.328734
881.953631	8120.396480
882.263637	7432.301665
882.573602	6801.948226
882.883526	6219.054730
883.193408	5645.257997
883.503248	5194.011713
883.813048	4871.609760
884.122806	4537.870252
884.432522	4213.746745
884.742197	3974.879232
885.051831	3775.012605
885.361424	3651.305210
885.670975	3573.195052
885.980485	3477.284579
886.289954	3397.553690
886.599382	3353.894777
886.908768	3316.567554
887.218113	3272.674227
887.527417	3213.160885
887.836680	3161.025272
888.145901	3158.073677
888.455082	3143.293014
888.764221	3089.975250
889.073319	3062.901733
889.382376	3057.331258
889.691392	3065.318967
890.000366	3061.936352
890.309300	3050.240875
890.618193	3061.921229
890.927044	3077.374886
891.235855	3076.603589
891.544625	3066.639749
891.853353	3079.207345
892.162041	3097.481528
892.470687	3142.398209
892.779293	3191.012576
893.087858	3241.562746
893.396381	3316.151658
893.704864	3453.649130
894.013306	3706.760423
894.321707	4024.534597
894.630068	4221.091706
894.938387	4206.938667
895.246665	4168.608253
895.554903	4039.138820
895.863100	3824.582271
896.171256	3651.403513
896.479371	3506.747603
896.787446	3379.869323
897.095480	3274.342849
897.403473	3207.751727
897.711425	3175.667304
898.019336	3164.289419
898.327207	3131.045530
898.635038	3094.721496
898.942827	3081.004517
899.250576	3068.530182
899.558284	3039.157899
899.865952	3017.589322
900.173579	2993.018738
900.481165	2988.206957
900.788711	2972.370172
901.096216	2950.224383
901.403681	2939.650563
901.711105	2946.670370
902.018489	2942.130811
902.325832	2940.986469
902.633135	2956.394755
902.940397	2992.053357
903.247619	3082.176585
903.554800	3292.838843
903.861941	3666.070750
904.169041	4121.697796
904.476101	4412.693361
904.783121	4333.154035
905.090100	4073.529571
905.397039	3785.155407
905.703938	3528.666540
906.010796	3340.147551
906.317614	3228.672516
906.624391	3129.868421
906.931129	3054.530897
907.237826	2992.534787
907.544483	2944.754731
907.851099	2916.367994
908.157675	2892.508213
908.464211	2872.832589
908.770707	2856.647965
909.077163	2842.883094
909.383578	2827.114365
909.689954	2818.700679
909.996289	2819.524908
910.302584	2816.777479
910.608839	2818.751091
910.915054	2810.539051
911.221229	2804.834986
911.527363	2805.717187
911.833458	2815.307983
912.139513	2819.592963
912.445527	2823.807368
912.751502	2831.600992
913.057436	2842.928465
913.363331	2857.807430
913.669186	2882.199053
913.975000	2920.466452
914.280775	2980.559526
914.586510	3054.440157
914.892205	3141.037097
915.197859	3281.115639
915.503475	3487.014006
915.809050	3716.323492
916.114585	3863.328579
916.420081	3874.623284
916.725536	3803.129641
917.030952	3676.349663
917.336328	3546.754200
917.641665	3408.230854
917.946961	3304.733445
918.252218	3229.607650
918.557435	3148.190495
918.862612	3085.435691
919.167750	3034.020963
919.472848	2996.592916
919.777906	2965.574697
920.082925	2937.200562
920.387904	2905.796694
920.692843	2890.521998
920.997743	2878.292159
921.302603	2863.592154
921.607423	2849.522294
921.912204	2838.182218
922.216946	2829.385405
922.521647	2814.824032
922.826310	2811.254895
923.130932	2801.404480
923.435516	2792.665640
923.740059	2788.168931
924.044564	2774.925820
924.349028	2772.180912
924.653454	2764.016763
924.957840	2761.324787
925.262186	2754.191554
925.566493	2752.245669
925.870761	2746.985225
926.174989	2738.758062
926.479178	2737.505335
926.783328	2729.840260
927.087438	2730.238512
927.391509	2728.111145
927.695541	2724.403376
927.999533	2719.147973
928.303486	2715.518342
928.607400	2720.511605
928.911275	2716.680328
929.215110	2718.260730
929.518906	2715.596480
929.822663	2715.525904
930.126381	2714.638661
930.430060	2714.290821
930.733699	2716.987839
931.037299	2718.379197
931.340861	2719.334496
931.644383	2720.141080
931.947866	2716.715616
932.251309	2718.099413
932.554714	2716.831563
932.858080	2714.089175
933.161407	2711.918958
933.464694	2711.702189
933.767943	2707.946529
934.071153	2708.402754
934.374323	2711.397199
934.677455	2708.289328
934.980548	2706.408977
935.283602	2704.982331
935.586617	2705.468802
935.889593	2707.981817
936.192530	2706.620706
936.495428	2707.765048
936.798287	2709.310161
937.101108	2714.126984
937.403890	2718.124619
937.706632	2723.029662
938.009336	2728.501834
938.312002	2737.490211
938.614628	2747.625451
938.917216	2754.012593
939.219765	2754.433529
939.522275	2752.328848
939.824747	2750.594691
940.127179	2748.202663
940.429573	2743.932806
940.731929	2740.434245
941.034246	2739.239492
941.336524	2734.266393
941.638763	2732.978379
941.940964	2731.672720
942.243126	2729.883110
942.545250	2727.274313
942.847335	2725.525033
943.149381	2720.965309
943.451389	2715.793085
943.753359	2712.791078
944.055290	2712.629761
944.357182	2711.684545
944.659036	2710.968701
944.960851	2710.615820
945.262628	2706.711447
945.564367	2709.234544
945.866067	2711.782847
946.167729	2709.030377
946.469352	2711.182950
946.770937	2708.576673
947.072484	2708.942157
947.373992	2706.724049
947.675462	2706.782023
947.976893	2701.410673
948.278286	2700.772967
948.579641	2700.334387
948.880958	2696.742565
949.182236	2701.259439
949.483476	2698.532174
949.784678	2699.255580
950.085841	2699.021166
950.386967	2701.297247
950.688054	2699.767257
950.989103	2702.139120
951.290114	2702.434027
951.591087	2704.415201
951.892021	2707.994420
952.192917	2709.534493
952.493776	2715.722509
952.794596	2713.103630
953.095378	2713.680842
953.396122	2712.246633
953.696828	2710.630944
953.997496	2707.732280
954.298126	2706.237578
954.598718	2701.982844
954.899272	2699.938656
955.199788	2699.764737
955.500266	2697.440765
955.800706	2695.018490
956.101108	2689.962213
956.401472	2689.921884
956.701798	2685.619259
957.002087	2686.871986
957.302337	2686.035154
957.602550	2685.168076
957.902724	2682.677746
958.202861	2679.544668
958.502960	2680.000893
958.803022	2680.535255
959.103045	2675.829338
959.403031	2676.608196
959.702979	2676.220028
960.002889	2677.525686
960.302762	2676.144410
960.602596	2673.389420
960.902393	2673.454955
961.202153	2673.835562
961.501875	2676.746828
961.801559	2674.770696
962.101205	2673.394461
962.400814	2674.634585
962.700385	2672.968483
962.999918	2670.095026
963.299414	2671.027639
963.598873	2669.346414
963.898293	2667.854233
964.197677	2670.805828
964.497022	2670.213493
964.796331	2672.973524
965.095601	2670.934378
965.394835	2672.355983
965.694030	2672.199707
965.993189	2668.096208
966.292309	2669.089315
966.591393	2671.677948
966.890439	2671.040242
967.189447	2670.140396
967.488419	2671.486384
967.787353	2671.186435
968.086249	2672.461847
968.385108	2670.828513
968.683930	2672.156857
968.982714	2673.918741
969.281462	2670.836075
969.580172	2673.281035
969.878844	2670.896569
970.177480	2672.610561
970.476078	2672.177022
970.774639	2671.226765
971.073162	2668.882628
971.371649	2671.007474
971.670098	2672.469409
971.968510	2671.660304
972.266885	2672.378668
972.565223	2672.361024
972.863524	2670.858760
973.161788	2671.405726
973.460014	2673.656601
973.758204	2669.948832
974.056356	2671.630057
974.354471	2671.806497
974.652550	2669.686692
974.950591	2673.185253
975.248595	2671.214162
975.546563	2671.130983
975.844493	2672.499656
976.142386	2670.561332
976.440243	2668.597803
976.738062	2668.423883
977.035845	2669.371620
977.333590	2671.163750
977.631299	2671.284738
977.928971	2661.875424
978.226606	2663.163439
978.524204	2665.111845
978.821765	2664.995898
979.119290	2667.035045
979.416777	2667.506393
979.714228	2671.156188
980.011642	2671.110818
980.309020	2665.678975
980.606360	2670.891528
980.903664	2669.321208
981.200931	2669.331291
981.498162	2668.628050
981.795356	2671.536796
982.092513	2674.022084
982.389633	2673.676765
982.686717	2678.710357
982.983764	2680.903259
983.280775	2684.507684
983.577749	2686.894671
983.874686	2684.192612
984.171587	2679.108609
984.468451	2680.689010
984.765279	2677.805470
985.062070	2677.374452
985.358824	2676.479647
985.655543	2674.337157
985.952224	2672.734070
986.248869	2671.619975
986.545478	2671.133503
986.842050	2670.337001
987.138586	2670.009326
987.435086	2667.753410
987.731549	2665.764674
988.027975	2666.190652
988.324366	2666.611588
988.620719	2666.193172
988.917037	2665.870539
989.213318	2666.483039
989.509563	2666.044458
989.805772	2667.292144
990.101944	2664.786691
990.398080	2665.638646
990.694180	2665.323573
990.990244	2666.346928
991.286271	2667.007319
991.582262	2664.758964
991.878217	2666.548574
992.174136	2666.891372
992.470019	2665.699139
992.765865	2663.009684
993.061676	2663.188645
993.357450	2664.459016
993.653188	2662.356854
993.948890	2662.815599
994.244556	2663.019766
994.540186	2666.404901
994.835780	2665.830209
995.131337	2665.394150
995.426859	2666.798111
995.722345	2669.081754
996.017795	2669.772392
996.313208	2670.521003
996.608586	2671.506549
996.903928	2672.182063
997.199234	2670.251301
997.494504	2669.631239
997.789738	2669.394305
998.084936	2670.636950
998.380099	2669.200221
998.675225	2666.997237
998.970316	2664.433810
999.265371	2665.610919
999.560390	2667.156033
999.855373	2664.900117
1000.150320	2666.188131
1000.445232	2667.476146
1000.740108	2665.447082
1001.034948	2663.831392
1001.329752	2664.960610
1001.624521	2661.996412
1001.919254	2665.968841
1002.213951	2664.895075
1002.508613	2664.680826
1002.803239	2663.425579
1003.097829	2664.128820
1003.392384	2666.377175
1003.686903	2662.750064
1003.981386	2662.923984
1004.275834	2662.056906
1004.570246	2664.917761
1004.864623	2665.522699
1005.158964	2661.777122
1005.453270	2663.244097
1005.747540	2664.758964
1006.041775	2662.467760
1006.335974	2662.477842
1006.630138	2662.452636
1006.924266	2663.188645
1007.218359	2663.758295
1007.512416	2661.378871
1007.806438	2661.663696
1008.100425	2661.545229
1008.394376	2656.884682
1008.688292	2663.861639
1008.982172	2662.175373
1009.276017	2661.721669
1009.569827	2663.811227
1009.863602	2662.694612
1010.157341	2663.876762
1010.451045	2664.249808
1010.744714	2662.676968
1011.038347	2663.649910
1011.331945	2661.202430
1011.625508	2662.966834
1011.919036	2661.925836
1012.212528	2660.234529
1012.505986	2662.092194
1012.799408	2663.201248
1013.092795	2663.813748
1013.386147	2662.818120
1013.679464	2661.769560
1013.972745	2660.509272
1014.265992	2661.252842
1014.559204	2662.802997
1014.852380	2662.780311
1015.145521	2663.412976
1015.438628	2660.791576
1015.731699	2660.632780
1016.024736	2662.480363
1016.317737	2662.273675
1016.610703	2661.610764
1016.903635	2662.329128
1017.196531	2661.701504
1017.489393	2661.240239
1017.782219	2660.859632
1018.075011	2663.637307
1018.367768	2663.196207
1018.660490	2661.053716
1018.953177	2661.053716
1019.245829	2661.053716
