Dividing Wavelength (nm)	Counts (n)	Blue Motor Position (mm): 15.500000	Red Motor Position (mm): 0.000000	
326.493990	2175.051197
326.888308	2175.051197
327.282561	2175.051197
327.676750	2134.147275
328.070874	2130.147119
328.464933	2132.768519
328.858929	2132.783643
329.252859	2140.587349
329.646726	2149.797537
330.040528	2161.402273
330.434265	2174.302586
330.827938	2190.507375
331.221547	2208.584953
331.615091	2225.215719
332.008571	2241.642319
332.401986	2262.535381
332.795338	2283.100768
333.188625	2299.880249
333.581847	2319.961685
333.975006	2336.133707
334.368100	2355.395956
334.761129	2374.380941
335.154095	2391.599002
335.546996	2412.179512
335.939833	2437.859150
336.332606	2453.267437
336.725315	2466.888635
337.117960	2481.487816
337.510540	2491.930566
337.903056	2500.981958
338.295508	2510.393792
338.687896	2519.367046
339.080220	2528.552028
339.472480	2534.810621
339.864676	2540.794471
340.256807	2544.222455
340.648875	2546.894267
341.040879	2553.218394
341.432818	2553.341902
341.824694	2558.987995
342.216506	2559.204764
342.608253	2557.301729
342.999937	2558.292316
343.391557	2562.801628
343.783113	2559.194682
344.174605	2555.527243
344.566033	2557.422717
344.957397	2558.415824
345.348697	2555.227294
345.739934	2553.931717
346.131106	2548.860317
346.522215	2549.235883
346.913260	2546.548948
347.304241	2544.887888
347.695159	2541.200283
348.086012	2542.105171
348.476802	2539.468647
348.867528	2535.526465
349.258191	2531.526309
349.648789	2535.067720
350.039324	2530.029087
350.429796	2533.396577
350.820203	2529.391381
351.210548	2530.908768
351.600828	2528.189065
351.991045	2527.929446
352.381198	2525.010618
352.771288	2528.519261
353.161314	2522.669002
353.551276	2525.766791
353.941175	2523.589013
354.331010	2525.146729
354.720782	2523.019362
355.110490	2525.348375
355.500135	2524.148581
355.889717	2523.717562
356.279235	2525.371060
356.668689	2524.360309
357.058080	2524.604805
357.447408	2523.901564
357.836672	2525.998684
358.225873	2527.069929
358.615010	2524.627490
359.004084	2526.878365
359.393095	2524.786287
359.782043	2528.095804
360.170927	2527.140505
360.559748	2528.486493
360.948505	2528.536905
361.337199	2533.237781
361.725830	2528.589837
362.114398	2534.152750
362.502903	2530.392050
362.891344	2532.647966
363.279722	2532.267359
363.668037	2531.606968
364.056289	2532.242153
364.444478	2532.108562
364.832603	2530.918850
365.220665	2535.418080
365.608665	2535.221475
365.996601	2535.350024
366.384474	2533.048738
366.772284	2535.942360
367.160031	2537.711805
367.547715	2535.909593
367.935336	2535.579397
368.322893	2535.740714
368.710388	2535.095446
369.097820	2531.783408
369.485189	2533.530168
369.872495	2535.909593
370.259738	2536.363296
370.646918	2535.367668
371.034035	2541.565767
371.421090	2536.617875
371.808081	2541.185160
372.195010	2540.499563
372.581875	2542.669780
372.968678	2539.614841
373.355418	2539.186342
373.742096	2543.030222
374.128710	2541.404450
374.515262	2538.962011
374.901751	2542.364790
375.288177	2539.934954
375.674540	2542.337064
376.060841	2543.526776
376.447079	2541.164995
376.833254	2540.010571
377.219367	2541.717002
377.605417	2541.240613
377.991404	2543.425953
378.377329	2543.985521
378.763191	2541.691796
379.148991	2541.873278
379.534727	2545.036602
379.920402	2544.000644
380.306013	2545.223124
380.691563	2545.644061
381.077049	2545.971736
381.462474	2543.778834
381.847835	2543.546941
382.233134	2541.994265
382.618371	2545.742363
383.003545	2545.336550
383.388657	2545.061807
383.773706	2547.388300
384.158693	2548.451983
384.543618	2548.018444
384.928480	2545.107178
385.313280	2546.858979
385.698017	2546.992569
386.082692	2548.076417
386.467305	2548.865358
386.851856	2549.200595
387.236344	2546.435522
387.620770	2547.209339
388.005133	2545.089534
388.389435	2545.717157
388.773674	2545.336550
389.157851	2551.653116
389.541965	2549.790410
389.926018	2550.423074
390.310008	2547.416026
390.693936	2552.079093
391.077802	2552.696635
391.461606	2551.615307
391.845348	2549.097251
392.229027	2547.680687
392.612645	2549.588763
392.996200	2551.133877
393.379694	2553.462890
393.763125	2552.184958
394.146494	2551.285112
394.529801	2552.547921
394.913047	2552.542880
395.296230	2552.976419
395.679351	2553.835936
396.062410	2552.147149
396.445408	2552.575647
396.828343	2554.536656
397.211217	2550.775955
397.594028	2554.024979
397.976778	2555.784342
398.359466	2553.430123
398.742092	2553.593960
399.124656	2555.628066
399.507158	2554.755946
399.889598	2554.256872
400.271977	2553.810730
400.654294	2555.960782
401.036549	2560.124775
401.418742	2555.189485
401.800874	2554.655123
402.182944	2557.886503
402.564952	2556.132181
402.946898	2556.674105
403.328783	2556.923642
403.710606	2555.933056
404.092367	2556.719476
404.474067	2555.449105
404.855705	2558.428427
405.237282	2555.310473
405.618797	2558.299877
406.000250	2558.398180
406.381642	2555.554969
406.762972	2555.413817
407.144240	2554.894578
407.525447	2556.510268
407.906593	2554.362736
408.287677	2557.647048
408.668700	2560.172666
409.049661	2560.936401
409.430560	2556.732078
409.811399	2562.925136
410.192176	2559.721483
410.572891	2559.197203
410.953545	2559.499672
411.334138	2561.080074
411.714669	2559.141750
412.095139	2561.201061
412.475547	2560.780125
412.855894	2561.493448
413.236180	2560.492779
413.616405	2561.730382
413.996568	2559.235011
414.376670	2562.504200
414.756711	2564.825651
415.136691	2564.175342
415.516609	2561.863973
415.896466	2563.474622
416.276262	2563.272976
416.655997	2563.300702
417.035670	2562.143757
417.415283	2565.750703
417.794834	2564.573593
418.174324	2561.163253
418.553753	2565.407904
418.933121	2562.801628
419.312428	2565.097873
419.691674	2565.233984
420.070859	2564.051834
420.449983	2562.037893
420.829045	2562.335321
421.208047	2565.929664
421.586988	2565.692729
421.965867	2565.682647
422.344686	2564.999571
422.723444	2564.818089
423.102141	2564.883624
423.480777	2565.246587
423.859352	2565.518810
424.237866	2566.335477
424.616319	2563.744323
424.994712	2565.468398
425.373044	2566.471588
425.751314	2564.624005
426.129524	2561.604354
426.507673	2563.595609
426.885762	2561.238870
427.263789	2565.475960
427.641756	2562.743654
428.019662	2567.436969
428.397508	2563.537636
428.775292	2567.459654
429.153016	2568.558625
429.530679	2568.546022
429.908282	2568.185580
430.285824	2568.704819
430.663305	2567.633574
431.040726	2568.626681
431.418086	2565.213820
431.795385	2568.669531
432.172624	2568.437638
432.549802	2565.665003
432.926920	2568.094839
433.303977	2568.785477
433.680974	2568.871177
434.057910	2566.554767
434.434786	2568.561146
434.811601	2570.159192
435.188355	2567.189952
435.565050	2568.790518
435.941683	2570.948132
436.318257	2570.406208
436.694770	2566.605178
437.071222	2568.072154
437.447614	2569.922257
437.823946	2569.745817
438.200218	2566.728687
438.576429	2568.276321
438.952580	2567.898234
439.328670	2569.443348
439.704700	2570.118863
440.080670	2570.779254
440.456580	2570.683472
440.832429	2569.760941
441.208218	2569.087947
441.583947	2570.045766
441.959616	2571.527865
442.335224	2571.696744
442.710773	2570.265056
443.086261	2572.064748
443.461689	2571.517783
443.837057	2570.305385
444.212365	2571.747155
444.587612	2567.333625
444.962800	2567.391598
445.337927	2567.517627
445.712995	2567.903275
446.088002	2570.045766
446.462949	2569.040056
446.837837	2568.470405
447.212664	2573.793864
447.587431	2571.248081
447.962139	2576.253947
448.336786	2576.788309
448.711374	2571.371589
449.085901	2573.811508
449.460369	2573.647670
449.834776	2570.764130
450.209124	2572.296641
450.583412	2575.240675
450.957640	2571.298492
451.331808	2576.415264
451.705917	2573.042732
452.079965	2575.223031
452.453954	2573.947619
452.827883	2575.268401
453.201752	2575.712023
453.575562	2574.088771
453.949311	2577.113463
454.323001	2574.388720
454.696632	2574.476940
455.070202	2578.552713
455.443713	2574.151786
455.817164	2575.177660
456.190556	2575.555747
456.563888	2577.113463
456.937160	2575.664132
457.310373	2579.152610
457.683526	2573.055335
458.056619	2575.669173
458.429653	2578.038515
458.802628	2578.615727
459.175542	2576.407702
459.548398	2575.328895
459.921194	2575.979204
460.293930	2577.327712
460.666607	2579.571026
461.039224	2581.592529
461.411782	2581.534555
461.784280	2581.206880
462.156719	2580.727971
462.529099	2579.848289
462.901419	2579.684452
463.273680	2577.912486
463.645882	2576.468196
464.018024	2578.847620
464.390106	2573.945098
464.762130	2581.143866
465.134094	2579.429874
465.505999	2580.740574
465.877845	2581.892477
466.249631	2585.844742
466.621358	2585.814495
466.993026	2584.367684
467.364634	2587.384814
467.736184	2584.652509
468.107674	2584.085379
468.479105	2586.169896
468.850477	2582.792323
469.221790	2585.781727
469.593043	2582.252920
469.964238	2583.810636
470.335373	2584.879361
470.706449	2581.602611
471.077467	2581.519432
471.448425	2586.512695
471.819324	2588.761049
472.190164	2588.375401
472.560945	2585.506985
472.931667	2586.391707
473.302330	2584.420616
473.672934	2584.488672
474.043479	2585.539752
474.413965	2583.387179
474.784393	2586.719382
475.154761	2585.138980
475.525070	2586.048909
475.895321	2583.911459
476.265513	2585.915318
476.635645	2589.963365
477.005719	2588.612335
477.375734	2587.818354
477.745691	2591.344641
478.115588	2587.871286
478.485427	2590.659044
478.855207	2590.074270
479.224928	2592.451174
479.594591	2590.573344
479.964194	2591.808427
480.333739	2593.582913
480.703226	2590.036461
481.072653	2597.041145
481.442022	2593.474528
481.811333	2593.759353
482.180584	2588.652665
482.549777	2592.040320
482.918912	2589.295412
483.287988	2595.294385
483.657005	2592.882193
484.025964	2594.570979
484.394864	2590.956472
484.763706	2594.008891
485.132489	2593.308170
485.501213	2594.840681
485.869879	2593.391349
486.238487	2594.999477
486.607036	2593.661051
486.975527	2593.598037
487.343959	2594.719693
487.712333	2593.996288
488.080648	2594.656679
488.448905	2596.085846
488.817104	2596.216916
489.185244	2597.711618
489.553326	2593.015783
489.921350	2596.358068
490.289315	2596.663058
490.657222	2602.810745
491.025070	2599.266814
491.392861	2601.162288
491.760593	2601.850405
492.128267	2601.273193
492.495883	2598.072061
492.863440	2600.496856
493.230939	2597.537698
493.598380	2600.713625
493.965763	2600.456526
494.333088	2598.384612
494.700354	2595.891762
495.067563	2598.503079
495.434713	2600.335539
495.801805	2597.845209
496.168839	2598.472832
496.535815	2598.593820
496.902733	2598.102307
497.269593	2598.568614
497.636395	2600.816969
498.003139	2599.370158
498.369825	2600.131372
498.736453	2599.511310
499.103023	2599.213882
499.469535	2601.631115
499.835989	2598.883686
500.202385	2598.850919
500.568723	2595.291864
500.935003	2599.160950
501.301226	2597.126844
501.667390	2604.532299
502.033497	2602.576332
502.399546	2601.558018
502.765537	2604.474326
503.131470	2603.975252
503.497345	2604.779316
503.863163	2604.751589
504.228923	2605.984152
504.594625	2605.240581
504.960269	2606.200921
505.325856	2609.805346
505.691385	2606.694954
506.056856	2609.676797
506.422270	2608.252671
506.787625	2607.466251
507.152924	2609.104626
507.518164	2611.300048
507.883347	2611.405912
508.248472	2614.201232
508.613540	2614.808691
508.978550	2613.455142
509.343503	2611.983125
509.708398	2615.184257
510.073236	2616.568054
510.438016	2619.822119
510.802738	2617.052005
511.167403	2620.081738
511.532010	2619.297839
511.896561	2624.081894
512.261053	2626.151287
512.625488	2624.109620
512.989866	2625.647172
513.354186	2626.264713
513.718449	2627.532564
514.082655	2626.897378
514.446803	2625.538787
514.810894	2632.056999
515.174927	2633.466002
515.538904	2633.723101
515.902822	2634.817031
516.266684	2634.859881
516.630488	2636.780560
516.994235	2640.720222
517.357925	2640.677372
517.721558	2644.198618
518.085133	2642.237609
518.448651	2643.732312
518.812112	2640.972280
519.175516	2645.637868
519.538863	2646.419247
519.902152	2650.505102
520.265385	2653.330668
520.628560	2656.504075
520.991678	2656.040289
521.354739	2658.601195
521.717743	2657.766884
522.080690	2662.752585
522.443580	2664.340548
522.806413	2668.219716
523.169189	2669.270797
523.531908	2672.272804
523.894569	2672.373627
524.257174	2676.099040
524.619722	2681.699762
524.982213	2682.408044
525.344647	2682.750842
525.707025	2687.396266
526.069345	2690.544466
526.431608	2692.671833
526.793815	2699.064016
527.155964	2699.142154
527.518057	2702.360931
527.880093	2708.274204
528.242072	2712.901983
528.603995	2717.018086
528.965860	2716.340050
529.327669	2718.767366
529.689421	2726.177862
530.051117	2728.476628
530.412755	2735.695561
530.774337	2738.362331
531.135862	2742.604462
531.497331	2751.020668
531.858743	2753.508478
532.220098	2762.237236
532.581396	2766.786877
532.942638	2771.880963
533.303824	2779.820780
533.664953	2786.860752
534.026025	2791.876700
534.387040	2800.582772
534.747999	2809.503094
535.108902	2817.543734
535.469748	2822.305104
535.830537	2830.920436
536.191270	2848.279649
536.551947	2849.192098
536.912567	2854.381966
537.273131	2869.543236
537.633638	2875.232178
537.994089	2893.236659
538.354483	2898.078688
538.714821	2917.003179
539.075103	2934.715273
539.435328	2941.926644
539.795497	2945.412602
540.155609	2967.855819
540.515665	2984.663026
540.875665	2989.270640
541.235609	3007.643125
541.595496	3028.200951
541.955328	3048.957902
542.315102	3069.243505
542.674821	3073.881366
543.034483	3084.442584
543.394090	3108.567025
543.753640	3122.684777
544.113134	3154.890188
544.472571	3170.858043
544.831953	3202.554298
545.191278	3210.680638
545.550548	3234.860532
545.909761	3254.526073
546.268918	3289.481434
546.628019	3313.913386
546.987064	3340.313909
547.346053	3362.585727
547.704986	3385.091958
548.063863	3428.125768
548.422684	3440.872325
548.781449	3465.344607
549.140158	3508.822038
549.498811	3537.975031
549.857408	3547.812842
550.215949	3600.409721
550.574434	3622.127012
550.932864	3667.162160
551.291237	3706.354610
551.649555	3745.194180
552.007817	3789.377373
552.366022	3820.234276
552.724173	3850.355170
553.082267	3896.091038
553.440305	3959.115543
553.798288	3963.871872
554.156215	4037.986916
554.514086	4089.119339
554.871902	4087.294442
555.229661	4150.792816
555.587365	4204.284499
555.945014	4236.116865
556.302606	4317.155934
556.660143	4348.637939
557.017625	4430.450825
557.375050	4448.389771
557.732421	4517.816542
558.089735	4567.103903
558.446994	4614.510914
558.804197	4684.744269
559.161345	4750.949743
559.518437	4751.779012
559.875474	4855.213407
560.232455	4899.043719
560.589381	4973.932580
560.946251	5009.356768
561.303065	5114.021204
561.659825	5196.355850
562.016528	5215.691195
562.373177	5253.414149
562.729770	5339.262479
563.086307	5426.494605
563.442789	5509.562738
563.799216	5558.272887
564.155587	5609.690136
564.511904	5704.509198
564.868164	5737.783334
565.224370	5832.667932
565.580520	5867.451894
565.936615	5980.459439
566.292654	5987.721222
566.648638	6132.553572
567.004567	6160.531975
567.360441	6233.953861
567.716260	6261.544096
568.072023	6418.094608
568.427732	6455.469722
568.783385	6477.852445
569.138982	6599.044304
569.494525	6711.250307
569.850013	6757.762513
570.205445	6834.861920
570.560823	6862.542895
570.916145	6931.382372
571.271412	7018.150712
571.626625	7088.454643
571.981782	7172.740215
572.336884	7203.682817
572.691931	7321.479459
573.046923	7319.248749
573.401860	7420.782628
573.756743	7515.185796
574.111570	7565.851912
574.466342	7625.483721
574.821059	7745.256496
575.175722	7746.042916
575.530330	7866.486163
575.884882	7935.073582
576.239380	8015.290942
576.593823	8062.254332
576.948211	8124.144578
577.302544	8172.005292
577.656823	8226.416986
578.011047	8354.963889
578.365216	8398.257318
578.719330	8456.069270
579.073389	8498.430086
579.427394	8670.509872
579.781344	8651.066142
580.135239	8729.561949
580.489080	8792.984705
580.842866	8778.380482
581.196597	8983.999066
581.550273	8994.381322
581.903895	9115.626113
582.257463	9281.676680
582.610975	9226.095438
582.964434	9403.012212
583.317837	9405.084126
583.671186	9522.479996
584.024481	9603.428324
584.377721	9583.682124
584.730906	9697.675216
585.084037	9805.467688
585.437113	9857.167241
585.790135	10004.593265
586.143103	9898.411441
586.496016	9956.604001
586.848874	10195.935300
587.201679	10224.185926
587.554428	10161.287450
587.907124	10388.845134
588.259765	10379.302230
588.612352	10519.668118
588.964884	10418.078785
589.317362	10570.056971
589.669786	10665.899388
590.022155	10771.224215
590.374470	10945.506986
590.726731	10957.220107
591.078937	10911.204455
591.431090	11031.662826
591.783188	10983.923099
592.135232	11042.420648
592.487222	11207.160515
592.839157	11283.014757
593.191038	11332.420585
593.542866	11329.405975
593.894639	11303.033178
594.246358	11484.912968
594.598022	11497.788075
594.949633	11468.433436
595.301190	11504.883499
595.652692	11682.793380
596.004141	11886.461037
596.355535	11600.879671
596.706876	11692.406860
597.058162	11717.347969
597.409395	11882.894420
597.760573	12035.454859
598.111698	11997.608397
598.462768	12025.332222
598.813785	12065.091803
599.164748	12047.256200
599.515657	12120.224382
599.866511	12092.175402
600.217312	12358.736493
600.568060	12155.038590
600.918753	12417.770926
601.269392	12460.509828
601.619978	12368.571785
601.970510	12606.562137
602.320988	12614.653189
602.671412	12827.977176
603.021783	12833.650994
603.372100	12738.577353
603.722363	12920.346238
604.072572	12945.221811
604.422728	13076.506060
604.772830	13027.226261
605.122878	13020.329962
605.472872	13109.296246
605.822813	13176.036081
606.172701	13213.232235
606.522534	13416.093307
606.872314	13492.282786
607.222041	13414.906115
607.571714	13633.077171
607.921333	13597.305144
608.270899	13707.638357
608.620411	13933.867698
608.969870	13786.892857
609.319276	13853.569679
609.668627	13966.501607
610.017926	14106.796919
610.367171	14236.909100
610.716362	14349.291542
611.065500	14249.877468
611.414585	14412.643723
611.763616	14455.937152
612.112594	14486.380680
612.461518	14491.812523
612.810389	14699.424883
613.159207	14620.059477
613.507971	14616.709630
613.856682	14915.345064
614.205340	14906.936419
614.553945	15083.394448
614.902496	14900.035079
615.250994	15181.134859
615.599439	15175.098077
615.947830	15197.876531
616.296169	15266.171563
616.644454	15308.189580
616.992686	15297.184741
617.340864	15521.145562
617.688990	15391.542538
618.037063	15578.642443
618.385082	15504.134189
618.733048	15764.804692
619.080961	15692.542273
619.428821	15785.491067
619.776628	15761.895947
620.124382	15719.429267
620.472083	15803.331711
620.819731	15876.864501
621.167326	15667.691905
621.514868	15746.323823
621.862357	15606.061278
622.209793	15663.167469
622.557176	15585.513535
622.904506	15466.607840
623.251783	15451.423884
623.599007	15319.002855
623.946179	15303.418128
624.293297	15307.393078
624.640363	15144.561288
624.987376	15183.927658
625.334336	15033.570204
625.681243	14952.153048
626.028097	14978.107429
626.374899	14980.459127
626.721647	14888.710127
627.068343	14758.391259
627.414987	14733.840840
627.761577	14762.305715
628.108115	14829.869780
628.454600	14590.692235
628.801032	14700.775912
629.147412	14666.972455
629.493739	14718.044384
629.840014	14575.742694
630.186236	14685.186144
630.532405	14496.321835
630.878521	14692.180745
631.224585	14609.072282
631.570597	14489.009642
631.916556	14526.452812
632.262462	14528.905333
632.608316	14483.799609
632.954117	14443.815697
633.299866	14470.231344
633.645562	14419.781997
633.991206	14211.811715
634.336797	14106.902783
634.682336	14110.187095
635.027823	14033.196073
635.373257	13965.460609
635.718639	13869.580383
636.063968	13851.134802
636.409245	13653.569462
636.754470	13687.924925
637.099642	13566.271801
637.444762	13370.498591
637.789829	13441.374693
638.134845	13307.796719
638.479808	13333.743538
638.824719	13310.715547
639.169577	13178.334848
639.514383	13242.344898
639.859137	13077.330289
640.203839	13167.541737
640.548489	13017.360723
640.893086	13029.472095
641.237632	12900.272363
641.582125	13072.115215
641.926566	12919.169128
642.270955	12946.305659
642.615292	12920.011001
642.959576	12937.760904
643.303809	12988.963903
643.647990	12928.517948
643.992118	13005.214063
644.336195	12779.811471
644.680219	12984.129437
645.024192	12928.190273
645.368112	13169.719516
645.711981	13238.926996
646.055797	13404.508735
646.399562	13383.857649
646.743274	13641.518583
647.086935	13916.384976
647.430544	13896.001071
647.774101	13914.466817
648.117606	14081.664246
648.461059	14048.962281
648.804460	14066.555908
649.147810	13811.332371
649.491108	13716.195716
649.834354	13755.441099
650.177548	13477.194612
650.520690	13290.961786
650.863781	13225.003329
651.206820	13264.916665
651.549807	13106.427829
651.892742	12919.605188
652.235626	12858.277031
652.578458	12871.109288
652.921238	12558.819890
653.263967	12762.122062
653.606644	12599.229779
653.949269	12568.756004
654.291843	12397.119839
654.634365	12540.482693
654.976836	12406.927404
655.319255	12428.006988
655.661622	12375.120243
656.003938	12311.715131
656.346203	12244.516550
656.688416	12315.261583
657.030577	12283.749330
657.372687	12209.634286
657.714746	12185.209896
658.056753	12361.436031
658.398708	12204.474665
658.740612	12211.686036
659.082465	12308.508957
659.424266	12271.287598
659.766016	12285.009618
660.107715	12201.676825
660.449362	12281.228753
660.790958	12244.801375
661.132503	12197.374200
661.473996	12251.380081
661.815438	12282.274792
662.156829	12288.596399
662.498168	12274.461004
662.839456	12271.650561
663.180693	12292.256277
663.521879	12384.557283
663.863013	12368.130684
664.204097	12347.242663
664.545129	12460.000671
664.886110	12423.694281
665.227040	12518.289013
665.567918	12522.798325
665.908746	12568.824059
666.249522	12538.428422
666.590248	12591.300044
666.930922	12702.228114
667.271545	12695.026825
667.612118	12772.302673
667.952639	12691.971886
668.293109	12683.018797
668.633528	12650.415134
668.973896	12630.963842
669.314213	12721.525651
669.654480	12460.595528
669.994695	12516.537212
670.334859	12543.875389
670.674973	12494.933347
671.015035	12534.428267
671.355047	12473.213536
671.695008	12446.308898
672.034918	12452.766616
672.374777	12493.612565
672.714585	12410.272209
673.054342	12439.137856
673.394049	12397.508008
673.733705	12481.775935
674.073310	12410.244483
674.412864	12425.294848
674.752368	12309.227322
675.091820	12307.069708
675.431223	12296.258953
675.770574	12173.973164
676.109875	12102.834921
676.449125	12066.894015
676.788324	11991.748055
677.127473	11838.076042
677.466571	11828.787716
677.805619	11734.787841
678.144616	11652.861529
678.483562	11621.150151
678.822458	11488.759368
679.161303	11467.866306
679.500098	11467.218518
679.838842	11412.675754
680.177535	11427.733681
680.516179	11494.927220
680.854771	11449.272010
681.193314	11656.539051
681.531805	11800.204374
681.870247	12195.519055
682.208638	12592.540168
682.546978	12919.345569
682.885268	12994.257115
683.223508	12686.819827
683.561697	12518.064681
683.899836	12415.633476
684.237925	12226.993499
684.575963	12142.518884
684.913951	12082.756006
685.251889	12017.750327
685.589776	12111.979574
685.927614	12038.499716
686.265401	11997.578150
686.603137	12043.724872
686.940824	12194.984693
687.278460	12308.367805
687.616046	12361.554498
687.953582	12548.160370
688.291068	12465.364459
688.628504	12686.126668
688.965889	12693.494315
689.303224	12669.649657
689.640510	12571.342116
689.977745	12274.604677
690.314930	12041.821836
690.652065	11959.547685
690.989150	11679.118379
691.326185	11451.207813
691.663170	11250.093501
692.000105	11003.049237
692.336990	10899.750953
692.673825	10650.722994
693.010610	10528.142297
693.347345	10325.775258
693.684030	10124.156831
694.020665	10063.768849
694.357251	9867.688129
694.693786	9827.973919
695.030272	9657.197271
695.366707	9538.122696
695.703093	9462.689391
696.039429	9464.834402
696.375716	9399.737982
696.711952	9273.003374
697.048139	9295.754102
697.384276	9254.141897
697.720363	9267.029607
698.056400	9211.508859
698.392388	9162.493720
698.728326	9127.001477
699.064214	9057.635200
699.400053	9112.984548
699.735842	8922.005476
700.071581	8876.778764
700.407270	8810.676635
700.742910	8732.342145
701.078501	8638.765727
701.414042	8521.135443
701.749533	8453.674722
702.084974	8324.623704
702.420366	8425.615660
702.755709	8308.461765
703.091002	8182.253958
703.426246	8204.682051
703.761440	8152.468300
704.096584	8112.867516
704.431679	8042.742546
704.766725	8036.615023
705.101721	7979.627300
705.436668	8025.438785
705.771565	7922.969772
706.106413	7997.861153
706.441212	8049.207826
706.775961	7998.874425
707.110661	8020.543825
707.445311	8181.691869
707.779913	8075.005930
708.114465	8203.288172
708.448967	8250.478413
708.783421	8372.638174
709.117825	8559.417965
709.452180	8593.516330
709.786485	8681.325668
710.120742	8958.072411
710.454949	8957.820354
710.789107	9061.801713
711.123216	9260.745809
711.457275	9422.642465
711.791286	9589.774359
712.125247	9576.763141
712.459159	9572.916740
712.793023	9827.802520
713.126837	9409.043952
713.460602	9544.774499
713.794318	9378.784426
714.127985	9400.557170
714.461602	9100.590872
714.795171	9049.715547
715.128691	8811.145462
715.462162	8556.136174
715.795584	8500.691043
716.128957	8373.071713
716.462281	8193.329373
716.795556	8240.766631
717.128782	8049.903505
717.461960	7769.698530
717.795088	7839.513470
718.128167	7748.097186
718.461198	7581.862617
718.794180	7518.722165
719.127113	7512.975250
719.459997	7377.539611
719.792833	7144.290463
720.125619	7200.587549
720.458357	7064.128555
720.791046	7047.258334
721.123686	7051.114817
721.456278	6897.505818
721.788821	6915.906029
722.121315	6804.194060
722.453761	6866.555654
722.786158	6817.671585
723.118506	6829.672052
723.450805	6800.564429
723.783056	6868.330140
724.115259	6764.157216
724.447412	6765.510766
724.779518	6809.149514
725.111574	6814.805689
725.443582	6892.101701
725.775542	6871.513629
726.107453	7051.417286
726.439315	6972.371994
726.771129	7020.986361
727.102895	7185.509458
727.434612	7304.316851
727.766281	7328.821900
728.097901	7414.771052
728.429473	7395.697847
728.760996	7368.137859
729.092471	7349.815785
729.423897	7308.523694
729.755276	7319.611712
730.086606	7253.728872
730.417887	7345.535845
730.749120	7521.051178
731.080305	7713.847587
731.411442	7854.223557
731.742530	7848.806837
732.073570	7946.973226
732.404562	8027.170422
732.735506	7882.138946
733.066401	8028.017335
733.397249	7955.898588
733.728048	7729.737303
734.058798	7395.123155
734.389501	7182.381422
734.720156	7004.799216
735.050762	6771.416478
735.381320	6665.882443
735.711831	6623.012470
736.042293	6510.146077
736.372707	6537.176744
736.703073	6399.127266
737.033391	6437.553462
737.363661	6443.277692
737.693883	6464.947092
738.024056	6548.393311
738.354182	6600.818791
738.684260	6637.576364
739.014290	6732.526497
739.344272	6849.987902
739.674207	6876.315328
740.004093	6936.491581
740.333931	6956.109231
740.663722	6971.704041
740.993464	7047.187758
741.323159	7045.569548
741.652806	6791.954139
741.982405	6789.491535
742.311956	6852.016966
742.641460	6708.598660
742.970915	6510.100707
743.300323	6505.304049
743.629683	6448.573424
743.958996	6325.218910
744.288260	6232.640640
744.617477	6177.689542
744.946647	6190.967942
745.275768	6021.688516
745.604842	5981.177804
745.933869	5956.703002
746.262847	5912.512247
746.591778	5908.217184
746.920662	5861.405030
747.249498	5850.163257
747.578286	5897.116563
747.907027	5976.267720
748.235720	6029.595566
748.564365	6003.368963
748.892963	6024.715729
749.221514	6182.992836
749.550017	6034.520773
749.878473	5900.322737
750.206881	5947.936435
750.535242	5893.706223
750.863555	5827.752807
751.191821	5844.726372
751.520039	5848.592937
751.848210	5755.477784
752.176334	5772.963027
752.504411	5826.419422
752.832440	5754.656076
753.160421	5674.511812
753.488356	5723.600048
753.816243	5767.155617
754.144082	5619.807732
754.471875	5578.994550
754.799620	5626.557837
755.127318	5632.849197
755.454969	5591.322692
755.782572	5550.784253
756.110129	5597.014154
756.437638	5590.352270
756.765100	5532.799937
757.092515	5520.519686
757.419882	5568.637499
757.747203	5554.408843
758.074477	5615.444613
758.401703	5609.269199
758.728882	5556.359769
759.056014	5602.884578
759.383099	5741.977574
759.710138	5749.882104
760.037129	5731.998610
760.364073	5737.748046
760.690970	5816.987423
761.017820	5806.307739
761.344623	5752.201034
761.671379	5851.378175
761.998088	5961.971008
762.324751	6189.710174
762.651366	6755.294868
762.977935	8012.107454
763.304456	9609.702040
763.630931	10533.231342
763.957359	10197.334220
764.283740	9278.082337
764.610074	8473.209193
764.936362	7500.790781
765.262602	6904.082003
765.588796	6364.270208
765.914943	6017.766498
766.241044	5866.352922
766.567097	5677.846536
766.893104	5423.800108
767.219064	5240.637345
767.544978	5175.808107
767.870845	5105.199185
768.196665	4995.276826
768.522438	4925.131690
768.848165	4890.811515
769.173846	4829.659798
769.499479	4787.732522
769.825066	4733.378801
770.150607	4674.051982
770.476101	4648.707581
770.801548	4644.767919
771.126949	4575.318463
771.452303	4521.932644
771.777611	4475.914471
772.102872	4494.607070
772.428087	4460.186071
772.753256	4419.803908
773.078378	4378.219430
773.403453	4308.177639
773.728482	4295.859579
774.053465	4248.127414
774.378401	4235.101073
774.703291	4242.448554
775.028135	4180.023946
775.352932	4119.552785
775.677683	4108.953759
776.002388	4124.997231
776.327046	4145.492042
776.651658	4064.846184
776.976224	4002.290506
777.300743	4008.158409
777.625216	4027.397972
777.949643	4030.833519
778.274024	3986.415912
778.598359	3930.859876
778.922647	3956.327785
779.246889	3950.200263
779.571086	3949.489460
779.895236	3938.030917
780.219339	3915.854882
780.543397	3908.162081
780.867409	3957.207467
781.191374	3976.063903
781.515294	3915.333122
781.839167	3908.900610
782.162995	3924.394596
782.486776	3913.165426
782.810511	3920.646498
783.134201	3924.429884
783.457844	3883.803226
783.781441	3824.554544
784.104993	3829.008404
784.428498	3845.979448
784.751958	3845.848378
785.075372	3828.010255
785.398739	3786.309831
785.722061	3797.823826
786.045337	3839.541895
786.368568	3873.723438
786.691752	3789.447949
787.014891	3833.568127
787.337983	3952.728402
787.661030	4104.507462
787.984031	4267.004015
788.306987	4439.645890
788.629897	4520.682438
788.952760	4475.639728
789.275579	4406.918719
789.598351	4348.166592
789.921078	4215.569122
790.243759	4020.904966
790.566395	3992.621572
790.888984	3991.124350
791.211529	3887.740367
791.534027	3827.617045
791.856480	3822.525480
792.178888	3757.242538
792.501249	3707.015001
792.823566	3717.283832
793.145836	3749.038060
793.468062	3699.934701
793.790241	3648.804798
794.112375	3682.835107
794.434464	3740.611771
794.756507	3762.805451
795.078505	3750.636106
795.400457	3778.125518
795.722364	3908.499838
796.044226	4012.806352
796.366042	4087.730502
796.687812	4075.014191
797.009538	4082.989296
797.331218	4035.733520
797.652852	4004.740506
797.974442	3986.778875
798.295986	3989.314576
798.617484	3914.655087
798.938938	3826.364319
799.260346	3861.239021
799.581709	3858.809185
799.903026	3791.136736
800.224299	3753.101230
800.545526	3747.984459
800.866708	3709.860733
801.187845	3646.228768
801.508936	3681.826876
801.829983	3689.217208
802.150984	3607.860546
802.471940	3592.847990
802.792851	3609.451030
803.113717	3606.023046
803.434538	3608.883901
803.755314	3560.340110
804.076045	3526.070346
804.396731	3543.207748
804.717372	3572.564908
805.037967	3561.207188
805.358518	3551.392062
805.679024	3572.670772
805.999485	3583.332812
806.319901	3587.113678
806.640272	3602.690843
806.960598	3618.767083
807.280879	3592.280860
807.601115	3600.825616
807.921306	3616.455714
808.241453	3655.320489
808.561554	3638.072181
808.881611	3574.183118
809.201623	3603.588168
809.521590	3618.991414
809.841513	3595.063577
810.161390	3624.193885
810.481223	3603.527675
810.801011	3546.371072
811.120755	3538.068292
811.440453	3570.487952
811.760107	3576.053386
812.079716	3538.920247
812.399281	3502.646624
812.718801	3521.724871
813.038276	3500.526819
813.357707	3492.571878
813.677093	3515.544417
813.996434	3464.779997
814.315731	3469.201089
814.634983	3469.347283
814.954191	3486.343533
815.273354	3515.882174
815.592473	3514.720188
815.911547	3515.708254
816.230577	3553.766445
816.549562	3605.080350
816.868502	3647.189108
817.187399	3674.570135
817.506250	3667.189886
817.825058	3636.048158
818.143821	3722.380438
818.462539	3827.884227
818.781213	3871.253273
819.099843	3921.407713
819.418429	4153.338598
819.736970	4386.247468
820.055466	4623.811843
820.373919	4979.215709
820.692327	5382.646649
821.010691	5783.292351
821.329011	7062.701909
821.647286	9647.488008
821.965517	14030.491494
822.283704	18041.256179
822.601847	20335.901189
822.919945	18595.974666
823.237999	16123.606297
823.556010	13681.860417
823.873976	11652.140644
824.191897	9593.020862
824.509775	8244.340809
824.827609	7131.080120
825.145398	6576.049081
825.463144	6459.711853
825.780845	6578.473876
826.098502	6738.094451
826.416116	7538.453241
826.733685	8817.073859
827.051210	9935.600033
827.368692	10060.096368
827.686129	8873.852375
828.003522	7372.768158
828.320872	6366.309355
828.638177	5682.181928
828.955439	5143.078415
829.272656	4651.996934
829.589830	4359.552038
829.906960	4195.114640
830.224046	4014.336343
830.541088	3890.747415
830.858086	3843.408460
831.175041	3769.071605
831.491952	3746.368769
831.808819	3758.833022
832.125642	3825.053619
832.442421	3963.168631
832.759157	4221.240420
833.075849	4739.191251
833.392497	5571.160597
833.709101	6329.405588
834.025662	6692.850095
834.342179	6377.102465
834.658653	5720.358586
834.975083	5093.602011
835.291469	4535.049726
835.607811	4118.602528
835.924110	3983.502125
836.240366	3791.671098
836.556578	3586.692741
836.872746	3479.177533
837.188871	3444.917851
837.504952	3381.195146
837.820990	3303.805873
838.136984	3250.402409
838.452935	3276.059362
838.768842	3273.266563
839.084706	3293.809265
839.400526	3439.649845
839.716303	3756.292280
840.032037	4250.514400
840.347727	4533.928070
840.663373	4287.773568
840.978977	3919.018206
841.294537	3616.833800
841.610054	3388.608163
841.925527	3280.009106
842.240957	3210.100905
842.556344	3161.433606
842.871687	3103.735079
843.186987	3056.602812
843.502244	3021.639889
843.817458	2986.432471
844.132629	2955.726803
844.447756	2964.203503
844.762840	2950.854527
845.077881	2920.932759
845.392879	2899.951476
845.707833	2896.894017
846.022745	2897.304871
846.337613	2900.236302
846.652438	2885.659805
846.967221	2883.741646
847.281960	2871.017774
847.596656	2865.293544
847.911309	2862.931763
848.225919	2859.859180
848.540485	2852.773838
848.855009	2855.609487
849.169490	2845.466686
849.483928	2835.976713
849.798323	2832.710046
850.112675	2829.307267
850.426984	2841.882425
850.741251	2840.423011
851.055474	2829.153512
851.369654	2826.184272
851.683792	2830.373471
851.997887	2835.754903
852.311938	2838.136848
852.625947	2828.903975
852.939914	2830.517144
853.253837	2839.387054
853.567718	2822.791576
853.881555	2819.277891
854.195350	2835.820438
854.509103	2832.412618
854.822812	2824.341730
855.136479	2823.094045
855.450103	2824.198057
855.763685	2815.552479
856.077224	2809.147693
856.390720	2825.027327
856.704173	2837.602486
857.017584	2826.985816
857.330953	2823.593119
857.644278	2831.958914
857.957561	2844.458455
858.270802	2845.927951
858.584000	2845.688496
858.897155	2831.432113
859.210268	2832.614264
859.523339	2828.427586
859.836367	2832.720128
860.149352	2822.471462
860.462295	2820.059270
860.775195	2824.717296
861.088054	2827.459684
861.400869	2810.218938
861.713642	2806.100315
862.026373	2821.818633
862.339062	2824.555979
862.651708	2829.158553
862.964312	2836.135510
863.276873	2829.072853
863.589392	2834.020746
863.901869	2846.500122
864.214303	2868.126672
864.526696	2883.789537
864.839045	2880.212838
865.151353	2878.975235
865.463619	2875.673279
865.775842	2876.825183
866.088023	2893.758419
866.400162	2905.640418
866.712258	2874.866695
867.024313	2863.274562
867.336325	2871.330325
867.648296	2896.004253
867.960224	2886.920094
868.272110	2874.990203
868.583954	2877.218393
868.895755	2893.244221
869.207515	2878.564381
869.519233	2882.713251
869.830909	2890.471587
870.142542	2900.881569
870.454134	2901.408370
870.765684	2905.151427
871.077191	2904.707805
871.388657	2910.467323
871.700081	2925.222781
872.011463	2934.264090
872.322803	2933.951538
872.634101	2936.094029
872.945357	2950.015175
873.256571	2977.358394
873.567744	2970.583083
873.878874	2958.123871
874.189963	2984.756287
874.501010	2987.019765
874.812015	2976.582056
875.122979	2974.724391
875.433900	2974.923516
875.744780	2979.127839
876.055618	2984.519353
876.366415	2981.222438
876.677169	2994.470590
876.987882	2993.240549
877.298554	2983.009527
877.609183	2998.654748
877.919771	3023.608460
878.230317	3049.071328
878.540822	3098.688884
878.851285	3139.252529
879.161707	3174.018846
879.472087	3266.569390
879.782425	3472.112356
880.092722	3887.649626
880.402977	4392.359867
880.713191	4989.787009
881.023363	6081.186734
881.333494	7332.169226
881.643583	7907.213645
881.953631	7625.405583
882.263637	7036.833228
882.573602	6483.392673
882.883526	5917.160191
883.193408	5356.520869
883.503248	4892.689345
883.813048	4603.354840
884.122806	4324.168179
884.432522	4014.532948
884.742197	3790.378042
885.051831	3596.628856
885.361424	3465.911736
885.670975	3391.809295
885.980485	3316.013027
886.289954	3241.149372
886.599382	3198.463401
886.908768	3161.846980
887.218113	3122.399952
887.527417	3065.344172
887.836680	3014.247037
888.145901	3007.582632
888.455082	3004.073988
888.764221	2954.002728
889.073319	2926.561207
889.382376	2924.365784
889.691392	2925.588264
890.000366	2927.554314
890.309300	2913.779361
890.618193	2927.665220
890.927044	2941.437652
891.235855	2943.718774
891.544625	2930.392484
891.853353	2937.843309
892.162041	2955.948613
892.470687	2993.936228
892.779293	3044.665359
893.087858	3086.166658
893.396381	3152.856082
893.704864	3264.134512
894.013306	3486.048625
894.321707	3778.811114
894.630068	3988.087055
894.938387	3990.158969
895.246665	3940.795990
895.554903	3829.111747
895.863100	3640.015546
896.171256	3478.665856
896.479371	3340.387006
896.787446	3227.901219
897.095480	3127.506640
897.403473	3063.504151
897.711425	3024.767925
898.019336	3018.844569
898.327207	2993.563183
898.635038	2960.301650
898.942827	2945.213476
899.250576	2932.056065
899.558284	2901.965417
899.865952	2883.413971
900.173579	2863.624922
900.481165	2858.266175
900.788711	2844.115656
901.096216	2819.759322
901.403681	2810.884370
901.711105	2817.702531
902.018489	2815.002993
902.325832	2813.092396
902.633135	2820.485248
902.940397	2854.177799
903.247619	2925.799993
903.554800	3105.290275
903.861941	3426.147115
904.169041	3831.607119
904.476101	4140.213954
904.783121	4114.171353
905.090100	3879.551012
905.397039	3615.394551
905.703938	3372.834392
906.010796	3195.224460
906.317614	3088.069694
906.624391	2995.302381
906.931129	2924.517019
907.237826	2868.081302
907.544483	2821.183447
907.851099	2792.801751
908.157675	2772.745521
908.464211	2754.050402
908.770707	2740.288052
909.077163	2728.317832
909.383578	2717.111347
909.689954	2702.255067
909.996289	2700.785570
910.302584	2702.804552
910.608839	2705.340253
910.915054	2698.506969
911.221229	2690.247038
911.527363	2691.227542
911.833458	2697.569314
912.139513	2702.461754
912.445527	2707.306303
912.751502	2715.195708
913.057436	2723.054867
913.363331	2733.611043
913.669186	2754.599887
913.975000	2785.653395
914.280775	2842.194977
914.586510	2907.465316
914.892205	2984.421050
915.197859	3100.390274
915.503475	3282.179323
915.809050	3484.485868
916.114585	3627.808392
916.420081	3657.031961
916.725536	3599.759412
917.030952	3489.209429
917.336328	3364.642517
917.641665	3241.093919
917.946961	3139.257570
918.252218	3075.746593
918.557435	3003.711025
918.862612	2946.262036
919.167750	2896.457957
919.472848	2860.358254
919.777906	2836.274142
920.082925	2811.330512
920.387904	2783.284053
920.692843	2768.382402
920.997743	2756.797831
921.302603	2742.496077
921.607423	2735.340159
921.912204	2723.727861
922.216946	2710.880481
922.521647	2704.097608
922.826310	2696.989581
923.130932	2690.713345
923.435516	2680.454597
923.740059	2675.100891
924.044564	2666.551094
924.349028	2661.696463
924.653454	2656.551966
924.957840	2650.051398
925.262186	2644.422950
925.566493	2642.240130
925.870761	2636.220992
926.174989	2634.267545
926.479178	2627.701442
926.783328	2623.096348
927.087438	2621.490741
927.391509	2620.661471
927.695541	2620.459825
927.999533	2615.350615
928.303486	2613.235851
928.607400	2612.638475
928.911275	2611.713423
929.215110	2611.300048
929.518906	2609.351642
929.822663	2608.804677
930.126381	2606.463061
930.430060	2608.817280
930.733699	2607.345263
931.037299	2612.124277
931.340861	2615.116202
931.644383	2611.494133
931.947866	2612.232662
932.251309	2609.084461
932.554714	2613.180399
932.858080	2607.020109
933.161407	2605.384254
933.464694	2605.462392
933.767943	2601.434510
934.071153	2604.953236
934.374323	2605.686723
934.677455	2603.191352
934.980548	2604.023143
935.283602	2602.029366
935.586617	2602.231012
935.889593	2601.779829
936.192530	2601.830241
936.495428	2605.338884
936.798287	2602.770416
937.101108	2606.674790
937.403890	2610.533793
937.706632	2612.512446
938.009336	2620.288426
938.312002	2627.887965
938.614628	2637.589666
938.917216	2644.153248
939.219765	2644.082672
939.522275	2642.497229
939.824747	2638.066055
940.127179	2640.314409
940.429573	2635.565642
940.731929	2634.202010
941.034246	2629.533902
941.336524	2627.678757
941.638763	2623.736575
941.940964	2625.072481
942.243126	2621.190792
942.545250	2620.517798
942.847335	2618.302211
943.149381	2614.596963
943.451389	2612.146962
943.753359	2607.501539
944.055290	2606.425252
944.357182	2605.926178
944.659036	2602.795622
944.960851	2605.825355
945.262628	2604.035746
945.564367	2602.183122
945.866067	2602.785539
946.167729	2601.868049
946.469352	2606.455499
946.770937	2604.867536
947.072484	2603.322422
947.373992	2605.210334
947.675462	2598.687081
947.976893	2595.475866
948.278286	2594.560897
948.579641	2594.712132
948.880958	2594.439909
949.182236	2595.702718
949.483476	2595.639704
949.784678	2597.056268
950.085841	2595.506113
950.386967	2596.836978
950.688054	2595.790938
950.989103	2598.518203
951.290114	2595.097780
951.591087	2599.607092
951.892021	2600.564911
952.192917	2603.874429
952.493776	2605.691765
952.794596	2605.338884
953.095378	2606.410129
953.396122	2605.969028
953.696828	2608.305603
953.997496	2605.807711
954.298126	2599.783532
954.598718	2598.515682
954.899272	2597.830085
955.199788	2592.733479
955.500266	2590.480083
955.800706	2588.766091
956.101108	2588.264496
956.401472	2586.026223
956.701798	2585.733837
957.002087	2582.676377
957.302337	2582.668815
957.602550	2579.878536
957.902724	2576.926941
958.202861	2577.239492
958.502960	2575.802763
958.803022	2579.013978
959.103045	2577.738567
959.403031	2574.648339
959.702979	2575.091961
960.002889	2572.662125
960.302762	2574.570201
960.602596	2570.189439
960.902393	2573.730849
961.202153	2571.406877
961.501875	2570.345714
961.801559	2572.079871
962.101205	2570.383523
962.400814	2574.471899
962.700385	2569.065261
962.999918	2568.435117
963.299414	2564.563511
963.598873	2566.443861
963.898293	2564.959242
964.197677	2569.937381
964.497022	2569.690364
964.796331	2571.916034
965.095601	2571.197669
965.394835	2567.545353
965.694030	2569.975190
965.993189	2568.170457
966.292309	2567.162226
966.591393	2569.516445
966.890439	2568.591393
967.189447	2568.646846
967.488419	2570.801939
967.787353	2565.571742
968.086249	2566.960580
968.385108	2565.985116
968.683930	2568.402350
968.982714	2569.871846
969.281462	2568.745148
969.580172	2570.133986
969.878844	2564.911351
970.177480	2570.237330
970.476078	2568.954356
970.774639	2570.459140
971.073162	2570.403688
971.371649	2570.559963
971.670098	2566.688357
971.968510	2568.828327
972.266885	2569.188770
972.565223	2568.843451
972.863524	2570.857392
973.161788	2569.153482
973.460014	2567.991496
973.758204	2568.979562
974.056356	2569.813873
974.354471	2568.019222
974.652550	2570.325550
974.950591	2569.932340
975.248595	2568.556105
975.546563	2568.954356
975.844493	2567.028635
976.142386	2569.907134
976.440243	2566.401012
976.738062	2568.609037
977.035845	2569.052658
977.333590	2568.344376
977.631299	2567.399160
977.928971	2564.760116
978.226606	2564.051834
978.524204	2563.837585
978.821765	2559.913047
979.119290	2563.887996
979.416777	2565.249108
979.714228	2566.622822
980.011642	2568.644325
980.309020	2567.119376
980.606360	2566.683316
980.903664	2566.262380
981.200931	2567.147102
981.498162	2569.176167
981.795356	2568.102401
982.092513	2570.988462
982.389633	2573.393092
982.686717	2578.681262
982.983764	2578.124215
983.280775	2582.298290
983.577749	2585.050760
983.874686	2583.815677
984.171587	2578.817373
984.468451	2580.528845
984.765279	2577.126066
985.062070	2573.607341
985.358824	2573.783781
985.655543	2571.061558
985.952224	2568.412432
986.248869	2568.750189
986.545478	2567.583162
986.842050	2568.432597
987.138586	2566.239695
987.435086	2567.542833
987.731549	2565.299519
988.027975	2564.109807
988.324366	2566.758933
988.620719	2564.984447
988.917037	2562.799107
989.213318	2566.302709
989.509563	2564.860939
989.805772	2565.349931
990.101944	2563.187276
990.398080	2565.912020
990.694180	2563.303222
990.990244	2563.759447
991.286271	2562.796587
991.582262	2563.066288
991.878217	2566.769016
992.174136	2565.896896
992.470019	2564.311453
992.765865	2561.720300
993.061676	2560.341545
993.357450	2562.282389
993.653188	2562.741134
993.948890	2563.220043
994.244556	2564.936556
994.540186	2563.267934
994.835780	2564.684499
995.131337	2565.753223
995.426859	2565.049982
995.722345	2565.843964
996.017795	2568.016701
996.313208	2567.525189
996.608586	2566.995868
996.903928	2568.031825
997.199234	2566.602658
997.494504	2569.806311
997.789738	2568.820765
998.084936	2565.417987
998.380099	2565.836402
998.675225	2564.772719
998.970316	2565.942267
999.265371	2562.955383
999.560390	2564.666855
999.855373	2564.961762
1000.150320	2564.704663
1000.445232	2564.182904
1000.740108	2563.535116
1001.034948	2564.906309
1001.329752	2560.283571
1001.624521	2561.395146
1001.919254	2563.565363
1002.213951	2564.409756
1002.508613	2565.206258
1002.803239	2559.686195
1003.097829	2563.751885
1003.392384	2564.082081
1003.686903	2566.083419
1003.981386	2562.501679
1004.275834	2562.264745
1004.570246	2562.826833
1004.864623	2562.657955
1005.158964	2561.133006
1005.453270	2564.056875
1005.747540	2561.090156
1006.041775	2562.932698
1006.335974	2559.466904
1006.630138	2561.490928
1006.924266	2561.773232
1007.218359	2564.228274
1007.512416	2558.793910
1007.806438	2558.211657
1008.100425	2558.372974
1008.394376	2556.036399
1008.688292	2561.710218
1008.982172	2563.300702
1009.276017	2562.708366
1009.569827	2560.737275
1009.863602	2561.183417
1010.157341	2561.611915
1010.451045	2561.904302
1010.744714	2560.989333
1011.038347	2559.292985
1011.331945	2559.812223
1011.625508	2561.448078
1011.919036	2561.218705
1012.212528	2561.632080
1012.505986	2562.363047
1012.799408	2562.073181
1013.092795	2560.354147
1013.386147	2559.686195
1013.679464	2560.480176
1013.972745	2559.227450
1014.265992	2561.125444
1014.559204	2563.015877
1014.852380	2559.262738
1015.145521	2560.568397
1015.438628	2558.892213
1015.731699	2563.383881
1016.024736	2561.163253
1016.317737	2557.367264
1016.610703	2560.933880
1016.903635	2561.745506
1017.196531	2560.550752
1017.489393	2561.037224
1017.782219	2559.005639
1018.075011	2562.181566
1018.367768	2563.945970
1018.660490	2559.897923
1018.953177	2559.897923
1019.245829	2559.897923
