Dividing Wavelength (nm)	Counts (n)	Blue Motor Position (mm): 40.100000	Red Motor Position (mm): 0.000000	
326.493990	2247.404358
326.888308	2247.404358
327.282561	2247.404358
327.676750	2210.293904
328.070874	2202.429704
328.464933	2205.179653
328.858929	2207.980014
329.252859	2213.137115
329.646726	2223.852087
330.040528	2234.420866
330.434265	2247.008627
330.827938	2265.860022
331.221547	2287.693259
331.615091	2301.992492
332.008571	2320.364978
332.401986	2338.298882
332.795338	2358.440813
333.188625	2377.950078
333.581847	2396.584703
333.975006	2416.280491
334.368100	2436.613985
334.761129	2453.048147
335.154095	2469.754531
335.546996	2495.096411
335.939833	2532.189221
336.332606	2554.430792
336.725315	2564.445044
337.117960	2577.690676
337.510540	2590.109558
337.903056	2600.136413
338.295508	2611.731067
338.687896	2618.778600
339.080220	2621.016872
339.472480	2629.884262
339.864676	2637.745941
340.256807	2641.972949
340.648875	2642.961015
341.040879	2647.520739
341.432818	2649.844711
341.824694	2655.367295
342.216506	2652.755977
342.608253	2654.805206
342.999937	2655.886533
343.391557	2653.716317
343.783113	2653.479382
344.174605	2654.152377
344.566033	2651.747746
344.957397	2654.893426
345.348697	2648.176089
345.739934	2650.724392
346.131106	2645.816829
346.522215	2647.286325
346.913260	2643.734832
347.304241	2643.555871
347.695159	2639.003709
348.086012	2640.798360
348.476802	2636.067237
348.867528	2631.754530
349.258191	2630.433748
349.648789	2626.420989
350.039324	2627.169601
350.429796	2627.156998
350.820203	2627.204889
351.210548	2629.208747
351.600828	2626.284878
351.991045	2626.020217
352.381198	2623.915536
352.771288	2624.212964
353.161314	2624.240690
353.551276	2623.993674
353.941175	2621.977212
354.331010	2624.429733
354.720782	2623.529887
355.110490	2622.088117
355.500135	2622.309928
355.889717	2623.267747
356.279235	2622.453601
356.668689	2620.878241
357.058080	2620.646347
357.447408	2622.226749
357.836672	2621.944445
358.225873	2624.482666
358.615010	2623.812192
359.004084	2624.399487
359.393095	2625.803448
359.782043	2625.647172
360.170927	2627.872842
360.559748	2625.453088
360.948505	2629.939715
361.337199	2628.679426
361.725830	2626.088273
362.114398	2630.617750
362.502903	2629.024745
362.891344	2630.516927
363.279722	2629.848974
363.668037	2631.704118
364.056289	2633.198821
364.444478	2633.413070
364.832603	2633.082874
365.220665	2636.019346
365.608665	2631.890641
365.996601	2634.365848
366.384474	2633.592031
366.772284	2637.198976
367.160031	2637.635036
367.547715	2638.555047
367.935336	2636.553708
368.322893	2635.459778
368.710388	2634.910292
369.097820	2636.636887
369.485189	2634.479274
369.872495	2640.687455
370.259738	2640.768113
370.646918	2643.155099
371.034035	2642.978659
371.421090	2641.441107
371.808081	2641.990593
372.195010	2642.434214
372.581875	2644.705254
372.968678	2646.726757
373.355418	2643.160141
373.742096	2645.978146
374.128710	2644.806077
374.515262	2643.553351
374.901751	2648.549134
375.288177	2646.757004
375.674540	2647.021664
376.060841	2644.743063
376.447079	2647.608959
376.833254	2649.391007
377.219367	2649.207005
377.605417	2651.205822
377.991404	2650.837818
378.377329	2650.442087
378.763191	2652.647592
379.148991	2655.478200
379.534727	2654.568272
379.920402	2652.995432
380.306013	2653.149187
380.691563	2653.486944
381.077049	2653.111378
381.462474	2656.741009
381.847835	2655.095072
382.233134	2657.693787
382.618371	2656.002480
383.003545	2658.351658
383.388657	2659.929539
383.773706	2658.770073
384.158693	2659.516164
384.543618	2660.358037
384.928480	2662.243428
385.313280	2666.044458
385.698017	2666.435148
386.082692	2663.092863
386.467305	2666.508245
386.851856	2669.946312
387.236344	2670.828513
387.620770	2671.345232
388.005133	2675.937723
388.389435	2685.009279
388.773674	2687.111440
389.157851	2706.668597
389.541965	2724.174003
389.926018	2734.904099
390.310008	2756.376894
390.693936	2784.168775
391.077802	2813.944351
391.461606	2847.435256
391.845348	2892.051988
392.229027	2935.700819
392.612645	2981.575319
392.996200	3046.515463
393.379694	3108.975359
393.763125	3182.682069
394.146494	3243.425452
394.529801	3316.900270
394.913047	3402.194072
395.296230	3444.965742
395.679351	3543.555588
396.062410	3627.510964
396.445408	3681.773944
396.828343	3775.662914
397.211217	3870.943242
397.594028	3880.040004
397.976778	4000.573993
398.359466	4094.730144
398.742092	4173.583872
399.124656	4176.182587
399.507158	4320.762879
399.889598	4421.475051
400.271977	4567.756733
400.654294	4616.545019
401.036549	4710.030697
401.418742	4705.869224
401.800874	4917.136420
402.182944	5016.588303
402.564952	5159.351260
402.946898	5255.344911
403.328783	5173.131254
403.710606	5229.950099
404.092367	5547.295775
404.474067	5604.429692
404.855705	5559.308844
405.237282	5531.897570
405.618797	5788.736797
406.000250	5806.267409
406.381642	6020.211458
406.762972	6060.419701
407.144240	6144.160828
407.525447	6149.955635
407.906593	6200.258788
408.287677	6361.006061
408.668700	6294.109949
409.049661	6427.433345
409.430560	6464.614375
409.811399	6335.631413
410.192176	6613.250276
410.572891	6623.067923
410.953545	6836.878381
411.334138	6576.565799
411.714669	6749.646255
412.095139	6547.735441
412.475547	6795.533358
412.855894	6872.138732
413.236180	7040.999742
413.616405	6732.594552
413.996568	6957.641742
414.376670	6980.296687
414.756711	6886.566514
415.136691	6982.245093
415.516609	7188.050199
415.896466	7177.922521
416.276262	7372.095164
416.655997	7355.895417
417.035670	7552.639048
417.415283	7888.901654
417.794834	7933.921678
418.174324	7805.669683
418.553753	7718.792958
418.933121	8034.233078
419.312428	8131.613047
419.691674	7910.160200
420.070859	8386.297180
420.449983	8066.393119
420.829045	8429.867873
421.208047	8209.551806
421.586988	8506.032146
421.965867	8524.742388
422.344686	8632.103842
422.723444	8666.718925
423.102141	8037.792133
423.480777	8788.982029
423.859352	8314.740522
424.237866	8928.803472
424.616319	8802.325963
424.994712	9213.429539
425.373044	8776.913507
425.751314	9234.867046
426.129524	9102.758568
426.507673	9227.378412
426.885762	9379.923727
427.263789	9292.709245
427.641756	9216.633192
428.019662	9316.788316
428.397508	9561.722858
428.775292	9249.425898
429.153016	9629.954875
429.530679	9462.954051
429.908282	9502.070885
430.285824	9218.823573
430.663305	9903.152646
431.040726	9350.095220
431.418086	9328.443464
431.795385	9664.948045
432.172624	9750.246888
432.549802	9660.668105
432.926920	9734.780628
433.303977	9624.286098
433.680974	9826.126336
434.057910	9911.624305
434.434786	9977.444131
434.811601	9813.924223
435.188355	10389.689527
435.565050	10114.535789
435.941683	10043.392505
436.318257	10527.219766
436.694770	10668.309059
437.071222	10738.454195
437.447614	10582.218755
437.823946	10474.733793
438.200218	10606.812024
438.576429	10426.482389
438.952580	10671.714359
439.328670	10713.187932
439.704700	10504.287557
440.080670	10496.347740
440.456580	11038.629700
440.832429	10802.111365
441.208218	10398.657740
441.583947	10722.415764
441.959616	10878.469722
442.335224	10693.799654
442.710773	10821.527369
443.086261	11037.548373
443.461689	10310.261107
443.837057	10966.165634
444.212365	11238.032541
444.587612	10882.180011
444.962800	11102.135636
445.337927	10862.942968
445.712995	10475.406787
446.088002	11547.458564
446.462949	11216.741227
446.837837	11190.121415
447.212664	11158.082361
447.587431	11696.880884
447.962139	12432.518821
448.336786	14690.335682
448.711374	15232.915071
449.085901	13075.172675
449.460369	12695.069675
449.834776	12138.299439
450.209124	13044.252758
450.583412	13452.291312
450.957640	14388.151277
451.331808	13498.632119
451.705917	12510.553362
452.079965	11804.408696
452.453954	12720.078839
452.827883	12352.182993
453.201752	12639.775779
453.575562	12164.125270
453.949311	12585.606061
454.323001	12553.448540
454.696632	12783.287347
455.070202	13069.216552
455.443713	13282.550621
455.817164	13766.614816
456.190556	13744.257299
456.563888	14104.546044
456.937160	14269.573256
457.310373	13617.242907
457.683526	13710.897463
458.056619	13252.374274
458.429653	13417.426692
458.802628	12824.196310
459.175542	13212.823902
459.548398	14161.669878
459.921194	14503.444986
460.293930	14576.062807
460.666607	15443.259736
461.039224	16495.590519
461.411782	17203.247531
461.784280	17030.575409
462.156719	17115.753265
462.529099	16803.685677
462.901419	15731.880917
463.273680	15510.780950
463.645882	15388.969029
464.018024	15129.440347
464.390106	15347.359345
464.762130	16074.853298
465.134094	16851.359869
465.505999	18864.388382
465.877845	22123.078448
466.249631	24951.044768
466.621358	24614.396514
466.993026	23167.623169
467.364634	22620.839458
467.736184	21144.386320
468.107674	20333.408339
468.479105	20471.929164
468.850477	19941.279666
469.221790	19530.319764
469.593043	18837.977777
469.964238	18280.945400
470.335373	17925.203776
470.706449	18397.055776
471.077467	17955.876677
471.448425	19813.776283
471.819324	23894.229879
472.190164	25827.749313
472.560945	22217.456410
472.931667	19887.775380
473.302330	19256.242311
473.672934	18838.592797
474.043479	19114.356516
474.413965	18931.415563
474.784393	18535.286735
475.154761	19266.783364
475.525070	19220.742506
475.895321	18909.668026
476.265513	19505.159365
476.635645	20094.576114
477.005719	19867.494818
477.375734	20052.028775
477.745691	20540.264525
478.115588	21068.060730
478.485427	21622.202005
478.855207	22687.014685
479.224928	24473.264371
479.594591	26702.114762
479.964194	26674.763982
480.333739	26894.303712
480.703226	26466.897044
481.072653	26161.125858
481.442022	26760.390501
481.811333	27680.088526
482.180584	27582.905162
482.549777	26637.169577
482.918912	26287.510105
483.287988	26418.239828
483.657005	26064.126496
484.025964	25827.575393
484.394864	25729.529992
484.763706	25393.315277
485.132489	24848.590878
485.501213	25019.049933
485.869879	24923.308340
486.238487	24749.645631
486.607036	24897.548043
486.975527	24622.306085
487.343959	24936.092706
487.712333	24863.416911
488.080648	24522.340004
488.448905	25028.663414
488.817104	24762.926551
489.185244	25455.679392
489.553326	25419.836788
489.921350	26445.139424
490.289315	28748.820703
490.657222	30505.730874
491.025070	31010.950272
491.392861	30771.049322
491.760593	29922.121535
492.128267	29011.442133
492.495883	27949.238251
492.863440	27082.177433
493.230939	26210.569495
493.598380	26061.767236
493.965763	25674.515880
494.333088	25194.923188
494.700354	25146.218080
495.067563	25017.552711
495.434713	24752.599747
495.801805	24926.572487
496.168839	24707.047881
496.535815	24566.853392
496.902733	24788.669203
497.269593	24469.811181
497.636395	24641.764938
498.003139	24583.015332
498.369825	24336.344112
498.736453	24542.151738
499.103023	24413.927470
499.469535	24413.788838
499.835989	24634.309072
500.202385	24655.194572
500.568723	24183.332490
500.935003	24388.895620
501.301226	24044.728486
501.667390	24888.935232
502.033497	25099.063127
502.399546	24834.029505
502.765537	24383.299940
503.131470	24782.161073
503.497345	24913.243676
503.863163	24136.860613
504.228923	24705.454876
504.594625	24947.006804
504.960269	24488.980168
505.325856	24959.256808
505.691385	24365.318144
506.056856	24971.713499
506.422270	24949.933194
506.787625	24489.759027
507.152924	24920.155098
507.518164	24957.394101
507.883347	24768.902838
508.248472	24438.392189
508.613540	25228.333435
508.978550	25014.502813
509.343503	25032.482088
509.708398	25249.745736
510.073236	25421.611274
510.438016	25635.172195
510.802738	25291.103362
511.167403	25542.432608
511.532010	25280.174141
511.896561	26040.874174
512.261053	25997.537895
512.625488	25832.896331
512.989866	25727.064868
513.354186	25563.882718
513.718449	25690.072881
514.082655	26062.193214
514.446803	25799.150847
514.810894	26268.147033
515.174927	25754.556800
515.538904	25776.836180
515.902822	26284.263602
516.266684	26023.595619
516.630488	25936.214779
516.994235	25897.753296
517.357925	26220.498047
517.721558	26385.043829
518.085133	26503.054720
518.448651	26397.513123
518.812112	26142.092982
519.175516	26359.356630
519.538863	26507.642170
519.902152	26287.741998
520.265385	26557.005149
520.628560	26354.794386
520.991678	26351.867996
521.354739	26425.960355
521.717743	26515.473603
522.080690	26281.352336
522.443580	26611.058921
522.806413	26586.798368
523.169189	26712.076082
523.531908	26743.137152
523.894569	26361.045417
524.257174	26447.070186
524.619722	26605.952232
524.982213	26306.066593
525.344647	26353.443357
525.707025	26515.637440
526.069345	26464.081560
526.431608	26447.133201
526.793815	26607.822500
527.155964	26097.458605
527.518057	26273.586438
527.880093	26183.672418
528.242072	26415.560454
528.603995	26128.718800
528.965860	25926.888644
529.327669	25959.154550
529.689421	25954.751102
530.051117	25803.201414
530.412755	25964.480529
530.774337	25755.373467
531.135862	25642.239893
531.497331	25830.448851
531.858743	25394.389043
532.220098	25873.180191
532.581396	25569.392699
532.942638	25473.459541
533.303824	25590.336172
533.664953	25592.524033
534.026025	25250.590130
534.387040	25503.540106
534.747999	25551.347889
535.108902	25710.227414
535.469748	25212.403389
535.830537	25389.148764
536.191270	25518.713979
536.551947	25357.966707
536.912567	24989.193700
537.273131	25394.792335
537.633638	25074.237965
537.994089	25287.398114
538.354483	24798.068434
538.714821	25311.618338
539.075103	25355.272210
539.435328	25135.699713
539.795497	24715.161618
540.155609	25075.394910
540.515665	25380.667022
540.875665	24600.114925
541.235609	24931.293527
541.595496	24876.392841
541.955328	25233.646812
542.315102	25163.562170
542.674821	24671.240565
543.034483	24559.654625
543.394090	24728.326591
543.753640	24534.761407
544.113134	25156.829709
544.472571	24756.975468
544.831953	25057.115686
545.191278	24690.759913
545.550548	24603.898311
545.909761	24783.330621
546.268918	25027.183835
546.628019	25001.761296
546.987064	24693.618247
547.346053	24442.573827
547.704986	24533.695203
548.063863	24703.637540
548.422684	24723.338369
548.781449	24229.733791
549.140158	24639.723271
549.498811	24216.072264
549.857408	23981.777077
550.215949	24384.194744
550.574434	24062.543923
550.932864	24268.749801
551.291237	24454.100425
551.649555	24295.175529
552.007817	24366.684297
552.366022	24210.877355
552.724173	24244.643003
553.082267	24191.569735
553.440305	24692.642784
553.798288	23927.756072
554.156215	24426.379120
554.514086	24545.594847
554.871902	23939.693525
555.229661	24212.639238
555.587365	24063.922679
555.945014	23955.721873
556.302606	24180.330483
556.660143	24150.126410
557.017625	24382.153077
557.375050	23896.087544
557.732421	24296.035046
558.089735	24108.176448
558.446994	24171.193392
558.804197	24210.141346
559.161345	24113.875472
559.518437	23896.856320
559.875474	24068.358894
560.232455	24264.558081
560.589381	24077.639658
560.946251	24069.538524
561.303065	24388.883018
561.659825	24463.776920
562.016528	24071.365943
562.373177	23810.239214
562.729770	24173.618187
563.086307	24029.884808
563.442789	24193.818090
563.799216	24036.561816
564.155587	24033.469068
564.511904	24019.676472
564.868164	23966.567916
565.224370	23929.679272
565.580520	23855.851574
565.936615	23984.600123
566.292654	23674.105375
566.648638	23943.759215
567.004567	23766.325723
567.360441	23721.852664
567.716260	23440.463018
568.072023	23769.940231
568.427732	23538.037071
568.783385	23309.181290
569.138982	23551.242374
569.494525	23584.856788
569.850013	23345.485159
570.205445	23435.542852
570.560823	23259.707406
570.916145	23019.418287
571.271412	23203.354868
571.626625	22949.331125
571.981782	23059.170306
572.336884	22860.579091
572.691931	23006.981761
573.046923	22736.004618
573.401860	22615.112707
573.756743	22642.841574
574.111570	22533.481303
574.466342	22457.382565
574.821059	22541.602602
575.175722	22241.699319
575.530330	22207.968958
575.884882	22238.914081
576.239380	22154.631030
576.593823	22034.086959
576.948211	22016.994927
577.302544	21880.223382
577.656823	21738.919840
578.011047	21837.769305
578.365216	21713.076365
578.719330	21582.520562
579.073389	21473.054427
579.427394	21631.165176
579.781344	21385.519832
580.135239	21269.321236
580.489080	21235.542984
580.842866	21008.814569
581.196597	21207.713294
581.550273	21169.808859
581.903895	21060.156201
582.257463	21369.655321
582.610975	20898.685523
582.964434	21223.812219
583.317837	20902.375647
583.671186	20988.549131
584.024481	20973.521451
584.377721	20731.964483
584.730906	20815.309879
585.084037	20818.324489
585.437113	20733.890203
585.790135	20944.761669
586.143103	20398.058616
586.496016	20415.571585
586.848874	20648.195629
587.201679	20576.671738
587.554428	20262.466701
587.907124	20596.178483
588.259765	20375.212107
588.612352	20439.796850
588.964884	19996.089612
589.317362	20164.794346
589.669786	20225.898171
590.022155	20251.424054
590.374470	20467.523196
590.726731	20239.209338
591.078937	20021.537356
591.431090	20104.741600
591.783188	19866.811742
592.135232	19834.984417
592.487222	19932.273645
592.839157	19950.472210
593.191038	19821.065791
593.542866	19724.956193
593.894639	19431.061965
594.246358	19638.515528
594.598022	19539.063645
594.949633	19281.606877
595.301190	19280.104613
595.652692	19437.275187
596.004141	19666.519138
596.355535	18981.519591
596.706876	19005.911214
597.058162	18918.427030
597.409395	19144.651330
597.760573	19193.089257
598.111698	18971.119691
598.462768	18908.916894
598.813785	18895.202435
599.164748	18689.306588
599.515657	18739.085462
599.866511	18538.762611
600.217312	18893.211179
600.568060	18410.014062
600.918753	18721.706084
601.269392	18622.390312
601.619978	18408.468948
601.970510	18601.903063
602.320988	18543.949958
602.671412	18750.949817
603.021783	18674.379732
603.372100	18387.943891
603.722363	18532.330098
604.072572	18480.927973
604.422728	18636.346746
604.772830	18376.704638
605.122878	18346.291357
605.472872	18321.735897
605.822813	18310.410944
606.172701	18289.931257
606.522534	18474.629052
606.872314	18498.521600
607.222041	18339.904215
607.571714	18552.671154
607.921333	18369.334471
608.270899	18448.858673
608.620411	18619.088356
608.969870	18406.659174
609.319276	18401.363442
609.668627	18432.908462
610.017926	18559.572494
610.367171	18663.032094
610.716362	18727.957115
611.065500	18535.614410
611.414585	18681.119754
611.763616	18670.903856
612.112594	18602.407178
612.461518	18569.100275
612.810389	18773.708106
613.159207	18620.628429
613.507971	18536.552065
613.856682	18787.654458
614.205340	18705.282005
614.553945	18868.282673
614.902496	18612.302963
615.250994	18835.540379
615.599439	18781.355537
615.947830	18764.076982
616.296169	18834.295214
616.644454	18794.399522
616.992686	18763.197301
617.340864	18988.307505
617.688990	18730.633967
618.037063	18905.962777
618.385082	18755.844778
618.733048	19040.153252
619.080961	18922.338966
619.428821	18946.130691
619.776628	18821.392381
620.124382	18757.861239
620.472083	18805.243044
620.819731	18815.070774
621.167326	18509.299587
621.514868	18554.619560
621.862357	18329.688317
622.209793	18334.300973
622.557176	18152.816913
622.904506	17999.016351
623.251783	17920.830575
623.599007	17670.691042
623.946179	17615.278679
624.293297	17544.523564
624.640363	17279.837781
624.987376	17306.200495
625.334336	17113.431813
625.681243	16952.704705
626.028097	16972.173642
626.374899	16891.931075
626.721647	16751.655928
627.068343	16593.308245
627.414987	16521.791916
627.761577	16482.062582
628.108115	16521.764189
628.454600	16248.505925
628.801032	16350.929568
629.147412	16285.429856
629.493739	16294.299766
629.840014	16111.820079
630.186236	16207.236519
630.532405	15969.999819
630.878521	16182.381110
631.224585	16066.958851
631.570597	15892.388735
631.916556	15909.942032
632.262462	15897.618932
632.608316	15813.020808
632.954117	15753.018475
633.299866	15749.298103
633.645562	15662.728889
633.991206	15429.976295
634.336797	15295.523681
634.682336	15253.979532
635.027823	15130.814061
635.373257	15015.215363
635.718639	14935.532364
636.063968	14867.224730
636.409245	14619.409168
636.754470	14659.992977
637.099642	14496.629346
637.444762	14271.972845
637.789829	14311.109843
638.134845	14144.618176
638.479808	14171.157330
638.824719	14102.953039
639.169577	13963.353407
639.514383	14004.728677
639.859137	13834.309951
640.203839	13926.777315
640.548489	13765.992234
640.893086	13760.736831
641.237632	13633.578766
641.582125	13785.342703
641.926566	13604.692955
642.270955	13616.491775
642.615292	13572.298500
642.959576	13582.264861
643.303809	13616.844656
643.647990	13547.644737
643.992118	13605.701185
644.336195	13381.349675
644.680219	13601.234723
645.024192	13510.287267
645.368112	13745.447011
645.711981	13794.010967
646.055797	13981.360408
646.399562	13962.279641
646.743274	14224.129775
647.086935	14497.118338
647.430544	14461.084170
647.774101	14496.747813
648.117606	14640.516479
648.461059	14616.949085
648.804460	14597.522999
649.147810	14329.603316
649.491108	14235.018667
649.834354	14248.929731
650.177548	13930.296040
650.520690	13740.567174
650.863781	13664.178570
651.206820	13711.124315
651.549807	13542.011248
651.892742	13336.944671
652.235626	13277.610290
652.578458	13276.559210
652.921238	12975.471255
653.263967	13175.657995
653.606644	13001.097961
653.949269	12972.812046
654.291843	12774.533383
654.634365	12939.575719
654.976836	12794.057772
655.319255	12788.986371
655.661622	12743.006007
656.003938	12667.953309
656.346203	12593.666866
656.688416	12675.376408
657.030577	12633.980973
657.372687	12535.728884
657.714746	12516.567459
658.056753	12715.110782
658.398708	12520.000484
658.740612	12525.349149
659.082465	12639.785862
659.424266	12601.687341
659.766016	12630.303451
660.107715	12539.764328
660.449362	12614.678395
660.790958	12566.603431
661.132503	12506.454904
661.473996	12579.284454
661.815438	12586.934405
662.156829	12617.700567
662.498168	12596.119387
662.839456	12590.110332
663.180693	12596.255498
663.521879	12707.841438
663.863013	12675.099144
664.204097	12650.430258
664.545129	12785.691977
664.886110	12750.212337
665.227040	12843.274557
665.567918	12844.166841
665.908746	12872.636758
666.249522	12862.957742
666.590248	12916.272985
666.930922	13028.564687
667.271545	12994.257115
667.612118	13075.608735
667.952639	12976.948313
668.293109	13005.093075
668.633528	12953.877472
668.973896	12930.841920
669.314213	12998.216941
669.654480	12746.045823
669.994695	12819.772698
670.334859	12851.111031
670.674973	12792.275724
671.015035	12815.722131
671.355047	12767.574070
671.695008	12738.675656
672.034918	12753.932708
672.374777	12792.890745
672.714585	12714.722613
673.054342	12736.240779
673.394049	12707.549052
673.733705	12791.879994
674.073310	12699.611755
674.412864	12708.295142
674.752368	12561.015312
675.091820	12600.565685
675.431223	12585.719487
675.770574	12445.008280
676.109875	12365.337884
676.449125	12322.147799
676.788324	12274.019903
677.127473	12105.312648
677.466571	12091.769589
677.805619	11978.038637
678.144616	11919.311716
678.483562	11892.180226
678.822458	11759.827252
679.161303	11730.510422
679.500098	11720.576828
679.838842	11675.100579
680.177535	11703.550331
680.516179	11768.505598
680.854771	11711.628780
681.193314	11927.372521
681.531805	12097.428284
681.870247	12522.790763
682.208638	12932.117332
682.546978	13236.272829
682.885268	13264.294082
683.223508	12972.164258
683.561697	12815.643993
683.899836	12722.647307
684.237925	12518.049558
684.575963	12431.261053
684.913951	12351.071419
685.251889	12300.032257
685.589776	12396.260322
685.927614	12325.631236
686.265401	12293.146041
686.603137	12351.139475
686.940824	12495.676917
687.278460	12623.946556
687.616046	12662.345025
687.953582	12815.770022
688.291068	12757.990837
688.628504	12996.981858
688.965889	13005.009896
689.303224	12957.025673
689.640510	12849.575999
689.977745	12522.813448
690.314930	12309.071046
690.652065	12218.405894
690.989150	11924.395719
691.326185	11710.267668
691.663170	11493.833290
692.000105	11259.759914
692.336990	11138.094186
692.673825	10878.772191
693.010610	10767.415623
693.347345	10566.845756
693.684030	10364.284633
694.020665	10306.868411
694.357251	10105.197051
694.693786	10030.908088
695.030272	9892.321727
695.366707	9765.692984
695.703093	9700.248725
696.039429	9695.484834
696.375716	9611.161454
696.711952	9486.443308
697.048139	9529.109113
697.384276	9481.477771
697.720363	9506.491977
698.056400	9434.794166
698.392388	9389.086024
698.728326	9345.870733
699.064214	9287.446280
699.400053	9328.246859
699.735842	9140.466399
700.071581	9111.603272
700.407270	9026.049850
700.742910	8948.814332
701.078501	8854.693469
701.414042	8726.265034
701.749533	8668.228750
702.084974	8526.713480
702.420366	8648.298549
702.755709	8522.360443
703.091002	8389.740288
703.426246	8424.428468
703.761440	8373.900983
704.096584	8332.170312
704.431679	8259.388653
704.766725	8243.032629
705.101721	8203.056279
705.436668	8245.255778
705.771565	8137.256619
706.106413	8219.394659
706.441212	8261.604240
706.775961	8215.974236
707.110661	8262.882173
707.445311	8401.755879
707.779913	8296.267214
708.114465	8423.145494
708.448967	8455.237480
708.783421	8614.926110
709.117825	8792.412534
709.452180	8827.224222
709.786485	8916.929034
710.120742	9198.177528
710.454949	9207.707829
710.789107	9304.510586
711.123216	9528.363022
711.457275	9702.174445
711.791286	9848.405716
712.125247	9844.561836
712.459159	9835.855763
712.793023	10070.029962
713.126837	9644.324684
713.460602	9806.526330
713.794318	9639.376792
714.127985	9661.910750
714.461602	9325.023041
714.795171	9274.576214
715.128691	9029.495479
715.462162	8784.558417
715.795584	8721.049960
716.128957	8564.454078
716.462281	8398.222030
716.795556	8444.703989
717.128782	8241.250581
717.461960	7983.516550
717.795088	8051.617497
718.128167	7953.924977
718.461198	7797.495452
718.794180	7735.126297
719.127113	7731.390802
719.459997	7561.566932
719.792833	7341.200453
720.125619	7410.113026
720.458357	7265.575584
720.791046	7253.464212
721.123686	7246.842656
721.456278	7079.819147
721.788821	7106.300328
722.121315	7001.625809
722.453761	7072.932931
722.786158	7009.212746
723.118506	7018.397728
723.450805	6982.466904
723.783056	7045.388066
724.115259	6963.280273
724.447412	6958.798687
724.779518	7013.691811
725.111574	7010.967067
725.443582	7087.222081
725.775542	7067.458237
726.107453	7261.260356
726.439315	7174.744074
726.771129	7240.984835
727.102895	7417.720127
727.434612	7529.270780
727.766281	7564.881490
728.097901	7640.009806
728.429473	7641.887636
728.760996	7625.798793
729.092471	7597.802746
729.423897	7540.048767
729.755276	7535.547016
730.086606	7457.429296
730.417887	7561.685399
730.749120	7776.012575
731.080305	7966.127090
731.411442	8073.173471
731.742530	8062.085453
732.073570	8170.306423
732.404562	8262.685568
732.735506	8114.720140
733.066401	8253.273733
733.397249	8175.012340
733.728048	7933.669621
734.058798	7596.272755
734.389501	7367.169957
734.720156	7195.261570
735.050762	6968.540717
735.381320	6882.894033
735.711831	6820.618139
736.042293	6718.048303
736.372707	6733.547330
736.703073	6594.688747
737.033391	6636.119470
737.363661	6646.547097
737.693883	6682.271234
738.024056	6764.358863
738.354182	6801.544934
738.684260	6833.513411
739.014290	6960.610982
739.344272	7068.108546
739.674207	7095.706343
740.004093	7171.096799
740.333931	7185.186824
740.663722	7187.619181
740.993464	7270.747807
741.323159	7242.240082
741.652806	7003.914493
741.982405	7032.878443
742.311956	7072.998466
742.641460	6901.957157
742.970915	6710.330296
743.300323	6701.364604
743.629683	6654.113869
743.958996	6519.643611
744.288260	6424.179280
744.617477	6376.026179
744.946647	6371.915118
745.275768	6212.266817
745.604842	6165.908366
745.933869	6151.006715
746.262847	6112.020952
746.591778	6093.724084
746.920662	6050.914606
747.249498	6049.876128
747.578286	6100.519559
747.907027	6170.944479
748.235720	6229.099229
748.564365	6208.561569
748.892963	6246.962558
749.221514	6382.541870
749.550017	6204.621907
749.878473	6085.418783
750.206881	6154.477550
750.535242	6095.894301
750.863555	6021.285224
751.191821	6038.152925
751.520039	6033.295773
751.848210	5939.011073
752.176334	5973.789993
752.504411	6015.939080
752.832440	5936.021668
753.160421	5871.804930
753.488356	5919.249749
753.816243	5946.640859
754.144082	5799.388755
754.471875	5773.998984
754.799620	5816.120345
755.127318	5828.839176
755.454969	5787.264780
755.782572	5748.553760
756.110129	5795.197036
756.437638	5771.894302
756.765100	5710.803079
757.092515	5717.454882
757.419882	5774.629128
757.747203	5748.185755
758.074477	5812.173121
758.401703	5789.356859
758.728882	5748.626856
759.056014	5821.310213
759.383099	5929.498415
759.710138	5944.200940
760.037129	5930.065545
760.364073	5939.706752
760.690970	6015.810531
761.017820	5995.981152
761.344623	5956.032528
761.671379	6063.827521
761.998088	6192.997006
762.324751	6447.484535
762.651366	7075.362767
762.977935	8427.932070
763.304456	10074.088091
763.630931	10953.308172
763.957359	10507.012301
764.283740	9555.605418
764.610074	8693.880662
764.936362	7687.812548
765.262602	7097.289265
765.588796	6567.184212
765.914943	6233.127111
766.241044	6065.725516
766.567097	5855.116190
766.893104	5595.688331
767.219064	5419.096712
767.544978	5355.227813
767.870845	5272.648672
768.196665	5170.366181
768.522438	5098.635603
768.848165	5062.714861
769.173846	4992.902442
769.499479	4948.658755
769.825066	4902.398607
770.150607	4836.926622
770.476101	4818.145803
770.801548	4811.864525
771.126949	4728.735898
771.452303	4673.966282
771.777611	4638.700891
772.102872	4654.784692
772.428087	4617.018888
772.753256	4575.714194
773.078378	4526.129405
773.403453	4456.584167
773.728482	4443.131848
774.053465	4400.090476
774.378401	4387.976583
774.703291	4381.360069
775.028135	4309.286693
775.352932	4261.539404
775.677683	4248.455089
776.002388	4269.590127
776.327046	4278.089512
776.651658	4200.554045
776.976224	4139.515754
777.300743	4144.834172
777.625216	4166.682533
777.949643	4160.776821
778.274024	4119.809884
778.598359	4077.922937
778.922647	4100.988736
779.246889	4099.297429
779.571086	4085.257816
779.895236	4069.418510
780.219339	4058.764032
780.543397	4051.096437
780.867409	4107.325467
781.191374	4119.535141
781.515294	4052.147517
781.839167	4047.731466
782.162995	4071.258531
782.486776	4055.633475
782.810511	4068.306936
783.134201	4058.186819
783.457844	4012.536651
783.781441	3957.280563
784.104993	3964.875062
784.428498	3982.675376
784.751958	3976.628512
785.075372	3956.904997
785.398739	3920.001231
785.722061	3932.936832
786.045337	3976.941063
786.368568	4007.888707
786.691752	3917.445366
787.014891	3973.460147
787.337983	4106.168522
787.661030	4269.436371
787.984031	4430.445784
788.306987	4594.668932
788.629897	4679.851829
788.952760	4637.405314
789.275579	4571.048606
789.598351	4502.892206
789.921078	4353.815204
790.243759	4152.368176
790.566395	4143.127741
790.888984	4134.245228
791.211529	4026.914022
791.534027	3963.458497
791.856480	3951.140438
792.178888	3890.137435
792.501249	3845.737473
792.823566	3854.209132
793.145836	3879.266187
793.468062	3826.402127
793.790241	3780.361269
794.112375	3812.430569
794.434464	3880.022360
794.756507	3903.867018
795.078505	3878.643605
795.400457	3920.976694
795.722364	4063.966502
796.044226	4165.218077
796.366042	4241.987289
796.687812	4214.167681
797.009538	4221.734453
797.331218	4181.947146
797.652852	4157.159793
797.974442	4136.647338
798.295986	4131.896050
798.617484	4046.259449
798.938938	3962.533446
799.260346	4009.108666
799.581709	3999.207840
799.903026	3921.201025
800.224299	3889.817322
800.545526	3883.500756
800.866708	3840.507276
801.187845	3782.145838
801.508936	3820.829132
801.829983	3807.495280
802.150984	3732.266141
802.471940	3725.906725
802.792851	3735.447109
803.113717	3734.315370
803.434538	3734.396028
803.755314	3676.694982
804.076045	3655.280160
804.396731	3675.293541
804.717372	3699.387736
805.037967	3682.590611
805.358518	3674.020649
805.679024	3701.759598
805.999485	3714.622103
806.319901	3717.533369
806.640272	3731.394021
806.960598	3746.903131
807.280879	3719.391034
807.601115	3734.267479
807.921306	3753.935541
808.241453	3792.573464
808.561554	3760.978033
808.881611	3695.153166
809.201623	3739.510279
809.521590	3747.460179
809.841513	3722.624934
810.161390	3747.248450
810.481223	3728.013928
810.801011	3673.345135
811.120755	3665.841377
811.440453	3703.670196
811.760107	3703.445864
812.079716	3658.221673
812.399281	3626.401910
812.718801	3654.213956
813.038276	3629.353506
813.357707	3624.491313
813.677093	3639.720639
813.996434	3585.049325
814.315731	3599.497272
814.634983	3598.224381
814.954191	3619.987042
815.273354	3645.596103
815.592473	3639.529075
815.911547	3650.654901
816.230577	3694.994370
816.549562	3744.349787
816.868502	3782.864202
817.187399	3805.496462
817.506250	3805.070485
817.825058	3780.323461
818.143821	3880.062689
818.462539	3978.957525
818.781213	4023.622148
819.099843	4084.985593
819.418429	4346.510573
819.736970	4586.109053
820.055466	4840.548691
820.373919	5211.746492
820.692327	5625.841993
821.010691	6108.388801
821.329011	7568.107829
821.647286	10425.038098
821.965517	15127.028155
822.283704	19157.269338
822.601847	21206.962162
822.919945	19299.863416
823.237999	16664.869944
823.556010	14146.949709
823.873976	11993.696461
824.191897	9883.575325
824.509775	8537.562043
824.827609	7404.048518
825.145398	6869.734101
825.463144	6756.897955
825.780845	6867.289142
826.098502	7079.630103
826.416116	8004.255857
826.733685	9366.685657
827.051210	10464.366660
827.368692	10440.317836
827.686129	9129.897620
828.003522	7610.115764
828.320872	6590.411328
828.638177	5876.354571
828.955439	5304.362571
829.272656	4801.651147
829.589830	4530.066546
829.906960	4348.232127
830.224046	4163.607429
830.541088	4036.585475
830.858086	3988.593691
831.175041	3910.342380
831.491952	3899.720669
831.808819	3911.466557
832.125642	3986.975480
832.442421	4143.599089
832.759157	4432.290846
833.075849	5005.666644
833.392497	5889.816973
833.709101	6679.022210
834.025662	6996.466188
834.342179	6593.728408
834.658653	5918.758237
834.975083	5257.525210
835.291469	4678.510882
835.607811	4275.521044
835.924110	4128.447901
836.240366	3923.950975
836.556578	3720.515211
836.872746	3610.711319
837.188871	3568.380750
837.504952	3499.284175
837.820990	3417.315013
838.136984	3373.507386
838.452935	3399.630646
838.768842	3393.419944
839.084706	3416.442894
839.400526	3587.837083
839.716303	3943.354376
840.032037	4487.166327
840.347727	4730.797730
840.663373	4430.085342
840.978977	4040.976320
841.294537	3730.171542
841.610054	3502.555884
841.925527	3396.119482
842.240957	3326.145746
842.556344	3270.314967
842.871687	3212.283725
843.186987	3158.550066
843.502244	3122.440281
843.817458	3086.068356
844.132629	3062.185889
844.447756	3066.715366
844.762840	3048.050494
845.077881	3016.397089
845.392879	3001.190448
845.707833	2997.344048
846.022745	2998.468225
846.337613	2996.255159
846.652438	2982.018940
846.967221	2981.103971
847.281960	2967.651652
847.596656	2964.629480
847.911309	2964.367340
848.225919	2957.566824
848.540485	2954.688325
848.855009	2951.759414
849.169490	2942.897066
849.483928	2932.076229
849.798323	2931.304933
850.112675	2930.082453
850.426984	2941.364555
850.741251	2940.444545
851.055474	2924.668254
851.369654	2921.565423
851.683792	2928.882658
851.997887	2938.297013
852.311938	2937.939091
852.625947	2926.951896
852.939914	2928.711259
853.253837	2932.151847
853.567718	2918.359250
853.881555	2918.573499
854.195350	2933.563370
854.509103	2930.279058
854.822812	2920.607604
855.136479	2916.612490
855.450103	2918.192892
855.763685	2913.746594
856.077224	2910.742066
856.390720	2922.732451
856.704173	2931.589758
857.017584	2923.970054
857.330953	2923.922163
857.644278	2930.090015
857.957561	2943.756583
858.270802	2946.708178
858.584000	2941.969494
858.897155	2926.891403
859.210268	2928.093718
859.523339	2926.662030
859.836367	2928.373502
860.149352	2918.631472
860.462295	2915.533683
860.775195	2925.109355
861.088054	2922.825712
861.400869	2909.030594
861.713642	2907.452713
862.026373	2920.811771
862.339062	2923.786052
862.651708	2926.803182
862.964312	2933.112186
863.276873	2922.611463
863.589392	2933.394491
863.901869	2948.898560
864.214303	2970.872949
864.526696	2984.133704
864.839045	2979.901656
865.151353	2980.557006
865.463619	2976.652632
865.775842	2980.942654
866.088023	2999.932681
866.400162	3004.807476
866.712258	2974.860502
867.024313	2961.284675
867.336325	2976.224134
867.648296	2996.166939
867.960224	2988.688387
868.272110	2974.235399
868.583954	2977.328147
868.895755	2992.098728
869.207515	2980.017602
869.519233	2985.797285
869.830909	3000.449399
870.142542	3004.835203
870.454134	3001.122393
870.765684	3006.733197
871.077191	3007.423835
871.388657	3017.937162
871.700081	3032.979965
872.011463	3040.471119
872.322803	3043.838610
872.634101	3041.915410
872.945357	3059.050292
873.256571	3085.584405
873.567744	3077.672314
873.878874	3069.556056
874.189963	3093.640169
874.501010	3098.527568
874.812015	3084.782862
875.122979	3083.903180
875.433900	3081.485947
875.744780	3089.609766
876.055618	3095.742330
876.366415	3092.914243
876.677169	3102.973865
876.987882	3099.830706
877.298554	3096.256528
877.609183	3119.337451
877.919771	3144.709578
878.230317	3171.750327
878.540822	3223.548183
878.851285	3263.146446
879.161707	3311.266780
879.472087	3420.148142
879.782425	3665.692663
880.092722	4121.506232
880.402977	4660.496319
880.713191	5321.411753
881.023363	6533.179109
881.333494	7833.569949
881.643583	8371.519038
881.953631	8049.500212
882.263637	7380.090434
882.573602	6763.683348
882.883526	6174.937072
883.193408	5603.000525
883.503248	5144.563035
883.813048	4826.420857
884.122806	4502.546887
884.432522	4178.718287
884.742197	3940.924540
885.051831	3748.770879
885.361424	3615.162658
885.670975	3542.655742
885.980485	3447.062862
886.289954	3366.900954
886.599382	3321.167607
886.908768	3289.438584
887.218113	3244.695823
887.527417	3180.763910
887.836680	3132.507465
888.145901	3128.388842
888.455082	3114.543313
888.764221	3060.839901
889.073319	3033.189173
889.382376	3032.259080
889.691392	3039.044473
890.000366	3035.845861
890.309300	3022.441433
890.618193	3035.044317
890.927044	3051.995197
891.235855	3049.474620
891.544625	3033.748741
891.853353	3050.429919
892.162041	3069.402301
892.470687	3109.214814
892.779293	3162.880417
893.087858	3209.062427
893.396381	3287.180147
893.704864	3414.517173
894.013306	3666.514371
894.321707	3979.514572
894.630068	4178.093184
894.938387	4169.828213
895.246665	4125.902118
895.554903	3997.370339
895.863100	3793.979946
896.171256	3621.547279
896.479371	3476.891369
896.787446	3353.657843
897.095480	3244.736153
897.403473	3181.641071
897.711425	3148.364414
898.019336	3139.330667
898.327207	3106.298506
898.635038	3070.004719
898.942827	3051.798592
899.250576	3043.274001
899.558284	3012.626306
899.865952	2988.264930
900.173579	2970.124338
900.481165	2963.066723
900.788711	2950.352933
901.096216	2923.493665
901.403681	2912.524114
901.711105	2920.970567
902.018489	2918.422264
902.325832	2916.960329
902.633135	2925.623552
902.940397	2966.630818
903.247619	3054.510733
903.554800	3258.498502
903.861941	3622.699183
904.169041	4066.451791
904.476101	4365.067060
904.783121	4298.223880
905.090100	4036.913150
905.397039	3757.907970
905.703938	3500.201665
906.010796	3317.280877
906.317614	3200.734441
906.624391	3105.683485
906.931129	3031.525592
907.237826	2968.286837
907.544483	2920.857141
907.851099	2891.741957
908.157675	2869.999461
908.464211	2848.456090
908.770707	2834.378668
909.077163	2817.319403
909.383578	2803.254584
909.689954	2796.020528
909.996289	2794.077163
910.302584	2794.147739
910.608839	2793.487348
910.915054	2786.664147
911.221229	2782.847993
911.527363	2783.553755
911.833458	2792.912657
912.139513	2795.962555
912.445527	2798.493214
912.751502	2806.745583
913.057436	2816.926193
913.363331	2831.452278
913.669186	2854.323993
913.975000	2893.259345
914.280775	2953.296966
914.586510	3024.992256
914.892205	3111.102726
915.197859	3245.237747
915.503475	3449.565795
915.809050	3673.337573
916.114585	3821.207218
916.420081	3831.453363
916.725536	3768.743930
917.030952	3644.131648
917.336328	3509.401771
917.641665	3375.090309
917.946961	3275.270421
918.252218	3201.120089
918.557435	3119.040022
918.862612	3057.754715
919.167750	3011.330729
919.472848	2964.324490
919.777906	2941.984617
920.082925	2913.711306
920.387904	2881.740308
920.692843	2865.774974
920.997743	2854.830629
921.302603	2841.557271
921.607423	2826.590085
921.912204	2815.623055
922.216946	2801.280972
922.521647	2793.404169
922.826310	2787.125412
923.130932	2778.089144
923.435516	2769.904831
923.740059	2762.491814
924.044564	2752.855648
924.349028	2748.053949
924.653454	2744.746952
924.957840	2733.006105
925.262186	2730.838409
925.566493	2724.204250
925.870761	2721.860114
926.174989	2715.414999
926.479178	2712.866695
926.783328	2704.208514
927.087438	2707.034080
927.391509	2706.109029
927.695541	2701.408153
927.999533	2698.363296
928.303486	2697.506300
928.607400	2694.963037
928.911275	2695.900692
929.215110	2694.723583
929.518906	2694.446319
929.822663	2692.240814
930.126381	2692.497913
930.430060	2694.413552
930.733699	2692.860876
931.037299	2696.671989
931.340861	2695.706608
931.644383	2697.322297
931.947866	2695.847760
932.251309	2694.305167
932.554714	2693.619570
932.858080	2690.794003
933.161407	2689.571523
933.464694	2686.483817
933.767943	2685.314269
934.071153	2687.970957
934.374323	2688.147397
934.677455	2687.600432
934.980548	2685.687314
935.283602	2686.675381
935.586617	2686.151101
935.889593	2685.311748
936.192530	2682.622293
936.495428	2684.681604
936.798287	2685.652026
937.101108	2688.399455
937.403890	2696.049406
937.706632	2698.973275
938.009336	2704.304296
938.312002	2714.016078
938.614628	2723.511092
938.917216	2732.985940
939.219765	2730.220867
939.522275	2729.096690
939.824747	2726.805486
940.127179	2722.790207
940.429573	2721.386245
940.731929	2717.633106
941.034246	2714.590770
941.336524	2712.133207
941.638763	2710.139431
941.940964	2707.029039
942.243126	2706.013247
942.545250	2705.756148
942.847335	2702.915458
943.149381	2698.280117
943.451389	2692.024045
943.753359	2692.601257
944.055290	2691.472038
944.357182	2688.349044
944.659036	2688.633869
944.960851	2689.309383
945.262628	2686.635051
945.564367	2685.102541
945.866067	2690.118489
946.167729	2689.944569
946.469352	2689.243848
946.770937	2690.110927
947.072484	2684.255627
947.373992	2686.498940
947.675462	2682.173630
947.976893	2679.537107
948.278286	2678.589370
948.579641	2679.136335
948.880958	2677.497960
949.182236	2679.411078
949.483476	2680.719257
949.784678	2675.713392
950.085841	2678.425532
950.386967	2679.705985
950.688054	2676.976201
950.989103	2678.672549
951.290114	2679.917714
951.591087	2681.969463
951.892021	2685.841070
952.192917	2689.931966
952.493776	2689.190916
952.794596	2689.165711
953.095378	2687.628159
953.396122	2688.913653
953.696828	2687.184537
953.997496	2687.129084
954.298126	2683.287725
954.598718	2681.102385
954.899272	2679.610203
955.199788	2675.090809
955.500266	2675.302537
955.800706	2672.910510
956.101108	2669.134686
956.401472	2670.339522
956.701798	2669.525375
957.002087	2663.070178
957.302337	2662.745023
957.602550	2661.739313
957.902724	2658.850732
958.202861	2656.791421
958.502960	2657.565238
958.803022	2660.274858
959.103045	2653.948210
959.403031	2658.616318
959.702979	2656.259579
960.002889	2655.442912
960.302762	2653.789413
960.602596	2653.451656
960.902393	2653.118940
961.202153	2652.037612
961.501875	2651.533497
961.801559	2649.509474
962.101205	2651.941831
962.400814	2654.727068
962.700385	2651.084834
962.999918	2649.446459
963.299414	2650.464772
963.598873	2647.477889
963.898293	2646.124339
964.197677	2649.007879
964.497022	2650.432005
964.796331	2653.910401
965.095601	2650.144659
965.394835	2649.632982
965.694030	2650.069042
965.993189	2651.341933
966.292309	2648.271871
966.591393	2648.100471
966.890439	2649.305307
967.189447	2649.282622
967.488419	2648.360091
967.787353	2648.634834
968.086249	2647.641726
968.385108	2649.146511
968.683930	2650.376552
968.982714	2649.325472
969.281462	2647.984525
969.580172	2650.043836
969.878844	2647.303969
970.177480	2649.295225
970.476078	2647.170378
970.774639	2649.262457
971.073162	2650.079124
971.371649	2649.380924
971.670098	2647.283804
971.968510	2648.423105
972.266885	2648.496202
972.565223	2650.656336
972.863524	2649.569968
973.161788	2651.886378
973.460014	2648.123157
973.758204	2651.982160
974.056356	2649.466624
974.354471	2651.324289
974.652550	2648.846562
974.950591	2650.537869
975.248595	2650.363949
975.546563	2647.240955
975.844493	2650.424443
976.142386	2647.966881
976.440243	2650.033754
976.738062	2646.978815
977.035845	2649.161634
977.333590	2646.789771
977.631299	2650.343785
977.928971	2646.547796
978.226606	2644.919503
978.524204	2644.415388
978.821765	2643.114770
979.119290	2644.901859
979.416777	2647.969401
979.714228	2644.591828
980.011642	2646.774648
980.309020	2647.334216
980.606360	2644.448155
980.903664	2648.647437
981.200931	2648.123157
981.498162	2648.155924
981.795356	2651.961995
982.092513	2649.829587
982.389633	2652.007366
982.686717	2656.020124
982.983764	2658.114723
983.280775	2666.223419
983.577749	2662.606392
983.874686	2665.200065
984.171587	2662.689571
984.468451	2658.918787
984.765279	2654.313693
985.062070	2656.713283
985.358824	2653.688590
985.655543	2650.096768
985.952224	2649.852272
986.248869	2648.748260
986.545478	2646.855306
986.842050	2648.158445
987.138586	2648.211377
987.435086	2649.002838
987.731549	2645.227014
988.027975	2644.304482
988.324366	2643.780202
988.620719	2646.250368
988.917037	2645.945378
989.213318	2642.663587
989.509563	2643.845737
989.805772	2643.581077
990.101944	2642.555202
990.398080	2644.874133
990.694180	2641.675521
990.990244	2642.958494
991.286271	2642.535037
991.582262	2641.264667
991.878217	2644.243989
992.174136	2643.649132
992.470019	2643.046715
992.765865	2639.255767
993.061676	2640.420273
993.357450	2640.319450
993.653188	2639.575880
993.948890	2642.058648
994.244556	2643.326499
994.540186	2645.078300
994.835780	2644.947230
995.131337	2643.384472
995.426859	2645.348001
995.722345	2646.295738
996.017795	2644.720378
996.313208	2649.020482
996.608586	2647.213228
996.903928	2649.736326
997.199234	2649.322951
997.494504	2646.565440
997.789738	2646.958650
998.084936	2644.642240
998.380099	2647.689617
998.675225	2646.993938
998.970316	2643.996972
999.265371	2647.974442
999.560390	2644.783392
999.855373	2642.320788
1000.150320	2640.160654
1000.445232	2643.838176
1000.740108	2643.840696
1001.034948	2641.940181
1001.329752	2642.875315
1001.624521	2641.748618
1001.919254	2641.783906
1002.213951	2643.301293
1002.508613	2642.093937
1002.803239	2640.417753
1003.097829	2641.055459
1003.392384	2641.796508
1003.686903	2641.347846
1003.981386	2642.625778
1004.275834	2642.779533
1004.570246	2642.872795
1004.864623	2639.875829
1005.158964	2642.381282
1005.453270	2642.189718
1005.747540	2639.792650
1006.041775	2639.293576
1006.335974	2641.864564
1006.630138	2643.258443
1006.924266	2640.458082
1007.218359	2640.281642
1007.512416	2640.425315
1007.806438	2636.689820
1008.100425	2636.982207
1008.394376	2637.975314
1008.688292	2642.015799
1008.982172	2641.612506
1009.276017	2643.772641
1009.569827	2640.523617
1009.863602	2642.391365
1010.157341	2640.669811
1010.451045	2640.221148
1010.744714	2639.548154
1011.038347	2639.001189
1011.331945	2642.086375
1011.625508	2640.949595
1011.919036	2638.774337
1012.212528	2641.809111
1012.505986	2640.816004
1012.799408	2643.139976
1013.092795	2639.258287
1013.386147	2641.514204
1013.679464	2640.546302
1013.972745	2641.892290
1014.265992	2639.343987
1014.559204	2638.824748
1014.852380	2640.390027
1015.145521	2640.871457
1015.438628	2640.528658
1015.731699	2638.575211
1016.024736	2641.070582
1016.317737	2640.841210
1016.610703	2639.964049
1016.903635	2640.440438
1017.196531	2640.057310
1017.489393	2638.691158
1017.782219	2639.064203
1018.075011	2638.907927
1018.367768	2638.928092
1018.660490	2639.275932
1018.953177	2639.275932
1019.245829	2639.275932
