Dividing Wavelength (nm)	Counts (n)	Blue Motor Position (mm): 1.900000	Red Motor Position (mm): 0.000000	
326.493990	2163.572490
326.888308	2163.572490
327.282561	2163.572490
327.676750	2123.812910
328.070874	2122.766870
328.464933	2122.265275
328.858929	2124.753085
329.252859	2128.463374
329.646726	2136.524179
330.040528	2152.154277
330.434265	2162.186173
330.827938	2179.621003
331.221547	2196.614733
331.615091	2216.156766
332.008571	2235.580332
332.401986	2251.182703
332.795338	2271.148193
333.188625	2290.589402
333.581847	2309.450879
333.975006	2327.442758
334.368100	2343.400530
334.761129	2359.857377
335.154095	2379.038967
335.546996	2395.480690
335.939833	2413.089441
336.332606	2426.403128
336.725315	2444.067331
337.117960	2453.083435
337.510540	2464.678089
337.903056	2475.141003
338.295508	2482.861531
338.687896	2493.125320
339.080220	2499.038593
339.472480	2508.921775
339.864676	2511.888494
340.256807	2519.004083
340.648875	2522.479959
341.040879	2525.459281
341.432818	2530.434899
341.824694	2528.516740
342.216506	2531.392719
342.608253	2532.030425
342.999937	2532.065713
343.391557	2533.875487
343.783113	2529.928263
344.174605	2533.210055
344.566033	2529.638397
344.957397	2529.658562
345.348697	2529.802235
345.739934	2524.627490
346.131106	2526.986750
346.522215	2520.692870
346.913260	2518.268075
347.304241	2517.869823
347.695159	2521.486851
348.086012	2515.215656
348.476802	2514.361180
348.867528	2511.293638
349.258191	2505.390447
349.648789	2506.723832
350.039324	2502.275014
350.429796	2505.763493
350.820203	2502.035559
351.210548	2503.595796
351.600828	2501.778460
351.991045	2501.120590
352.381198	2499.378871
352.771288	2499.116731
353.161314	2498.252173
353.551276	2497.879128
353.941175	2498.375682
354.331010	2498.683192
354.720782	2496.449961
355.110490	2495.456853
355.500135	2496.397029
355.889717	2496.245794
356.279235	2497.793428
356.668689	2496.452481
357.058080	2497.236381
357.447408	2497.468274
357.836672	2497.790908
358.225873	2498.194200
358.615010	2498.300064
359.004084	2495.749240
359.393095	2499.217554
359.782043	2501.692761
360.170927	2502.774088
360.559748	2501.377689
360.948505	2502.048162
361.337199	2503.270642
361.725830	2504.173008
362.114398	2503.736949
362.502903	2502.096053
362.891344	2505.380365
363.279722	2506.297855
363.668037	2506.073523
364.056289	2507.013699
364.444478	2505.904645
364.832603	2506.544871
365.220665	2506.582680
365.608665	2505.551764
365.996601	2508.894049
366.384474	2507.845489
366.772284	2505.327433
367.160031	2508.841117
367.547715	2509.884636
367.935336	2509.471261
368.322893	2507.691734
368.710388	2505.133348
369.097820	2504.815756
369.485189	2505.037566
369.872495	2509.846827
370.259738	2508.863802
370.646918	2513.443690
371.034035	2511.583505
371.421090	2510.471930
371.808081	2511.734739
372.195010	2512.082579
372.581875	2512.455624
372.968678	2513.549555
373.355418	2511.465038
373.742096	2513.915038
374.128710	2512.652229
374.515262	2513.126098
374.901751	2513.607528
375.288177	2513.819256
375.674540	2513.153824
376.060841	2517.196829
376.447079	2516.483506
376.833254	2513.988135
377.219367	2517.171624
377.605417	2516.657426
377.991404	2515.497961
378.377329	2513.589884
378.763191	2516.251613
379.148991	2513.173989
379.534727	2519.485513
379.920402	2515.238341
380.306013	2516.695235
380.691563	2518.515091
381.077049	2519.848476
381.462474	2516.367560
381.847835	2518.230266
382.233134	2517.670698
382.618371	2517.416120
383.003545	2520.105575
383.388657	2517.713548
383.773706	2518.436953
384.158693	2520.760925
384.543618	2519.503157
384.928480	2519.606501
385.313280	2518.704134
385.698017	2520.294618
386.082692	2518.603311
386.467305	2519.641789
386.851856	2521.209588
387.236344	2520.977695
387.620770	2518.409227
388.005133	2514.978722
388.389435	2516.912004
388.773674	2515.407220
389.157851	2520.786131
389.541965	2522.212778
389.926018	2520.193795
390.310008	2521.048271
390.693936	2523.399969
391.077802	2526.016328
391.461606	2523.223529
391.845348	2520.650020
392.229027	2523.296626
392.612645	2524.040196
392.996200	2522.200175
393.379694	2522.588343
393.763125	2523.934332
394.146494	2524.110772
394.529801	2526.112110
394.913047	2523.379805
395.296230	2524.819054
395.679351	2526.197810
396.062410	2524.566996
396.445408	2525.275278
396.828343	2525.721421
397.211217	2524.708149
397.594028	2527.372398
397.976778	2525.665968
398.359466	2527.344672
398.742092	2526.701925
399.124656	2526.280989
399.507158	2527.034641
399.889598	2526.129754
400.271977	2529.582944
400.654294	2526.840557
401.036549	2526.278468
401.418742	2526.805269
401.800874	2526.089425
402.182944	2525.492048
402.564952	2527.211082
402.946898	2527.417769
403.328783	2528.466329
403.710606	2529.991278
404.092367	2528.325177
404.474067	2527.405166
404.855705	2528.539426
405.237282	2528.221833
405.618797	2529.015815
406.000250	2531.879190
406.381642	2528.385670
406.762972	2525.416431
407.144240	2528.824251
407.525447	2526.091945
407.906593	2523.352078
408.287677	2530.772657
408.668700	2530.598737
409.049661	2532.411032
409.430560	2530.354241
409.811399	2528.446164
410.192176	2529.555218
410.572891	2527.432892
410.953545	2532.335414
411.334138	2532.491690
411.714669	2533.109232
412.095139	2531.932122
412.475547	2530.649148
412.855894	2531.876669
413.236180	2533.421783
413.616405	2535.435724
413.996568	2532.532019
414.376670	2532.940353
414.756711	2530.933974
415.136691	2534.939170
415.516609	2536.133924
415.896466	2534.006557
416.276262	2533.550332
416.655997	2534.054448
417.035670	2533.583100
417.415283	2534.067051
417.794834	2535.569315
418.174324	2535.957483
418.553753	2536.060827
418.933121	2534.714839
419.312428	2535.022349
419.691674	2535.229037
420.070859	2533.865405
420.449983	2535.276928
420.829045	2536.837165
421.208047	2536.660724
421.586988	2534.336753
421.965867	2537.210210
422.344686	2536.547298
422.723444	2536.978317
423.102141	2533.875487
423.480777	2536.025539
423.859352	2534.740045
424.237866	2535.682741
424.616319	2537.033770
424.994712	2535.995292
425.373044	2537.873122
425.751314	2535.576876
426.129524	2533.530168
426.507673	2535.402957
426.885762	2534.881197
427.263789	2535.818852
427.641756	2538.571322
428.019662	2538.261291
428.397508	2538.278935
428.775292	2536.983358
429.153016	2537.626105
429.530679	2539.206507
429.908282	2536.625436
430.285824	2537.263142
430.663305	2538.515869
431.040726	2537.737011
431.418086	2537.547967
431.795385	2536.448996
432.172624	2537.807587
432.549802	2539.715664
432.926920	2538.291538
433.303977	2537.802546
433.680974	2538.057124
434.057910	2538.160468
434.434786	2539.269522
434.811601	2539.158616
435.188355	2542.021992
435.565050	2538.004192
435.941683	2538.757844
436.318257	2541.021322
436.694770	2539.612320
437.071222	2539.118287
437.447614	2541.588452
437.823946	2542.884029
438.200218	2539.879501
438.576429	2541.291024
438.952580	2539.340098
439.328670	2540.673483
439.704700	2540.471837
440.080670	2542.621889
440.456580	2542.853782
440.832429	2542.137938
441.208218	2539.665252
441.583947	2542.047197
441.959616	2542.601724
442.335224	2541.689275
442.710773	2541.623740
443.086261	2541.848072
443.461689	2544.477033
443.837057	2542.208514
444.212365	2542.266488
444.587612	2540.038297
444.962800	2539.299768
445.337927	2539.503935
445.712995	2537.628626
446.088002	2545.036602
446.462949	2542.843700
446.837837	2542.783206
447.212664	2545.944009
447.587431	2544.353525
447.962139	2538.687268
448.336786	2543.236910
448.711374	2541.550644
449.085901	2542.584080
449.460369	2543.693134
449.834776	2543.408309
450.209124	2542.707588
450.583412	2543.037784
450.957640	2545.192877
451.331808	2544.550130
451.705917	2543.872095
452.079965	2544.169523
452.453954	2544.265305
452.827883	2544.066179
453.201752	2543.241951
453.575562	2546.271684
453.949311	2544.063659
454.323001	2546.004503
454.696632	2542.841179
455.070202	2546.037271
455.443713	2544.043494
455.817164	2543.320089
456.190556	2543.945192
456.563888	2542.889070
456.937160	2544.396375
457.310373	2544.396375
457.683526	2542.417722
458.056619	2549.137580
458.429653	2546.122970
458.802628	2545.858310
459.175542	2545.061807
459.548398	2546.722867
459.921194	2547.085831
460.293930	2544.522404
460.666607	2547.645399
461.039224	2546.808567
461.411782	2545.762528
461.784280	2547.012734
462.156719	2546.344781
462.529099	2545.636499
462.901419	2549.021634
463.273680	2541.162475
463.645882	2543.015099
464.018024	2543.549461
464.390106	2543.594832
464.762130	2548.656150
465.134094	2545.437373
465.505999	2545.281097
465.877845	2547.998279
466.249631	2546.526262
466.621358	2544.378731
466.993026	2545.855789
467.364634	2552.404248
467.736184	2548.212528
468.107674	2547.947868
468.479105	2547.259750
468.850477	2547.935265
469.221790	2546.443083
469.593043	2545.384441
469.964238	2548.341078
470.335373	2550.027344
470.706449	2547.007693
471.077467	2544.550130
471.448425	2546.952240
471.819324	2547.637837
472.190164	2546.057435
472.560945	2550.770914
472.931667	2548.469627
473.302330	2549.198074
473.672934	2549.535831
474.043479	2546.677497
474.413965	2548.565409
474.784393	2547.975594
475.154761	2547.421067
475.525070	2548.646068
475.895321	2547.216901
476.265513	2547.305121
476.635645	2548.154555
477.005719	2549.482899
477.375734	2547.952909
477.745691	2549.946685
478.115588	2548.779658
478.485427	2548.998948
478.855207	2550.531459
479.224928	2547.431150
479.594591	2550.990204
479.964194	2548.096582
480.333739	2549.296377
480.703226	2548.361242
481.072653	2547.723537
481.442022	2549.084648
481.811333	2546.221273
482.180584	2544.953423
482.549777	2547.645399
482.918912	2544.398896
483.287988	2551.653116
483.657005	2548.691438
484.025964	2547.297559
484.394864	2547.073228
484.763706	2548.497354
485.132489	2548.502395
485.501213	2549.354350
485.869879	2551.925338
486.238487	2551.728733
486.607036	2550.665050
486.975527	2549.412323
487.343959	2551.048178
487.712333	2546.029709
488.080648	2547.874771
488.448905	2549.346788
488.817104	2548.593136
489.185244	2550.551624
489.553326	2550.637323
489.921350	2552.333672
490.289315	2549.253527
490.657222	2548.819988
491.025070	2552.656306
491.392861	2551.358208
491.760593	2548.704041
492.128267	2550.017262
492.495883	2552.197561
492.863440	2547.373176
493.230939	2549.356870
493.598380	2551.380894
493.965763	2551.181768
494.333088	2549.553475
494.700354	2549.639175
495.067563	2550.614638
495.434713	2549.679504
495.801805	2552.202602
496.168839	2548.424257
496.535815	2551.728733
496.902733	2553.074721
497.269593	2552.487427
497.636395	2551.343085
498.003139	2551.706048
498.369825	2550.972560
498.736453	2551.668239
499.103023	2552.069011
499.469535	2550.932231
499.835989	2550.627241
500.202385	2548.315872
500.568723	2545.921324
500.935003	2547.148845
501.301226	2544.764379
501.667390	2550.990204
502.033497	2551.970709
502.399546	2552.759649
502.765537	2553.593960
503.131470	2552.273178
503.497345	2550.450801
503.863163	2551.910215
504.228923	2550.554144
504.594625	2552.469783
504.960269	2553.319217
505.325856	2551.781665
505.691385	2552.500030
506.056856	2549.067004
506.422270	2553.755277
506.787625	2552.116902
507.152924	2554.236707
507.518164	2551.811912
507.883347	2553.125133
508.248472	2552.358878
508.613540	2551.448949
508.978550	2551.398538
509.343503	2550.443239
509.708398	2550.569268
510.073236	2552.005997
510.438016	2553.898950
510.802738	2552.651264
511.167403	2550.975081
511.532010	2549.639175
511.896561	2555.088662
512.261053	2551.827036
512.625488	2550.281922
512.989866	2551.214536
513.354186	2552.051367
513.718449	2550.541542
514.082655	2552.777293
514.446803	2550.796120
514.810894	2554.251831
515.174927	2555.439022
515.538904	2551.214536
515.902822	2551.852242
516.266684	2555.282747
516.630488	2553.883827
516.994235	2553.099927
517.357925	2552.043805
517.721558	2555.711245
518.085133	2552.071532
518.448651	2552.661347
518.812112	2549.180430
519.175516	2549.283774
519.538863	2546.685059
519.902152	2552.152190
520.265385	2553.858621
520.628560	2554.904660
520.991678	2553.326779
521.354739	2552.908363
521.717743	2553.528425
522.080690	2551.897612
522.443580	2553.999773
522.806413	2552.956254
523.169189	2553.586398
523.531908	2550.833928
523.894569	2553.314176
524.257174	2556.706873
524.619722	2552.565565
524.982213	2551.310318
525.344647	2554.380380
525.707025	2551.627910
526.069345	2552.840308
526.431608	2554.975236
526.793815	2552.232849
527.155964	2554.947510
527.518057	2553.896429
527.880093	2553.467931
528.242072	2553.346944
528.603995	2554.430792
528.965860	2552.941131
529.327669	2553.296532
529.689421	2554.680329
530.051117	2554.677808
530.412755	2551.234700
530.774337	2552.938610
531.135862	2551.701007
531.497331	2552.643703
531.858743	2552.477345
532.220098	2551.741336
532.581396	2554.012376
532.942638	2555.227294
533.303824	2555.635627
533.664953	2554.166131
534.026025	2554.062788
534.387040	2554.987839
534.747999	2554.312325
535.108902	2554.655123
535.469748	2555.849877
535.830537	2554.050185
536.191270	2555.615463
536.551947	2553.122612
536.912567	2549.056922
537.273131	2551.620348
537.633638	2551.360729
537.994089	2553.513302
538.354483	2552.643703
538.714821	2551.169165
539.075103	2552.595812
539.435328	2552.530277
539.795497	2554.506409
540.155609	2554.609753
540.515665	2555.630586
540.875665	2555.580175
541.235609	2551.653116
541.595496	2554.012376
541.955328	2555.355843
542.315102	2553.851059
542.674821	2554.145967
543.034483	2553.982129
543.394090	2553.727551
543.753640	2553.132695
544.113134	2554.929866
544.472571	2558.143602
544.831953	2556.477500
545.191278	2554.914742
545.550548	2551.678322
545.909761	2554.927345
546.268918	2554.387942
546.628019	2552.774773
546.987064	2553.162942
547.346053	2554.123281
547.704986	2554.957592
548.063863	2554.042623
548.422684	2551.040616
548.781449	2552.573127
549.140158	2551.491799
549.498811	2557.160577
549.857408	2555.691080
550.215949	2552.608415
550.574434	2553.851059
550.932864	2555.847356
551.291237	2553.125133
551.649555	2558.078067
552.007817	2556.288457
552.366022	2557.059753
552.724173	2555.000442
553.082267	2556.152346
553.440305	2553.472973
553.798288	2555.605381
554.156215	2554.415668
554.514086	2549.051881
554.871902	2551.590102
555.229661	2550.488609
555.587365	2547.905018
555.945014	2553.417520
556.302606	2552.379042
556.660143	2553.979608
557.017625	2555.048333
557.375050	2554.604712
557.732421	2556.134702
558.089735	2554.934907
558.446994	2552.822664
558.804197	2554.448436
559.161345	2556.613611
559.518437	2554.718138
559.875474	2556.754764
560.232455	2556.946327
560.589381	2552.278219
560.946251	2554.881975
561.303065	2555.408776
561.659825	2552.426933
562.016528	2555.186965
562.373177	2554.750905
562.729770	2554.587068
563.086307	2555.396173
563.442789	2554.682849
563.799216	2554.592109
564.155587	2552.280740
564.511904	2554.977757
564.868164	2557.858776
565.224370	2554.143446
565.580520	2553.528425
565.936615	2555.272664
566.292654	2554.803837
566.648638	2556.064126
567.004567	2555.738971
567.360441	2556.212840
567.716260	2553.719989
568.072023	2554.937428
568.427732	2555.194527
568.783385	2554.294681
569.138982	2553.016748
569.494525	2553.286450
569.850013	2556.164949
570.205445	2552.041285
570.560823	2553.901471
570.916145	2554.229146
571.271412	2553.205791
571.626625	2552.285781
571.981782	2552.270657
572.336884	2552.852911
572.691931	2551.998435
573.046923	2552.545400
573.401860	2548.149514
573.756743	2556.611091
574.111570	2551.121274
574.466342	2555.648230
574.821059	2554.990360
575.175722	2556.492624
575.530330	2556.888354
575.884882	2553.142777
576.239380	2556.212840
576.593823	2555.496996
576.948211	2556.923642
577.302544	2557.218550
577.656823	2555.154197
578.011047	2556.563200
578.365216	2552.280740
578.719330	2557.402552
579.073389	2554.544218
579.427394	2553.387273
579.781344	2556.417006
580.135239	2556.721996
580.489080	2551.781665
580.842866	2556.507747
581.196597	2557.866338
581.550273	2553.727551
581.903895	2554.309804
582.257463	2556.911039
582.610975	2555.413817
582.964434	2554.950031
583.317837	2556.979095
583.671186	2557.359702
584.024481	2556.220401
584.377721	2555.713765
584.730906	2555.058415
585.084037	2557.672254
585.437113	2555.749053
585.790135	2555.580175
586.143103	2555.590257
586.496016	2558.294836
586.848874	2553.548590
587.201679	2557.026986
587.554428	2557.153015
587.907124	2555.088662
588.259765	2555.146636
588.612352	2556.399362
588.964884	2555.376008
589.317362	2558.415824
589.669786	2555.678477
590.022155	2554.919784
590.374470	2549.712272
590.726731	2555.229815
591.078937	2549.500543
591.431090	2556.701832
591.783188	2554.760987
592.135232	2555.849877
592.487222	2557.344579
592.839157	2556.948848
593.191038	2556.112017
593.542866	2555.736451
593.894639	2557.785680
594.246358	2556.268292
594.598022	2556.676626
594.949633	2555.870041
595.301190	2553.059598
595.652692	2557.001780
596.004141	2554.171172
596.355535	2556.905998
596.706876	2553.102448
597.058162	2554.047664
597.409395	2552.704197
597.760573	2555.302911
598.111698	2554.808878
598.462768	2556.026317
598.813785	2555.224773
599.164748	2558.302398
599.515657	2555.396173
599.866511	2555.302911
600.217312	2559.053530
600.568060	2555.058415
600.918753	2558.773746
601.269392	2558.375495
601.619978	2552.996583
601.970510	2556.893395
602.320988	2556.492624
602.671412	2554.871893
603.021783	2555.111347
603.372100	2556.406924
603.722363	2556.258210
604.072572	2555.481872
604.422728	2556.583364
604.772830	2557.889023
605.122878	2554.844166
605.472872	2556.205278
605.822813	2555.597819
606.172701	2554.458518
606.522534	2555.323076
606.872314	2556.656461
607.222041	2555.698642
607.571714	2553.810730
607.921333	2554.352654
608.270899	2550.536500
608.620411	2552.933569
608.969870	2557.934394
609.319276	2559.580330
609.668627	2563.507389
610.017926	2569.125755
610.367171	2569.027453
610.716362	2569.856722
611.065500	2567.247925
611.414585	2563.910682
611.763616	2561.080074
612.112594	2560.124775
612.461518	2563.020918
612.810389	2558.292316
613.159207	2560.059240
613.507971	2556.658982
613.856682	2557.072356
614.205340	2558.385577
614.553945	2559.111503
614.902496	2557.705021
615.250994	2557.679815
615.599439	2558.879610
615.947830	2554.206460
616.296169	2556.106975
616.644454	2558.050340
616.992686	2556.434650
617.340864	2557.117727
617.688990	2552.825184
618.037063	2555.038251
618.385082	2555.726368
618.733048	2556.810216
619.080961	2556.918601
619.428821	2555.754095
619.776628	2556.842984
620.124382	2558.105793
620.472083	2557.301729
620.819731	2556.737120
621.167326	2558.042778
621.514868	2558.158725
621.862357	2556.016235
622.209793	2558.614949
622.557176	2557.909188
622.904506	2555.991029
623.251783	2555.633107
623.599007	2557.790721
623.946179	2555.315514
624.293297	2558.640155
624.640363	2554.675288
624.987376	2557.223591
625.334336	2551.446429
625.681243	2551.025492
626.028097	2548.197405
626.374899	2555.005483
626.721647	2557.463046
627.068343	2556.038920
627.414987	2555.297870
627.761577	2555.494475
628.108115	2555.643189
628.454600	2556.918601
628.801032	2554.657644
629.147412	2557.901626
629.493739	2554.922304
629.840014	2555.998591
630.186236	2554.516491
630.532405	2557.563869
630.878521	2556.376677
631.224585	2553.543549
631.570597	2557.851215
631.916556	2552.605894
632.262462	2554.014897
632.608316	2555.222253
632.954117	2555.975905
633.299866	2557.180741
633.645562	2555.807027
633.991206	2553.898950
634.336797	2553.485575
634.682336	2554.526574
635.027823	2555.204609
635.373257	2554.652602
635.718639	2555.529763
636.063968	2554.153528
636.409245	2556.233004
636.754470	2556.545556
637.099642	2556.621173
637.444762	2558.335165
637.789829	2554.909701
638.134845	2554.382901
638.479808	2556.147305
638.824719	2554.206460
639.169577	2553.793086
639.514383	2553.964485
639.859137	2554.597150
640.203839	2558.004970
640.548489	2554.844166
640.893086	2554.418189
641.237632	2556.364074
641.582125	2554.266954
641.926566	2555.098745
642.270955	2549.452652
642.615292	2551.948023
642.959576	2550.160934
643.303809	2548.227652
643.647990	2554.214022
643.992118	2552.469783
644.336195	2554.360216
644.680219	2553.755277
645.024192	2557.095042
645.368112	2555.786862
645.711981	2553.268806
646.055797	2553.525905
646.399562	2556.210319
646.743274	2552.381563
647.086935	2557.609239
647.430544	2555.378529
647.774101	2551.794268
648.117606	2554.879454
648.461059	2558.695608
648.804460	2557.762994
649.147810	2557.788200
649.491108	2554.967675
649.834354	2556.540515
650.177548	2555.930535
650.520690	2557.268961
650.863781	2554.695452
651.206820	2555.474311
651.549807	2552.749567
651.892742	2555.771739
652.235626	2553.586398
652.578458	2555.464228
652.921238	2553.299053
653.263967	2555.277706
653.606644	2556.535473
653.949269	2554.750905
654.291843	2554.781152
654.634365	2555.360885
654.976836	2557.548745
655.319255	2556.638817
655.661622	2553.977088
656.003938	2555.260062
656.346203	2553.934238
656.688416	2554.534135
657.030577	2554.350133
657.372687	2552.752087
657.714746	2553.755277
658.056753	2555.136553
658.398708	2557.362223
658.740612	2556.961451
659.082465	2554.622356
659.424266	2553.220915
659.766016	2555.247459
660.107715	2548.971222
660.449362	2547.907539
660.790958	2554.582026
661.132503	2554.415668
661.473996	2554.216543
661.815438	2554.501368
662.156829	2555.769218
662.498168	2556.318704
662.839456	2554.642520
663.180693	2556.038920
663.521879	2557.281564
663.863013	2554.279557
664.204097	2554.632438
664.545129	2552.731923
664.886110	2556.190154
665.227040	2555.600339
665.567918	2554.806358
665.908746	2554.118240
666.249522	2554.881975
666.590248	2556.595967
666.930922	2552.656306
667.271545	2554.377860
667.612118	2553.777962
667.952639	2555.179403
668.293109	2555.708724
668.633528	2557.170659
668.973896	2555.358364
669.314213	2553.041954
669.654480	2553.846018
669.994695	2554.413148
670.334859	2555.945658
670.674973	2553.412479
671.015035	2554.972716
671.355047	2554.282078
671.695008	2554.735782
672.034918	2551.668239
672.374777	2552.149670
672.714585	2557.311811
673.054342	2555.494475
673.394049	2553.288970
673.733705	2554.365257
674.073310	2554.846687
674.412864	2553.697304
674.752368	2551.806871
675.091820	2556.066646
675.431223	2554.244269
675.770574	2555.416337
676.109875	2554.382901
676.449125	2552.368960
676.788324	2552.184958
677.127473	2551.088507
677.466571	2548.643547
677.805619	2555.214691
678.144616	2554.251831
678.483562	2553.515822
678.822458	2555.744012
679.161303	2552.963816
679.500098	2556.023796
679.838842	2554.483724
680.177535	2552.648744
680.516179	2554.297201
680.854771	2552.835267
681.193314	2554.203940
681.531805	2553.704866
681.870247	2553.808209
682.208638	2556.921122
682.546978	2554.070349
682.885268	2553.422561
683.223508	2552.416851
683.561697	2555.381049
683.899836	2552.568085
684.237925	2555.300391
684.575963	2553.740154
684.913951	2553.173024
685.251889	2554.987839
685.589776	2554.788714
685.927614	2557.021945
686.265401	2553.878785
686.603137	2551.915256
686.940824	2553.457849
687.278460	2553.924156
687.616046	2554.566903
687.953582	2554.057746
688.291068	2555.456667
688.628504	2552.716799
688.965889	2553.785524
689.303224	2553.535987
689.640510	2551.892571
689.977745	2553.513302
690.314930	2554.622356
690.652065	2551.874927
690.989150	2550.949875
691.326185	2553.397355
691.663170	2553.974567
692.000105	2554.924825
692.336990	2553.349464
692.673825	2556.696790
693.010610	2552.028682
693.347345	2550.327292
693.684030	2548.822508
694.020665	2552.326110
694.357251	2546.100285
694.693786	2554.055226
695.030272	2553.646892
695.366707	2555.900288
695.703093	2556.066646
696.039429	2554.851728
696.375716	2553.707386
696.711952	2554.145967
697.048139	2552.797458
697.384276	2552.169834
697.720363	2554.324928
698.056400	2554.269475
698.392388	2554.697973
698.728326	2553.621687
699.064214	2555.469269
699.400053	2554.768549
699.735842	2555.812068
700.071581	2552.719320
700.407270	2552.484906
700.742910	2554.763508
701.078501	2556.444733
701.414042	2554.821481
701.749533	2551.890050
702.084974	2553.031872
702.420366	2551.131357
702.755709	2554.700493
703.091002	2555.643189
703.426246	2552.487427
703.761440	2552.532797
704.096584	2552.583209
704.431679	2553.064639
704.766725	2552.084135
705.101721	2554.324928
705.436668	2551.832077
705.771565	2554.007335
706.106413	2556.467418
706.441212	2552.174875
706.775961	2551.701007
707.110661	2554.541697
707.445311	2554.269475
707.779913	2553.853580
708.114465	2553.440205
708.448967	2553.712427
708.783421	2553.967006
709.117825	2556.157387
709.452180	2552.255534
709.786485	2554.650082
710.120742	2551.385935
710.454949	2547.854607
710.789107	2550.178578
711.123216	2549.049360
711.457275	2554.811399
711.791286	2553.881306
712.125247	2555.416337
712.459159	2554.178734
712.793023	2552.363919
713.126837	2553.795606
713.460602	2555.018086
713.794318	2552.810061
714.127985	2553.130174
714.461602	2550.662529
714.795171	2550.478527
715.128691	2549.417364
715.462162	2555.897767
715.795584	2551.305276
716.128957	2553.225956
716.462281	2552.744526
716.795556	2553.228477
717.128782	2552.883157
717.461960	2552.449618
717.795088	2553.888868
718.128167	2551.771583
718.461198	2555.353323
718.794180	2552.658826
719.127113	2553.649413
719.459997	2551.660678
719.792833	2551.869886
720.125619	2552.351316
720.458357	2552.227807
720.791046	2552.041285
721.123686	2553.215874
721.456278	2553.273847
721.788821	2551.847200
722.121315	2551.143959
722.453761	2553.009186
722.786158	2550.362581
723.118506	2550.087838
723.450805	2553.029351
723.783056	2551.481717
724.115259	2553.251162
724.447412	2553.616645
724.779518	2555.544887
725.111574	2553.097407
725.443582	2554.299722
725.775542	2555.073539
726.107453	2554.428271
726.439315	2554.748384
726.771129	2554.526574
727.102895	2548.764535
727.434612	2552.162272
727.766281	2548.043650
728.097901	2551.978270
728.429473	2551.280071
728.760996	2554.818961
729.092471	2551.254865
729.423897	2551.030533
729.755276	2550.750749
730.086606	2553.856100
730.417887	2551.461552
730.749120	2553.510781
731.080305	2553.747715
731.411442	2552.389124
731.742530	2551.164124
732.073570	2552.265616
732.404562	2552.565565
732.735506	2552.137067
733.066401	2555.645710
733.397249	2550.803682
733.728048	2552.326110
734.058798	2553.059598
734.389501	2553.609084
734.720156	2552.195040
735.050762	2552.305945
735.381320	2555.993549
735.711831	2551.428785
736.042293	2552.038764
736.372707	2551.703527
736.703073	2551.985832
737.033391	2551.206974
737.363661	2551.983312
737.693883	2554.309804
738.024056	2551.723692
738.354182	2552.404248
738.684260	2552.361398
739.014290	2554.718138
739.344272	2552.159752
739.674207	2553.621687
740.004093	2551.050698
740.333931	2553.185627
740.663722	2552.580688
740.993464	2553.533466
741.323159	2550.153373
741.652806	2550.841490
741.982405	2550.380225
742.311956	2550.518856
742.641460	2553.954403
742.970915	2552.038764
743.300323	2551.196892
743.629683	2548.782179
743.958996	2549.102292
744.288260	2548.933413
744.617477	2549.535831
744.946647	2552.820143
745.275768	2553.785524
745.604842	2552.197561
745.933869	2550.433157
746.262847	2552.134546
746.591778	2551.789227
746.920662	2552.542880
747.249498	2554.365257
747.578286	2550.745708
747.907027	2551.360729
748.235720	2552.091696
748.564365	2550.523898
748.892963	2551.217056
749.221514	2552.137067
749.550017	2551.108671
749.878473	2552.807540
750.206881	2551.837118
750.535242	2551.854762
750.863555	2553.097407
751.191821	2552.983981
751.520039	2552.709238
751.848210	2551.683363
752.176334	2551.733774
752.504411	2551.985832
752.832440	2552.048847
753.160421	2553.210833
753.488356	2550.609597
753.816243	2551.559855
754.144082	2552.782334
754.471875	2551.693445
754.799620	2552.880637
755.127318	2552.162272
755.454969	2551.121274
755.782572	2552.729402
756.110129	2552.958775
756.437638	2551.887530
756.765100	2553.798127
757.092515	2550.876778
757.419882	2552.968857
757.747203	2550.440718
758.074477	2552.278219
758.401703	2550.962478
758.728882	2551.033054
759.056014	2550.438198
759.383099	2553.924156
759.710138	2546.072559
760.037129	2548.683876
760.364073	2548.535162
760.690970	2547.496685
761.017820	2549.573640
761.344623	2550.133208
761.671379	2552.694114
761.998088	2549.155224
762.324751	2553.677139
762.651366	2551.138918
762.977935	2548.837632
763.304456	2551.378373
763.630931	2551.761501
763.957359	2553.026830
764.283740	2549.755122
764.610074	2550.755791
764.936362	2549.921480
765.262602	2549.815615
765.588796	2550.687735
765.914943	2552.177396
766.241044	2551.912735
766.567097	2550.609597
766.893104	2549.326623
767.219064	2550.707900
767.544978	2550.954916
767.870845	2551.249824
768.196665	2551.154042
768.522438	2551.262427
768.848165	2552.623538
769.173846	2551.549772
769.499479	2552.013558
769.825066	2550.952396
770.150607	2553.268806
770.476101	2549.200595
770.801548	2549.979453
771.126949	2550.954916
771.452303	2549.432488
771.777611	2550.090358
772.102872	2551.771583
772.428087	2552.442057
772.753256	2552.797458
773.078378	2552.898281
773.403453	2550.284443
773.728482	2554.249310
774.053465	2550.705379
774.378401	2553.934238
774.703291	2550.044988
775.028135	2553.210832
775.352932	2550.665050
775.677683	2548.958619
776.002388	2548.653629
776.327046	2549.908877
776.651658	2545.515511
776.976224	2548.114226
777.300743	2554.241748
777.625216	2552.734443
777.949643	2552.174875
778.274024	2551.448949
778.598359	2550.425595
778.922647	2548.348640
779.246889	2552.391645
779.571086	2553.369629
779.895236	2551.464073
780.219339	2549.465255
780.543397	2549.936603
780.867409	2552.230328
781.191374	2555.063457
781.515294	2551.322920
781.839167	2548.383928
782.162995	2550.894422
782.486776	2551.653116
782.810511	2549.893753
783.134201	2548.943496
783.457844	2552.195040
783.781441	2552.794937
784.104993	2550.047508
784.428498	2551.038095
784.751958	2551.448949
785.075372	2551.149001
785.398739	2552.467262
785.722061	2549.911397
786.045337	2553.253682
786.368568	2551.983312
786.691752	2551.388455
787.014891	2549.891233
787.337983	2549.898794
787.661030	2552.926007
787.984031	2553.374670
788.306987	2551.728733
788.629897	2549.341747
788.952760	2551.307797
789.275579	2550.783517
789.598351	2550.483568
789.921078	2551.461552
790.243759	2550.506253
790.566395	2549.964329
790.888984	2551.300235
791.211529	2548.146993
791.534027	2551.643034
791.856480	2551.811912
792.178888	2550.241593
792.501249	2549.203115
792.823566	2549.296377
793.145836	2547.423588
793.468062	2549.624052
793.790241	2551.781665
794.112375	2550.783517
794.434464	2551.643034
794.756507	2548.751932
795.078505	2549.225800
795.400457	2550.687735
795.722364	2550.657488
796.044226	2550.838970
796.366042	2550.932231
796.687812	2551.138918
797.009538	2550.670091
797.331218	2549.987015
797.652852	2549.069525
797.974442	2551.726213
798.295986	2551.166645
798.617484	2551.257385
798.938938	2551.355688
799.260346	2552.545400
799.581709	2548.605738
799.903026	2552.189999
800.224299	2549.669422
800.545526	2552.379042
800.866708	2548.303269
801.187845	2550.115564
801.508936	2548.905687
801.829983	2550.168496
802.150984	2548.862837
802.471940	2552.641182
802.792851	2549.437529
803.113717	2549.835780
803.434538	2547.226983
803.755314	2550.816284
804.076045	2548.809905
804.396731	2548.204967
804.717372	2551.038095
805.037967	2550.599515
805.358518	2548.066335
805.679024	2549.180430
805.999485	2553.054557
806.319901	2549.762683
806.640272	2551.096068
806.960598	2549.974412
807.280879	2547.292518
807.601115	2553.785524
807.921306	2548.388969
808.241453	2546.904349
808.561554	2543.801519
808.881611	2548.338557
809.201623	2546.596839
809.521590	2551.292673
809.841513	2549.119936
810.161390	2553.969526
810.481223	2550.027344
810.801011	2550.957437
811.120755	2549.016593
811.440453	2553.888868
811.760107	2549.508105
812.079716	2551.403579
812.399281	2549.162786
812.718801	2553.084804
813.038276	2551.464073
813.357707	2551.562375
813.677093	2549.104813
813.996434	2550.188661
814.315731	2551.358208
814.634983	2549.545914
814.954191	2550.775955
815.273354	2551.882488
815.592473	2549.803012
815.911547	2553.067160
816.230577	2550.854093
816.549562	2550.052550
816.868502	2550.596994
817.187399	2548.603218
817.506250	2551.484237
817.825058	2548.633465
818.143821	2548.457024
818.462539	2553.057077
818.781213	2550.574309
819.099843	2550.982643
819.418429	2549.132539
819.736970	2552.938610
820.055466	2550.506253
820.373919	2550.102961
820.692327	2550.896943
821.010691	2551.464073
821.329011	2549.253527
821.647286	2551.300235
821.965517	2550.791079
822.283704	2549.145142
822.601847	2552.195040
822.919945	2549.223280
823.237999	2547.340409
823.556010	2551.017931
823.873976	2551.121274
824.191897	2547.090872
824.509775	2544.855120
824.827609	2547.710934
825.145398	2545.722198
825.463144	2550.254196
825.780845	2548.807385
826.098502	2549.467776
826.416116	2550.725544
826.733685	2552.139587
827.051210	2550.362581
827.368692	2547.756304
827.686129	2548.409133
828.003522	2552.154711
828.320872	2548.184802
828.638177	2548.751932
828.955439	2551.708569
829.272656	2551.022972
829.589830	2549.349309
829.906960	2549.498023
830.224046	2553.107489
830.541088	2549.339226
830.858086	2550.347457
831.175041	2549.868548
831.491952	2553.654454
831.808819	2548.653629
832.125642	2547.968033
832.442421	2549.034237
832.759157	2547.695810
833.075849	2552.719320
833.392497	2547.892415
833.709101	2548.555327
834.025662	2548.814946
834.342179	2551.358208
834.658653	2550.304607
834.975083	2548.235214
835.291469	2558.632593
835.607811	2551.196892
835.924110	2550.599515
836.240366	2550.143290
836.556578	2549.127498
836.872746	2550.549103
837.188871	2548.083979
837.504952	2548.449463
837.820990	2546.929555
838.136984	2551.663198
838.452935	2551.625390
838.768842	2550.929710
839.084706	2549.321582
839.400526	2549.223280
839.716303	2550.909546
840.032037	2547.070707
840.347727	2546.450645
840.663373	2548.946016
840.978977	2544.998793
841.294537	2549.924000
841.610054	2548.661191
841.925527	2550.667570
842.240957	2549.860986
842.556344	2550.602035
842.871687	2551.252344
843.186987	2550.481048
843.502244	2549.682025
843.817458	2550.440718
844.132629	2547.504246
844.447756	2548.951057
844.762840	2545.732281
845.077881	2548.353681
845.392879	2547.637837
845.707833	2549.258568
846.022745	2547.847045
846.337613	2551.022972
846.652438	2549.215718
846.967221	2550.387786
847.281960	2548.560368
847.596656	2548.280584
847.911309	2548.333516
848.225919	2550.138249
848.540485	2549.959288
848.855009	2551.249824
849.169490	2547.075748
849.483928	2549.845862
849.798323	2550.355019
850.112675	2551.166645
850.426984	2546.662374
850.741251	2547.486602
851.055474	2546.909390
851.369654	2549.780327
851.683792	2547.859648
851.997887	2548.451983
852.311938	2551.229659
852.625947	2548.951058
852.939914	2550.029864
853.253837	2548.956099
853.567718	2549.858465
853.881555	2550.733105
854.195350	2549.157745
854.509103	2549.026675
854.822812	2549.067004
855.136479	2549.760163
855.450103	2547.975594
855.763685	2544.161961
856.077224	2543.980480
856.390720	2548.023485
856.704173	2543.758669
857.017584	2549.293856
857.330953	2548.794782
857.644278	2551.519525
857.957561	2551.627910
858.270802	2551.179247
858.584000	2548.716644
858.897155	2548.247817
859.210268	2548.376366
859.523339	2547.902498
859.836367	2547.199257
860.149352	2548.671273
860.462295	2545.964174
860.775195	2550.347457
861.088054	2549.936603
861.400869	2547.219421
861.713642	2549.187992
862.026373	2549.082127
862.339062	2548.406613
862.651708	2548.192364
862.964312	2552.247972
863.276873	2549.228321
863.589392	2549.508105
863.901869	2549.543393
864.214303	2549.024154
864.526696	2551.012889
864.839045	2549.321582
865.151353	2548.409133
865.463619	2548.479710
865.775842	2548.174720
866.088023	2548.217570
866.400162	2548.789741
866.712258	2547.814277
867.024313	2546.864020
867.336325	2550.039947
867.648296	2548.981304
867.960224	2548.585574
868.272110	2549.608928
868.583954	2550.234031
868.895755	2550.735626
869.207515	2548.749411
869.519233	2549.994576
869.830909	2549.462735
870.142542	2551.655637
870.454134	2550.102961
870.765684	2549.213198
871.077191	2548.431819
871.388657	2548.159596
871.700081	2543.529297
872.011463	2543.776313
872.322803	2545.754966
872.634101	2548.875440
872.945357	2548.207487
873.256571	2548.361243
873.567744	2551.103630
873.878874	2545.891077
874.189963	2548.414175
874.501010	2548.915769
874.812015	2547.363094
875.122979	2547.731098
875.433900	2548.003321
875.744780	2550.070194
876.055618	2548.467107
876.366415	2549.651778
876.677169	2547.761345
876.987882	2550.917108
877.298554	2548.845193
877.609183	2547.912580
877.919771	2545.618855
878.230317	2546.349822
878.540822	2550.256716
878.851285	2549.298897
879.161707	2546.614483
879.472087	2546.985008
879.782425	2550.869217
880.092722	2547.784030
880.402977	2548.696479
880.713191	2547.211859
881.023363	2548.930893
881.333494	2548.116747
881.643583	2545.893598
881.953631	2547.655481
882.263637	2547.778989
882.573602	2548.252858
882.883526	2547.945347
883.193408	2548.852755
883.503248	2548.635985
883.813048	2547.184133
884.122806	2547.108516
884.432522	2548.661191
884.742197	2549.588763
885.051831	2551.146480
885.361424	2551.252344
885.670975	2550.108002
885.980485	2550.140770
886.289954	2547.799154
886.599382	2547.574822
886.908768	2545.797816
887.218113	2540.754141
887.527417	2544.459389
887.836680	2539.151054
888.145901	2546.831252
888.455082	2546.611962
888.764221	2546.916952
889.073319	2548.136911
889.382376	2547.799154
889.691392	2545.649102
890.000366	2549.397200
890.309300	2547.597508
890.618193	2546.564071
890.927044	2549.190512
891.235855	2550.234031
891.544625	2547.920142
891.853353	2547.053063
892.162041	2548.187323
892.470687	2550.344937
892.779293	2544.766900
893.087858	2549.538352
893.396381	2546.985007
893.704864	2548.028526
894.013306	2551.673281
894.321707	2547.985677
894.630068	2548.683876
894.938387	2548.270502
895.246665	2547.446273
895.554903	2547.771427
895.863100	2546.422919
896.171256	2545.815460
896.479371	2547.161448
896.787446	2548.605738
897.095480	2546.070038
897.403473	2548.704041
897.711425	2550.637323
898.019336	2549.351829
898.327207	2548.222611
898.635038	2548.444422
898.942827	2547.416026
899.250576	2548.162117
899.558284	2547.559699
899.865952	2546.654812
900.173579	2547.998279
900.481165	2547.093392
900.788711	2549.308979
901.096216	2546.415357
901.403681	2547.768907
901.711105	2547.905018
902.018489	2546.700182
902.325832	2546.690100
902.633135	2544.983669
902.940397	2545.790254
903.247619	2544.456869
903.554800	2547.511808
903.861941	2548.552806
904.169041	2547.693290
904.476101	2543.756148
904.783121	2548.111705
905.090100	2549.354350
905.397039	2548.893084
905.703938	2548.419216
906.010796	2547.325285
906.317614	2547.816798
906.624391	2548.015923
906.931129	2545.946530
907.237826	2548.754452
907.544483	2546.163299
907.851099	2548.520039
908.157675	2547.189174
908.464211	2550.533980
908.770707	2549.152704
909.077163	2547.713454
909.383578	2549.722354
909.689954	2546.309493
909.996289	2545.444935
910.302584	2549.107333
910.608839	2548.273022
910.915054	2547.577343
911.221229	2548.514998
911.527363	2547.660522
911.833458	2547.131201
912.139513	2548.756973
912.445527	2547.899977
912.751502	2546.087682
913.057436	2548.169679
913.363331	2548.802343
913.669186	2545.139945
913.975000	2549.195553
914.280775	2545.094575
914.586510	2546.551468
914.892205	2547.267312
915.197859	2548.202446
915.503475	2548.648588
915.809050	2545.868392
916.114585	2545.702034
916.420081	2545.938968
916.725536	2545.495347
917.030952	2546.135573
917.336328	2545.896118
917.641665	2546.614483
917.946961	2541.475026
918.252218	2544.756817
918.557435	2542.216076
918.862612	2545.354194
919.167750	2547.322765
919.472848	2549.361912
919.777906	2546.924514
920.082925	2546.795964
920.387904	2545.298742
920.692843	2550.861655
920.997743	2548.396531
921.302603	2545.989380
921.607423	2544.958464
921.912204	2548.971222
922.216946	2546.070038
922.521647	2549.329144
922.826310	2548.580533
923.130932	2548.376366
923.435516	2547.456355
923.740059	2547.789072
924.044564	2546.924514
924.349028	2545.883515
924.653454	2547.307641
924.957840	2548.459545
925.262186	2548.542724
925.566493	2543.854451
925.870761	2548.303269
926.174989	2547.922662
926.479178	2545.563402
926.783328	2547.857127
927.087438	2543.786395
927.391509	2548.222611
927.695541	2549.001469
927.999533	2546.140614
928.303486	2548.489792
928.607400	2546.478372
928.911275	2546.856458
929.215110	2546.674977
929.518906	2546.455686
929.822663	2546.753114
930.126381	2547.544576
930.430060	2546.937117
930.733699	2546.362425
931.037299	2547.123639
931.340861	2549.268650
931.644383	2547.237065
931.947866	2544.514842
932.251309	2548.474668
932.554714	2544.774462
932.858080	2545.903680
933.161407	2543.554502
933.464694	2543.990562
933.767943	2542.659697
934.071153	2545.734801
934.374323	2545.087013
934.677455	2549.049360
934.980548	2547.849565
935.283602	2546.238917
935.586617	2545.263453
935.889593	2548.177240
936.192530	2545.830583
936.495428	2546.264123
936.798287	2546.909390
937.101108	2545.674307
937.403890	2547.942827
937.706632	2545.402085
938.009336	2547.000131
938.312002	2549.132539
938.614628	2545.538196
938.917216	2549.707231
939.219765	2545.276056
939.522275	2547.746222
939.824747	2547.784030
940.127179	2546.526262
940.429573	2546.974925
940.731929	2544.267826
941.034246	2545.029040
941.336524	2546.894267
941.638763	2547.746222
941.940964	2548.386448
942.243126	2547.027857
942.545250	2547.078269
942.847335	2547.663043
943.149381	2545.618855
943.451389	2547.978115
943.753359	2545.414688
944.055290	2545.334030
944.357182	2547.501726
944.659036	2544.683721
944.960851	2548.378887
945.262628	2550.213867
945.564367	2547.063145
945.866067	2548.756973
946.167729	2544.018288
946.469352	2545.467620
946.770937	2545.465100
947.072484	2546.196067
947.373992	2546.843855
947.675462	2547.209339
947.976893	2546.372507
948.278286	2543.458720
948.579641	2544.940820
948.880958	2541.328833
949.182236	2545.588608
949.483476	2547.443753
949.784678	2546.415357
950.085841	2547.005172
950.386967	2546.211190
950.688054	2545.659184
950.989103	2544.172044
951.290114	2545.515511
951.591087	2549.331665
951.892021	2547.007693
952.192917	2544.940820
952.493776	2545.233207
952.794596	2544.366128
953.095378	2545.946530
953.396122	2547.753783
953.696828	2546.185985
953.997496	2545.465100
954.298126	2544.698844
954.598718	2548.202446
954.899272	2546.385110
955.199788	2547.637837
955.500266	2543.214224
955.800706	2546.228834
956.101108	2546.122970
956.401472	2545.944009
956.701798	2544.300593
957.002087	2546.586756
957.302337	2548.182282
957.602550	2544.582898
957.902724	2548.368804
958.202861	2542.694986
958.502960	2546.138094
958.803022	2546.513660
959.103045	2545.989380
959.403031	2547.516849
959.702979	2548.583053
960.002889	2549.664381
960.302762	2541.553164
960.602596	2548.265461
960.902393	2546.604400
961.202153	2547.012734
961.501875	2545.770089
961.801559	2545.586087
962.101205	2547.383259
962.400814	2546.957281
962.700385	2543.990562
962.999918	2542.155582
963.299414	2542.654656
963.598873	2547.012734
963.898293	2542.551313
964.197677	2544.366128
964.497022	2545.674308
964.796331	2546.143135
965.095601	2543.546941
965.394835	2546.276725
965.694030	2544.156920
965.993189	2545.397044
966.292309	2544.973587
966.591393	2548.066335
966.890439	2545.318906
967.189447	2548.071376
967.488419	2544.839997
967.787353	2543.282280
968.086249	2542.833617
968.385108	2545.586087
968.683930	2547.126160
968.982714	2548.341078
969.281462	2545.245809
969.580172	2545.772610
969.878844	2545.144986
970.177480	2545.301262
970.476078	2547.085831
970.774639	2543.738504
971.073162	2543.889739
971.371649	2549.218239
971.670098	2545.961653
971.968510	2546.848896
972.266885	2547.446273
972.565223	2543.307486
972.863524	2547.277394
973.161788	2543.274718
973.460014	2545.760007
973.758204	2543.768751
974.056356	2543.912424
974.354471	2545.621375
974.652550	2543.675490
974.950591	2545.303783
975.248595	2546.178423
975.546563	2543.461241
975.844493	2544.167003
976.142386	2541.762372
976.440243	2544.275387
976.738062	2546.503577
977.035845	2543.627599
977.333590	2547.093392
977.631299	2545.812939
977.928971	2544.860161
978.226606	2543.675490
978.524204	2543.594832
978.821765	2539.907227
979.119290	2543.133566
979.416777	2546.730429
979.714228	2546.032229
980.011642	2542.745397
980.309020	2545.031560
980.606360	2544.948381
980.903664	2545.371838
981.200931	2543.360418
981.498162	2545.535676
981.795356	2546.299411
982.092513	2543.627599
982.389633	2544.655994
982.686717	2542.500901
982.983764	2544.605583
983.280775	2545.129863
983.577749	2547.143804
983.874686	2544.174564
984.171587	2545.661705
984.468451	2544.897970
984.765279	2545.475182
985.062070	2544.744215
985.358824	2547.312683
985.655543	2545.215563
985.952224	2547.289997
986.248869	2546.024668
986.545478	2544.260264
986.842050	2547.027857
987.138586	2545.782692
987.435086	2546.901828
987.731549	2546.843855
988.027975	2547.095913
988.324366	2544.603062
988.620719	2546.543907
988.917037	2545.114739
989.213318	2547.398382
989.509563	2546.160779
989.805772	2544.633309
990.101944	2545.863351
990.398080	2545.336550
990.694180	2544.923176
990.990244	2547.388300
991.286271	2544.441745
991.582262	2542.415202
991.878217	2546.236396
992.174136	2544.388813
992.470019	2543.443597
992.765865	2541.469985
993.061676	2539.766075
993.357450	2542.465613
993.653188	2540.449152
993.948890	2546.438042
994.244556	2543.642723
994.540186	2547.715975
994.835780	2545.061807
995.131337	2544.086344
995.426859	2543.095757
995.722345	2546.985008
996.017795	2544.824873
996.313208	2544.822352
996.608586	2545.961653
996.903928	2546.112888
997.199234	2542.836138
997.494504	2544.363607
997.789738	2547.005172
998.084936	2545.205480
998.380099	2546.833773
998.675225	2547.287477
998.970316	2544.477033
999.265371	2544.776982
999.560390	2543.524255
999.855373	2545.268495
1000.150320	2542.594162
1000.445232	2544.756817
1000.740108	2543.627599
1001.034948	2543.723381
1001.329752	2544.270346
1001.624521	2547.007693
1001.919254	2546.571633
1002.213951	2547.378217
1002.508613	2544.908052
1002.803239	2542.563916
1003.097829	2544.497198
1003.392384	2545.195398
1003.686903	2545.696993
1003.981386	2544.683721
1004.275834	2544.653474
1004.570246	2542.722712
1004.864623	2543.534338
1005.158964	2545.303783
1005.453270	2543.854451
1005.747540	2544.416540
1006.041775	2543.940151
1006.335974	2542.672300
1006.630138	2542.717671
1006.924266	2544.736653
1007.218359	2544.661036
1007.512416	2542.067362
1007.806438	2540.461754
1008.100425	2540.970911
1008.394376	2540.575180
1008.688292	2545.023999
1008.982172	2545.790254
1009.276017	2545.702034
1009.569827	2546.218752
1009.863602	2542.833617
1010.157341	2544.348484
1010.451045	2544.910573
1010.744714	2543.078113
1011.038347	2545.601211
1011.331945	2543.937630
1011.625508	2544.406457
1011.919036	2545.800336
1012.212528	2544.245140
1012.505986	2543.330171
1012.799408	2543.385624
1013.092795	2545.671787
1013.386147	2546.518701
1013.679464	2546.339740
1013.972745	2547.113557
1014.265992	2546.695141
1014.559204	2543.594832
1014.852380	2541.865716
1015.145521	2543.801519
1015.438628	2543.680531
1015.731699	2544.426622
1016.024736	2545.066848
1016.317737	2545.407126
1016.610703	2545.528114
1016.903635	2543.254554
1017.196531	2544.172044
1017.489393	2546.889226
1017.782219	2543.564585
1018.075011	2547.105995
1018.367768	2543.804039
1018.660490	2544.945861
1018.953177	2544.945861
1019.245829	2544.945861
