Dividing Wavelength (nm)	Counts (n)	Blue Motor Position (mm): 17.800000	Red Motor Position (mm): 0.000000	
326.493990	2178.890036
326.888308	2178.890036
327.282561	2178.890036
327.676750	2138.354118
328.070874	2134.162398
328.464933	2135.221041
328.858929	2140.841927
329.252859	2142.901239
329.646726	2154.155615
330.040528	2166.526606
330.434265	2176.243430
330.827938	2194.106759
331.221547	2211.937320
331.615091	2229.480535
332.008571	2247.321179
332.401986	2267.198448
332.795338	2285.278547
333.188625	2305.538944
333.581847	2321.443784
333.975006	2342.682166
334.368100	2358.486183
334.761129	2378.668442
335.154095	2394.676626
335.546996	2418.395255
335.939833	2446.524894
336.332606	2461.424024
336.725315	2474.941878
337.117960	2488.676502
337.510540	2501.549088
337.903056	2509.720798
338.295508	2518.439474
338.687896	2526.096987
339.080220	2533.603265
339.472480	2542.460572
339.864676	2547.637837
340.256807	2553.760318
340.648875	2556.868190
341.040879	2558.778787
341.432818	2565.617112
341.824694	2566.902606
342.216506	2566.630384
342.608253	2566.189283
342.999937	2568.840930
343.391557	2568.157854
343.783113	2566.027966
344.174605	2567.812535
344.566033	2565.944787
344.957397	2563.202399
345.348697	2561.188458
345.739934	2563.454457
346.131106	2557.147974
346.522215	2554.856769
346.913260	2555.310473
347.304241	2554.783672
347.695159	2549.606408
348.086012	2552.270657
348.476802	2549.195553
348.867528	2542.886549
349.258191	2541.936292
349.648789	2540.948226
350.039324	2537.560570
350.429796	2540.451672
350.820203	2538.379758
351.210548	2536.937988
351.600828	2537.043852
351.991045	2536.491846
352.381198	2533.487318
352.771288	2534.974458
353.161314	2533.169725
353.551276	2532.547143
353.941175	2531.959848
354.331010	2531.758202
354.720782	2530.729807
355.110490	2529.822399
355.500135	2533.605785
355.889717	2532.620240
356.279235	2530.949097
356.668689	2532.181659
357.058080	2534.457740
357.447408	2530.044210
357.836672	2532.716022
358.225873	2531.425486
358.615010	2532.108562
359.004084	2533.111752
359.393095	2534.467823
359.782043	2534.528316
360.170927	2534.692154
360.559748	2535.239119
360.948505	2537.527803
361.337199	2536.645601
361.725830	2535.866743
362.114398	2536.922864
362.502903	2536.713657
362.891344	2535.725590
363.279722	2537.507638
363.668037	2539.864378
364.056289	2539.786240
364.444478	2540.368493
364.832603	2540.582742
365.220665	2544.403937
365.608665	2540.209697
365.996601	2545.195398
366.384474	2540.156765
366.772284	2545.553320
367.160031	2545.205480
367.547715	2546.773279
367.935336	2542.815973
368.322893	2538.861188
368.710388	2541.202804
369.097820	2543.625078
369.485189	2540.580222
369.872495	2546.294369
370.259738	2546.047353
370.646918	2544.935778
371.034035	2545.896118
371.421090	2547.632796
371.808081	2547.784030
372.195010	2546.543907
372.581875	2547.337888
372.968678	2547.035419
373.355418	2543.395706
373.742096	2549.608928
374.128710	2549.258568
374.515262	2551.433826
374.901751	2547.100954
375.288177	2546.639688
375.674540	2546.937117
376.060841	2550.660009
376.447079	2550.314690
376.833254	2550.720503
377.219367	2552.240410
377.605417	2549.424926
377.991404	2549.916438
378.377329	2552.376522
378.763191	2551.053219
379.148991	2554.110678
379.534727	2551.080945
379.920402	2550.604556
380.306013	2550.007179
380.691563	2551.476676
381.077049	2551.532128
381.462474	2552.505071
381.847835	2548.734288
382.233134	2551.511964
382.618371	2552.452139
383.003545	2553.851059
383.388657	2555.101265
383.773706	2554.798796
384.158693	2554.856769
384.543618	2557.145453
384.928480	2552.230328
385.313280	2555.307953
385.698017	2554.692932
386.082692	2557.460525
386.467305	2555.509599
386.851856	2559.867676
387.236344	2556.792572
387.620770	2554.947510
388.005133	2553.510781
388.389435	2554.398024
388.773674	2550.712941
389.157851	2556.905998
389.541965	2559.338355
389.926018	2559.451781
390.310008	2558.965310
390.693936	2557.377346
391.077802	2560.722152
391.461606	2559.454302
391.845348	2558.743499
392.229027	2557.793241
392.612645	2558.987995
392.996200	2561.064950
393.379694	2557.727706
393.763125	2560.999415
394.146494	2559.507234
394.529801	2560.903633
394.913047	2560.170145
395.296230	2560.475135
395.679351	2561.785835
396.062410	2558.811554
396.445408	2562.252142
396.828343	2564.692060
397.211217	2562.201730
397.594028	2560.298695
397.976778	2562.166442
398.359466	2562.773901
398.742092	2562.143757
399.124656	2561.178376
399.507158	2562.902451
399.889598	2563.678788
400.271977	2562.625187
400.654294	2561.546380
401.036549	2564.291289
401.418742	2564.427400
401.800874	2563.290620
402.182944	2563.734241
402.564952	2564.293809
402.946898	2564.112328
403.328783	2566.040569
403.710606	2566.884962
404.092367	2563.749365
404.474067	2564.397153
404.855705	2567.341187
405.237282	2564.775239
405.618797	2565.672565
406.000250	2568.031825
406.381642	2567.938563
406.762972	2565.067626
407.144240	2563.174673
407.525447	2565.483522
407.906593	2561.604354
408.287677	2569.221537
408.668700	2566.890003
409.049661	2566.738769
409.430560	2568.561146
409.811399	2571.056517
410.192176	2568.195662
410.572891	2568.102401
410.953545	2569.871846
411.334138	2568.442679
411.714669	2566.660631
412.095139	2567.389078
412.475547	2569.229099
412.855894	2570.625498
413.236180	2570.355797
413.616405	2568.051989
413.996568	2568.966959
414.376670	2567.323543
414.756711	2570.723801
415.136691	2568.926630
415.516609	2568.873697
415.896466	2570.333112
416.276262	2571.658935
416.655997	2570.607854
417.035670	2571.008626
417.415283	2571.515262
417.794834	2573.791343
418.174324	2570.597772
418.553753	2572.218503
418.933121	2572.273956
419.312428	2572.601631
419.691674	2570.121383
420.070859	2574.028277
420.449983	2573.072979
420.829045	2572.904100
421.208047	2574.272773
421.586988	2571.676579
421.965867	2572.271435
422.344686	2571.810170
422.723444	2574.857547
423.102141	2574.360993
423.480777	2574.366035
423.859352	2573.950139
424.237866	2573.889646
424.616319	2572.364697
424.994712	2572.455437
425.373044	2574.295458
425.751314	2573.188925
426.129524	2569.433266
426.507673	2572.478122
426.885762	2571.636250
427.263789	2575.041549
427.641756	2574.605489
428.019662	2575.611200
428.397508	2575.223031
428.775292	2577.736046
429.153016	2575.414595
429.530679	2575.220510
429.908282	2577.042887
430.285824	2573.723287
430.663305	2578.008268
431.040726	2575.838052
431.418086	2574.247568
431.795385	2575.948957
432.172624	2576.165727
432.549802	2577.065572
432.926920	2575.681776
433.303977	2578.356108
433.680974	2578.073803
434.057910	2580.422981
434.434786	2578.043556
434.811601	2576.420305
435.188355	2579.361818
435.565050	2578.956005
435.941683	2578.666139
436.318257	2580.070100
436.694770	2581.237127
437.071222	2578.293093
437.447614	2577.607497
437.823946	2578.482137
438.200218	2580.629668
438.576429	2577.756211
438.952580	2578.343505
439.328670	2578.217476
439.704700	2577.108422
440.080670	2578.023392
440.456580	2577.713361
440.832429	2580.309555
441.208218	2581.549679
441.583947	2581.345512
441.959616	2579.704617
442.335224	2579.737384
442.710773	2580.561613
443.086261	2578.741756
443.461689	2579.465162
443.837057	2580.954823
444.212365	2582.237796
444.587612	2579.707137
444.962800	2577.070614
445.337927	2579.240830
445.712995	2576.193453
446.088002	2579.888619
446.462949	2581.587487
446.837837	2581.043043
447.212664	2580.770821
447.587431	2582.247879
447.962139	2584.758373
448.336786	2586.038826
448.711374	2585.577561
449.085901	2584.085379
449.460369	2586.709300
449.834776	2584.571851
450.209124	2583.122519
450.583412	2586.684094
450.957640	2584.390369
451.331808	2585.280133
451.705917	2583.702252
452.079965	2586.958837
452.453954	2583.755184
452.827883	2586.278281
453.201752	2585.035637
453.575562	2586.729464
453.949311	2588.400607
454.323001	2585.643096
454.696632	2587.122674
455.070202	2586.943713
455.443713	2587.967068
455.817164	2587.064701
456.190556	2587.523446
456.563888	2589.060998
456.937160	2586.588312
457.310373	2587.157963
457.683526	2588.047726
458.056619	2587.273909
458.429653	2587.473035
458.802628	2587.120154
459.175542	2586.631162
459.548398	2589.434043
459.921194	2590.590988
460.293930	2592.410845
460.666607	2590.696852
461.039224	2592.917481
461.411782	2593.736668
461.784280	2594.167687
462.156719	2592.393201
462.529099	2593.237594
462.901419	2592.443612
463.273680	2590.003694
463.645882	2586.842890
464.018024	2588.599732
464.390106	2590.659044
464.762130	2592.952769
465.134094	2595.178438
465.505999	2596.070723
465.877845	2599.864191
466.249631	2597.641042
466.621358	2598.808069
466.993026	2599.612133
467.364634	2601.550457
467.736184	2598.553491
468.107674	2597.532657
468.479105	2598.908892
468.850477	2598.298912
469.221790	2599.281937
469.593043	2595.125506
469.964238	2599.090374
470.335373	2596.965527
470.706449	2598.508120
471.077467	2595.972420
471.448425	2597.918305
471.819324	2604.060951
472.190164	2608.930706
472.560945	2603.569439
472.931667	2601.371496
473.302330	2598.820672
473.672934	2597.220106
474.043479	2596.809252
474.413965	2597.714139
474.784393	2598.619026
475.154761	2600.932915
475.525070	2599.987699
475.895321	2599.448296
476.265513	2600.885024
476.635645	2603.665221
477.005719	2599.050044
477.375734	2604.965838
477.745691	2603.955087
478.115588	2603.579521
478.485427	2606.561364
478.855207	2605.323760
479.224928	2607.554471
479.594591	2612.260388
479.964194	2609.399533
480.333739	2610.800974
480.703226	2609.225613
481.072653	2611.768876
481.442022	2613.256016
481.811333	2613.679473
482.180584	2610.001951
482.549777	2612.882971
482.918912	2608.597990
483.287988	2615.884978
483.657005	2613.954216
484.025964	2613.765172
484.394864	2612.867847
484.763706	2614.783486
485.132489	2613.949175
485.501213	2614.964967
485.869879	2612.368773
486.238487	2617.404886
486.607036	2615.564864
486.975527	2613.785337
487.343959	2613.664349
487.712333	2614.591922
488.080648	2616.981429
488.448905	2619.726337
488.817104	2618.566872
489.185244	2620.018724
489.553326	2620.790020
489.921350	2622.400669
490.289315	2623.494599
490.657222	2627.782101
491.025070	2627.409055
491.392861	2630.579941
491.760593	2629.402832
492.128267	2626.970475
492.495883	2626.463839
492.863440	2626.080711
493.230939	2625.904271
493.598380	2627.146915
493.965763	2627.474590
494.333088	2627.446864
494.700354	2627.570372
495.067563	2630.872328
495.434713	2626.693212
495.801805	2627.227574
496.168839	2626.637759
496.535815	2631.605816
496.902733	2632.407359
497.269593	2633.924747
497.636395	2633.287041
498.003139	2637.539254
498.369825	2638.527320
498.736453	2637.602268
499.103023	2641.481436
499.469535	2642.151910
499.835989	2643.129894
500.202385	2645.557209
500.568723	2643.689462
500.935003	2649.872437
501.301226	2645.247178
501.667390	2654.316214
502.033497	2660.310146
502.399546	2661.880465
502.765537	2660.141267
503.131470	2667.123265
503.497345	2670.861281
503.863163	2671.166271
504.228923	2676.419153
504.594625	2684.159845
504.960269	2683.963240
505.325856	2687.214784
505.691385	2690.380629
506.056856	2699.064016
506.422270	2700.833461
506.787625	2706.771940
507.152924	2716.148487
507.518164	2720.428426
507.883347	2725.819940
508.248472	2731.455950
508.613540	2741.666807
508.978550	2751.217273
509.343503	2758.652975
509.708398	2770.305602
510.073236	2781.933024
510.438016	2790.296298
510.802738	2799.062864
511.167403	2810.208856
511.532010	2818.597336
511.896561	2842.802436
512.261053	2853.545135
512.625488	2866.455530
512.989866	2876.585728
513.354186	2894.486866
513.718449	2912.592170
514.082655	2933.308791
514.446803	2949.647171
514.810894	2976.067858
515.174927	2984.973057
515.538904	3008.338805
515.902822	3037.055738
516.266684	3060.406362
516.630488	3079.827407
516.994235	3104.745831
517.357925	3131.993267
517.721558	3170.613547
518.085133	3199.605223
518.448651	3231.288875
518.812112	3251.511463
519.175516	3290.996301
519.538863	3329.309070
519.902152	3359.563555
520.265385	3411.774785
520.628560	3443.881894
520.991678	3486.343533
521.354739	3538.055689
521.717743	3580.045980
522.080690	3617.884881
522.443580	3683.490457
522.806413	3723.701221
523.169189	3782.551651
523.531908	3828.849607
523.894569	3873.345352
524.257174	3931.341306
524.619722	3997.599712
524.982213	4035.163870
525.344647	4103.506793
525.707025	4168.182276
526.069345	4240.306064
526.431608	4301.540960
526.793815	4389.158734
527.155964	4401.501999
527.518057	4486.032067
527.880093	4555.176533
528.242072	4621.939054
528.603995	4677.285882
528.965860	4735.125561
529.327669	4836.845963
529.689421	4895.860231
530.051117	4954.569508
530.412755	5072.673661
530.774337	5107.089618
531.135862	5185.736659
531.497331	5291.363956
531.858743	5324.625489
532.220098	5484.074664
532.581396	5495.349205
532.942638	5620.500890
533.303824	5701.439136
533.664953	5805.276823
534.026025	5871.827615
534.387040	5969.973839
534.747999	6107.773780
535.108902	6203.311207
535.469748	6235.297328
535.830537	6370.629624
536.191270	6466.174613
536.551947	6592.087512
536.912567	6596.107832
537.273131	6754.619353
537.633638	6800.950078
537.994089	6977.982798
538.354483	6986.572924
538.714821	7187.047010
539.075103	7336.285328
539.435328	7393.668782
539.795497	7408.192347
540.155609	7621.954914
540.515665	7792.842467
540.875665	7736.825166
541.235609	7916.113802
541.595496	8046.384779
541.955328	8239.796208
542.315102	8340.601641
542.674821	8367.576856
543.034483	8447.272457
543.394090	8580.742046
543.753640	8649.253847
544.113134	8926.116537
544.472571	8971.910379
544.831953	9200.627529
545.191278	9178.907717
545.550548	9307.726842
545.909761	9444.488305
546.268918	9670.823510
546.628019	9771.530640
546.987064	9870.243994
547.346053	9916.395758
547.704986	10052.645543
548.063863	10253.346481
548.422684	10317.628754
548.781449	10346.827117
549.140158	10601.170972
549.498811	10632.254727
549.857408	10620.884405
550.215949	10913.808211
550.574434	10917.006823
550.932864	11132.785851
551.291237	11295.849534
551.649555	11407.291802
552.007817	11558.125645
552.366022	11653.292548
552.724173	11761.135431
553.082267	11879.436189
553.440305	12209.956920
553.798288	12037.146166
554.156215	12393.344015
554.514086	12560.017164
554.871902	12409.274061
555.229661	12672.283660
555.587365	12762.008637
555.945014	12797.316878
556.302606	13099.834000
556.660143	13155.364830
557.017625	13437.039301
557.375050	13343.190661
557.732421	13637.621772
558.089735	13706.826732
558.446994	13834.577132
558.804197	13995.032018
559.161345	14129.726607
559.518437	14068.612699
559.875474	14362.905178
560.232455	14536.509914
560.589381	14615.046050
560.946251	14677.427808
561.303065	15021.610066
561.659825	15197.523650
562.016528	15100.637714
562.373177	15095.641931
562.729770	15375.211720
563.086307	15489.446787
563.442789	15697.364136
563.799216	15723.782303
564.155587	15818.162785
564.511904	15964.557893
564.868164	16008.209244
565.224370	16178.781726
565.580520	16177.874318
565.936615	16424.835404
566.292654	16301.352340
566.648638	16676.189855
567.004567	16635.850542
567.360441	16731.453504
567.716260	16637.990512
568.072023	17020.586363
568.427732	16938.491172
568.783385	16901.733599
569.138982	17146.572359
569.494525	17317.399419
569.850013	17261.087210
570.205445	17414.139161
570.560823	17347.353955
570.916145	17326.823856
571.271412	17504.600146
571.626625	17475.487483
571.981782	17624.768651
572.336884	17565.076348
572.691931	17773.218029
573.046923	17626.596069
573.401860	17687.755348
573.756743	17775.289943
574.111570	17782.902085
574.466342	17826.394640
574.821059	18007.140170
575.175722	17835.078028
575.530330	17950.870811
575.884882	18051.681285
576.239380	18062.920537
576.593823	18050.829330
576.948211	18101.293801
577.302544	18053.480977
577.656823	18035.262247
578.011047	18194.469447
578.365216	18173.490685
578.719330	18143.082445
579.073389	18122.133931
579.427394	18332.622268
579.781344	18185.329835
580.135239	18185.425617
580.489080	18208.546869
580.842866	18058.217141
581.196597	18310.153846
581.550273	18319.598447
581.903895	18336.103185
582.257463	18652.090270
582.610975	18295.373183
582.964434	18615.927553
583.317837	18425.845806
583.671186	18560.250529
584.024481	18583.071832
584.377721	18436.701931
584.730906	18526.283234
585.084037	18625.548595
585.437113	18576.641841
585.790135	18798.049318
586.143103	18387.044045
586.496016	18433.331919
586.848874	18722.074088
587.201679	18699.497281
587.554428	18428.595755
587.907124	18769.939844
588.259765	18613.041492
588.612352	18731.203618
588.964884	18369.707517
589.317362	18561.765396
589.669786	18646.907964
590.022155	18734.319051
590.374470	18919.730169
590.726731	18798.860943
591.078937	18592.397967
591.431090	18711.482624
591.783188	18507.978805
592.135232	18511.235390
592.487222	18656.332401
592.839157	18712.873982
593.191038	18640.485534
593.542866	18548.025731
593.894639	18318.955700
594.246358	18551.063026
594.598022	18491.471547
594.949633	18292.625754
595.301190	18262.373789
595.652692	18440.223177
596.004141	18701.168423
596.355535	18080.741016
596.706876	18112.346530
597.058162	18030.581536
597.409395	18259.883459
597.760573	18382.880052
598.111698	18194.696299
598.462768	18138.724368
598.813785	18121.251729
599.164748	17968.383779
599.515657	18008.430706
599.866511	17816.697981
600.217312	18192.047173
600.568060	17753.368486
600.918753	18064.188388
601.269392	17986.990678
601.619978	17776.225077
601.970510	18012.791304
602.320988	17964.154251
602.671412	18180.578548
603.021783	18089.013550
603.372100	17837.926280
603.722363	17985.185945
604.072572	17930.491947
604.422728	18076.393021
604.772830	17854.796501
605.122878	17804.755487
605.472872	17819.909196
605.822813	17817.045820
606.172701	17778.133154
606.522534	17988.523189
606.872314	18029.515332
607.222041	17851.945728
607.571714	18079.742868
607.921333	17918.143640
608.270899	17996.344539
608.620411	18202.764666
608.969870	17952.196634
609.319276	17974.763360
609.668627	18001.625148
610.017926	18154.057037
610.367171	18271.689842
610.716362	18308.528073
611.065500	18140.549266
611.414585	18264.284387
611.763616	18254.549919
612.112594	18211.596767
612.461518	18187.434517
612.810389	18387.497748
613.159207	18233.838338
613.507971	18143.745357
613.856682	18437.707641
614.205340	18380.019197
614.553945	18517.181431
614.902496	18267.714892
615.250994	18514.181945
615.599439	18453.604919
615.947830	18446.575030
616.296169	18483.725814
616.644454	18457.257235
616.992686	18424.439324
617.340864	18629.863823
617.688990	18398.777330
618.037063	18578.197037
618.385082	18419.476308
618.733048	18709.367860
619.080961	18567.305624
619.428821	18618.480897
619.776628	18511.164814
620.124382	18444.233414
620.472083	18465.018092
620.819731	18494.980190
621.167326	18190.330660
621.514868	18243.713958
621.862357	17995.323706
622.209793	18010.164862
622.557176	17847.272579
622.904506	17673.012493
623.251783	17580.406497
623.599007	17357.494236
623.946179	17307.110424
624.293297	17265.793127
624.640363	17016.117380
624.987376	17025.448555
625.334336	16819.288048
625.681243	16672.358578
626.028097	16670.586613
626.374899	16615.144003
626.721647	16478.420349
627.068343	16319.414795
627.414987	16241.080305
627.761577	16220.525000
628.108115	16279.594720
628.454600	15986.368445
628.801032	16078.724904
629.147412	16009.149419
629.493739	16035.726383
629.840014	15847.225037
630.186236	15946.152640
630.532405	15714.703185
630.878521	15900.746968
631.224585	15790.280163
631.570597	15627.834022
631.916556	15656.558517
632.262462	15629.416944
632.608316	15558.379525
632.954117	15489.625748
633.299866	15502.659651
633.645562	15423.566468
633.991206	15168.259752
634.336797	15036.552046
634.682336	15012.626730
635.027823	14900.829061
635.373257	14790.805878
635.718639	14675.625595
636.063968	14634.507424
636.409245	14387.692532
636.754470	14412.505091
637.099642	14259.947173
637.444762	14038.600190
637.789829	14084.305811
638.134845	13934.528089
638.479808	13949.336478
638.824719	13914.678546
639.169577	13755.095780
639.514383	13803.642091
639.859137	13614.437505
640.203839	13695.708467
640.548489	13545.182133
640.893086	13521.294626
641.237632	13396.324422
641.582125	13542.679201
641.926566	13384.008883
642.270955	13389.284451
642.615292	13357.114328
642.959576	13364.618085
643.303809	13403.878591
643.647990	13337.095906
643.992118	13387.386456
644.336195	13169.094413
644.680219	13359.201365
645.024192	13292.370789
645.368112	13523.096838
645.711981	13590.383639
646.055797	13771.469447
646.399562	13726.262900
646.743274	14004.232123
647.086935	14270.699954
647.430544	14240.584101
647.774101	14257.464404
648.117606	14419.015741
648.461059	14381.527201
648.804460	14391.748140
649.147810	14120.234114
649.491108	14002.298841
649.834354	14028.832954
650.177548	13732.904620
650.520690	13548.819326
650.863781	13466.847644
651.206820	13504.888191
651.549807	13332.387468
651.892742	13142.099034
652.235626	13081.128798
652.578458	13080.125609
652.921238	12766.684307
653.263967	12962.243267
653.606644	12794.143472
653.949269	12757.458995
654.291843	12575.506109
654.634365	12721.361813
654.976836	12570.759862
655.319255	12602.556940
655.661622	12544.331613
656.003938	12467.501908
656.346203	12394.747976
656.688416	12454.828447
657.030577	12419.873087
657.372687	12350.577386
657.714746	12318.082108
658.056753	12506.737209
658.398708	12331.244561
658.740612	12329.371772
659.082465	12427.593614
659.424266	12392.524827
659.766016	12405.896488
660.107715	12319.478508
660.449362	12387.541647
660.790958	12359.608613
661.132503	12308.342599
661.473996	12364.014582
661.815438	12380.680636
662.156829	12386.581307
662.498168	12369.262423
662.839456	12370.053884
663.180693	12390.284034
663.521879	12476.502888
663.863013	12459.093264
664.204097	12438.051487
664.545129	12543.540152
664.886110	12515.178621
665.227040	12606.020213
665.567918	12618.658386
665.908746	12647.584527
666.249522	12624.191052
666.590248	12669.717713
666.930922	12786.735496
667.271545	12780.615535
667.612118	12856.709232
667.952639	12765.308072
668.293109	12770.704627
668.633528	12725.495559
668.973896	12697.668390
669.314213	12795.113894
669.654480	12526.954756
669.994695	12583.198910
670.334859	12614.685957
670.674973	12566.031260
671.015035	12592.782143
671.355047	12536.444728
671.695008	12508.607477
672.034918	12513.152077
672.374777	12556.352245
672.714585	12473.309318
673.054342	12500.191270
673.394049	12451.539095
673.733705	12546.733723
674.073310	12460.504787
674.412864	12478.509268
674.752368	12357.075433
675.091820	12355.197603
675.431223	12349.604443
675.770574	12223.910834
676.109875	12153.705205
676.449125	12115.432765
676.788324	12053.308105
677.127473	11889.662169
677.466571	11878.717824
677.805619	11781.494131
678.144616	11696.996831
678.483562	11661.867550
678.822458	11536.370546
679.161303	11515.573266
679.500098	11502.138591
679.838842	11459.601335
680.177535	11471.422840
680.516179	11533.187057
680.854771	11478.437606
681.193314	11696.172602
681.531805	11842.600477
681.870247	12237.642937
682.208638	12650.115186
682.546978	12969.414309
682.885268	13029.283052
683.223508	12719.262172
683.561697	12562.804922
683.899836	12460.744242
684.237925	12273.949327
684.575963	12179.329390
684.913951	12112.503854
685.251889	12056.327757
685.589776	12156.775268
685.927614	12086.604927
686.265401	12044.302084
686.603137	12093.861667
686.940824	12237.153945
687.278460	12348.858352
687.616046	12407.499575
687.953582	12591.108480
688.291068	12499.730005
688.628504	12727.869943
688.965889	12738.594997
689.303224	12713.656409
689.640510	12607.734205
689.977745	12314.283599
690.314930	12077.452712
690.652065	11995.155875
690.989150	11711.361599
691.326185	11490.208700
691.663170	11278.379416
692.000105	11040.278158
692.336990	10933.614904
692.673825	10681.378251
693.010610	10564.620087
693.347345	10351.885915
693.684030	10155.079269
694.020665	10098.399055
694.357251	9900.286750
694.693786	9858.092293
695.030272	9683.398668
695.366707	9569.516482
695.703093	9496.722220
696.039429	9490.370367
696.375716	9424.999204
696.711952	9293.155387
697.048139	9322.197474
697.384276	9281.875805
697.720363	9296.018762
698.056400	9234.735976
698.392388	9191.046816
698.728326	9152.718923
699.064214	9086.276515
699.400053	9131.969534
699.735842	8952.504457
700.071581	8903.784226
700.407270	8834.727980
700.742910	8755.803675
701.078501	8665.251949
701.414042	8543.354328
701.749533	8476.672466
702.084974	8333.196186
702.420366	8447.736243
702.755709	8334.393460
703.091002	8198.186525
703.426246	8231.541319
703.761440	8186.291922
704.096584	8141.090416
704.431679	8068.407060
704.766725	8057.124958
705.101721	8007.666197
705.436668	8048.612969
705.771565	7943.908204
706.106413	8023.757560
706.441212	8075.996517
706.775961	8024.831326
707.110661	8054.972385
707.445311	8204.949232
707.779913	8094.777336
708.114465	8229.860094
708.448967	8269.609592
708.783421	8392.548211
709.117825	8585.435360
709.452180	8621.724106
709.786485	8709.457827
710.120742	8983.404209
710.454949	8980.530752
710.789107	9086.513450
711.123216	9288.731774
711.457275	9450.968708
711.791286	9625.122929
712.125247	9608.567780
712.459159	9598.462787
712.793023	9857.610862
713.126837	9437.944887
713.460602	9585.018030
713.794318	9406.667048
714.127985	9437.007232
714.461602	9138.825503
714.795171	9086.170651
715.128691	8839.128907
715.462162	8584.117098
715.795584	8520.883385
716.128957	8391.318170
716.462281	8217.627734
716.795556	8262.108355
717.128782	8070.552071
717.461960	7798.962428
717.795088	7860.804783
718.128167	7776.037781
718.461198	7607.675845
718.794180	7542.607152
719.127113	7538.266719
719.459997	7399.844196
719.792833	7164.351735
720.125619	7226.473874
720.458357	7084.832574
720.791046	7070.152734
721.123686	7073.729433
721.456278	6924.009684
721.788821	6941.174813
722.121315	6825.228275
722.453761	6891.259828
722.786158	6840.165213
723.118506	6846.575041
723.450805	6815.292160
723.783056	6886.122893
724.115259	6787.296113
724.447412	6788.243849
724.779518	6833.871333
725.111574	6834.521642
725.443582	6915.101965
725.775542	6893.233440
726.107453	7077.109527
726.439315	6996.516600
726.771129	7045.193982
727.102895	7209.346554
727.434612	7321.481980
727.766281	7357.649738
728.097901	7438.701410
728.429473	7423.464522
728.760996	7395.075264
729.092471	7378.721761
729.423897	7332.330543
729.755276	7346.123140
730.086606	7268.925430
730.417887	7367.941254
730.749120	7548.006228
731.080305	7740.144766
731.411442	7868.318623
731.742530	7874.768779
732.073570	7973.305693
732.404562	8061.011687
732.735506	7903.720126
733.066401	8050.326962
733.397249	7982.674677
733.728048	7750.733709
734.058798	7420.457474
734.389501	7201.361366
734.720156	7027.426435
735.050762	6791.533202
735.381320	6686.588982
735.711831	6641.967209
736.042293	6529.821700
736.372707	6557.477470
736.703073	6424.149033
737.033391	6455.915864
737.363661	6463.752338
737.693883	6489.694116
738.024056	6571.980870
738.354182	6620.701101
738.684260	6657.491442
739.014290	6763.867350
739.344272	6871.135542
739.674207	6899.867598
740.004093	6962.776157
740.333931	6983.472614
740.663722	6992.884449
740.993464	7065.905562
741.323159	7064.398257
741.652806	6821.921278
741.982405	6811.241593
742.311956	6880.449074
742.641460	6730.711681
742.970915	6533.327823
743.300323	6525.748448
743.629683	6468.836342
743.958996	6336.498492
744.288260	6252.303661
744.617477	6191.288055
744.946647	6209.673143
745.275768	6044.623246
745.604842	5993.974773
745.933869	5974.359643
746.262847	5934.622748
746.591778	5921.374596
746.920662	5882.741713
747.249498	5871.109251
747.578286	5918.682620
747.907027	5992.971583
748.235720	6053.571294
748.564365	6027.616913
748.892963	6040.187030
749.221514	6203.840528
749.550017	6051.837137
749.878473	5920.366365
750.206881	5969.366380
750.535242	5914.231281
750.863555	5844.151681
751.191821	5865.410226
751.520039	5868.324013
751.848210	5777.936125
752.176334	5795.219721
752.504411	5844.073543
752.832440	5769.769456
753.160421	5694.404206
753.488356	5744.069653
753.816243	5779.584582
754.144082	5634.018744
754.471875	5603.035813
754.799620	5644.630373
755.127318	5652.635725
755.454969	5608.245845
755.782572	5572.758643
756.110129	5612.946721
756.437638	5610.942862
756.765100	5548.457761
757.092515	5546.380805
757.419882	5591.385706
757.747203	5569.242438
758.074477	5634.832891
758.401703	5630.925996
758.728882	5572.675464
759.056014	5623.558350
759.383099	5758.936016
759.710138	5770.797851
760.037129	5752.707670
760.364073	5757.902579
760.690970	5840.794272
761.017820	5826.429504
761.344623	5776.161639
761.671379	5876.077308
761.998088	5983.257280
762.324751	6211.659358
762.651366	6785.153622
762.977935	8046.432670
763.304456	9654.565788
763.630931	10582.501059
763.957359	10234.144726
764.283740	9310.323036
764.610074	8502.790684
764.936362	7521.406580
765.262602	6925.945487
765.588796	6381.226129
765.914943	6040.174427
766.241044	5880.695005
766.567097	5692.506211
766.893104	5438.366522
767.219064	5251.329632
767.544978	5192.796795
767.870845	5117.376092
768.196665	5012.681409
768.522438	4943.012663
768.848165	4909.060492
769.173846	4842.958362
769.499479	4799.443122
769.825066	4749.079475
770.150607	4687.403478
770.476101	4662.926155
770.801548	4660.105630
771.126949	4592.191205
771.452303	4539.047361
771.777611	4491.690762
772.102872	4510.166591
772.428087	4474.192917
772.753256	4434.410652
773.078378	4389.524218
773.403453	4323.608611
773.728482	4311.202331
774.053465	4263.046709
774.378401	4247.295624
774.703291	4255.308538
775.028135	4184.248433
775.352932	4133.902430
775.677683	4122.348105
776.002388	4141.806959
776.327046	4154.785409
776.651658	4078.669027
776.976224	4015.228627
777.300743	4018.142414
777.625216	4042.312226
777.949643	4043.098646
778.274024	3993.062673
778.598359	3948.077937
778.922647	3970.977378
779.246889	3963.672747
779.571086	3960.068322
779.895236	3946.706743
780.219339	3932.112603
780.543397	3920.545675
780.867409	3972.018377
781.191374	3989.755677
781.515294	3931.172428
781.839167	3921.390069
782.162995	3939.132410
782.486776	3923.855193
782.810511	3932.447840
783.134201	3936.334569
783.457844	3893.825039
783.781441	3835.982840
784.104993	3841.601206
784.428498	3858.496633
784.751958	3857.158207
785.075372	3839.617512
785.398739	3798.917757
785.722061	3808.551402
786.045337	3850.355170
786.368568	3887.415212
786.691752	3801.556801
787.014891	3839.904858
787.337983	3963.821461
787.661030	4121.980101
787.984031	4283.342394
788.306987	4454.557623
788.629897	4532.854304
788.952760	4489.923838
789.275579	4423.138632
789.598351	4363.065722
789.921078	4234.223912
790.243759	4032.686143
790.566395	4002.192203
790.888984	4006.535157
791.211529	3902.735279
791.534027	3842.352338
791.856480	3832.862366
792.178888	3770.024383
792.501249	3719.748956
792.823566	3726.945203
793.145836	3760.559617
793.468062	3712.134293
793.790241	3662.718382
794.112375	3691.294163
794.434464	3750.620982
794.756507	3778.911937
795.078505	3759.881582
795.400457	3789.238741
795.722364	3922.733536
796.044226	4028.824619
796.366042	4100.507306
796.687812	4090.248558
797.009538	4094.014300
797.331218	4048.243143
797.652852	4017.439173
797.974442	4000.705063
798.295986	4004.158253
798.617484	3923.298145
798.938938	3835.274558
799.260346	3875.908779
799.581709	3870.580279
799.903026	3805.312460
800.224299	3767.443313
800.545526	3759.080038
800.866708	3724.709451
801.187845	3658.345182
801.508936	3695.717776
801.829983	3700.373281
802.150984	3618.063842
802.471940	3605.808797
802.792851	3620.080303
803.113717	3618.285652
803.434538	3621.653143
803.755314	3567.359916
804.076045	3537.264228
804.396731	3555.044377
804.717372	3581.386927
805.037967	3570.344279
805.358518	3557.209553
805.679024	3584.671239
805.999485	3600.472735
806.319901	3601.150771
806.640272	3613.602421
806.960598	3632.300060
807.280879	3604.777881
807.601115	3614.315744
807.921306	3629.494658
808.241453	3671.767254
808.561554	3651.519459
808.881611	3583.910024
809.201623	3619.540900
809.521590	3628.788897
809.841513	3600.848301
810.161390	3627.720172
810.481223	3614.184674
810.801011	3555.566137
811.120755	3544.092471
811.440453	3585.308945
811.760107	3588.396651
812.079716	3550.651012
812.399281	3512.607944
812.718801	3536.145092
813.038276	3510.651977
813.357707	3507.753313
813.677093	3528.732075
813.996434	3478.383551
814.315731	3480.087461
814.634983	3483.722133
814.954191	3496.587157
815.273354	3529.994884
815.592473	3525.798123
815.911547	3526.526570
816.230577	3566.530647
816.549562	3618.177268
816.868502	3657.402486
817.187399	3682.298224
817.506250	3680.183460
817.825058	3650.483502
818.143821	3737.839137
818.462539	3842.680013
818.781213	3887.145511
819.099843	3941.209365
819.418429	4168.552801
819.736970	4405.449223
820.055466	4646.650790
820.373919	5000.925438
820.692327	5404.139608
821.010691	5804.646678
821.329011	7103.620955
821.647286	9720.617507
821.965517	14129.104025
822.283704	18136.297052
822.601847	20403.613968
822.919945	18677.333848
823.237999	16180.024370
823.556010	13737.335795
823.873976	11690.609689
824.191897	9635.638776
824.509775	8279.011344
824.827609	7162.115983
825.145398	6609.111489
825.463144	6486.987016
825.780845	6605.433967
826.098502	6768.590911
826.416116	7583.934531
826.733685	8866.267959
827.051210	9983.821190
827.368692	10104.193862
827.686129	8911.880319
828.003522	7401.873260
828.320872	6392.535958
828.638177	5709.923398
828.955439	5160.215818
829.272656	4666.127288
829.589830	4381.246643
829.906960	4206.495045
830.224046	4028.202036
830.541088	3902.349631
830.858086	3857.201057
831.175041	3783.854789
831.491952	3762.001387
831.808819	3774.019498
832.125642	3835.188858
832.442421	3977.717401
832.759157	4237.586361
833.075849	4761.458028
833.392497	5602.559424
833.709101	6358.480443
834.025662	6721.438479
834.342179	6395.359004
834.658653	5746.849850
834.975083	5116.861895
835.291469	4543.433165
835.607811	4134.933346
835.924110	3999.260772
836.240366	3807.084426
836.556578	3602.680761
836.872746	3493.756550
837.188871	3456.691466
837.504952	3393.369533
837.820990	3309.867860
838.136984	3266.730707
838.452935	3284.505815
838.768842	3284.687297
839.084706	3303.367292
839.400526	3451.834314
839.716303	3770.795680
840.032037	4272.587093
840.347727	4554.745514
840.663373	4299.090959
840.978977	3929.851645
841.294537	3628.035244
841.610054	3398.904719
841.925527	3292.138122
842.240957	3224.843759
842.556344	3172.924916
842.871687	3113.550206
843.186987	3062.861404
843.502244	3030.683719
843.817458	2995.486383
844.132629	2963.696867
844.447756	2972.528968
844.762840	2960.435240
845.077881	2928.754109
845.392879	2909.819535
845.707833	2909.406160
846.022745	2904.533885
846.337613	2907.180491
846.652438	2892.709859
846.967221	2892.959396
847.281960	2878.829042
847.596656	2875.940461
847.911309	2874.221427
848.225919	2866.616847
848.540485	2863.897144
848.855009	2863.246835
849.169490	2858.334231
849.483928	2845.232272
849.798323	2840.947291
850.112675	2839.263546
850.426984	2849.688652
850.741251	2848.786285
851.055474	2836.314471
851.369654	2832.120231
851.683792	2836.727845
851.997887	2846.303517
852.311938	2846.515246
852.625947	2838.943432
852.939914	2842.673886
853.253837	2847.755369
853.567718	2830.864983
853.881555	2828.848522
854.195350	2844.995338
854.509103	2840.269256
854.822812	2831.550580
855.136479	2829.576969
855.450103	2831.742144
855.763685	2821.473314
856.077224	2820.550783
856.390720	2834.184583
856.704173	2844.045080
857.017584	2836.687516
857.330953	2832.573935
857.644278	2840.302023
857.957561	2848.766121
858.270802	2851.725278
858.584000	2853.530011
858.897155	2841.761437
859.210268	2838.494770
859.523339	2839.387054
859.836367	2836.778257
860.149352	2832.997392
860.462295	2825.024807
860.775195	2838.424194
861.088054	2836.684996
861.400869	2821.032213
861.713642	2812.857982
862.026373	2828.906495
862.339062	2832.571414
862.651708	2841.587518
862.964312	2841.363186
863.276873	2836.639625
863.589392	2841.428721
863.901869	2854.311390
864.214303	2876.918444
864.526696	2892.556104
864.839045	2889.034858
865.151353	2886.751215
865.463619	2886.231976
865.775842	2888.533263
866.088023	2905.017836
866.400162	2915.795823
866.712258	2884.202912
867.024313	2871.468957
867.336325	2881.841131
867.648296	2902.456930
867.960224	2894.567524
868.272110	2882.168806
868.583954	2887.514950
868.895755	2902.308216
869.207515	2887.300701
869.519233	2890.330434
869.830909	2898.759243
870.142542	2910.948753
870.454134	2908.360121
870.765684	2914.359094
871.077191	2914.447314
871.388657	2919.201122
871.700081	2932.630756
872.011463	2942.488733
872.322803	2947.424022
872.634101	2945.352108
872.945357	2957.556741
873.256571	2983.286791
873.567744	2981.010710
873.878874	2972.672641
874.189963	2996.363544
874.501010	2995.670385
874.812015	2987.473469
875.122979	2989.706700
875.433900	2985.532625
875.744780	2987.959940
876.055618	2998.558966
876.366415	2991.589571
876.677169	3003.272445
876.987882	3000.353617
877.298554	2991.075373
877.609183	3011.562623
877.919771	3035.404760
878.230317	3059.191444
878.540822	3111.800926
878.851285	3152.573778
879.161707	3184.998479
879.472087	3282.459107
879.782425	3492.899553
880.092722	3904.963469
880.402977	4417.737035
880.713191	5014.256770
881.023363	6117.823320
881.333494	7370.731532
881.643583	7940.850744
881.953631	7653.295767
882.263637	7065.857671
882.573602	6507.673391
882.883526	5945.400735
883.193408	5378.540629
883.503248	4919.039456
883.813048	4620.630875
884.122806	4340.645190
884.432522	4034.417779
884.742197	3803.132161
885.051831	3612.258953
885.361424	3477.085454
885.670975	3407.459558
885.980485	3326.128102
886.289954	3255.330137
886.599382	3209.392623
886.908768	3172.934998
887.218113	3127.456229
887.527417	3076.401943
887.836680	3027.001156
888.145901	3021.937317
888.455082	3012.086903
888.764221	2962.401290
889.073319	2937.409770
889.382376	2933.228133
889.691392	2934.473298
890.000366	2934.569080
890.309300	2924.640527
890.618193	2936.774585
890.927044	2951.129270
891.235855	2955.018520
891.544625	2935.272321
891.853353	2946.519135
892.162041	2964.064871
892.470687	3003.753875
892.779293	3053.547872
893.087858	3097.143771
893.396381	3161.811692
893.704864	3276.041718
894.013306	3503.753158
894.321707	3798.353147
894.630068	3999.885875
894.938387	4002.255217
895.246665	3959.463383
895.554903	3844.769571
895.863100	3655.660767
896.171256	3488.619614
896.479371	3354.817308
896.787446	3237.103846
897.095480	3136.976448
897.403473	3072.938671
897.711425	3038.565563
898.019336	3028.866383
898.327207	3004.200017
898.635038	2969.363124
898.942827	2951.678756
899.250576	2942.760955
899.558284	2911.619227
899.865952	2891.623490
900.173579	2874.150851
900.481165	2866.130375
900.788711	2856.418592
901.096216	2830.234839
901.403681	2817.783189
901.711105	2824.858449
902.018489	2826.217040
902.325832	2823.323417
902.633135	2831.807679
902.940397	2863.627442
903.247619	2937.321550
903.554800	3118.402317
903.861941	3439.697736
904.169041	3852.447249
904.476101	4152.053104
904.783121	4127.154845
905.090100	3895.186151
905.397039	3628.095738
905.703938	3380.166751
906.010796	3202.587065
906.317614	3094.308122
906.624391	3005.888804
906.931129	2935.312650
907.237826	2876.293341
907.544483	2829.960096
907.851099	2801.044038
908.157675	2777.990841
908.464211	2760.306474
908.770707	2747.569998
909.077163	2735.163719
909.383578	2721.610577
909.689954	2712.402909
909.996289	2707.591128
910.302584	2711.223279
910.608839	2711.684545
910.915054	2704.236240
911.221229	2697.090404
911.527363	2698.806917
911.833458	2705.955273
912.139513	2710.613300
912.445527	2712.760831
912.751502	2719.894064
913.057436	2729.976372
913.363331	2743.025398
913.669186	2762.327976
913.975000	2794.825775
914.280775	2850.855679
914.586510	2917.625762
914.892205	2994.561331
915.197859	3112.126080
915.503475	3292.536373
915.809050	3498.149915
916.114585	3640.660814
916.420081	3668.190555
916.725536	3613.693161
917.030952	3501.542612
917.336328	3377.162223
917.641665	3251.763521
917.946961	3156.384890
918.252218	3088.586412
918.557435	3015.315762
918.862612	2957.370219
919.167750	2908.765934
919.472848	2870.770757
919.777906	2846.220338
920.082925	2823.457008
920.387904	2792.353089
920.692843	2775.129987
920.997743	2761.770929
921.302603	2750.715678
921.607423	2740.855182
921.912204	2729.268089
922.216946	2718.936245
922.521647	2710.903166
922.826310	2703.278421
923.130932	2698.784232
923.435516	2686.551872
923.740059	2680.772189
924.044564	2674.017043
924.349028	2667.410611
924.653454	2663.881803
924.957840	2658.150012
925.262186	2651.563744
925.566493	2647.109885
925.870761	2643.976807
926.174989	2641.010088
926.479178	2636.873822
926.783328	2629.654889
927.087438	2630.264869
927.391509	2625.805968
927.695541	2625.904271
927.999533	2623.958386
928.303486	2621.168107
928.607400	2619.002931
928.911275	2615.799278
929.215110	2618.292129
929.518906	2616.260544
929.822663	2616.084103
930.126381	2617.263733
930.430060	2617.591408
930.733699	2617.336830
931.037299	2616.394134
931.340861	2621.215998
931.644383	2620.394290
931.947866	2619.174331
932.251309	2616.041253
932.554714	2616.678959
932.858080	2615.650564
933.161407	2613.971860
933.464694	2612.325923
933.767943	2607.952722
934.071153	2613.195522
934.374323	2610.143103
934.677455	2612.608228
934.980548	2606.740325
935.283602	2605.923658
935.586617	2609.606221
935.889593	2608.935747
936.192530	2608.217383
936.495428	2607.836776
936.798287	2608.131683
937.101108	2614.090327
937.403890	2618.337499
937.706632	2621.584002
938.009336	2628.129940
938.312002	2636.097484
938.614628	2644.521252
938.917216	2650.726912
939.219765	2651.777993
939.522275	2651.334372
939.824747	2646.774648
940.127179	2648.443270
940.429573	2645.229534
940.731929	2641.352887
941.034246	2636.468009
941.336524	2634.373409
941.638763	2630.007770
941.940964	2630.973151
942.243126	2629.060033
942.545250	2627.653551
942.847335	2625.377470
943.149381	2623.648355
943.451389	2617.949330
943.753359	2615.774072
944.055290	2613.777775
944.357182	2612.767024
944.659036	2613.581170
944.960851	2612.633433
945.262628	2607.879625
945.564367	2607.791405
945.866067	2610.130501
946.167729	2612.000769
946.469352	2612.759462
946.770937	2613.079576
947.072484	2610.480861
947.373992	2610.468258
947.675462	2604.822166
947.976893	2605.941302
948.278286	2598.581217
948.579641	2603.730756
948.880958	2600.015425
949.182236	2599.985178
949.483476	2599.738162
949.784678	2599.957452
950.085841	2602.727566
950.386967	2602.460385
950.688054	2600.786722
950.989103	2602.793101
951.290114	2601.275714
951.591087	2604.733945
951.892021	2609.112187
952.192917	2612.464555
952.493776	2611.521859
952.794596	2613.840790
953.095378	2614.360029
953.396122	2613.813063
953.696828	2612.676283
953.997496	2610.569081
954.298126	2609.694441
954.598718	2606.515993
954.899272	2604.260077
955.199788	2601.273193
955.500266	2599.387802
955.800706	2599.816300
956.101108	2593.436720
956.401472	2591.301791
956.701798	2592.993098
957.002087	2589.116451
957.302337	2589.552511
957.602550	2589.797007
957.902724	2584.801223
958.202861	2586.646285
958.502960	2584.067735
958.803022	2581.945409
959.103045	2578.950964
959.403031	2581.796695
959.702979	2579.734863
960.002889	2580.458269
960.302762	2580.238979
960.602596	2577.461303
960.902393	2579.911304
961.202153	2577.915007
961.501875	2577.993145
961.801559	2576.425346
962.101205	2578.867785
962.400814	2578.532548
962.700385	2575.275963
962.999918	2573.826631
963.299414	2570.451579
963.598873	2574.860068
963.898293	2572.636919
964.197677	2575.696899
964.497022	2574.098853
964.796331	2575.971642
965.095601	2574.494584
965.394835	2575.759914
965.694030	2574.161868
965.993189	2574.953329
966.292309	2573.980386
966.591393	2576.851323
966.890439	2573.115828
967.189447	2576.604307
967.488419	2573.365366
967.787353	2575.893504
968.086249	2575.588514
968.385108	2578.461972
968.683930	2574.945767
968.982714	2572.944429
969.281462	2574.683627
969.580172	2573.992989
969.878844	2572.450396
970.177480	2577.332754
970.476078	2574.693710
970.774639	2575.452403
971.073162	2574.325705
971.371649	2575.018864
971.670098	2574.131621
971.968510	2576.460634
972.266885	2577.748649
972.565223	2576.609348
972.863524	2577.083217
973.161788	2575.265881
973.460014	2575.528021
973.758204	2578.033474
974.056356	2577.131107
974.354471	2574.411405
974.652550	2574.358473
974.950591	2575.762434
975.248595	2575.132290
975.546563	2575.613720
975.844493	2576.904256
976.142386	2575.868298
976.440243	2574.799574
976.738062	2575.669173
977.035845	2573.438462
977.333590	2574.610531
977.631299	2569.090467
977.928971	2571.485015
978.226606	2570.302865
978.524204	2570.880077
978.821765	2568.394788
979.119290	2572.841086
979.416777	2572.689851
979.714228	2574.368555
980.011642	2572.800756
980.309020	2572.483164
980.606360	2573.720767
980.903664	2575.845613
981.200931	2572.616754
981.498162	2575.563309
981.795356	2575.021385
982.092513	2576.639595
982.389633	2579.515573
982.686717	2582.038671
982.983764	2588.014959
983.280775	2587.231059
983.577749	2591.455546
983.874686	2590.369177
984.171587	2583.571182
984.468451	2584.718044
984.765279	2582.116809
985.062070	2581.806778
985.358824	2579.034143
985.655543	2577.388206
985.952224	2576.271591
986.248869	2573.781261
986.545478	2574.290417
986.842050	2575.046590
987.138586	2571.303534
987.435086	2570.237330
987.731549	2570.980900
988.027975	2571.726991
988.324366	2568.863615
988.620719	2569.234140
988.917037	2571.270766
989.213318	2572.102557
989.509563	2569.488718
989.805772	2570.144068
990.101944	2570.323029
990.398080	2567.489901
990.694180	2568.185580
990.990244	2570.668348
991.286271	2570.126424
991.582262	2570.978379
991.878217	2571.737073
992.174136	2570.842268
992.470019	2572.626837
992.765865	2565.876732
993.061676	2565.541495
993.357450	2568.392267
993.653188	2565.178532
993.948890	2570.358317
994.244556	2569.987792
994.540186	2569.178687
994.835780	2568.510734
995.131337	2573.511559
995.426859	2571.263204
995.722345	2573.788822
996.017795	2570.769171
996.313208	2572.503328
996.608586	2571.351425
996.903928	2576.662280
997.199234	2574.706312
997.494504	2575.754872
997.789738	2575.777558
998.084936	2573.090623
998.380099	2572.122721
998.675225	2567.242884
998.970316	2569.854202
999.265371	2570.522155
999.560390	2568.077195
999.855373	2571.618606
1000.150320	2573.914851
1000.445232	2571.686661
1000.740108	2570.859912
1001.034948	2569.231619
1001.329752	2568.046948
1001.624521	2569.365210
1001.919254	2568.016701
1002.213951	2570.867474
1002.508613	2568.477967
1002.803239	2568.765313
1003.097829	2568.667010
1003.392384	2568.422514
1003.686903	2568.341856
1003.981386	2569.932340
1004.275834	2566.847154
1004.570246	2567.794891
1004.864623	2568.137689
1005.158964	2566.340518
1005.453270	2568.770354
1005.747540	2567.300857
1006.041775	2569.740776
1006.335974	2569.289593
1006.630138	2569.985272
1006.924266	2569.939902
1007.218359	2567.487380
1007.512416	2566.345559
1007.806438	2563.880435
1008.100425	2568.223389
1008.394376	2565.614592
1008.688292	2565.904458
1008.982172	2565.962431
1009.276017	2565.591906
1009.569827	2568.183059
1009.863602	2570.983420
1010.157341	2568.377144
1010.451045	2566.673234
1010.744714	2568.651887
1011.038347	2568.248594
1011.331945	2566.597617
1011.625508	2567.462174
1011.919036	2567.119376
1012.212528	2569.319840
1012.505986	2568.843451
1012.799408	2565.402863
1013.092795	2566.685837
1013.386147	2565.143244
1013.679464	2566.620302
1013.972745	2563.925805
1014.265992	2568.780436
1014.559204	2569.193811
1014.852380	2566.814386
1015.145521	2566.549726
1015.438628	2568.193142
1015.731699	2563.575445
1016.024736	2567.505024
1016.317737	2567.908317
1016.610703	2564.795404
1016.903635	2566.050651
1017.196531	2567.285734
1017.489393	2566.121227
1017.782219	2567.016032
1018.075011	2565.760785
1018.367768	2566.854715
1018.660490	2565.347410
1018.953177	2565.347410
1019.245829	2565.347410
