Dividing Wavelength (nm)	Counts (n)	Blue Motor Position (mm): 41.100000	Red Motor Position (mm): 0.000000	
326.493990	2249.529204
326.888308	2249.529204
327.282561	2249.529204
327.676750	2213.414378
328.070874	2207.551516
328.464933	2208.983204
328.858929	2210.815663
329.252859	2218.203474
329.646726	2227.146481
330.040528	2237.173336
330.434265	2251.293608
330.827938	2270.109715
331.221547	2287.995729
331.615091	2303.429221
332.008571	2321.794145
332.401986	2342.283914
332.795338	2362.698067
333.188625	2379.729605
333.581847	2399.944632
333.975006	2421.364495
334.368100	2438.529624
334.761129	2454.202571
335.154095	2474.934316
335.546996	2501.002123
335.939833	2541.059131
336.332606	2554.287119
336.725315	2566.421176
337.117960	2580.720409
337.510540	2591.392532
337.903056	2602.475508
338.295508	2613.666870
338.687896	2623.504682
339.080220	2628.835702
339.472480	2633.859212
339.864676	2639.651497
340.256807	2642.482105
340.648875	2648.443270
341.040879	2650.563075
341.432818	2655.241266
341.824694	2659.140598
342.216506	2659.748057
342.608253	2656.433499
342.999937	2657.857625
343.391557	2658.386946
343.783113	2657.446771
344.174605	2655.274033
344.566033	2656.241935
344.957397	2653.502068
345.348697	2653.174393
345.739934	2652.506440
346.131106	2646.386479
346.522215	2647.709782
346.913260	2647.203146
347.304241	2645.794143
347.695159	2643.818011
348.086012	2645.227014
348.476802	2639.815335
348.867528	2636.316774
349.258191	2631.855353
349.648789	2632.180507
350.039324	2630.519447
350.429796	2632.682102
350.820203	2631.714201
351.210548	2630.295116
351.600828	2629.291926
351.991045	2627.772018
352.381198	2626.804117
352.771288	2625.722789
353.161314	2623.907974
353.551276	2625.042234
353.941175	2623.202212
354.331010	2623.366050
354.720782	2624.875876
355.110490	2623.991153
355.500135	2623.028293
355.889717	2621.851183
356.279235	2624.480145
356.668689	2624.646503
357.058080	2626.909981
357.447408	2623.053498
357.836672	2625.319497
358.225873	2626.932666
358.615010	2626.511730
359.004084	2628.644138
359.393095	2628.888634
359.782043	2627.547687
360.170927	2628.626494
360.559748	2629.183542
360.948505	2631.308388
361.337199	2634.012967
361.725830	2633.410549
362.114398	2630.647997
362.502903	2633.781074
362.891344	2634.731331
363.279722	2633.377782
363.668037	2635.366517
364.056289	2636.115128
364.444478	2636.629326
364.832603	2636.548667
365.220665	2637.375417
365.608665	2636.616723
365.996601	2636.790643
366.384474	2635.124541
366.772284	2637.297279
367.160031	2641.247023
367.547715	2640.876498
367.935336	2642.219965
368.322893	2638.718884
368.710388	2638.562608
369.097820	2638.325674
369.485189	2636.432721
369.872495	2643.447486
370.259738	2642.938330
370.646918	2644.619555
371.034035	2645.481592
371.421090	2644.140645
371.808081	2646.094092
372.195010	2649.249854
372.581875	2648.014772
372.968678	2647.926552
373.355418	2644.763227
373.742096	2648.541572
374.128710	2650.484937
374.515262	2649.448980
374.901751	2649.970739
375.288177	2648.959988
375.674540	2652.634989
376.060841	2650.870585
376.447079	2651.473003
376.833254	2650.984011
377.219367	2653.224804
377.605417	2654.386790
377.991404	2656.635145
378.377329	2656.088180
378.763191	2654.495175
379.148991	2656.108344
379.534727	2658.490289
379.920402	2653.675987
380.306013	2655.410144
380.691563	2661.247801
381.077049	2659.468273
381.462474	2659.201092
381.847835	2660.826864
382.233134	2662.684529
382.618371	2660.849549
383.003545	2661.373829
383.388657	2663.763336
383.773706	2666.934222
384.158693	2666.886331
384.543618	2673.573422
384.928480	2675.473937
385.313280	2682.738239
385.698017	2690.680577
386.082692	2703.570808
386.467305	2711.762683
386.851856	2731.019890
387.236344	2750.521594
387.620770	2773.519338
388.005133	2800.207206
388.389435	2833.609892
388.773674	2864.209696
389.157851	2914.901018
389.541965	2967.742393
389.926018	2998.695077
390.310008	3062.206054
390.693936	3120.368367
391.077802	3176.572191
391.461606	3223.780076
391.845348	3290.890437
392.229027	3362.253010
392.612645	3419.029006
392.996200	3511.642563
393.379694	3590.839090
393.763125	3696.383208
394.146494	3764.917694
394.529801	3861.430585
394.913047	3960.161583
395.296230	3990.431191
395.679351	4113.150520
396.062410	4211.437896
396.445408	4248.223196
396.828343	4347.097867
397.211217	4444.049338
397.594028	4407.014501
397.976778	4552.265267
398.359466	4632.883399
398.742092	4705.995253
399.124656	4671.269265
399.507158	4813.994413
399.889598	4910.643414
400.271977	5054.689344
400.654294	5077.858487
401.036549	5152.008819
401.418742	5112.864260
401.800874	5330.057332
402.182944	5406.012397
402.564952	5532.739443
402.946898	5619.351507
403.328783	5490.179502
403.710606	5516.779150
404.092367	5838.709755
404.474067	5878.277772
404.855705	5801.528725
405.237282	5746.948152
405.618797	5996.828066
406.000250	5989.858671
406.381642	6196.155289
406.762972	6226.508076
407.144240	6290.553415
407.525447	6278.068998
407.906593	6314.980326
408.287677	6468.357432
408.668700	6385.029680
409.049661	6505.548545
409.430560	6530.739190
409.811399	6398.328243
410.192176	6674.956520
410.572891	6674.331417
410.953545	6878.747684
411.334138	6613.764474
411.714669	6787.228057
412.095139	6580.313897
412.475547	6827.227092
412.855894	6892.688995
413.236180	7068.368166
413.616405	6752.411328
413.996568	6972.876109
414.376670	7006.092272
414.756711	6907.772128
415.136691	6998.563308
415.516609	7195.556477
415.896466	7194.996909
416.276262	7395.518886
416.655997	7374.968622
417.035670	7562.796973
417.415283	7903.427739
417.794834	7949.629914
418.174324	7815.169738
418.553753	7731.663024
418.933121	8042.838328
419.312428	8142.927917
419.691674	7928.265504
420.070859	8400.220847
420.449983	8079.071621
420.829045	8441.684338
421.208047	8227.631904
421.586988	8515.426336
421.965867	8542.295686
422.344686	8644.694124
422.723444	8688.884878
423.102141	8055.973054
423.480777	8805.058269
423.859352	8334.612751
424.237866	8952.247358
424.616319	8815.909352
424.994712	9230.506448
425.373044	8788.170403
425.751314	9256.140715
426.129524	9125.935273
426.507673	9241.057583
426.885762	9391.651971
427.263789	9309.909662
427.641756	9239.852747
428.019662	9326.973968
428.397508	9578.893028
428.775292	9259.097352
429.153016	9635.361513
429.530679	9475.554415
429.908282	9510.023305
430.285824	9223.809275
430.663305	9910.432072
431.040726	9362.468732
431.418086	9341.255556
431.795385	9671.650259
432.172624	9758.186706
432.549802	9668.638169
432.926920	9756.631510
433.303977	9628.679463
433.680974	9835.843160
434.057910	9918.886087
434.434786	9992.744033
434.811601	9828.803189
435.188355	10391.900073
435.565050	10121.404361
435.941683	10050.084637
436.318257	10546.421521
436.694770	10680.937150
437.071222	10748.881821
437.447614	10585.117418
437.823946	10484.944650
438.200218	10610.784453
438.576429	10439.077712
438.952580	10685.423777
439.328670	10725.216125
439.704700	10513.616212
440.080670	10502.606332
440.456580	11055.338605
440.832429	10815.966976
441.208218	10419.795298
441.583947	10739.296067
441.959616	10894.624100
442.335224	10699.193688
442.710773	10829.812505
443.086261	11045.967100
443.461689	10316.502056
443.837057	10986.100877
444.212365	11243.502193
444.587612	10880.362675
444.962800	11104.270565
445.337927	10865.811385
445.712995	10492.637451
446.088002	11550.102649
446.462949	11225.449821
446.837837	11196.354801
447.212664	11157.547999
447.587431	11711.192720
447.962139	12437.121395
448.336786	14721.525301
448.711374	15235.740637
449.085901	13077.063108
449.460369	12708.476624
449.834776	12154.526913
450.209124	13056.396898
450.583412	13467.399650
450.957640	14409.193053
451.331808	13502.309641
451.705917	12527.693285
452.079965	11810.700056
452.453954	12725.674520
452.827883	12361.456196
453.201752	12651.410762
453.575562	12180.902230
453.949311	12593.533275
454.323001	12568.672825
454.696632	12805.188640
455.070202	13089.141712
455.443713	13297.721973
455.817164	13781.720634
456.190556	13753.636366
456.563888	14127.629487
456.937160	14281.825780
457.310373	13634.150937
457.683526	13726.860277
458.056619	13261.844082
458.429653	13435.645422
458.802628	12831.422804
459.175542	13228.088515
459.548398	14175.177650
459.921194	14523.402914
460.293930	14589.431947
460.666607	15453.712568
461.039224	16505.564442
461.411782	17213.657514
461.784280	17041.968417
462.156719	17130.438146
462.529099	16808.363868
462.901419	15760.224804
463.273680	15521.942065
463.645882	15408.959725
464.018024	15136.321522
464.390106	15366.198137
464.762130	16076.322794
465.134094	16867.385697
465.505999	18885.291526
465.877845	22152.077686
466.249631	24978.256917
466.621358	24618.792400
466.993026	23192.284494
467.364634	22622.137555
467.736184	21151.567443
468.107674	20359.398008
468.479105	20485.595732
468.850477	19946.093968
469.221790	19540.132370
469.593043	18863.763279
469.964238	18291.262122
470.335373	17942.522660
470.706449	18416.413807
471.077467	17982.814082
471.448425	19837.736887
471.819324	23920.446399
472.190164	25834.678379
472.560945	22230.477710
472.931667	19896.471370
473.302330	19270.342419
473.672934	18862.041725
474.043479	19137.480288
474.413965	18938.190874
474.784393	18554.238953
475.154761	19280.119737
475.525070	19236.584332
475.895321	18927.788453
476.265513	19524.096459
476.635645	20109.031622
477.005719	19886.230266
477.375734	20061.707791
477.745691	20551.516381
478.115588	21090.854307
478.485427	21639.704891
478.855207	22719.706568
479.224928	24490.711805
479.594591	26720.991363
479.964194	26696.851798
480.333739	26922.624914
480.703226	26490.020817
481.072653	26182.250813
481.442022	26788.159697
481.811333	27704.822948
482.180584	27600.675230
482.549777	26647.115774
482.918912	26313.008262
483.287988	26439.032067
483.657005	26075.239720
484.025964	25851.112540
484.394864	25742.692445
484.763706	25414.543576
485.132489	24864.344484
485.501213	25043.229828
485.869879	24954.994512
486.238487	24783.562514
486.607036	24913.004221
486.975527	24654.624922
487.343959	24948.849346
487.712333	24884.849377
488.080648	24535.540265
488.448905	25029.374217
488.817104	24798.544823
489.185244	25490.675082
489.553326	25441.743122
489.921350	26466.002240
490.289315	28786.092474
490.657222	30536.413857
491.025070	31029.957942
491.392861	30795.990430
491.760593	29945.152046
492.128267	29021.771458
492.495883	27976.054668
492.863440	27099.592099
493.230939	26228.994912
493.598380	26082.357829
493.965763	25683.108527
494.333088	25219.796241
494.700354	25164.535113
495.067563	25027.123341
495.434713	24772.313179
495.801805	24946.633758
496.168839	24721.654624
496.535815	24583.491721
496.902733	24804.997500
497.269593	24488.123172
497.636395	24663.575491
498.003139	24604.591470
498.369825	24351.212995
498.736453	24555.480549
499.103023	24436.592497
499.469535	24433.363638
499.835989	24654.140971
500.202385	24680.871689
500.568723	24189.719632
500.935003	24412.805813
501.301226	24060.487133
501.667390	24909.704786
502.033497	25121.168587
502.399546	24859.567990
502.765537	24403.625872
503.131470	24800.001717
503.497345	24930.562560
503.863163	24165.302803
504.228923	24734.643157
504.594625	24954.629028
504.960269	24502.387117
505.325856	24994.192004
505.691385	24388.915785
506.056856	24996.788198
506.422270	24969.961698
506.787625	24512.955896
507.152924	24935.308806
507.518164	24979.048378
507.883347	24779.060763
508.248472	24458.362720
508.613540	25246.279943
508.978550	25041.866196
509.343503	25051.414141
509.708398	25270.389261
510.073236	25438.988131
510.438016	25658.507696
510.802738	25310.859644
511.167403	25554.329731
511.532010	25299.842203
511.896561	26057.938480
512.261053	26025.233994
512.625488	25850.558013
512.989866	25750.024803
513.354186	25575.235396
513.718449	25692.885845
514.082655	26071.063124
514.446803	25800.133872
514.810894	26286.186803
515.174927	25768.919048
515.538904	25801.525231
515.902822	26288.717462
516.266684	26052.211729
516.630488	25956.422244
516.994235	25908.032208
517.357925	26222.363274
517.721558	26402.219041
518.085133	26521.379315
518.448651	26410.390751
518.812112	26165.584758
519.175516	26372.191408
519.538863	26528.202516
519.902152	26329.296230
520.265385	26583.067914
520.628560	26380.393365
520.991678	26367.810645
521.354739	26435.488135
521.717743	26515.012337
522.080690	26299.319008
522.443580	26626.752033
522.806413	26606.925175
523.169189	26732.439823
523.531908	26761.686077
523.894569	26392.315694
524.257174	26478.045556
524.619722	26621.458821
524.982213	26335.529616
525.344647	26366.240326
525.707025	26526.740582
526.069345	26478.852141
526.431608	26455.806506
526.793815	26635.780739
527.155964	26122.659333
527.518057	26295.631404
527.880093	26204.895676
528.242072	26443.412829
528.603995	26152.671843
528.965860	25934.483143
529.327669	25989.678736
529.689421	25975.997045
530.051117	25818.902088
530.412755	25986.127243
530.774337	25773.793843
531.135862	25665.335939
531.497331	25845.559709
531.858743	25429.951863
532.220098	25896.349334
532.581396	25587.760143
532.942638	25494.342521
533.303824	25612.234945
533.664953	25606.354439
534.026025	25276.519304
534.387040	25513.435891
534.747999	25571.525107
535.108902	25740.796971
535.469748	25228.870318
535.830537	25384.863783
536.191270	25533.565218
536.551947	25371.318202
536.912567	25004.284394
537.273131	25414.941827
537.633638	25100.462048
537.994089	25314.620345
538.354483	24820.849408
538.714821	25336.262019
539.075103	25367.789395
539.435328	25146.364274
539.795497	24730.625357
540.155609	25090.979637
540.515665	25401.653346
540.875665	24616.780980
541.235609	24947.974705
541.595496	24892.882456
541.955328	25249.536528
542.315102	25171.426370
542.674821	24690.407032
543.034483	24559.137906
543.394090	24750.726958
543.753640	24545.249528
544.113134	25174.897205
544.472571	24771.352839
544.831953	25073.088582
545.191278	24714.433171
545.550548	24606.002993
545.909761	24804.848786
546.268918	25046.229314
546.628019	25026.697364
546.987064	24701.865575
547.346053	24444.779331
547.704986	24548.460743
548.063863	24716.308480
548.422684	24732.692230
548.781449	24250.359672
549.140158	24660.495346
549.498811	24229.698502
549.857408	23994.727801
550.215949	24378.679722
550.574434	24086.464198
550.932864	24295.132679
551.291237	24468.913855
551.649555	24316.547501
552.007817	24374.011614
552.366022	24224.279262
552.724173	24253.888479
553.082267	24211.472211
553.440305	24686.127092
553.798288	23941.594040
554.156215	24442.551141
554.514086	24570.664505
554.871902	23945.826088
555.229661	24215.479928
555.587365	24071.779317
555.945014	23970.928514
556.302606	24190.306926
556.660143	24168.282125
557.017625	24406.421192
557.375050	23923.710546
557.732421	24309.809999
558.089735	24130.914572
558.446994	24189.170146
558.804197	24220.029569
559.161345	24130.760817
559.518437	23920.295165
559.875474	24099.291414
560.232455	24266.781230
560.589381	24082.935391
560.946251	24093.577266
561.303065	24385.233222
561.659825	24485.670651
562.016528	24077.495986
562.373177	23819.598117
562.729770	24187.181411
563.086307	24037.116343
563.442789	24206.766294
563.799216	24057.406987
564.155587	24051.846595
564.511904	24026.633264
564.868164	23984.305216
565.224370	23950.829433
565.580520	23888.054465
565.936615	24010.322611
566.292654	23692.729918
566.648638	23953.791111
567.004567	23774.719244
567.360441	23722.273600
567.716260	23446.832516
568.072023	23759.084106
568.427732	23551.703639
568.783385	23310.131547
569.138982	23555.960894
569.494525	23585.570111
569.850013	23347.055478
570.205445	23449.615233
570.560823	23265.441718
570.916145	23030.234083
571.271412	23214.440365
571.626625	22972.724600
571.981782	23062.154669
572.336884	22893.303741
572.691931	23027.360625
573.046923	22756.360797
573.401860	22642.592037
573.756743	22663.550634
574.111570	22563.960119
574.466342	22478.515082
574.821059	22561.547927
575.175722	22256.974015
575.530330	22233.278071
575.884882	22248.509918
576.239380	22161.812154
576.593823	22057.553530
576.948211	22038.003936
577.302544	21895.288870
577.656823	21743.587948
578.011047	21857.623889
578.365216	21734.244170
578.719330	21600.083942
579.073389	21481.616827
579.427394	21646.071868
579.781344	21397.923591
580.135239	21286.856889
580.489080	21238.885269
580.842866	21019.592556
581.196597	21224.452446
581.550273	21184.738236
581.903895	21070.712377
582.257463	21371.414683
582.610975	20912.445352
582.964434	21239.409549
583.317837	20915.938872
583.671186	21002.482880
584.024481	20987.074593
584.377721	20748.275136
584.730906	20834.012560
585.084037	20824.978812
585.437113	20749.840414
585.790135	20959.678443
586.143103	20402.739328
586.496016	20439.063362
586.848874	20671.727735
587.201679	20582.479148
587.554428	20284.146183
587.907124	20608.730956
588.259765	20378.952643
588.612352	20450.234559
588.964884	20017.983343
589.317362	20190.829385
589.669786	20251.058570
590.022155	20262.532236
590.374470	20497.830613
590.726731	20249.362222
591.078937	20042.178361
591.431090	20126.163984
591.783188	19892.509023
592.135232	19851.100986
592.487222	19951.934145
592.839157	19961.424117
593.191038	19849.434884
593.542866	19739.278111
593.894639	19441.464386
594.246358	19658.725514
594.598022	19544.886178
594.949633	19313.560231
595.301190	19285.637279
595.652692	19462.717891
596.004141	19676.137659
596.355535	19004.839969
596.706876	19035.175112
597.058162	18926.369368
597.409395	19175.541000
597.760573	19223.676458
598.111698	18985.519747
598.462768	18936.698693
598.813785	18908.914373
599.164748	18709.514053
599.515657	18756.590868
599.866511	18557.205672
600.217312	18907.218025
600.568060	18427.995858
600.918753	18726.991734
601.269392	18632.558319
601.619978	18436.195295
601.970510	18611.897150
602.320988	18572.175378
602.671412	18765.236447
603.021783	18693.962094
603.372100	18410.881141
603.722363	18555.592503
604.072572	18501.634513
604.422728	18653.259818
604.772830	18401.307989
605.122878	18355.720835
605.472872	18346.666923
605.822813	18332.970108
606.172701	18303.600346
606.522534	18494.443307
606.872314	18521.262245
607.222041	18357.707050
607.571714	18569.843845
607.921333	18400.932423
608.270899	18471.692579
608.620411	18633.823649
608.969870	18418.180731
609.319276	18423.448737
609.668627	18447.764743
610.017926	18583.759950
610.367171	18684.562862
610.716362	18749.255990
611.065500	18562.942505
611.414585	18703.237817
611.763616	18691.900262
612.112594	18624.613461
612.461518	18597.250078
612.810389	18788.387946
613.159207	18641.723137
613.507971	18559.426300
613.856682	18815.683274
614.205340	18745.263396
614.553945	18890.907372
614.902496	18636.848341
615.250994	18856.682978
615.599439	18797.250295
615.947830	18789.439027
616.296169	18858.616261
616.644454	18826.856991
616.992686	18791.067320
617.340864	19011.622842
617.688990	18761.574049
618.037063	18936.255071
618.385082	18792.614954
618.733048	19057.802331
619.080961	18950.844170
619.428821	18980.092945
619.776628	18851.039406
620.124382	18785.181773
620.472083	18834.264967
620.819731	18844.281740
621.167326	18544.721255
621.514868	18583.394466
621.862357	18356.963480
622.209793	18363.844655
622.557176	18198.031022
622.904506	18027.453500
623.251783	17950.094473
623.599007	17704.033233
623.946179	17631.493550
624.293297	17569.484837
624.640363	17306.694528
624.987376	17325.414853
625.334336	17139.156822
625.681243	16980.090774
626.028097	16994.959657
626.374899	16916.020229
626.721647	16784.541895
627.068343	16614.188704
627.414987	16541.875873
627.761577	16512.985020
628.108115	16554.798871
628.454600	16268.572238
628.801032	16375.056530
629.147412	16316.463199
629.493739	16324.072821
629.840014	16139.294368
630.186236	16239.096611
630.532405	15997.915208
630.878521	16200.365426
631.224585	16103.734068
631.570597	15925.183961
631.916556	15943.196004
632.262462	15921.934937
632.608316	15838.418142
632.954117	15788.883764
633.299866	15772.855415
633.645562	15696.371029
633.991206	15455.638289
634.336797	15331.285626
634.682336	15296.481500
635.027823	15163.775646
635.373257	15038.800401
635.718639	14952.742863
636.063968	14891.147525
636.409245	14646.097037
636.754470	14685.334858
637.099642	14534.768195
637.444762	14305.380572
637.789829	14347.456562
638.134845	14173.935006
638.479808	14201.300909
638.824719	14125.325680
639.169577	13993.696112
639.514383	14027.156770
639.859137	13858.963713
640.203839	13954.163383
640.548489	13795.125062
640.893086	13785.289771
641.237632	13664.307119
641.582125	13820.882837
641.926566	13634.168581
642.270955	13649.488648
642.615292	13605.096247
642.959576	13616.522022
643.303809	13647.247855
643.647990	13574.791351
643.992118	13641.148059
644.336195	13410.205239
644.680219	13627.100883
645.024192	13539.848593
645.368112	13781.566878
645.711981	13826.506244
646.055797	14013.459955
646.399562	13989.390966
646.743274	14249.196912
647.086935	14525.109344
647.430544	14488.414786
647.774101	14533.616292
648.117606	14666.357434
648.461059	14643.924299
648.804460	14627.023831
649.147810	14355.560217
649.491108	14267.198873
649.834354	14279.489206
650.177548	13954.463332
650.520690	13764.605916
650.863781	13692.840050
651.206820	13738.306217
651.549807	13570.569384
651.892742	13361.938712
652.235626	13299.085606
652.578458	13310.231597
652.921238	13010.103982
653.263967	13199.301006
653.606644	13025.212320
653.949269	13018.767205
654.291843	12807.016058
654.634365	12977.918735
654.976836	12817.234477
655.319255	12818.865290
655.661622	12782.359775
656.003938	12699.342053
656.346203	12622.852626
656.688416	12703.742980
657.030577	12660.409222
657.372687	12562.769634
657.714746	12545.165924
658.056753	12750.570258
658.398708	12551.883262
658.740612	12545.997715
659.082465	12663.123883
659.424266	12625.479067
659.766016	12655.317657
660.107715	12572.312538
660.449362	12649.169969
660.790958	12601.664656
661.132503	12534.962629
661.473996	12609.843928
661.815438	12625.511834
662.156829	12650.576451
662.498168	12626.333542
662.839456	12626.852781
663.180693	12638.301242
663.521879	12734.660377
663.863013	12704.778938
664.204097	12682.217253
664.545129	12817.723469
664.886110	12784.277934
665.227040	12879.031461
665.567918	12871.074000
665.908746	12896.625088
666.249522	12891.047052
666.590248	12941.566975
666.930922	13053.629304
667.271545	13023.914223
667.612118	13115.448974
667.952639	13012.269158
668.293109	13042.316955
668.633528	12986.753357
668.973896	12955.316722
669.314213	13029.837579
669.654480	12776.436419
669.994695	12856.091691
670.334859	12879.971637
670.674973	12821.378305
671.015035	12853.770239
671.355047	12796.797639
671.695008	12766.608689
672.034918	12785.293726
672.374777	12823.621619
672.714585	12743.197571
673.054342	12773.230245
673.394049	12727.466650
673.733705	12821.668172
674.073310	12721.828120
674.412864	12742.264957
674.752368	12586.125299
675.091820	12628.067699
675.431223	12607.923249
675.770574	12471.746560
676.109875	12394.866443
676.449125	12351.923374
676.788324	12296.747945
677.127473	12137.757515
677.466571	12122.175308
677.805619	12004.562668
678.144616	11944.842639
678.483562	11917.174266
678.822458	11783.878597
679.161303	11767.860331
679.500098	11752.928433
679.838842	11701.491020
680.177535	11740.892678
680.516179	11806.256279
680.854771	11742.742782
681.193314	11958.045421
681.531805	12118.926284
681.870247	12562.794839
682.208638	12964.199235
682.546978	13272.914455
682.885268	13301.578456
683.223508	13001.045028
683.561697	12846.279085
683.899836	12762.094336
684.237925	12556.148078
684.575963	12464.227679
684.913951	12384.201882
685.251889	12339.428874
685.589776	12436.047629
685.927614	12357.206503
686.265401	12322.372130
686.603137	12388.063406
686.940824	12526.793439
687.278460	12656.814879
687.616046	12691.666896
687.953582	12840.295235
688.291068	12789.271197
688.628504	13025.212320
688.965889	13026.671734
689.303224	12988.096825
689.640510	12870.544679
689.977745	12546.027962
690.314930	12329.606186
690.652065	12248.214237
690.989150	11948.656272
691.326185	11723.868702
691.663170	11513.400528
692.000105	11283.975096
692.336990	11163.007569
692.673825	10901.621221
693.010610	10790.720878
693.347345	10578.538712
693.684030	10396.812678
694.020665	10320.172016
694.357251	10132.111772
694.693786	10058.062263
695.030272	9914.805273
695.366707	9785.930696
695.703093	9730.243590
696.039429	9720.798988
696.375716	9628.286253
696.711952	9501.967541
697.048139	9550.586949
697.384276	9498.330348
697.720363	9526.490234
698.056400	9455.198236
698.392388	9400.622705
698.728326	9362.519143
699.064214	9306.942943
699.400053	9347.912400
699.735842	9162.345006
700.071581	9123.656671
700.407270	9046.237151
700.742910	8970.105646
701.078501	8870.865491
701.414042	8744.871933
701.749533	8684.055453
702.084974	8546.802478
702.420366	8668.069954
702.755709	8541.216879
703.091002	8409.070593
703.426246	8435.234181
703.761440	8390.347748
704.096584	8348.677570
704.431679	8283.424874
704.766725	8264.760002
705.101721	8219.518167
705.436668	8270.431300
705.771565	8158.215216
706.106413	8244.290397
706.441212	8275.911035
706.775961	8238.732525
707.110661	8288.191285
707.445311	8418.863034
707.779913	8312.129204
708.114465	8440.721477
708.448967	8478.013413
708.783421	8639.907548
709.117825	8811.190832
709.452180	8842.660235
709.786485	8931.412269
710.120742	9220.802226
710.454949	9221.029078
710.789107	9329.713835
711.123216	9548.688955
711.457275	9722.218073
711.791286	9868.623263
712.125247	9868.862718
712.459159	9850.762455
712.793023	10084.281304
713.126837	9666.714969
713.460602	9821.992590
713.794318	9645.335436
714.127985	9678.980097
714.461602	9338.795473
714.795171	9290.801168
715.128691	9043.111636
715.462162	8802.489801
715.795584	8743.490657
716.128957	8575.796674
716.462281	8405.025067
716.795556	8462.186710
717.128782	8249.137467
717.461960	7995.625401
717.795088	8070.811690
718.128167	7968.859395
718.461198	7804.941237
718.794180	7753.322342
719.127113	7743.938234
719.459997	7569.549599
719.792833	7356.389450
720.125619	7423.323370
720.458357	7275.224352
720.791046	7267.443331
721.123686	7257.736589
721.456278	7095.439162
721.788821	7118.852801
722.121315	7014.342120
722.453761	7084.840136
722.786158	7023.418718
723.118506	7035.492281
723.450805	6998.175140
723.783056	7057.575055
724.115259	6975.295863
724.447412	6975.023641
724.779518	7026.473657
725.111574	7022.987699
725.443582	7097.127948
725.775542	7076.244969
726.107453	7273.313755
726.439315	7186.840322
726.771129	7252.450940
727.102895	7432.210924
727.434612	7536.220010
727.766281	7577.083603
728.097901	7653.570510
728.429473	7655.828947
728.760996	7641.096175
729.092471	7612.351516
729.423897	7550.501599
729.755276	7550.078142
730.086606	7472.608210
730.417887	7574.573109
730.749120	7789.558156
731.080305	7981.253072
731.411442	8082.507167
731.742530	8071.378820
732.073570	8181.170110
732.404562	8267.348635
732.735506	8129.760423
733.066401	8260.243128
733.397249	8182.102723
733.728048	7936.086854
734.058798	7611.761701
734.389501	7376.649847
734.720156	7205.197684
735.050762	6980.810885
735.381320	6896.179994
735.711831	6827.837072
736.042293	6717.110648
736.372707	6739.556386
736.703073	6603.762824
737.033391	6648.228322
737.363661	6656.957080
737.693883	6692.862698
738.024056	6772.291118
738.354182	6813.031203
738.684260	6840.147569
739.014290	6967.524924
739.344272	7075.733292
739.674207	7105.513908
740.004093	7176.798344
740.333931	7189.640683
740.663722	7199.327260
740.993464	7278.117974
741.323159	7252.740806
741.652806	7005.497416
741.982405	7038.068311
742.311956	7084.222595
742.641460	6901.004379
742.970915	6716.430092
743.300323	6702.357711
743.629683	6658.189642
743.958996	6523.878180
744.288260	6435.738646
744.617477	6380.744699
744.946647	6378.362754
745.275768	6216.226643
745.604842	6172.328275
745.933869	6154.071737
746.262847	6112.454491
746.591778	6097.610814
746.920662	6056.618671
747.249498	6056.366613
747.578286	6105.404437
747.907027	6176.015879
748.235720	6239.267237
748.564365	6208.811106
748.892963	6249.858701
749.221514	6386.738631
749.550017	6208.082659
749.878473	6095.460762
750.206881	6154.359083
750.535242	6106.533656
750.863555	6031.576739
751.191821	6042.604263
751.520039	6042.591661
751.848210	5947.255880
752.176334	5979.778884
752.504411	6021.305388
752.832440	5942.880158
753.160421	5875.832812
753.488356	5924.399288
753.816243	5954.200069
754.144082	5800.081914
754.471875	5782.279079
754.799620	5819.689482
755.127318	5834.013920
755.454969	5786.007012
755.782572	5755.639101
756.110129	5797.941944
756.437638	5780.401249
756.765100	5717.104521
757.092515	5722.680038
757.419882	5775.586947
757.747203	5752.107773
758.074477	5813.738399
758.401703	5800.525535
758.728882	5754.829996
759.056014	5820.412887
759.383099	5942.106341
759.710138	5951.568587
760.037129	5932.570998
760.364073	5944.062309
760.690970	6026.235637
761.017820	6001.344940
761.344623	5962.013858
761.671379	6069.110650
761.998088	6200.324323
762.324751	6451.784639
762.651366	7082.899292
762.977935	8438.359697
763.304456	10086.892622
763.630931	10951.437903
763.957359	10510.089925
764.283740	9552.434532
764.610074	8693.817647
764.936362	7693.604833
765.262602	7098.171467
765.588796	6564.656073
765.914943	6234.284056
766.241044	6067.835238
766.567097	5856.202559
766.893104	5592.789667
767.219064	5422.076034
767.544978	5361.201580
767.870845	5276.870638
768.196665	5169.846942
768.522438	5097.806333
768.848165	5067.549328
769.173846	4998.727495
769.499479	4948.308395
769.825066	4901.798710
770.150607	4837.551725
770.476101	4819.970701
770.801548	4812.867715
771.126949	4729.330754
771.452303	4677.540460
771.777611	4639.167197
772.102872	4659.782996
772.428087	4620.093992
772.753256	4578.002878
773.078378	4531.520919
773.403453	4462.016010
773.728482	4447.275676
774.053465	4398.837749
774.378401	4387.963981
774.703291	4380.298906
775.028135	4309.243843
775.352932	4262.799692
775.677683	4248.195470
776.002388	4268.397894
776.327046	4279.085140
776.651658	4204.672668
776.976224	4143.039521
777.300743	4145.562618
777.625216	4169.109848
777.949643	4161.986698
778.274024	4122.431284
778.598359	4077.766661
778.922647	4105.543419
779.246889	4094.732664
779.571086	4087.349894
779.895236	4069.703335
780.219339	4058.456521
780.543397	4057.838980
780.867409	4108.071557
781.191374	4117.438021
781.515294	4058.685894
781.839167	4049.785737
782.162995	4071.379519
782.486776	4060.299063
782.810511	4072.808686
783.134201	4059.341244
783.457844	4011.052031
783.781441	3961.477324
784.104993	3968.093838
784.428498	3985.689986
784.751958	3979.726301
785.075372	3959.420533
785.398739	3921.294287
785.722061	3938.595527
786.045337	3980.815190
786.368568	4008.667565
786.691752	3918.554420
787.014891	3973.248418
787.337983	4107.239767
787.661030	4268.743213
787.984031	4433.674643
788.306987	4597.663378
788.629897	4680.585317
788.952760	4633.889109
789.275579	4571.235129
789.598351	4501.760467
789.921078	4352.522148
790.243759	4151.546468
790.566395	4141.801918
790.888984	4135.991988
791.211529	4027.702962
791.534027	3964.625525
791.856480	3950.999286
792.178888	3892.428640
792.501249	3843.053058
792.823566	3855.066128
793.145836	3881.290210
793.468062	3830.636697
793.790241	3788.651447
794.112375	3817.025581
794.434464	3882.789954
794.756507	3903.622522
795.078505	3880.894480
795.400457	3924.306376
795.722364	4066.582861
796.044226	4169.387112
796.366042	4246.736056
796.687812	4215.785892
797.009538	4223.236717
797.331218	4182.148793
797.652852	4155.387827
797.974442	4134.530053
798.295986	4132.493427
798.617484	4046.866908
798.938938	3962.430102
799.260346	4009.058255
799.581709	4000.513499
799.903026	3922.436108
800.224299	3888.078124
800.545526	3881.527145
800.866708	3840.086339
801.187845	3784.873102
801.508936	3819.997341
801.829983	3810.908141
802.150984	3733.970051
802.471940	3730.103486
802.792851	3736.599013
803.113717	3734.776636
803.434538	3735.931060
803.755314	3675.117100
804.076045	3657.215963
804.396731	3678.298068
804.717372	3704.577603
805.037967	3683.472813
805.358518	3673.801359
805.679024	3702.450237
805.999485	3718.274418
806.319901	3723.363463
806.640272	3732.833271
806.960598	3748.614603
807.280879	3721.276426
807.601115	3737.602202
807.921306	3752.879419
808.241453	3795.547745
808.561554	3764.312756
808.881611	3704.118858
809.201623	3740.397522
809.521590	3750.966301
809.841513	3721.357084
810.161390	3749.453955
810.481223	3726.481417
810.801011	3676.095084
811.120755	3669.332376
811.440453	3703.380329
811.760107	3703.624825
812.079716	3656.548010
812.399281	3630.820482
812.718801	3653.959378
813.038276	3628.771252
813.357707	3625.524749
813.677093	3640.106287
813.996434	3589.389759
814.315731	3598.552056
814.634983	3605.665124
814.954191	3619.205663
815.273354	3645.258346
815.592473	3637.895741
815.911547	3650.105416
816.230577	3692.141077
816.549562	3743.795260
816.868502	3782.783544
817.187399	3806.219868
817.506250	3808.606854
817.825058	3783.569964
818.143821	3881.277607
818.462539	3980.008606
818.781213	4020.536962
819.099843	4086.439966
819.418429	4342.991847
819.736970	4590.212552
820.055466	4843.102035
820.373919	5213.750351
820.692327	5631.059587
821.010691	6111.597495
821.329011	7569.920124
821.647286	10443.874370
821.965517	15133.707684
822.283704	19145.667122
822.601847	21164.253507
822.919945	19254.855994
823.237999	16620.301103
823.556010	14113.093320
823.873976	11965.360135
824.191897	9859.098003
824.509775	8520.026389
824.827609	7394.868577
825.145398	6859.190528
825.463144	6744.799186
825.780845	6857.595003
826.098502	7073.537869
826.416116	8007.272987
826.733685	9369.034835
827.051210	10457.677049
827.368692	10426.245455
827.686129	9111.961194
828.003522	7599.751152
828.320872	6580.727272
828.638177	5869.188571
828.955439	5302.978774
829.272656	4797.638389
829.589830	4525.158983
829.906960	4349.124411
830.224046	4158.931758
830.541088	4034.725289
830.858086	3987.635871
831.175041	3909.669386
831.491952	3896.380904
831.808819	3908.209972
832.125642	3987.429184
832.442421	4145.113956
832.759157	4431.766566
833.075849	5004.088763
833.392497	5896.272170
833.709101	6684.638056
834.025662	6992.849161
834.342179	6585.123158
834.658653	5909.321197
834.975083	5252.035394
835.291469	4677.147250
835.607811	4270.376547
835.924110	4124.830873
836.240366	3925.130605
836.556578	3725.037126
836.872746	3613.385651
837.188871	3571.266811
837.504952	3498.706963
837.820990	3418.918100
838.136984	3376.774054
838.452935	3400.994278
838.768842	3394.251734
839.084706	3416.137904
839.400526	3589.616611
839.716303	3946.363945
840.032037	4489.626410
840.347727	4728.952668
840.663373	4426.712810
840.978977	4040.157133
841.294537	3728.197930
841.610054	3504.955473
841.925527	3398.143505
842.240957	3325.437464
842.556344	3271.255142
842.871687	3210.950339
843.186987	3160.654747
843.502244	3125.512864
843.817458	3089.314859
844.132629	3058.780590
844.447756	3066.939698
844.762840	3052.423695
845.077881	3017.513705
845.392879	3003.892507
845.707833	2997.827999
846.022745	3001.077023
846.337613	2998.218688
846.652438	2983.158241
846.967221	2982.210504
847.281960	2971.200624
847.596656	2966.232567
847.911309	2967.117290
848.225919	2957.740743
848.540485	2955.681432
848.855009	2953.453242
849.169490	2942.322374
849.483928	2934.473298
849.798323	2937.419852
850.112675	2930.309305
850.426984	2943.885132
850.741251	2940.043773
851.055474	2927.950045
851.369654	2922.608942
851.683792	2929.641352
851.997887	2937.520675
852.311938	2940.215172
852.625947	2929.001125
852.939914	2930.778132
853.253837	2933.656631
853.567718	2922.573654
853.881555	2921.441915
854.195350	2936.308278
854.509103	2929.170004
854.822812	2922.906370
855.136479	2916.216759
855.450103	2919.125505
855.763685	2916.138621
856.077224	2913.693662
856.390720	2924.317893
856.704173	2938.349945
857.017584	2926.868717
857.330953	2925.835281
857.644278	2932.749223
857.957561	2941.311623
858.270802	2946.879578
858.584000	2946.193981
858.897155	2931.488935
859.210268	2930.087494
859.523339	2927.967689
859.836367	2930.425251
860.149352	2923.415527
860.462295	2918.737336
860.775195	2927.564397
861.088054	2924.302770
861.400869	2907.467837
861.713642	2908.657549
862.026373	2921.421751
862.339062	2923.599529
862.651708	2930.132864
862.964312	2932.366096
863.276873	2922.634148
863.589392	2937.808021
863.901869	2950.453756
864.214303	2971.311530
864.526696	2985.053715
864.839045	2979.195894
865.151353	2982.485247
865.463619	2982.543220
865.775842	2981.280411
866.088023	3002.702795
866.400162	3005.946777
866.712258	2975.515852
867.024313	2966.504789
867.336325	2976.221613
867.648296	2999.564676
867.960224	2990.604025
868.272110	2975.956953
868.583954	2982.404589
868.895755	2995.017556
869.207515	2982.210504
869.519233	2989.076556
869.830909	2998.357320
870.142542	3006.556757
870.454134	3007.751510
870.765684	3007.799401
871.077191	3008.621109
871.388657	3018.728623
871.700081	3034.182280
872.011463	3043.342056
872.322803	3043.566388
872.634101	3046.023950
872.945357	3061.631362
873.256571	3088.914087
873.567744	3080.888570
873.878874	3072.273238
874.189963	3094.217381
874.501010	3096.339707
874.812015	3087.547934
875.122979	3083.978797
875.433900	3082.519383
875.744780	3092.795776
876.055618	3098.850201
876.366415	3096.037237
876.677169	3100.095366
876.987882	3100.518823
877.298554	3097.030345
877.609183	3123.756022
877.919771	3143.287972
878.230317	3173.464319
878.540822	3226.305694
878.851285	3264.920932
879.161707	3309.915751
879.472087	3420.735436
879.782425	3664.964217
880.092722	4119.522538
880.402977	4659.972039
880.713191	5313.562677
881.023363	6524.347007
881.333494	7823.906057
881.643583	8350.565482
881.953631	8026.343672
882.263637	7359.930860
882.573602	6744.211891
882.883526	6160.965515
883.193408	5588.161888
883.503248	5135.998115
883.813048	4824.152338
884.122806	4499.093697
884.432522	4173.044469
884.742197	3936.006894
885.051831	3744.896752
885.361424	3612.508490
885.670975	3539.817572
885.980485	3449.099488
886.289954	3370.099566
886.599382	3325.571054
886.908768	3289.153759
887.218113	3244.592480
887.527417	3185.066535
887.836680	3134.748258
888.145901	3128.348513
888.455082	3117.222687
888.764221	3064.376271
889.073319	3036.521375
889.382376	3030.983668
889.691392	3039.115049
890.000366	3037.824513
890.309300	3022.685928
890.618193	3034.512475
890.927044	3051.392779
891.235855	3048.620144
891.544625	3038.076571
891.853353	3052.514436
892.162041	3069.709812
892.470687	3112.151286
892.779293	3162.519974
893.087858	3210.549568
893.396381	3289.163841
893.704864	3418.708892
894.013306	3667.552849
894.321707	3980.416939
894.630068	4175.527237
894.938387	4165.928880
895.246665	4123.310965
895.554903	3993.599556
895.863100	3786.478709
896.171256	3616.508646
896.479371	3474.600165
896.787446	3349.118284
897.095480	3246.235896
897.403473	3180.902542
897.711425	3149.251657
898.019336	3137.304123
898.327207	3104.156016
898.635038	3069.485480
898.942827	3054.906463
899.250576	3042.290976
899.558284	3013.432891
899.865952	2992.146618
900.173579	2970.578042
900.481165	2964.327011
900.788711	2951.048612
901.096216	2922.825712
901.403681	2916.660381
901.711105	2921.542738
902.018489	2919.964857
902.325832	2915.911769
902.633135	2929.028852
902.940397	2965.141157
903.247619	3053.409241
903.554800	3261.863473
903.861941	3621.912763
904.169041	4070.625867
904.476101	4359.191595
904.783121	4291.083086
905.090100	4033.699415
905.397039	3754.646343
905.703938	3499.221160
906.010796	3314.130156
906.317614	3201.399873
906.624391	3105.721294
906.931129	3031.691950
907.237826	2971.961838
907.544483	2920.579878
907.851099	2889.067625
908.157675	2872.225130
908.464211	2848.801409
908.770707	2835.868329
909.077163	2820.911225
909.383578	2806.375058
909.689954	2796.058337
909.996289	2796.020528
910.302584	2798.830971
910.608839	2797.553039
910.915054	2787.347223
911.221229	2785.338323
911.527363	2785.340844
911.833458	2791.770835
912.139513	2796.811989
912.445527	2799.879531
912.751502	2811.522076
913.057436	2819.421564
913.363331	2835.212979
913.669186	2857.872965
913.975000	2891.590723
914.280775	2957.831484
914.586510	3026.280271
914.892205	3109.734052
915.197859	3245.184815
915.503475	3448.834828
915.809050	3672.369672
916.114585	3816.627330
916.420081	3829.270544
916.725536	3766.475411
917.030952	3644.746669
917.336328	3508.111235
917.641665	3376.884959
917.946961	3273.561470
918.252218	3199.955583
918.557435	3121.031278
918.862612	3057.227915
919.167750	3006.453413
919.472848	2970.434369
919.777906	2940.731890
920.082925	2912.768610
920.387904	2881.999928
920.692843	2866.047196
920.997743	2853.744260
921.302603	2839.165243
921.607423	2830.413800
921.912204	2814.503919
922.216946	2803.693164
922.521647	2797.696712
922.826310	2789.071297
923.130932	2782.081738
923.435516	2769.829213
923.740059	2763.794952
924.044564	2754.463776
924.349028	2750.690473
924.653454	2743.930285
924.957840	2737.391909
925.262186	2735.083060
925.566493	2728.184241
925.870761	2724.882286
926.174989	2721.081256
926.479178	2716.798795
926.783328	2708.329657
927.087438	2710.585573
927.391509	2706.081302
927.695541	2705.458720
927.999533	2702.436548
928.303486	2696.556042
928.607400	2699.411856
928.911275	2701.093081
929.215110	2696.346834
929.518906	2693.231401
929.822663	2694.834488
930.126381	2693.473377
930.430060	2695.005887
930.733699	2696.273737
931.037299	2697.876824
931.340861	2699.147195
931.644383	2698.779191
931.947866	2698.418748
932.251309	2697.100487
932.554714	2695.779704
932.858080	2693.576720
933.161407	2691.509847
933.464694	2691.414065
933.767943	2686.874506
934.071153	2690.383149
934.374323	2688.722089
934.677455	2688.621266
934.980548	2687.073632
935.283602	2686.095648
935.586617	2685.450380
935.889593	2688.933817
936.192530	2687.333251
936.495428	2689.619414
936.798287	2688.225535
937.101108	2691.754343
937.403890	2696.868594
937.706632	2700.306661
938.009336	2709.264791
938.312002	2720.136039
938.614628	2726.046792
938.917216	2731.992833
939.219765	2732.254973
939.522275	2731.955024
939.824747	2729.189952
940.127179	2725.031000
940.429573	2724.317676
940.731929	2721.479507
941.034246	2717.312993
941.336524	2714.275698
941.638763	2709.365614
941.940964	2711.898794
942.243126	2708.269163
942.545250	2707.679348
942.847335	2704.153061
943.149381	2700.702391
943.451389	2694.963038
943.753359	2697.229036
944.055290	2693.856504
944.357182	2692.941535
944.659036	2691.262831
944.960851	2689.589167
945.262628	2689.561441
945.564367	2690.068077
945.866067	2690.604960
946.167729	2690.141174
946.469352	2690.186544
946.770937	2688.533046
947.072484	2689.531194
947.373992	2688.137315
947.675462	2684.918538
947.976893	2682.508867
948.278286	2681.430060
948.579641	2681.732529
948.880958	2676.739266
949.182236	2681.215811
949.483476	2680.439473
949.784678	2680.517611
950.085841	2679.975687
950.386967	2680.767148
950.688054	2680.628517
950.989103	2683.764114
951.290114	2683.948116
951.591087	2684.840401
951.892021	2690.607481
952.192917	2692.203006
952.493776	2692.578572
952.794596	2691.315763
953.095378	2692.613860
953.396122	2691.663602
953.696828	2689.727799
953.997496	2689.826102
954.298126	2688.003725
954.598718	2682.791172
954.899272	2679.980728
955.199788	2676.993845
955.500266	2676.255316
955.800706	2673.739780
956.101108	2671.153668
956.401472	2670.513441
956.701798	2669.013698
957.002087	2666.009170
957.302337	2664.204437
957.602550	2664.222081
957.902724	2663.791063
958.202861	2660.849549
958.502960	2659.548932
958.803022	2658.434837
959.103045	2658.840650
959.403031	2656.922491
959.702979	2657.603046
960.002889	2656.211688
960.302762	2657.489620
960.602596	2656.224291
960.902393	2657.908036
961.202153	2656.531801
961.501875	2654.061636
961.801559	2654.112047
962.101205	2656.115906
962.400814	2656.914929
962.700385	2654.890906
962.999918	2648.657519
963.299414	2650.348826
963.598873	2650.661377
963.898293	2649.184319
964.197677	2653.348312
964.497022	2653.648261
964.796331	2652.047695
965.095601	2653.819660
965.394835	2652.929897
965.694030	2653.403765
965.993189	2652.816471
966.292309	2652.771100
966.591393	2651.679691
966.890439	2650.973929
967.189447	2650.681542
967.488419	2652.934938
967.787353	2651.072232
968.086249	2650.981491
968.385108	2650.769762
968.683930	2652.088024
968.982714	2653.567603
969.281462	2651.210863
969.580172	2652.894609
969.878844	2652.410658
970.177480	2651.994763
970.476078	2653.131543
970.774639	2652.766059
971.073162	2652.965185
971.371649	2654.343940
971.670098	2653.595329
971.968510	2653.413847
972.266885	2652.640030
972.565223	2652.755977
972.863524	2652.632469
973.161788	2653.239928
973.460014	2652.088024
973.758204	2650.686583
974.056356	2649.978301
974.354471	2650.338744
974.652550	2651.538538
974.950591	2651.110040
975.248595	2652.430822
975.546563	2650.900832
975.844493	2650.459731
976.142386	2652.009886
976.440243	2650.540390
976.738062	2651.478044
977.035845	2652.997952
977.333590	2654.013745
977.631299	2652.183806
977.928971	2646.946047
978.226606	2645.736170
978.524204	2645.768938
978.821765	2643.636530
979.119290	2649.799340
979.416777	2649.302787
979.714228	2649.212046
980.011642	2650.495019
980.309020	2647.427477
980.606360	2648.234062
980.903664	2651.147849
981.200931	2648.959988
981.498162	2649.688435
981.795356	2651.863693
982.092513	2652.622386
982.389633	2656.788900
982.686717	2660.037924
982.983764	2666.273831
983.280775	2666.503203
983.577749	2669.628719
983.874686	2667.113183
984.171587	2664.920281
984.468451	2662.034221
984.765279	2655.947027
985.062070	2658.323931
985.358824	2655.884013
985.655543	2653.174393
985.952224	2652.539207
986.248869	2650.119453
986.545478	2651.808240
986.842050	2646.736839
987.138586	2650.028713
987.435086	2648.317241
987.731549	2646.701551
988.027975	2646.865389
988.324366	2648.828918
988.620719	2647.505615
988.917037	2648.745739
989.213318	2645.912611
989.509563	2645.915131
989.805772	2648.274391
990.101944	2645.337919
990.398080	2643.427322
990.694180	2646.842703
990.990244	2647.908907
991.286271	2645.048053
991.582262	2645.282466
991.878217	2645.602580
992.174136	2646.298259
992.470019	2643.266005
992.765865	2643.790285
993.061676	2641.589821
993.357450	2641.841879
993.653188	2638.484470
993.948890	2644.606952
994.244556	2647.780358
994.540186	2644.753145
994.835780	2645.620224
995.131337	2644.521252
995.426859	2648.541572
995.722345	2649.204484
996.017795	2648.019813
996.313208	2651.961995
996.608586	2649.101140
996.903928	2651.467962
997.199234	2650.507622
997.494504	2649.786737
997.789738	2650.000986
998.084936	2651.588950
998.380099	2648.760862
998.675225	2647.624082
998.970316	2649.968219
999.265371	2650.142139
999.560390	2647.372025
999.855373	2648.004689
1000.150320	2643.754997
1000.445232	2648.070224
1000.740108	2647.109885
1001.034948	2647.268681
1001.329752	2646.383958
1001.624521	2643.271046
1001.919254	2644.944709
1002.213951	2645.325316
1002.508613	2643.318937
1002.803239	2645.463948
1003.097829	2643.593680
1003.392384	2644.397744
1003.686903	2641.143679
1003.981386	2644.962353
1004.275834	2646.590646
1004.570246	2646.522590
1004.864623	2646.099133
1005.158964	2642.288021
1005.453270	2644.097795
1005.747540	2645.894967
1006.041775	2643.439925
1006.335974	2643.573515
1006.630138	2643.782723
1006.924266	2643.558392
1007.218359	2642.777013
1007.512416	2640.747948
1007.806438	2637.937505
1008.100425	2641.788947
1008.394376	2638.968421
1008.688292	2644.382620
1008.982172	2642.318268
1009.276017	2642.063690
1009.569827	2642.252733
1009.863602	2641.514204
1010.157341	2642.638381
1010.451045	2640.614358
1010.744714	2644.831283
1011.038347	2642.819863
1011.331945	2644.329688
1011.625508	2644.894297
1011.919036	2643.626447
1012.212528	2644.647281
1012.505986	2642.721560
1012.799408	2641.141158
1013.092795	2644.443114
1013.386147	2643.215593
1013.679464	2642.038484
1013.972745	2639.724594
1014.265992	2641.746097
1014.559204	2641.342805
1014.852380	2642.300624
1015.145521	2643.613844
1015.438628	2641.594862
1015.731699	2641.932620
1016.024736	2642.267856
1016.317737	2642.288021
1016.610703	2642.739204
1016.903635	2643.812970
1017.196531	2643.878505
1017.489393	2643.843217
1017.782219	2642.330871
1018.075011	2642.000675
1018.367768	2643.187867
1018.660490	2642.905562
1018.953177	2642.905562
1019.245829	2642.905562
