Dividing Wavelength (nm)	Counts (n)	Blue Motor Position (mm): 47.900000	Red Motor Position (mm): 0.000000	
326.493990	2277.661363
326.888308	2277.661363
327.282561	2277.661363
327.676750	2237.614437
328.070874	2235.038408
328.464933	2234.443551
328.858929	2239.666187
329.252859	2242.690879
329.646726	2251.805285
330.040528	2266.074271
330.434265	2277.510129
330.827938	2299.103911
331.221547	2311.689152
331.615091	2331.001812
332.008571	2350.969823
332.401986	2370.980683
332.795338	2389.418703
333.188625	2409.769841
333.581847	2428.938828
333.975006	2448.233845
334.368100	2467.541464
334.761129	2483.942858
335.154095	2504.024294
335.546996	2529.214940
335.939833	2569.445868
336.332606	2583.445153
336.725315	2597.071392
337.117960	2609.991869
337.510540	2618.183744
337.903056	2630.433748
338.295508	2640.621920
338.687896	2651.412509
339.080220	2654.722027
339.472480	2662.654282
339.864676	2669.898421
340.256807	2673.212979
340.648875	2674.218689
341.040879	2676.850172
341.432818	2681.283867
341.824694	2686.193950
342.216506	2685.468024
342.608253	2684.605987
342.999937	2686.229238
343.391557	2687.020700
343.783113	2686.380473
344.174605	2682.029957
344.566033	2685.387366
344.957397	2681.966943
345.348697	2681.336799
345.739934	2680.295800
346.131106	2677.593742
346.522215	2676.792198
346.913260	2677.815553
347.304241	2674.122907
347.695159	2674.059893
348.086012	2671.511590
348.476802	2669.800118
348.867528	2664.491783
349.258191	2663.266783
349.648789	2662.440033
350.039324	2658.558345
350.429796	2662.109838
350.820203	2661.888027
351.210548	2657.272851
351.600828	2658.896102
351.991045	2656.975423
352.381198	2658.119765
352.771288	2654.348982
353.161314	2656.970382
353.551276	2654.976605
353.941175	2655.137922
354.331010	2652.201450
354.720782	2654.815288
355.110490	2653.953251
355.500135	2651.651964
355.889717	2654.195226
356.279235	2655.926863
356.668689	2653.968374
357.058080	2655.848725
357.447408	2655.301760
357.836672	2656.584733
358.225873	2656.940135
358.615010	2654.354023
359.004084	2658.187820
359.393095	2656.252017
359.782043	2657.464415
360.170927	2658.480207
360.559748	2659.609426
360.948505	2659.848880
361.337199	2661.633449
361.725830	2661.462050
362.114398	2664.837102
362.502903	2665.784839
362.891344	2664.658141
363.279722	2663.675116
363.668037	2665.303409
364.056289	2665.399191
364.444478	2667.617298
364.832603	2668.950684
365.220665	2665.830209
365.608665	2671.746003
365.996601	2670.752896
366.384474	2668.645694
366.772284	2668.713749
367.160031	2670.531085
367.547715	2673.162568
367.935336	2672.126611
368.322893	2667.496311
368.710388	2667.395488
369.097820	2671.030160
369.485189	2668.988492
369.872495	2675.877229
370.259738	2675.070644
370.646918	2678.735563
371.034035	2680.454597
371.421090	2684.409382
371.808081	2687.371060
372.195010	2695.265507
372.581875	2703.283462
372.968678	2708.254040
373.355418	2716.801316
373.742096	2731.793707
374.128710	2742.720408
374.515262	2756.747419
374.901751	2774.245264
375.288177	2784.675411
375.674540	2810.720533
376.060841	2829.024962
376.447079	2852.975484
376.833254	2881.795761
377.219367	2897.262021
377.605417	2935.879780
377.991404	2955.366360
378.377329	2994.936897
378.763191	3014.047911
379.148991	3059.705642
379.534727	3102.220213
379.920402	3140.485091
380.306013	3159.492762
380.691563	3225.284860
381.077049	3247.597007
381.462474	3289.325158
381.847835	3350.360928
382.233134	3389.215622
382.618371	3412.326792
383.003545	3482.262719
383.388657	3506.036800
383.773706	3563.700039
384.158693	3598.947786
384.543618	3630.228146
384.928480	3688.408103
385.313280	3741.493973
385.698017	3767.123199
386.082692	3856.268443
386.467305	3860.505533
386.851856	3894.031727
387.236344	3974.516268
387.620770	4003.460053
388.005133	4051.325809
388.389435	4092.423816
388.773674	4105.906382
389.157851	4179.958411
389.541965	4248.843258
389.926018	4213.635839
390.310008	4315.061334
390.693936	4369.205847
391.077802	4402.447216
391.461606	4402.248090
391.845348	4466.752174
392.229027	4529.141494
392.612645	4527.891288
392.996200	4627.166731
393.379694	4686.448179
393.763125	4789.693531
394.146494	4822.995393
394.529801	4881.177870
394.913047	4961.054953
395.296230	4906.658382
395.679351	5016.989075
396.062410	5070.087549
396.445408	5040.150657
396.828343	5099.101910
397.211217	5157.276825
397.594028	5037.073032
397.976778	5158.438811
398.359466	5199.269637
398.742092	5224.470365
399.124656	5146.675278
399.507158	5267.637765
399.889598	5325.318647
400.271977	5446.896155
400.654294	5452.431342
401.036549	5495.011447
401.418742	5416.200569
401.800874	5618.605416
402.182944	5681.919788
402.564952	5782.495848
402.946898	5841.860476
403.328783	5677.798645
403.710606	5698.177509
404.092367	6026.606162
404.474067	6045.868411
404.855705	5942.050888
405.237282	5878.118975
405.618797	6139.512884
406.000250	6107.597339
406.381642	6319.325801
406.762972	6346.056519
407.144240	6394.353294
407.525447	6382.854422
407.906593	6396.427728
408.287677	6559.599796
408.668700	6480.030224
409.049661	6583.394042
409.430560	6615.624659
409.811399	6479.248845
410.192176	6738.079328
410.572891	6760.784684
410.953545	6948.262675
411.334138	6679.370050
411.714669	6849.327511
412.095139	6646.736140
412.475547	6889.329066
412.855894	6961.047042
413.236180	7146.937069
413.616405	6804.388145
413.996568	7027.025663
414.376670	7082.619508
414.756711	6979.905998
415.136691	7075.493837
415.516609	7276.537573
415.896466	7257.426558
416.276262	7462.409956
416.655997	7456.196734
417.035670	7622.121272
417.415283	7968.199004
417.794834	8038.500415
418.174324	7894.532623
418.553753	7820.193247
418.933121	8108.761497
419.312428	8211.822846
419.691674	7992.290678
420.070859	8469.143503
420.449983	8153.365626
420.829045	8523.290536
421.208047	8282.391438
421.586988	8598.638142
421.965867	8624.201833
422.344686	8715.625679
422.723444	8791.910939
423.102141	8116.973536
423.480777	8887.163541
423.859352	8415.233403
424.237866	9031.837095
424.616319	8895.804079
424.994712	9332.433537
425.373044	8861.761167
425.751314	9360.732054
426.129524	9236.765040
426.507673	9309.304723
426.885762	9466.397159
427.263789	9393.623062
427.641756	9330.843053
428.019662	9408.015557
428.397508	9682.730715
428.775292	9337.290689
429.153016	9725.943486
429.530679	9558.549452
429.908282	9566.872397
430.285824	9298.138568
430.663305	9990.651954
431.040726	9441.153582
431.418086	9419.685828
431.795385	9752.971632
432.172624	9853.320841
432.549802	9756.462631
432.926920	9830.093724
433.303977	9700.417603
433.680974	9895.278364
434.057910	10012.459985
434.434786	10081.060007
434.811601	9896.082428
435.188355	10463.769283
435.565050	10209.725376
435.941683	10124.933169
436.318257	10602.882444
436.694770	10786.403129
437.071222	10826.886115
437.447614	10659.587863
437.823946	10578.047200
438.200218	10664.432412
438.576429	10516.081337
438.952580	10765.847825
439.328670	10775.191603
439.704700	10588.202604
440.080670	10574.616695
440.456580	11089.230282
440.832429	10883.329394
441.208218	10483.873405
441.583947	10773.112127
441.959616	10963.312341
442.335224	10783.912799
442.710773	10869.796417
443.086261	11111.360947
443.461689	10374.709739
443.837057	11069.940307
444.212365	11293.180243
444.587612	10934.955851
444.962800	11132.622014
445.337927	10877.169104
445.712995	10567.233925
446.088002	11604.257244
446.462949	11300.469752
446.837837	11264.377611
447.212664	11175.292861
447.587431	11783.339193
447.962139	12546.491748
448.336786	14849.661350
448.711374	15319.360777
449.085901	13126.547074
449.460369	12786.763223
449.834776	12227.709343
450.209124	13177.989528
450.583412	13598.300772
450.957640	14516.370504
451.331808	13539.757852
451.705917	12633.270170
452.079965	11863.962367
452.453954	12775.972633
452.827883	12439.503340
453.201752	12726.166033
453.575562	12288.513220
453.949311	12698.177547
454.323001	12688.493490
454.696632	12929.904265
455.070202	13190.947814
455.443713	13379.290363
455.817164	13888.109144
456.190556	13853.279813
456.563888	14210.511098
456.937160	14349.135267
457.310373	13711.545252
457.683526	13834.607379
458.056619	13346.386752
458.429653	13572.225403
458.802628	12909.076738
459.175542	13339.389631
459.548398	14285.021872
459.921194	14654.571216
460.293930	14730.710283
460.666607	15558.588733
461.039224	16625.185981
461.411782	17355.790326
461.784280	17110.301257
462.156719	17243.470897
462.529099	16901.542035
462.901419	15868.891917
463.273680	15618.747342
463.645882	15528.898857
464.018024	15248.494757
464.390106	15485.345808
464.762130	16189.075762
465.134094	16994.659708
465.505999	19080.285878
465.877845	22346.976255
466.249631	25119.799914
466.621358	24731.570574
466.993026	23315.180263
467.364634	22730.623186
467.736184	21246.615879
468.107674	20454.315373
468.479105	20588.462997
468.850477	20041.056704
469.221790	19654.291819
469.593043	18961.065110
469.964238	18379.749495
470.335373	18010.462291
470.706449	18533.207259
471.077467	18129.355383
471.448425	20022.343941
471.819324	24176.040461
472.190164	25947.396058
472.560945	22247.819279
472.931667	19981.679473
473.302330	19388.030676
473.672934	19045.325476
474.043479	19240.042563
474.413965	19046.704231
474.784393	18640.291449
475.154761	19422.451674
475.525070	19317.507454
475.895321	19057.537671
476.265513	19670.678090
476.635645	20244.046325
477.005719	20012.123001
477.375734	20179.217087
477.745691	20675.790905
478.115588	21233.788663
478.485427	21800.308491
478.855207	22907.623139
479.224928	24693.598082
479.594591	26932.034228
479.964194	26803.177294
480.333739	27047.002782
480.703226	26627.533412
481.072653	26345.942120
481.442022	26999.505031
481.811333	27924.634899
482.180584	27779.714329
482.549777	26842.092481
482.918912	26518.921752
483.287988	26667.527406
483.657005	26263.471363
484.025964	26067.191518
484.394864	25917.348261
484.763706	25573.491157
485.132489	25060.606685
485.501213	25237.485650
485.869879	25138.434539
486.238487	25006.565516
486.607036	25122.643124
486.975527	24893.139554
487.343959	25170.350084
487.712333	25058.978393
488.080648	24734.086109
488.448905	25251.303453
488.817104	25017.139336
489.185244	25729.567801
489.553326	25669.389027
489.921350	26743.631185
490.289315	29103.828839
490.657222	30787.549018
491.025070	31315.004945
491.392861	31041.875230
491.760593	30168.742342
492.128267	29257.125287
492.495883	28181.597634
492.863440	27324.538466
493.230939	26460.162063
493.598380	26284.029189
493.965763	25913.824494
494.333088	25405.928244
494.700354	25393.022890
495.067563	25219.735747
495.434713	24971.826925
495.801805	25177.901732
496.168839	24918.867083
496.535815	24806.038498
496.902733	25025.726942
497.269593	24733.997889
497.636395	24887.836261
498.003139	24811.679549
498.369825	24555.893924
498.736453	24788.248266
499.103023	24643.776359
499.469535	24624.201558
499.835989	24856.024059
500.202385	24886.538163
500.568723	24439.450832
500.935003	24588.474901
501.301226	24299.072341
501.667390	25143.342102
502.033497	25340.824263
502.399546	25082.646610
502.765537	24605.062818
503.131470	24989.203782
503.497345	25134.489836
503.863163	24382.326997
504.228923	24916.621249
504.594625	25171.222203
504.960269	24730.582507
505.325856	25209.943306
505.691385	24606.486944
506.056856	25219.687857
506.422270	25210.407092
506.787625	24713.409817
507.152924	25149.572968
507.518164	25205.557502
507.883347	25021.905747
508.248472	24682.547873
508.613540	25460.823889
508.978550	25253.619863
509.343503	25273.492092
509.708398	25472.153882
510.073236	25649.625183
510.438016	25857.426586
510.802738	25525.070874
511.167403	25773.221672
511.532010	25524.324783
511.896561	26257.638748
512.261053	26229.516672
512.625488	26064.189511
512.989866	25949.674660
513.354186	25777.030264
513.718449	25911.349288
514.082655	26290.693594
514.446803	25995.350034
514.810894	26501.562539
515.174927	25975.949154
515.538904	26019.658478
515.902822	26522.289243
516.266684	26260.708811
516.630488	26178.694279
516.994235	26119.541380
517.357925	26461.666847
517.721558	26615.510260
518.085133	26745.420794
518.448651	26630.250594
518.812112	26413.312100
519.175516	26630.537939
519.538863	26772.970700
519.902152	26571.369917
520.265385	26813.297410
520.628560	26641.260474
520.991678	26596.411848
521.354739	26652.159448
521.717743	26769.880473
522.080690	26526.349892
522.443580	26862.758691
522.806413	26814.018295
523.169189	26945.012678
523.531908	26996.820616
523.894569	26620.390097
524.257174	26728.207775
524.619722	26837.421852
524.982213	26583.224190
525.344647	26570.689361
525.707025	26757.895130
526.069345	26688.125560
526.431608	26665.155543
526.793815	26839.297161
527.155964	26355.439653
527.518057	26519.413265
527.880093	26434.794977
528.242072	26654.206157
528.603995	26372.135955
528.965860	26164.135427
529.327669	26192.708687
529.689421	26184.408427
530.051117	26047.505812
530.412755	26209.473044
530.774337	25977.053166
531.135862	25892.666772
531.497331	26068.872743
531.858743	25673.605952
532.220098	26108.034946
532.581396	25816.598281
532.942638	25701.856578
533.303824	25824.044065
533.664953	25815.852190
534.026025	25479.413144
534.387040	25731.511165
534.747999	25765.612051
535.108902	25932.320488
535.469748	25438.284890
535.830537	25585.625214
536.191270	25725.524795
536.551947	25535.732915
536.912567	25163.685678
537.273131	25621.326666
537.633638	25278.160200
537.994089	25497.185732
538.354483	24981.415199
538.714821	25501.868964
539.075103	25546.924276
539.435328	25313.450797
539.795497	24924.351858
540.155609	25251.416879
540.515665	25569.191053
540.875665	24780.598315
541.235609	25142.636341
541.595496	25045.636979
541.955328	25414.374698
542.315102	25332.017367
542.674821	24853.049778
543.034483	24733.962601
543.394090	24909.351905
543.753640	24717.031886
544.113134	25348.451529
544.472571	24923.915799
544.831953	25236.863068
545.191278	24879.684715
545.550548	24768.398723
545.909761	24984.374357
546.268918	25225.689350
546.628019	25194.323291
546.987064	24865.261974
547.346053	24599.948567
547.704986	24704.686100
548.063863	24857.894327
548.422684	24892.937908
548.781449	24394.879470
549.140158	24804.914321
549.498811	24371.886767
549.857408	24150.179342
550.215949	24525.021898
550.574434	24239.667384
550.932864	24417.481483
551.291237	24614.356185
551.649555	24442.117602
552.007817	24514.891699
552.366022	24356.375137
552.724173	24364.302351
553.082267	24350.214847
553.440305	24832.232334
553.798288	24060.310692
554.156215	24554.537853
554.514086	24683.089797
554.871902	24083.885648
555.229661	24357.789181
555.587365	24191.126114
555.945014	24101.859882
556.302606	24301.182064
556.660143	24321.538243
557.017625	24542.492016
557.375050	24051.977665
557.732421	24433.749287
558.089735	24266.599749
558.446994	24308.811850
558.804197	24357.428738
559.161345	24241.356171
559.518437	24050.036821
559.875474	24200.245561
560.232455	24380.386153
560.589381	24195.663152
560.946251	24215.931111
561.303065	24501.315872
561.659825	24590.511527
562.016528	24203.794533
562.373177	23928.345887
562.729770	24311.284536
563.086307	24146.675740
563.442789	24304.831859
563.799216	24169.728936
564.155587	24147.893178
564.511904	24139.441684
564.868164	24104.519091
565.224370	24054.304157
565.580520	24007.320603
565.936615	24116.375885
566.292654	23828.100023
566.648638	24050.243508
567.004567	23886.199321
567.360441	23817.427900
567.716260	23535.302245
568.072023	23845.691129
568.427732	23630.678356
568.783385	23391.727663
569.138982	23646.820130
569.494525	23672.048585
569.850013	23432.818108
570.205445	23549.157857
570.560823	23377.849367
570.916145	23141.499910
571.271412	23326.454803
571.626625	23086.563936
571.981782	23169.538808
572.336884	22984.021825
572.691931	23119.439821
573.046923	22864.773331
573.401860	22751.707812
573.756743	22787.391620
574.111570	22673.332993
574.466342	22597.997990
574.821059	22663.613649
575.175722	22381.997151
575.530330	22329.551507
575.884882	22337.672806
576.239380	22249.248447
576.593823	22146.608034
576.948211	22129.316876
577.302544	21978.964462
577.656823	21832.526505
578.011047	21951.074279
578.365216	21816.669556
578.719330	21696.511133
579.073389	21569.942883
579.427394	21739.212227
579.781344	21483.860140
580.135239	21367.659024
580.489080	21308.783388
580.842866	21092.522929
581.196597	21317.686066
581.550273	21263.231522
581.903895	21151.181795
582.257463	21463.413220
582.610975	20999.044813
582.964434	21321.698824
583.317837	20978.192080
583.671186	21079.615055
584.024481	21064.804145
584.377721	20824.038637
584.730906	20925.764080
585.084037	20889.359388
585.437113	20831.164308
585.790135	21033.848939
586.143103	20480.166410
586.496016	20512.197901
586.848874	20744.317830
587.201679	20637.455451
587.554428	20368.993844
587.907124	20699.328052
588.259765	20440.280800
588.612352	20511.681183
588.964884	20082.681511
589.317362	20261.879407
589.669786	20317.054836
590.022155	20311.018054
590.374470	20561.359233
590.726731	20310.234155
591.078937	20110.065059
591.431090	20191.462049
591.783188	19960.476380
592.135232	19918.148332
592.487222	20024.783859
592.839157	20019.029382
593.191038	19896.393232
593.542866	19789.798034
593.894639	19496.533951
594.246358	19706.437514
594.598022	19594.115566
594.949633	19355.767291
595.301190	19340.784982
595.652692	19505.149283
596.004141	19722.838908
596.355535	19049.428975
596.706876	19080.714376
597.058162	18977.196802
597.409395	19219.320901
597.760573	19246.850642
598.111698	19024.528195
598.462768	18983.815837
598.813785	18954.277196
599.164748	18747.262213
599.515657	18816.134457
599.866511	18608.058312
600.217312	18955.038410
600.568060	18459.929047
600.918753	18779.928890
601.269392	18672.411161
601.619978	18483.940063
601.970510	18648.392583
602.320988	18615.100803
602.671412	18803.844124
603.021783	18748.169621
603.372100	18441.135625
603.722363	18606.097303
604.072572	18548.408859
604.422728	18705.145893
604.772830	18446.857335
605.122878	18403.347136
605.472872	18384.750320
605.822813	18366.450931
606.172701	18357.394498
606.522534	18527.046969
606.872314	18564.535510
607.222041	18413.709228
607.571714	18616.661041
607.921333	18440.520605
608.270899	18515.348972
608.620411	18661.371034
608.969870	18470.207960
609.319276	18460.448286
609.668627	18486.417790
610.017926	18629.969687
610.367171	18735.148321
610.716362	18795.884142
611.065500	18598.056662
611.414585	18757.097504
611.763616	18741.517818
612.112594	18655.465322
612.461518	18642.176841
612.810389	18841.133539
613.159207	18695.749183
613.507971	18604.111088
613.856682	18853.015539
614.205340	18768.301469
614.553945	18921.106404
614.902496	18678.458025
615.250994	18869.827787
615.599439	18823.610488
615.947830	18818.879365
616.296169	18893.266632
616.644454	18851.440178
616.992686	18811.531884
617.340864	19049.290343
617.688990	18787.102452
618.037063	18959.640984
618.385082	18829.007043
618.733048	19087.368699
619.080961	18986.986723
619.428821	19015.502009
619.776628	18886.829078
620.124382	18810.881575
620.472083	18872.368528
620.819731	18882.982678
621.167326	18573.052539
621.514868	18605.840204
621.862357	18398.951250
622.209793	18395.435045
622.557176	18222.568839
622.904506	18059.739569
623.251783	18008.745778
623.599007	17744.579234
623.946179	17685.610337
624.293297	17610.744161
624.640363	17336.701997
624.987376	17359.384668
625.334336	17171.987336
625.681243	17022.363369
626.028097	17041.681071
626.374899	16945.304292
626.721647	16819.474571
627.068343	16659.458266
627.414987	16583.109991
627.761577	16549.485494
628.108115	16578.807366
628.454600	16307.850388
628.801032	16410.354689
629.147412	16347.108373
629.493739	16361.372318
629.840014	16167.325704
630.186236	16266.686846
630.532405	16025.815474
630.878521	16222.838890
631.224585	16131.972092
631.570597	15949.757065
631.916556	15984.220914
632.262462	15949.300841
632.608316	15862.991246
632.954117	15816.857127
633.299866	15799.185362
633.645562	15724.326748
633.991206	15493.338558
634.336797	15368.847264
634.682336	15327.025851
635.027823	15185.656774
635.373257	15049.956474
635.718639	14982.750332
636.063968	14922.483338
636.409245	14676.296069
636.754470	14712.297469
637.099642	14561.100662
637.444762	14342.576725
637.789829	14388.748653
638.134845	14215.527046
638.479808	14238.638215
638.824719	14141.918638
639.169577	14010.785623
639.514383	14040.273853
639.859137	13877.157238
640.203839	13977.871930
640.548489	13831.653263
640.893086	13808.955467
641.237632	13688.928115
641.582125	13853.466335
641.926566	13667.213345
642.270955	13682.470397
642.615292	13638.110763
642.959576	13644.076969
643.303809	13666.336184
643.647990	13605.232358
643.992118	13671.941947
644.336195	13439.141462
644.680219	13665.325432
645.024192	13571.507039
645.368112	13816.373525
645.711981	13852.019524
646.055797	14043.207804
646.399562	14019.680739
646.743274	14277.036684
647.086935	14546.945102
647.430544	14512.382952
647.774101	14558.156628
648.117606	14694.098904
648.461059	14672.348845
648.804460	14647.102747
649.147810	14374.512435
649.491108	14300.225992
649.834354	14305.337722
650.177548	13979.399399
650.520690	13796.118169
650.863781	13721.393146
651.206820	13772.084468
651.549807	13595.565946
651.892742	13375.133932
652.235626	13323.358761
652.578458	13328.558712
652.921238	13031.566694
653.263967	13227.513824
653.606644	13062.426118
653.949269	13041.296121
654.291843	12836.201818
654.634365	12997.642250
654.976836	12849.467615
655.319255	12835.725429
655.661622	12810.804485
656.003938	12725.409860
656.346203	12649.706852
656.688416	12736.109709
657.030577	12686.315712
657.372687	12582.357037
657.714746	12581.920977
658.056753	12768.408381
658.398708	12575.589288
658.740612	12580.091038
659.082465	12687.238243
659.424266	12661.414932
659.766016	12695.392309
660.107715	12608.513064
660.449362	12691.515662
660.790958	12630.205149
661.132503	12568.468658
661.473996	12642.523208
661.815438	12654.155671
662.156829	12682.363447
662.498168	12654.770691
662.839456	12661.485508
663.180693	12673.332220
663.521879	12779.118313
663.863013	12732.260788
664.204097	12704.952857
664.545129	12851.610105
664.886110	12818.610712
665.227040	12912.945824
665.567918	12911.773756
665.908746	12927.764296
666.249522	12929.173298
666.590248	12984.724293
666.930922	13092.713370
667.271545	13062.753793
667.612118	13141.438643
667.952639	13041.081872
668.293109	13083.407400
668.633528	13019.553625
668.973896	12996.439934
669.314213	13052.167370
669.654480	12799.419039
669.994695	12888.387843
670.334859	12911.730906
670.674973	12853.845857
671.015035	12886.290723
671.355047	12833.192249
671.695008	12808.762818
672.034918	12824.771002
672.374777	12864.606200
672.714585	12774.304011
673.054342	12814.852532
673.394049	12777.205195
673.733705	12867.086447
674.073310	12762.916044
674.412864	12773.051284
674.752368	12621.345321
675.091820	12670.678052
675.431223	12644.660657
675.770574	12503.558761
676.109875	12421.075402
676.449125	12374.205274
676.788324	12338.975170
677.127473	12170.068790
677.466571	12158.511945
677.805619	12039.359233
678.144616	11979.427475
678.483562	11962.753859
678.822458	11828.470123
679.161303	11798.770165
679.500098	11786.154678
679.838842	11744.514747
680.177535	11788.045111
680.516179	11854.059020
680.854771	11791.185749
681.193314	12002.095023
681.531805	12178.522805
681.870247	12617.055299
682.208638	13031.266746
682.546978	13318.249552
682.885268	13336.586749
683.223508	13046.496072
683.561697	12904.315368
683.899836	12808.147797
684.237925	12601.644492
684.575963	12516.869928
684.913951	12431.029160
685.251889	12382.989485
685.589776	12487.185093
685.927614	12398.859037
686.265401	12372.314841
686.603137	12440.637599
686.940824	12590.455651
687.278460	12726.125703
687.616046	12752.478335
687.953582	12894.424625
688.291068	12842.460411
688.628504	13082.557966
688.965889	13083.533429
689.303224	13035.115667
689.640510	12912.396338
689.977745	12587.405753
690.314930	12380.925132
690.652065	12284.515585
690.989150	11986.003660
691.326185	11757.200811
691.663170	11557.409802
692.000105	11325.872126
692.336990	11193.478823
692.673825	10938.421644
693.010610	10832.323000
693.347345	10622.832811
693.684030	10435.009501
694.020665	10362.593326
694.357251	10174.023925
694.693786	10093.078117
695.030272	9949.271642
695.366707	9833.206637
695.703093	9770.280434
696.039429	9761.735678
696.375716	9663.337396
696.711952	9542.377430
697.048139	9591.805944
697.384276	9542.695023
697.720363	9566.335514
698.056400	9496.197940
698.392388	9437.798694
698.728326	9412.411443
699.064214	9349.127318
699.400053	9389.035612
699.735842	9203.735400
700.071581	9170.010081
700.407270	9096.152136
700.742910	9008.378086
701.078501	8912.550792
701.414042	8782.531873
701.749533	8731.953976
702.084974	8588.916277
702.420366	8711.348260
702.755709	8584.969053
703.091002	8448.613404
703.426246	8488.572110
703.761440	8430.813089
704.096584	8391.683653
704.431679	8323.955751
704.766725	8310.037126
705.101721	8265.866536
705.436668	8323.239907
705.771565	8205.949902
706.106413	8295.518603
706.441212	8330.708377
706.775961	8294.870814
707.110661	8344.281684
707.445311	8465.972617
707.779913	8360.362964
708.114465	8485.670926
708.448967	8525.859004
708.783421	8694.160446
709.117825	8856.785548
709.452180	8895.400787
709.786485	8974.037746
710.120742	9268.373075
710.454949	9281.159961
710.789107	9384.191064
711.123216	9611.632802
711.457275	9783.654615
711.791286	9918.165202
712.125247	9929.026368
712.459159	9919.060007
712.793023	10134.171083
713.126837	9715.586435
713.460602	9870.987564
713.794318	9707.787770
714.127985	9730.369619
714.461602	9382.640909
714.795171	9341.394188
715.128691	9085.154859
715.462162	8855.426957
715.795584	8784.565978
716.128957	8619.846276
716.462281	8452.830329
716.795556	8491.183427
717.128782	8288.203888
717.461960	8038.157616
717.795088	8112.804502
718.128167	8010.499326
718.461198	7852.416303
718.794180	7808.286042
719.127113	7795.060575
719.459997	7615.441743
719.792833	7397.585759
720.125619	7468.850030
720.458357	7319.586506
720.791046	7318.525343
721.123686	7299.608413
721.456278	7135.907024
721.788821	7158.357803
722.121315	7061.993627
722.453761	7135.796119
722.786158	7066.941519
723.118506	7079.375525
723.450805	7038.786675
723.783056	7096.220541
724.115259	7020.817482
724.447412	7024.424428
724.779518	7072.756490
725.111574	7076.363436
725.443582	7150.617111
725.775542	7120.493697
726.107453	7316.894530
726.439315	7230.587455
726.771129	7312.450753
727.102895	7494.101170
727.434612	7596.492046
727.766281	7636.435628
728.097901	7702.142027
728.429473	7720.496868
728.760996	7713.368677
729.092471	7685.793565
729.423897	7618.050540
729.755276	7607.494364
730.086606	7521.618308
730.417887	7630.068651
730.749120	7854.740275
731.080305	8042.762710
731.411442	8138.080847
731.742530	8119.620142
732.073570	8229.343376
732.404562	8317.271181
732.735506	8185.152621
733.066401	8311.070562
733.397249	8219.427426
733.728048	7984.444122
734.058798	7648.171434
734.389501	7409.472800
734.720156	7246.257882
735.050762	7025.614140
735.381320	6944.857376
735.711831	6877.855400
736.042293	6772.034019
736.372707	6783.643797
736.703073	6659.898593
737.033391	6695.186670
737.363661	6703.136570
737.693883	6742.482775
738.024056	6827.635426
738.354182	6855.359251
738.684260	6894.105560
739.014290	7026.887031
739.344272	7131.662373
739.674207	7161.742938
740.004093	7240.500884
740.333931	7249.718634
740.663722	7259.453102
740.993464	7328.557239
741.323159	7301.327447
741.652806	7062.447331
741.982405	7102.169102
742.311956	7137.507591
742.641460	6953.024045
742.970915	6761.860971
743.300323	6753.568273
743.629683	6713.438168
743.958996	6572.981539
744.288260	6480.589792
744.617477	6433.056752
744.946647	6423.891935
745.275768	6266.933089
745.604842	6221.333332
745.933869	6202.590322
746.262847	6158.011398
746.591778	6144.352392
746.920662	6100.816987
747.249498	6106.243790
747.578286	6152.771119
747.907027	6229.976390
748.235720	6291.901924
748.564365	6262.229693
748.892963	6309.142670
749.221514	6439.635458
749.550017	6246.425675
749.878473	6143.155118
750.206881	6207.228183
750.535242	6155.737838
750.863555	6086.931129
751.191821	6091.838693
751.520039	6085.075985
751.848210	5994.277242
752.176334	6028.768817
752.504411	6070.060908
752.832440	5997.652295
753.160421	5928.759886
753.488356	5977.787628
753.816243	6000.765207
754.144082	5854.632239
754.471875	5832.050391
754.799620	5869.274271
755.127318	5883.026538
755.454969	5843.546742
755.782572	5810.091125
756.110129	5852.088977
756.437638	5823.417415
756.765100	5769.671153
757.092515	5783.783863
757.419882	5838.341751
757.747203	5807.184899
758.074477	5865.558940
758.401703	5848.033369
758.728882	5812.430220
759.056014	5885.448813
759.383099	5992.202807
759.710138	5999.404096
760.037129	5992.059134
760.364073	5996.616338
760.690970	6077.156332
761.017820	6050.329832
761.344623	6021.348238
761.671379	6125.886646
761.998088	6255.041007
762.324751	6518.975658
762.651366	7176.402613
762.977935	8562.248573
763.304456	10222.991173
763.630931	11066.966026
763.957359	10592.956412
764.283740	9616.850396
764.610074	8735.455057
764.936362	7734.533961
765.262602	7147.617625
765.588796	6621.694209
765.914943	6294.392254
766.241044	6115.703515
766.567097	5899.044805
766.893104	5641.996370
767.219064	5473.251307
767.544978	5407.381070
767.870845	5326.636909
768.196665	5223.936002
768.522438	5149.195855
768.848165	5113.068426
769.173846	5039.424730
769.499479	4994.064428
769.825066	4950.907110
770.150607	4891.106422
770.476101	4869.913412
770.801548	4859.624417
771.126949	4769.102938
771.452303	4718.371286
771.777611	4687.302655
772.102872	4704.452660
772.428087	4664.725847
772.753256	4622.153303
773.078378	4572.104728
773.403453	4503.403883
773.728482	4489.384434
774.053465	4447.109318
774.378401	4434.725724
774.703291	4425.472686
775.028135	4348.741283
775.352932	4303.466680
775.677683	4291.143580
776.002388	4304.369047
776.327046	4314.799194
776.651658	4243.512238
776.976224	4181.342208
777.300743	4186.554761
777.625216	4209.365982
777.949643	4197.403324
778.274024	4157.537879
778.598359	4121.526397
778.922647	4150.543278
779.246889	4134.182214
779.571086	4124.351964
779.895236	4110.816466
780.219339	4102.952266
780.543397	4100.656020
780.867409	4152.095954
781.191374	4160.176923
781.515294	4092.748970
781.839167	4093.830298
782.162995	4118.431128
782.486776	4101.828088
782.810511	4116.155048
783.134201	4100.504785
783.457844	4051.313206
783.781441	4002.960979
784.104993	4006.898120
784.428498	4022.767672
784.751958	4017.580325
785.075372	3996.394876
785.398739	3961.474803
785.722061	3978.672700
786.045337	4020.796581
786.368568	4046.357752
786.691752	3958.311479
787.014891	4021.900594
787.337983	4154.949247
787.661030	4319.696675
787.984031	4476.920181
788.306987	4643.278258
788.629897	4729.330754
788.952760	4683.947767
789.275579	4619.904948
789.598351	4544.101118
789.921078	4387.485071
790.243759	4193.478786
790.566395	4187.739432
790.888984	4176.485056
791.211529	4066.136719
791.534027	4006.071371
791.856480	3985.148062
792.178888	3929.103034
792.501249	3889.308166
792.823566	3898.646903
793.145836	3918.476282
793.468062	3866.907798
793.790241	3825.479596
794.112375	3857.576623
794.434464	3929.075308
794.756507	3945.630457
795.078505	3916.553082
795.400457	3965.953869
795.722364	4112.346456
796.044226	4216.327816
796.366042	4291.365391
796.687812	4255.351388
797.009538	4260.266513
797.331218	4224.315524
797.652852	4200.740568
797.974442	4175.751568
798.295986	4170.841484
798.617484	4086.152620
798.938938	4007.626567
799.260346	4053.460738
799.581709	4037.102193
799.903026	3961.333651
800.224299	3930.441460
800.545526	3925.675049
800.866708	3883.357083
801.187845	3828.194257
801.508936	3860.429916
801.829983	3844.847709
802.150984	3773.575876
802.471940	3771.158643
802.792851	3774.901700
803.113717	3776.048562
803.434538	3774.926905
803.755314	3710.316957
804.076045	3697.474618
804.396731	3721.830953
804.717372	3741.176380
805.037967	3722.937486
805.358518	3710.760579
805.679024	3743.528079
805.999485	3759.004421
806.319901	3762.124895
806.640272	3774.720218
806.960598	3788.265798
807.280879	3762.974330
807.601115	3778.024694
807.921306	3796.528250
808.241453	3832.055781
808.561554	3805.504024
808.881611	3738.065988
809.201623	3782.123153
809.521590	3790.824184
809.841513	3761.058691
810.161390	3790.874596
810.481223	3761.469545
810.801011	3715.857185
811.120755	3711.864591
811.440453	3743.487749
811.760107	3740.130341
812.079716	3692.791386
812.399281	3670.887572
812.718801	3690.974050
813.038276	3667.734331
813.357707	3663.880368
813.677093	3681.133717
813.996434	3618.078965
814.315731	3638.631749
814.634983	3643.748521
814.954191	3660.165038
815.273354	3682.787216
815.592473	3674.360927
815.911547	3690.664019
816.230577	3737.813931
816.549562	3787.242444
816.868502	3822.041529
817.187399	3849.273842
817.506250	3850.398020
817.825058	3827.644772
818.143821	3925.606994
818.462539	4025.250441
818.781213	4066.416503
819.099843	4136.743120
819.418429	4411.622116
819.736970	4649.667921
820.055466	4907.061674
820.373919	5281.490856
820.692327	5699.382345
821.010691	6206.416558
821.329011	7727.753609
821.647286	10668.845942
821.965517	15450.524038
822.283704	19444.042936
822.601847	21368.052234
822.919945	19413.140663
823.237999	16744.563025
823.556010	14215.731212
823.873976	12035.679190
824.191897	9919.735522
824.509775	8591.497348
824.827609	7462.417518
825.145398	6950.344672
825.463144	6829.881260
825.780845	6930.555622
826.098502	7175.439753
826.416116	8145.014954
826.733685	9521.262557
827.051210	10608.362178
827.368692	10518.002016
827.686129	9175.504938
828.003522	7666.569125
828.320872	6640.517877
828.638177	5918.143216
828.955439	5340.913457
829.272656	4840.725131
829.589830	4575.752003
829.906960	4394.628386
830.224046	4201.804251
830.541088	4078.507711
830.858086	4030.352088
831.175041	3950.245633
831.491952	3939.313891
831.808819	3953.169502
832.125642	4029.434598
832.442421	4194.325700
832.759157	4492.948530
833.075849	5084.167491
833.392497	5991.751624
833.709101	6782.950638
834.025662	7080.267809
834.342179	6639.214739
834.658653	5960.317509
834.975083	5292.599038
835.291469	4709.637487
835.607811	4315.389009
835.924110	4167.209333
836.240366	3963.491265
836.556578	3760.410903
836.872746	3654.362670
837.188871	3606.189404
837.504952	3539.605844
837.820990	3452.920683
838.136984	3413.859302
838.452935	3441.295782
838.768842	3432.514092
839.084706	3459.554841
839.400526	3632.080770
839.716303	4005.632791
840.032037	4563.466711
840.347727	4787.530876
840.663373	4462.436946
840.978977	4073.060744
841.294537	3761.308228
841.610054	3537.607026
841.925527	3432.062909
842.240957	3361.017928
842.556344	3302.883342
842.871687	3244.216914
843.186987	3193.364274
843.502244	3157.352792
843.817458	3122.248717
844.132629	3095.318873
844.447756	3100.034872
844.762840	3081.680031
845.077881	3049.000752
845.392879	3034.540202
845.707833	3031.336548
846.022745	3031.853267
846.337613	3028.984850
846.652438	3019.363808
846.967221	3016.031605
847.281960	2999.297495
847.596656	2993.926146
847.911309	2997.114676
848.225919	2990.104951
848.540485	2984.781493
848.855009	2985.835094
849.169490	2972.362610
849.483928	2966.217444
849.798323	2964.871456
850.112675	2963.336424
850.426984	2976.733291
850.741251	2971.979483
851.055474	2957.040023
851.369654	2954.625310
851.683792	2960.712504
851.997887	2968.135603
852.311938	2971.876139
852.625947	2956.467852
852.939914	2963.591003
853.253837	2962.842391
853.567718	2950.375618
853.881555	2954.708489
854.195350	2965.983030
854.509103	2958.849797
854.822812	2954.794189
855.136479	2949.919393
855.450103	2953.884261
855.763685	2946.506532
856.077224	2946.007458
856.390720	2959.174952
856.704173	2963.691826
857.017584	2956.341823
857.330953	2958.426340
857.644278	2967.949080
857.957561	2979.120277
858.270802	2978.578353
858.584000	2978.333857
858.897155	2962.862556
859.210268	2960.185703
859.523339	2960.004222
859.836367	2961.498924
860.149352	2953.415433
860.462295	2948.497788
860.775195	2954.579940
861.088054	2955.386525
861.400869	2938.528906
861.713642	2939.511931
862.026373	2953.458283
862.339062	2953.531380
862.651708	2963.865745
862.964312	2963.033955
863.276873	2956.614046
863.589392	2971.714822
863.901869	2983.138077
864.214303	3005.301509
864.526696	3019.441946
864.839045	3013.402644
865.151353	3013.125380
865.463619	3010.824093
865.775842	3014.126049
866.088023	3036.108001
866.400162	3038.016077
866.712258	3006.460975
867.024313	2996.381188
867.336325	3009.571367
867.648296	3032.775798
867.960224	3024.178110
868.272110	3006.869308
868.583954	3013.626975
868.895755	3023.752133
869.207515	3013.531193
869.519233	3024.157945
869.830909	3032.584234
870.142542	3037.968186
870.454134	3039.230995
870.765684	3043.556305
871.077191	3045.114022
871.388657	3057.487534
871.700081	3066.843916
872.011463	3076.076789
872.322803	3074.314906
872.634101	3073.155440
872.945357	3096.296857
873.256571	3120.983387
873.567744	3111.039711
873.878874	3106.769854
874.189963	3132.429327
874.501010	3128.701394
874.812015	3118.367028
875.122979	3117.459621
875.433900	3119.488685
875.744780	3126.163173
876.055618	3133.195582
876.366415	3128.645941
876.677169	3140.643887
876.987882	3133.427476
877.298554	3131.983185
877.609183	3157.892195
877.919771	3183.576874
878.230317	3207.471943
878.540822	3260.888009
878.851285	3298.371509
879.161707	3350.456710
879.472087	3469.160760
879.782425	3724.535532
880.092722	4190.769166
880.402977	4735.911981
880.713191	5412.911216
881.023363	6649.833929
881.333494	7967.430228
881.643583	8476.576684
881.953631	8137.080178
882.263637	7434.126563
882.573602	6808.731099
882.883526	6219.601696
883.193408	5651.851826
883.503248	5200.865162
883.813048	4879.675606
884.122806	4542.457702
884.432522	4219.826376
884.742197	3979.189418
885.051831	3785.415026
885.361424	3655.411230
885.670975	3582.558995
885.980485	3488.758246
886.289954	3407.842685
886.599382	3362.192517
886.908768	3327.506858
887.218113	3281.881895
887.527417	3220.770507
887.836680	3172.413239
888.145901	3168.644976
888.455082	3153.881957
888.764221	3098.953545
889.073319	3070.586972
889.382376	3068.136972
889.691392	3075.562591
890.000366	3070.546643
890.309300	3054.172975
890.618193	3070.433217
890.927044	3086.438881
891.235855	3085.614652
891.544625	3075.113928
891.853353	3085.591967
892.162041	3106.235492
892.470687	3151.999086
892.779293	3201.223433
893.087858	3250.654467
893.396381	3326.972495
893.704864	3462.057774
894.013306	3720.777351
894.321707	4035.103376
894.630068	4226.052201
894.938387	4211.947053
895.246665	4173.498173
895.554903	4041.689643
895.863100	3830.225842
896.171256	3659.303001
896.479371	3511.652646
896.787446	3384.595404
897.095480	3280.304013
897.403473	3218.260012
897.711425	3183.607121
898.019336	3169.186900
898.327207	3138.075419
898.635038	3101.932867
898.942827	3091.424582
899.250576	3076.225503
899.558284	3045.439176
899.865952	3025.519057
900.173579	3002.415449
900.481165	2996.134171
900.788711	2980.677993
901.096216	2956.379632
901.403681	2947.958384
901.711105	2955.386525
902.018489	2950.219342
902.325832	2951.517439
902.633135	2962.197123
902.940397	2997.517968
903.247619	3090.943152
903.554800	3303.021973
903.861941	3681.867205
904.169041	4137.337976
904.476101	4426.856482
904.783121	4345.777085
905.090100	4075.606527
905.397039	3786.251857
905.703938	3532.323897
906.010796	3349.367821
906.317614	3235.036972
906.624391	3135.494349
906.931129	3062.347206
907.237826	2997.321363
907.544483	2953.833849
907.851099	2920.214394
908.157675	2900.228740
908.464211	2880.011192
908.770707	2865.250694
909.077163	2850.560772
909.383578	2835.880932
909.689954	2826.401042
909.996289	2823.719148
910.302584	2827.242914
910.608839	2826.562359
910.915054	2817.931903
911.221229	2809.218269
911.527363	2816.119608
911.833458	2822.398366
912.139513	2828.319201
912.445527	2832.959583
912.751502	2842.061386
913.057436	2851.024558
913.363331	2864.121475
913.669186	2887.409086
913.975000	2928.678492
914.280775	2992.421361
914.586510	3065.452557
914.892205	3147.363745
915.197859	3287.467493
915.503475	3499.921881
915.809050	3729.629617
916.114585	3873.108418
916.420081	3877.068244
916.725536	3812.491063
917.030952	3683.538348
917.336328	3549.728481
917.641665	3418.577822
917.946961	3314.193170
918.252218	3236.045203
918.557435	3153.710558
918.862612	3092.672267
919.167750	3039.480532
919.472848	3003.602641
919.777906	2974.119452
920.082925	2945.584001
920.387904	2915.518559
920.692843	2897.468708
920.997743	2886.380690
921.302603	2870.584235
921.607423	2861.636187
921.912204	2845.622961
922.216946	2834.345900
922.521647	2824.031699
922.826310	2818.967860
923.130932	2811.660708
923.435516	2801.792649
923.740059	2793.200002
924.044564	2782.986625
924.349028	2779.488064
924.653454	2774.434307
924.957840	2766.658327
925.262186	2763.071547
925.566493	2756.933942
925.870761	2751.224835
926.174989	2746.891963
926.479178	2744.056314
926.783328	2737.099522
927.087438	2739.741087
927.391509	2735.279665
927.695541	2732.663307
927.999533	2725.477142
928.303486	2725.802296
928.607400	2724.002604
928.911275	2726.455126
929.215110	2726.283726
929.518906	2721.353478
929.822663	2722.157542
930.126381	2722.402038
930.430060	2722.412120
930.733699	2726.079560
931.037299	2727.019735
931.340861	2726.187944
931.644383	2726.699622
931.947866	2726.999570
932.251309	2723.853890
932.554714	2722.946482
932.858080	2720.214177
933.161407	2719.982284
933.464694	2717.917932
933.767943	2715.798126
934.071153	2715.629248
934.374323	2717.403734
934.677455	2716.024978
934.980548	2715.069680
935.283602	2715.246120
935.586617	2716.143445
935.889593	2714.794937
936.192530	2714.275698
936.495428	2715.989690
936.798287	2719.581512
937.101108	2721.527398
937.403890	2726.795403
937.706632	2731.997874
938.009336	2738.632033
938.312002	2744.474730
938.614628	2756.250865
938.917216	2760.797986
939.219765	2761.284457
939.522275	2760.298912
939.824747	2758.640372
940.127179	2756.782707
940.429573	2751.229876
940.731929	2749.916656
941.034246	2746.002200
941.336524	2742.579256
941.638763	2739.589852
941.940964	2738.097670
942.243126	2736.965931
942.545250	2734.894017
942.847335	2732.333111
943.149381	2729.016032
943.451389	2722.618807
943.753359	2721.101420
944.055290	2719.936914
944.357182	2721.114023
944.659036	2716.390462
944.960851	2716.269474
945.262628	2715.195708
945.564367	2717.035730
945.866067	2717.502036
946.167729	2717.580174
946.469352	2718.290977
946.770937	2717.136553
947.072484	2715.281408
947.373992	2714.684031
947.675462	2713.922817
947.976893	2711.349308
948.278286	2708.327136
948.579641	2707.664225
948.880958	2705.267156
949.182236	2710.328474
949.483476	2706.159440
949.784678	2707.079451
950.085841	2706.504759
950.386967	2707.578525
950.688054	2709.111036
950.989103	2709.698330
951.290114	2710.141952
951.591087	2713.585060
951.892021	2717.121429
952.192917	2715.750235
952.493776	2719.755432
952.794596	2719.571430
953.095378	2720.236862
953.396122	2720.803992
953.696828	2718.401882
953.997496	2716.771069
954.298126	2713.968187
954.598718	2713.189329
954.899272	2708.193546
955.199788	2707.394523
955.500266	2705.428473
955.800706	2704.700026
956.101108	2697.715507
956.401472	2697.241639
956.701798	2695.265507
957.002087	2691.691329
957.302337	2692.203006
957.602550	2691.706452
957.902724	2689.689991
958.202861	2690.305011
958.502960	2687.345854
958.803022	2686.962726
959.103045	2687.323169
959.403031	2685.977181
959.702979	2685.357119
960.002889	2685.876358
960.302762	2683.643127
960.602596	2682.692869
960.902393	2684.243024
961.202153	2682.735719
961.501875	2681.447704
961.801559	2681.218332
962.101205	2680.429391
962.400814	2685.760411
962.700385	2680.759587
962.999918	2678.642302
963.299414	2677.813032
963.598873	2677.064421
963.898293	2674.964780
964.197677	2678.496108
964.497022	2678.601973
964.796331	2679.048115
965.095601	2677.946623
965.394835	2680.482323
965.694030	2679.164061
965.993189	2678.322189
966.292309	2678.760769
966.591393	2676.635923
966.890439	2679.035512
967.189447	2677.525686
967.488419	2678.244051
967.787353	2678.899401
968.086249	2678.022240
968.385108	2677.508042
968.683930	2676.451921
968.982714	2677.576098
969.281462	2678.697755
969.580172	2676.446879
969.878844	2679.950481
970.177480	2679.716068
970.476078	2680.111798
970.774639	2680.399144
971.073162	2677.684483
971.371649	2679.010306
971.670098	2678.415450
971.968510	2679.650533
972.266885	2681.661953
972.565223	2680.535255
972.863524	2678.725481
973.161788	2679.829494
973.460014	2680.126922
973.758204	2680.976356
974.056356	2679.222035
974.354471	2678.541479
974.652550	2676.341015
974.950591	2678.657425
975.248595	2677.203052
975.546563	2677.545851
975.844493	2680.164730
976.142386	2678.405368
976.440243	2679.136335
976.738062	2678.728002
977.035845	2677.780265
977.333590	2679.579957
977.631299	2678.037363
977.928971	2674.637105
978.226606	2673.386899
978.524204	2671.937567
978.821765	2673.480160
979.119290	2676.008299
979.416777	2676.194822
979.714228	2676.603155
980.011642	2677.744977
980.309020	2675.045439
980.606360	2677.424863
980.903664	2675.675583
981.200931	2678.412929
981.498162	2676.656087
981.795356	2679.753876
982.092513	2680.502488
982.389633	2683.189423
982.686717	2684.845442
982.983764	2690.209229
983.280775	2691.824919
983.577749	2694.027903
983.874686	2693.503623
984.171587	2691.446833
984.468451	2687.915504
984.765279	2685.188240
985.062070	2684.938703
985.358824	2684.059022
985.655543	2681.021727
985.952224	2679.491736
986.248869	2680.227745
986.545478	2675.821776
986.842050	2677.114832
987.138586	2676.464523
987.435086	2675.902435
987.731549	2673.449913
988.027975	2672.741631
988.324366	2674.054852
988.620719	2675.443690
988.917037	2677.487878
989.213318	2674.584173
989.509563	2674.289266
989.805772	2673.631395
990.101944	2672.857578
990.398080	2675.524348
990.694180	2669.835406
990.990244	2672.666014
991.286271	2675.857064
991.582262	2675.168947
991.878217	2674.669873
992.174136	2673.230623
992.470019	2673.941426
992.765865	2670.536127
993.061676	2670.533606
993.357450	2672.676096
993.653188	2667.614778
993.948890	2673.853206
994.244556	2675.476457
994.540186	2673.845644
994.835780	2674.470747
995.131337	2675.357990
995.426859	2674.657270
995.722345	2677.134997
996.017795	2676.666170
996.313208	2678.339833
996.608586	2676.038546
996.903928	2680.245389
997.199234	2675.915038
997.494504	2678.803619
997.789738	2675.733556
998.084936	2676.141890
998.380099	2677.989473
998.675225	2676.469565
998.970316	2676.411591
999.265371	2677.301355
999.560390	2676.570388
999.855373	2675.809173
1000.150320	2673.079389
1000.445232	2672.050993
1000.740108	2671.914882
1001.034948	2672.436642
1001.329752	2671.743483
1001.624521	2670.105108
1001.919254	2672.537465
1002.213951	2669.989161
1002.508613	2670.432783
1002.803239	2670.130314
1003.097829	2670.861281
1003.392384	2671.367917
1003.686903	2671.161230
1003.981386	2669.747186
1004.275834	2669.069151
1004.570246	2667.788698
1004.864623	2672.217351
1005.158964	2672.411436
1005.453270	2668.804490
1005.747540	2671.340191
1006.041775	2672.623164
1006.335974	2671.052845
1006.630138	2670.291631
1006.924266	2673.906138
1007.218359	2672.504697
1007.512416	2668.285251
1007.806438	2667.496311
1008.100425	2665.817607
1008.394376	2667.551763
1008.688292	2670.697443
1008.982172	2671.509069
1009.276017	2671.491425
1009.569827	2672.698782
1009.863602	2669.797597
1010.157341	2670.382371
1010.451045	2671.493946
1010.744714	2670.092505
1011.038347	2671.710715
1011.331945	2671.025118
1011.625508	2672.875222
1011.919036	2672.676096
1012.212528	2672.350942
1012.505986	2670.455468
1012.799408	2671.015036
1013.092795	2669.815242
1013.386147	2670.578976
1013.679464	2670.783143
1013.972745	2670.697443
1014.265992	2670.301713
1014.559204	2670.372289
1014.852380	2670.034532
1015.145521	2668.484377
1015.438628	2672.330777
1015.731699	2671.083092
1016.024736	2669.492608
1016.317737	2667.408091
1016.610703	2670.878925
1016.903635	2669.603513
1017.196531	2668.602844
1017.489393	2669.676610
1017.782219	2668.726352
1018.075011	2669.134686
1018.367768	2672.061076
1018.660490	2668.620488
1018.953177	2668.620488
1019.245829	2668.620488
