Dividing Wavelength (nm)	Counts (n)	Blue Motor Position (mm): 4.100000	Red Motor Position (mm): 0.000000	
326.493990	2161.601399
326.888308	2161.601399
327.282561	2161.601399
327.676750	2119.689246
328.070874	2118.101282
328.464933	2118.902826
328.858929	2119.195213
329.252859	2125.715945
329.646726	2137.781947
330.040528	2144.317803
330.434265	2160.373878
330.827938	2180.344409
331.221547	2195.417459
331.615091	2210.543441
332.008571	2229.757799
332.401986	2249.090624
332.795338	2267.642070
333.188625	2288.840122
333.581847	2302.897379
333.975006	2320.889258
334.368100	2338.399705
334.761129	2357.195648
335.154095	2375.522762
335.546996	2391.941800
335.939833	2407.990314
336.332606	2424.507654
336.725315	2437.450817
337.117960	2450.094031
337.510540	2460.088118
337.903056	2471.564305
338.295508	2481.780203
338.687896	2489.001656
339.080220	2495.300578
339.472480	2501.879283
339.864676	2509.589728
340.256807	2513.640295
340.648875	2516.443177
341.040879	2523.576410
341.432818	2524.148581
341.824694	2526.147398
342.216506	2525.983561
342.608253	2528.967924
342.999937	2531.112935
343.391557	2530.351720
343.783113	2529.865249
344.174605	2525.945752
344.566033	2530.109745
344.957397	2522.749660
345.348697	2522.757222
345.739934	2522.789990
346.131106	2520.163548
346.522215	2519.407375
346.913260	2516.637261
347.304241	2514.817405
347.695159	2511.243227
348.086012	2514.341016
348.476802	2509.052845
348.867528	2505.942453
349.258191	2501.576814
349.648789	2504.024294
350.039324	2498.978099
350.429796	2499.570435
350.820203	2502.522031
351.210548	2500.447596
351.600828	2497.427945
351.991045	2496.568428
352.381198	2496.056751
352.771288	2495.880310
353.161314	2492.875783
353.551276	2493.321925
353.941175	2493.326966
354.331010	2492.709425
354.720782	2494.070536
355.110490	2491.784373
355.500135	2495.146823
355.889717	2495.000629
356.279235	2494.884683
356.668689	2494.965341
357.058080	2491.466780
357.447408	2494.945176
357.836672	2496.192862
358.225873	2496.820486
358.615010	2494.491473
359.004084	2495.991216
359.393095	2497.301916
359.782043	2497.813593
360.170927	2495.784528
360.559748	2499.111690
360.948505	2497.685043
361.337199	2499.827534
361.725830	2499.184787
362.114398	2501.271824
362.502903	2497.072543
362.891344	2499.046155
363.279722	2500.949191
363.668037	2503.497494
364.056289	2501.997751
364.444478	2504.009171
364.832603	2502.363234
365.220665	2504.994717
365.608665	2504.737618
365.996601	2504.258708
366.384474	2503.782319
366.772284	2506.108812
367.160031	2504.334325
367.547715	2505.408091
367.935336	2506.474295
368.322893	2503.442041
368.710388	2505.282062
369.097820	2503.820128
369.485189	2504.619151
369.872495	2506.713750
370.259738	2507.265756
370.646918	2508.324399
371.034035	2509.483864
371.421090	2507.981600
371.808081	2511.391941
372.195010	2507.376662
372.581875	2508.425222
372.968678	2509.551920
373.355418	2512.107785
373.742096	2507.895901
374.128710	2511.031498
374.515262	2510.151817
374.901751	2511.853206
375.288177	2510.469410
375.674540	2510.177023
376.060841	2507.991682
376.447079	2511.636437
376.833254	2508.886487
377.219367	2509.698113
377.605417	2515.129956
377.991404	2511.419667
378.377329	2513.292456
378.763191	2511.888494
379.148991	2512.773217
379.534727	2514.963598
379.920402	2512.490912
380.306013	2512.821108
380.691563	2512.586694
381.077049	2514.270440
381.462474	2514.033505
381.847835	2513.456293
382.233134	2516.201202
382.618371	2514.872858
383.003545	2515.959226
383.388657	2516.130625
383.773706	2516.738084
384.158693	2514.517456
384.543618	2516.685152
384.928480	2517.151459
385.313280	2515.928979
385.698017	2517.630369
386.082692	2514.819925
386.467305	2516.697755
386.851856	2518.661285
387.236344	2515.253465
387.620770	2519.409896
388.005133	2516.516274
388.389435	2513.400841
388.773674	2513.935203
389.157851	2516.692714
389.541965	2519.195647
389.926018	2518.487365
390.310008	2516.647344
390.693936	2518.817560
391.077802	2517.968126
391.461606	2519.031809
391.845348	2517.481655
392.229027	2519.593898
392.612645	2522.144722
392.996200	2518.293280
393.379694	2520.435771
393.763125	2520.395442
394.146494	2520.760925
394.529801	2519.717406
394.913047	2522.011131
395.296230	2521.547345
395.679351	2520.607170
396.062410	2522.033817
396.445408	2521.451563
396.828343	2520.907119
397.211217	2524.241842
397.594028	2523.289064
397.976778	2523.321831
398.359466	2523.415093
398.742092	2520.682787
399.124656	2523.309228
399.507158	2524.569517
399.889598	2524.675381
400.271977	2525.093797
400.654294	2524.103210
401.036549	2521.169259
401.418742	2524.070443
401.800874	2524.660258
402.182944	2526.580937
402.564952	2524.304856
402.946898	2527.122861
403.328783	2522.590864
403.710606	2525.789476
404.092367	2524.234280
404.474067	2526.482635
404.855705	2525.698735
405.237282	2526.175124
405.618797	2525.698735
406.000250	2529.235105
406.381642	2526.671678
406.762972	2522.921060
407.144240	2522.084228
407.525447	2520.438291
407.906593	2523.939373
408.287677	2526.419620
408.668700	2526.323838
409.049661	2526.528005
409.430560	2525.655886
409.811399	2529.943387
410.192176	2525.101359
410.572891	2527.294261
410.953545	2528.620084
411.334138	2528.494055
411.714669	2527.037162
412.095139	2528.121010
412.475547	2529.746782
412.855894	2529.338448
413.236180	2527.780732
413.616405	2531.123017
413.996568	2529.789632
414.376670	2532.204344
414.756711	2527.258972
415.136691	2530.664272
415.516609	2529.643438
415.896466	2529.088911
416.276262	2530.850795
416.655997	2531.576721
417.035670	2529.552697
417.415283	2530.565969
417.794834	2532.098480
418.174324	2531.002029
418.553753	2533.588141
418.933121	2533.628470
419.312428	2529.593027
419.691674	2528.239477
420.070859	2530.185362
420.449983	2532.892462
420.829045	2530.818027
421.208047	2531.947246
421.586988	2530.283665
421.965867	2533.593182
422.344686	2535.531506
422.723444	2532.910106
423.102141	2531.715353
423.480777	2533.515044
423.859352	2533.174767
424.237866	2532.605116
424.616319	2534.223327
424.994712	2535.138296
425.373044	2532.983203
425.751314	2529.285516
426.129524	2529.305681
426.507673	2533.641073
426.885762	2528.927594
427.263789	2535.289531
427.641756	2535.163502
428.019662	2531.864067
428.397508	2533.099149
428.775292	2535.844057
429.153016	2529.537574
429.530679	2535.541588
429.908282	2534.387164
430.285824	2535.274407
430.663305	2535.523944
431.040726	2535.166022
431.418086	2535.476053
431.795385	2537.802546
432.172624	2535.087884
432.549802	2535.128214
432.926920	2535.072761
433.303977	2534.054448
433.680974	2535.307175
434.057910	2535.375230
434.434786	2537.484953
434.811601	2535.400436
435.188355	2537.570653
435.565050	2536.955632
435.941683	2537.318595
436.318257	2534.069571
436.694770	2536.615354
437.071222	2536.965714
437.447614	2535.425642
437.823946	2536.569984
438.200218	2537.132072
438.576429	2538.563760
438.952580	2536.378420
439.328670	2538.752803
439.704700	2539.587114
440.080670	2537.842875
440.456580	2537.038811
440.832429	2537.313554
441.208218	2535.496218
441.583947	2539.456044
441.959616	2536.912782
442.335224	2536.688451
442.710773	2540.093750
443.086261	2538.299099
443.461689	2539.312371
443.837057	2535.760878
444.212365	2539.095602
444.587612	2536.635519
444.962800	2535.007226
445.337927	2536.496887
445.712995	2536.128883
446.088002	2538.760365
446.462949	2540.363452
446.837837	2540.340767
447.212664	2539.264480
447.587431	2540.250026
447.962139	2539.496373
448.336786	2540.728936
448.711374	2537.933616
449.085901	2540.060983
449.460369	2539.423277
449.834776	2540.466796
450.209124	2538.924202
450.583412	2539.594676
450.957640	2537.411856
451.331808	2542.894111
451.705917	2539.655170
452.079965	2541.212886
452.453954	2542.314378
452.827883	2541.774975
453.201752	2540.008051
453.575562	2540.239944
453.949311	2540.481919
454.323001	2542.190870
454.696632	2541.376724
455.070202	2540.804553
455.443713	2540.847403
455.817164	2539.982845
456.190556	2539.831610
456.563888	2539.786240
456.937160	2538.697351
457.310373	2542.410160
457.683526	2541.578370
458.056619	2540.068544
458.429653	2541.308668
458.802628	2545.318906
459.175542	2540.978473
459.548398	2542.639533
459.921194	2540.973432
460.293930	2540.449152
460.666607	2542.631971
461.039224	2541.510314
461.411782	2543.015099
461.784280	2544.040974
462.156719	2542.231199
462.529099	2544.552651
462.901419	2541.681714
463.273680	2542.808412
463.645882	2536.398584
464.018024	2539.352701
464.390106	2539.829090
464.762130	2545.225645
465.134094	2545.328988
465.505999	2543.990562
465.877845	2541.555685
466.249631	2543.831766
466.621358	2544.973587
466.993026	2542.485778
467.364634	2545.734801
467.736184	2545.752445
468.107674	2543.584749
468.479105	2543.181457
468.850477	2543.062990
469.221790	2545.447456
469.593043	2544.204811
469.964238	2545.765048
470.335373	2542.526107
470.706449	2546.755635
471.077467	2543.695655
471.448425	2544.913093
471.819324	2543.259595
472.190164	2545.570964
472.560945	2545.031560
472.931667	2544.623227
473.302330	2547.363094
473.672934	2543.829245
474.043479	2544.648433
474.413965	2544.144317
474.784393	2545.576005
475.154761	2545.886036
475.525070	2543.168854
475.895321	2545.139945
476.265513	2544.310675
476.635645	2546.869061
477.005719	2545.321427
477.375734	2542.442928
477.745691	2543.231868
478.115588	2545.102137
478.485427	2546.128011
478.855207	2546.932075
479.224928	2545.311344
479.594591	2545.316386
479.964194	2546.450645
480.333739	2544.754297
480.703226	2546.223793
481.072653	2547.277394
481.442022	2544.938299
481.811333	2542.357228
482.180584	2540.731456
482.549777	2540.093750
482.918912	2541.303627
483.287988	2544.272867
483.657005	2545.422250
484.025964	2544.051056
484.394864	2546.364946
484.763706	2546.397713
485.132489	2544.784544
485.501213	2546.601880
485.869879	2549.288815
486.238487	2548.104144
486.607036	2545.772610
486.975527	2546.795964
487.343959	2546.022147
487.712333	2549.593805
488.080648	2545.165151
488.448905	2547.615152
488.817104	2546.115408
489.185244	2548.081458
489.553326	2546.702703
489.921350	2549.820657
490.289315	2547.468958
490.657222	2546.876623
491.025070	2544.028371
491.392861	2547.610111
491.760593	2545.429812
492.128267	2546.730429
492.495883	2542.788247
492.863440	2546.843855
493.230939	2547.836962
493.598380	2545.928886
493.965763	2549.455173
494.333088	2547.968032
494.700354	2548.210008
495.067563	2546.339740
495.434713	2548.177240
495.801805	2546.559030
496.168839	2549.051881
496.535815	2547.325285
496.902733	2546.755635
497.269593	2548.668753
497.636395	2549.825698
498.003139	2550.637323
498.369825	2547.252189
498.736453	2547.625234
499.103023	2546.543907
499.469535	2550.571788
499.835989	2548.444422
500.202385	2543.710778
500.568723	2544.903011
500.935003	2546.148176
501.301226	2543.279759
501.667390	2545.712116
502.033497	2551.766542
502.399546	2549.104813
502.765537	2547.821839
503.131470	2546.271684
503.497345	2546.637168
503.863163	2548.431819
504.228923	2546.216232
504.594625	2548.096582
504.960269	2547.496685
505.325856	2550.924669
505.691385	2552.079093
506.056856	2545.565923
506.422270	2545.737322
506.787625	2549.187992
507.152924	2549.135060
507.518164	2547.146324
507.883347	2547.085831
508.248472	2549.644216
508.613540	2548.850234
508.978550	2547.660522
509.343503	2549.505584
509.708398	2549.646737
510.073236	2548.099102
510.438016	2547.902498
510.802738	2546.949719
511.167403	2546.453166
511.532010	2549.924000
511.896561	2548.837632
512.261053	2547.315203
512.625488	2548.930893
512.989866	2550.382745
513.354186	2548.106664
513.718449	2549.941644
514.082655	2549.523228
514.446803	2547.859648
514.810894	2551.597663
515.174927	2547.239586
515.538904	2549.389638
515.902822	2545.581046
516.266684	2550.259237
516.630488	2548.762014
516.994235	2549.437529
517.357925	2547.665563
517.721558	2550.556665
518.085133	2549.901315
518.448651	2547.012734
518.812112	2546.226314
519.175516	2548.446942
519.538863	2545.394523
519.902152	2550.120605
520.265385	2547.335368
520.628560	2549.528270
520.991678	2548.976263
521.354739	2548.388969
521.717743	2547.761345
522.080690	2545.729760
522.443580	2549.659340
522.806413	2549.606408
523.169189	2547.768907
523.531908	2550.947354
523.894569	2549.697148
524.257174	2550.380225
524.619722	2548.628424
524.982213	2548.883002
525.344647	2549.611449
525.707025	2550.087838
526.069345	2548.555327
526.431608	2550.080276
526.793815	2547.905018
527.155964	2546.944678
527.518057	2548.686397
527.880093	2549.939124
528.242072	2550.332334
528.603995	2551.504402
528.965860	2548.026006
529.327669	2550.062632
529.689421	2552.091696
530.051117	2551.312838
530.412755	2549.472817
530.774337	2550.173537
531.135862	2548.598177
531.497331	2551.481717
531.858743	2553.394835
532.220098	2551.655637
532.581396	2551.519525
532.942638	2551.295194
533.303824	2553.462890
533.664953	2554.612273
534.026025	2548.787220
534.387040	2549.044319
534.747999	2552.961295
535.108902	2549.021634
535.469748	2550.750749
535.830537	2550.503733
536.191270	2549.432488
536.551947	2547.360573
536.912567	2546.435522
537.273131	2549.692107
537.633638	2546.183464
537.994089	2549.281253
538.354483	2553.092365
538.714821	2553.236038
539.075103	2549.954247
539.435328	2550.191181
539.795497	2549.619010
540.155609	2550.392828
540.515665	2549.500543
540.875665	2551.814433
541.235609	2549.021634
541.595496	2548.275543
541.955328	2552.585729
542.315102	2548.588094
542.674821	2551.506922
543.034483	2550.695297
543.394090	2550.130688
543.753640	2555.570092
544.113134	2551.007848
544.472571	2552.147149
544.831953	2550.602035
545.191278	2550.407951
545.550548	2550.710420
545.909761	2552.646223
546.268918	2550.191181
546.628019	2553.072201
546.987064	2550.382745
547.346053	2550.715461
547.704986	2551.678322
548.063863	2553.414999
548.422684	2552.401727
548.781449	2553.982129
549.140158	2550.269319
549.498811	2552.966337
549.857408	2550.299566
550.215949	2551.459032
550.574434	2548.242775
550.932864	2551.000287
551.291237	2551.721172
551.649555	2552.310987
552.007817	2550.496171
552.366022	2552.391645
552.724173	2551.527087
553.082267	2552.341233
553.440305	2552.195040
553.798288	2551.859803
554.156215	2553.092365
554.514086	2549.258568
554.871902	2545.782692
555.229661	2548.862837
555.587365	2547.862168
555.945014	2551.703528
556.302606	2551.602704
556.660143	2551.801830
557.017625	2550.712941
557.375050	2550.163455
557.732421	2551.728733
558.089735	2549.588763
558.446994	2553.021789
558.804197	2553.016748
559.161345	2551.892571
559.518437	2551.474155
559.875474	2552.270657
560.232455	2552.497509
560.589381	2547.484082
560.946251	2549.921480
561.303065	2548.504915
561.659825	2550.254196
562.016528	2551.625390
562.373177	2547.378217
562.729770	2552.394166
563.086307	2553.102448
563.442789	2550.602035
563.799216	2551.476676
564.155587	2553.674619
564.511904	2552.106820
564.868164	2556.386759
565.224370	2552.353836
565.580520	2551.108671
565.936615	2551.312838
566.292654	2552.184958
566.648638	2551.960626
567.004567	2551.136398
567.360441	2553.939279
567.716260	2552.361398
568.072023	2551.771583
568.427732	2551.648075
568.783385	2550.929710
569.138982	2550.632282
569.494525	2552.560524
569.850013	2550.929710
570.205445	2550.685214
570.560823	2552.429454
570.916145	2550.702858
571.271412	2550.281922
571.626625	2553.213353
571.981782	2550.927190
572.336884	2549.969371
572.691931	2546.740512
573.046923	2548.237734
573.401860	2544.567774
573.756743	2551.552293
574.111570	2551.839639
574.466342	2551.443908
574.821059	2549.210677
575.175722	2552.331151
575.530330	2554.713096
575.884882	2551.580019
576.239380	2554.087993
576.593823	2552.981460
576.948211	2549.765204
577.302544	2553.687222
577.656823	2549.906356
578.011047	2553.009186
578.365216	2551.317879
578.719330	2554.206460
579.073389	2552.265616
579.427394	2551.718651
579.781344	2552.489947
580.135239	2553.979608
580.489080	2553.107489
580.842866	2553.997253
581.196597	2552.656306
581.550273	2555.045813
581.903895	2552.101779
582.257463	2554.846687
582.610975	2551.169165
582.964434	2551.209494
583.317837	2551.542211
583.671186	2552.245452
584.024481	2553.039433
584.377721	2553.049516
584.730906	2553.006666
585.084037	2551.950544
585.437113	2549.019113
585.790135	2552.787376
586.143103	2553.253682
586.496016	2555.784342
586.848874	2553.629248
587.201679	2555.126471
587.554428	2551.849721
587.907124	2552.058929
588.259765	2552.474824
588.612352	2553.450287
588.964884	2554.990360
589.317362	2552.313507
589.669786	2552.003476
590.022155	2548.663712
590.374470	2550.662529
590.726731	2553.178065
591.078937	2546.682538
591.431090	2554.224104
591.783188	2551.610266
592.135232	2553.707386
592.487222	2552.552962
592.839157	2552.063970
593.191038	2551.053219
593.542866	2554.375339
593.894639	2553.367108
594.246358	2552.305945
594.598022	2552.230328
594.949633	2552.484906
595.301190	2552.742005
595.652692	2552.883158
596.004141	2552.739485
596.355535	2552.056408
596.706876	2552.701676
597.058162	2553.641851
597.409395	2551.569937
597.760573	2554.201419
598.111698	2552.797458
598.462768	2553.062118
598.813785	2556.217881
599.164748	2550.302087
599.515657	2553.651933
599.866511	2554.093034
600.217312	2551.345606
600.568060	2551.963147
600.918753	2553.140256
601.269392	2555.353323
601.619978	2553.498178
601.970510	2550.675132
602.320988	2550.831408
602.671412	2552.069011
603.021783	2551.053219
603.372100	2550.584391
603.722363	2554.571944
604.072572	2551.937941
604.422728	2552.522715
604.772830	2552.048847
605.122878	2552.953734
605.472872	2553.155380
605.822813	2552.318548
606.172701	2551.680842
606.522534	2552.789896
606.872314	2553.127653
607.222041	2547.854607
607.571714	2552.414330
607.921333	2547.849565
608.270899	2550.168496
608.620411	2550.415513
608.969870	2553.258723
609.319276	2556.588406
609.668627	2560.835578
610.017926	2563.441854
610.367171	2565.697771
610.716362	2568.851012
611.065500	2565.634756
611.414585	2561.337172
611.763616	2560.152501
612.112594	2555.872562
612.461518	2555.494475
612.810389	2556.719476
613.159207	2556.749723
613.507971	2555.615463
613.856682	2555.086142
614.205340	2553.493137
614.553945	2555.091183
614.902496	2551.045657
615.250994	2553.084804
615.599439	2555.980947
615.947830	2553.999773
616.296169	2552.520194
616.644454	2552.527756
616.992686	2555.131512
617.340864	2553.324258
617.688990	2552.457180
618.037063	2553.873744
618.385082	2553.586398
618.733048	2555.108827
619.080961	2551.867365
619.428821	2550.231511
619.776628	2552.605894
620.124382	2553.430123
620.472083	2554.418189
620.819731	2551.353167
621.167326	2555.325597
621.514868	2550.748229
621.862357	2554.423230
622.209793	2553.747715
622.557176	2551.824515
622.904506	2554.161090
623.251783	2549.712272
623.599007	2552.426933
623.946179	2552.467262
624.293297	2555.068498
624.640363	2550.957437
624.987376	2548.215049
625.334336	2550.299566
625.681243	2550.937272
626.028097	2548.136911
626.374899	2550.420554
626.721647	2552.058929
627.068343	2551.935421
627.414987	2551.511964
627.761577	2550.864175
628.108115	2553.110009
628.454600	2550.407951
628.801032	2554.261913
629.147412	2553.011707
629.493739	2553.057077
629.840014	2553.656975
630.186236	2554.934907
630.532405	2553.823333
630.878521	2555.565051
631.224585	2548.981304
631.570597	2551.353167
631.916556	2552.948692
632.262462	2551.038095
632.608316	2550.957437
632.954117	2552.865513
633.299866	2551.287632
633.645562	2554.072870
633.991206	2552.104299
634.336797	2553.387273
634.682336	2550.624721
635.027823	2551.658157
635.373257	2551.080945
635.718639	2551.827036
636.063968	2551.852242
636.409245	2551.524567
636.754470	2549.394679
637.099642	2551.663198
637.444762	2552.789896
637.789829	2552.368960
638.134845	2552.381563
638.479808	2552.152190
638.824719	2550.501212
639.169577	2549.800492
639.514383	2552.250493
639.859137	2549.866027
640.203839	2551.632951
640.548489	2554.345092
640.893086	2552.716799
641.237632	2551.030533
641.582125	2552.179917
641.926566	2551.547252
642.270955	2550.465924
642.615292	2546.954761
642.959576	2549.651778
643.303809	2548.129349
643.647990	2553.815771
643.992118	2551.625390
644.336195	2549.979453
644.680219	2552.011038
645.024192	2551.413661
645.368112	2551.781665
645.711981	2551.663198
646.055797	2550.533980
646.399562	2552.555483
646.743274	2550.496171
647.086935	2551.703527
647.430544	2551.932900
647.774101	2551.562375
648.117606	2549.157745
648.461059	2550.483568
648.804460	2556.482541
649.147810	2549.994576
649.491108	2551.418702
649.834354	2550.758311
650.177548	2552.474824
650.520690	2553.117571
650.863781	2551.275029
651.206820	2551.862324
651.549807	2552.802499
651.892742	2551.484237
652.235626	2550.062632
652.578458	2549.573640
652.921238	2548.739329
653.263967	2549.003990
653.606644	2552.681511
653.949269	2551.476676
654.291843	2552.091696
654.634365	2551.690925
654.976836	2550.821326
655.319255	2551.093548
655.661622	2548.842673
656.003938	2549.077086
656.346203	2551.156562
656.688416	2551.141439
657.030577	2551.769062
657.372687	2550.080276
657.714746	2552.628579
658.056753	2551.640513
658.398708	2551.537169
658.740612	2551.995914
659.082465	2546.682538
659.424266	2548.366284
659.766016	2547.224462
660.107715	2547.499205
660.449362	2547.988197
660.790958	2551.635472
661.132503	2555.081101
661.473996	2551.711089
661.815438	2552.212684
662.156829	2548.991387
662.498168	2552.416851
662.839456	2552.573127
663.180693	2551.146480
663.521879	2549.790410
663.863013	2551.229659
664.204097	2553.167983
664.545129	2550.213867
664.886110	2553.039433
665.227040	2552.371480
665.567918	2553.346944
665.908746	2551.242262
666.249522	2551.915256
666.590248	2549.061963
666.930922	2551.146480
667.271545	2549.626572
667.612118	2553.566234
667.952639	2550.400389
668.293109	2550.501212
668.633528	2553.208312
668.973896	2548.880481
669.314213	2551.083466
669.654480	2548.283105
669.994695	2552.926007
670.334859	2550.997766
670.674973	2551.133877
671.015035	2550.395348
671.355047	2553.382232
671.695008	2548.101623
672.034918	2551.630431
672.374777	2552.169834
672.714585	2549.976932
673.054342	2551.280071
673.394049	2552.076573
673.733705	2550.120605
674.073310	2552.003476
674.412864	2550.733105
674.752368	2551.907694
675.091820	2551.965668
675.431223	2550.808723
675.770574	2551.985832
676.109875	2551.791748
676.449125	2549.591284
676.788324	2543.824204
677.127473	2549.024154
677.466571	2546.798485
677.805619	2550.753270
678.144616	2550.886861
678.483562	2552.467262
678.822458	2550.602035
679.161303	2552.237890
679.500098	2550.183620
679.838842	2551.421223
680.177535	2550.395348
680.516179	2551.295194
680.854771	2551.789227
681.193314	2549.435008
681.531805	2551.572457
681.870247	2550.191181
682.208638	2552.051367
682.546978	2551.995914
682.885268	2550.914587
683.223508	2551.970709
683.561697	2551.224618
683.899836	2549.782848
684.237925	2550.082797
684.575963	2552.003476
684.913951	2549.624052
685.251889	2550.644885
685.589776	2550.206305
685.927614	2548.517518
686.265401	2550.486089
686.603137	2550.062632
686.940824	2548.434339
687.278460	2552.071532
687.616046	2551.385935
687.953582	2551.209494
688.291068	2549.533311
688.628504	2549.465255
688.965889	2549.482899
689.303224	2550.813764
689.640510	2551.348126
689.977745	2552.129505
690.314930	2551.406099
690.652065	2549.094730
690.989150	2551.196892
691.326185	2551.637992
691.663170	2550.649926
692.000105	2551.022972
692.336990	2549.979453
692.673825	2551.920297
693.010610	2548.376366
693.347345	2549.692107
693.684030	2548.537683
694.020665	2547.161448
694.357251	2545.981818
694.693786	2550.755791
695.030272	2551.078424
695.366707	2549.429967
695.703093	2549.606407
696.039429	2550.506253
696.375716	2550.564227
696.711952	2548.877961
697.048139	2550.528939
697.384276	2553.445246
697.720363	2549.576161
698.056400	2549.750080
698.392388	2552.235369
698.728326	2550.828887
699.064214	2549.414844
699.400053	2552.111861
699.735842	2548.963660
700.071581	2550.985163
700.407270	2548.081458
700.742910	2549.452652
701.078501	2551.393497
701.414042	2549.719833
701.749533	2551.504402
702.084974	2551.055739
702.420366	2550.012220
702.755709	2549.316541
703.091002	2549.891233
703.426246	2549.369473
703.761440	2548.550286
704.096584	2547.968032
704.431679	2550.231511
704.766725	2552.842828
705.101721	2552.137067
705.436668	2548.799823
705.771565	2552.633620
706.106413	2550.685214
706.441212	2549.702189
706.775961	2551.264947
707.110661	2553.732592
707.445311	2548.633465
707.779913	2551.617828
708.114465	2552.815102
708.448967	2551.297715
708.783421	2549.356870
709.117825	2549.916438
709.452180	2552.154711
709.786485	2547.426108
710.120742	2546.564071
710.454949	2545.596170
710.789107	2545.870912
711.123216	2546.775800
711.457275	2550.171017
711.791286	2549.412323
712.125247	2551.254865
712.459159	2551.544731
712.793023	2549.639175
713.126837	2549.435008
713.460602	2549.699669
713.794318	2551.993394
714.127985	2550.912066
714.461602	2548.865358
714.795171	2551.559855
715.128691	2549.150183
715.462162	2547.224462
715.795584	2549.384597
716.128957	2550.297046
716.462281	2548.202446
716.795556	2551.343085
717.128782	2549.059442
717.461960	2546.942158
717.795088	2552.865513
718.128167	2550.851573
718.461198	2546.619524
718.794180	2552.419371
719.127113	2548.431819
719.459997	2547.842004
719.792833	2550.770914
720.125619	2549.860986
720.458357	2551.206974
720.791046	2550.108002
721.123686	2550.052550
721.456278	2551.937941
721.788821	2549.601366
722.121315	2549.114895
722.453761	2546.470810
722.786158	2550.801161
723.118506	2548.446942
723.450805	2550.221428
723.783056	2549.271171
724.115259	2552.565565
724.447412	2548.068856
724.779518	2552.628579
725.111574	2551.040616
725.443582	2550.271840
725.775542	2550.773435
726.107453	2550.957437
726.439315	2548.333516
726.771129	2553.215874
727.102895	2545.172713
727.434612	2547.126160
727.766281	2542.049718
728.097901	2547.625234
728.429473	2546.518701
728.760996	2551.196892
729.092471	2549.349309
729.423897	2550.833928
729.755276	2548.678835
730.086606	2548.555327
730.417887	2547.201777
730.749120	2549.170348
731.080305	2547.842004
731.411442	2548.479710
731.742530	2550.138249
732.073570	2547.340409
732.404562	2549.656819
732.735506	2548.726726
733.066401	2547.048022
733.397249	2548.063814
733.728048	2550.523897
734.058798	2550.629762
734.389501	2549.848383
734.720156	2550.060111
735.050762	2549.679504
735.381320	2551.330482
735.711831	2547.978115
736.042293	2548.467107
736.372707	2548.252858
736.703073	2549.719833
737.033391	2549.601366
737.363661	2547.610111
737.693883	2547.922662
738.024056	2546.440563
738.354182	2548.648588
738.684260	2549.540873
739.014290	2546.286808
739.344272	2547.045501
739.674207	2548.517518
740.004093	2550.990204
740.333931	2546.851417
740.663722	2546.246478
740.993464	2550.034906
741.323159	2547.857127
741.652806	2549.462735
741.982405	2549.593805
742.311956	2549.041798
742.641460	2549.029195
742.970915	2550.188661
743.300323	2547.479041
743.629683	2546.743032
743.958996	2546.667415
744.288260	2544.855120
744.617477	2547.937786
744.946647	2549.293856
745.275768	2550.264278
745.604842	2548.207487
745.933869	2549.155224
746.262847	2547.448794
746.591778	2548.751932
746.920662	2550.193702
747.249498	2549.326623
747.578286	2548.875440
747.907027	2547.176571
748.235720	2549.757642
748.564365	2549.117416
748.892963	2548.782179
749.221514	2550.004659
749.550017	2549.689587
749.878473	2544.598021
750.206881	2548.036088
750.535242	2549.145142
750.863555	2548.058773
751.191821	2549.566078
751.520039	2548.754452
751.848210	2549.266130
752.176334	2547.048022
752.504411	2550.037426
752.832440	2547.453835
753.160421	2549.954247
753.488356	2549.349309
753.816243	2549.472817
754.144082	2549.795451
754.471875	2552.056408
754.799620	2547.317724
755.127318	2548.225131
755.454969	2549.293856
755.782572	2549.538352
756.110129	2550.372663
756.437638	2550.092879
756.765100	2549.646737
757.092515	2547.088351
757.419882	2550.695297
757.747203	2547.128680
758.074477	2547.579864
758.401703	2547.917621
758.728882	2548.537683
759.056014	2549.566078
759.383099	2547.700851
759.710138	2548.129349
760.037129	2547.620193
760.364073	2545.512991
760.690970	2544.136756
761.017820	2547.428629
761.344623	2546.763197
761.671379	2548.227652
761.998088	2548.658671
762.324751	2546.032229
762.651366	2548.721685
762.977935	2548.935934
763.304456	2546.478372
763.630931	2549.092210
763.957359	2545.916283
764.283740	2545.346632
764.610074	2549.460214
764.936362	2549.742519
765.262602	2547.237065
765.588796	2548.625903
765.914943	2547.932744
766.241044	2548.207487
766.567097	2548.696479
766.893104	2551.811912
767.219064	2547.476520
767.544978	2549.886192
767.870845	2545.853268
768.196665	2549.966850
768.522438	2548.101623
768.848165	2551.925338
769.173846	2551.297715
769.499479	2547.587425
769.825066	2546.145655
770.150607	2547.088351
770.476101	2545.351674
770.801548	2548.305790
771.126949	2547.663043
771.452303	2551.038095
771.777611	2549.074566
772.102872	2549.613969
772.428087	2545.127342
772.753256	2548.608259
773.078378	2547.854607
773.403453	2547.166489
773.728482	2545.938968
774.053465	2545.850748
774.378401	2546.372507
774.703291	2548.394010
775.028135	2545.570964
775.352932	2548.686397
775.677683	2546.916952
776.002388	2544.635830
776.327046	2543.751107
776.651658	2545.303783
776.976224	2542.861344
777.300743	2550.284443
777.625216	2548.038609
777.949643	2548.341078
778.274024	2547.284956
778.598359	2547.264792
778.922647	2548.063814
779.246889	2547.340409
779.571086	2550.105482
779.895236	2546.889226
780.219339	2549.462735
780.543397	2548.356201
780.867409	2549.248486
781.191374	2549.379556
781.515294	2548.547765
781.839167	2548.973743
782.162995	2547.635316
782.486776	2547.466438
782.810511	2546.049873
783.134201	2546.012065
783.457844	2549.603887
783.781441	2549.261088
784.104993	2548.041129
784.428498	2545.455017
784.751958	2547.463917
785.075372	2546.785882
785.398739	2545.691952
785.722061	2547.423588
786.045337	2547.647919
786.368568	2547.784030
786.691752	2546.148176
787.014891	2547.027857
787.337983	2548.721685
787.661030	2546.730429
787.984031	2549.427447
788.306987	2550.201264
788.629897	2547.078269
788.952760	2548.885522
789.275579	2546.871582
789.598351	2549.525749
789.921078	2549.336706
790.243759	2550.007179
790.566395	2547.103475
790.888984	2546.463248
791.211529	2544.207332
791.534027	2549.135060
791.856480	2545.865871
792.178888	2545.606252
792.501249	2543.877136
792.823566	2544.673638
793.145836	2540.539892
793.468062	2547.768907
793.790241	2546.775800
794.112375	2548.469627
794.434464	2545.051725
794.756507	2546.450645
795.078505	2545.439894
795.400457	2546.959802
795.722364	2544.850079
796.044226	2547.791592
796.366042	2549.344267
796.687812	2547.690769
797.009538	2547.267312
797.331218	2548.439380
797.652852	2549.399720
797.974442	2545.323947
798.295986	2545.190357
798.617484	2546.241437
798.938938	2547.479041
799.260346	2545.109698
799.581709	2546.422919
799.903026	2548.552806
800.224299	2547.647919
800.545526	2546.004503
800.866708	2547.597508
801.187845	2545.273536
801.508936	2547.884853
801.829983	2548.578012
802.150984	2548.162117
802.471940	2548.739329
802.792851	2548.129349
803.113717	2546.450645
803.434538	2545.470141
803.755314	2548.083979
804.076045	2547.763866
804.396731	2549.132539
804.717372	2546.861499
805.037967	2546.743032
805.358518	2546.153217
805.679024	2547.791592
805.999485	2546.748073
806.319901	2545.490305
806.640272	2548.822508
806.960598	2545.555840
807.280879	2547.428629
807.601115	2545.732281
807.921306	2547.826880
808.241453	2546.170861
808.561554	2544.517363
808.881611	2546.289328
809.201623	2543.337733
809.521590	2549.329144
809.841513	2545.218083
810.161390	2545.926365
810.481223	2546.415357
810.801011	2546.125491
811.120755	2548.068856
811.440453	2547.211859
811.760107	2546.425439
812.079716	2548.704041
812.399281	2545.893598
812.718801	2546.853938
813.038276	2545.278577
813.357707	2547.988197
813.677093	2546.531304
813.996434	2546.480892
814.315731	2547.297559
814.634983	2546.352343
814.954191	2546.112888
815.273354	2545.255892
815.592473	2545.732281
815.911547	2545.646581
816.230577	2546.422919
816.549562	2547.206818
816.868502	2545.886036
817.187399	2548.472148
817.506250	2546.342260
817.825058	2547.506767
818.143821	2547.345450
818.462539	2547.945347
818.781213	2547.448794
819.099843	2545.117260
819.418429	2543.940151
819.736970	2547.153886
820.055466	2545.497867
820.373919	2548.159596
820.692327	2545.812939
821.010691	2545.618855
821.329011	2545.339071
821.647286	2546.551468
821.965517	2546.271684
822.283704	2548.756973
822.601847	2551.000287
822.919945	2549.137580
823.237999	2548.250337
823.556010	2548.139432
823.873976	2548.562889
824.191897	2544.655994
824.509775	2545.215563
824.827609	2545.840666
825.145398	2542.463092
825.463144	2547.380738
825.780845	2545.563402
826.098502	2549.276212
826.416116	2544.827394
826.733685	2545.155069
827.051210	2545.271015
827.368692	2546.654812
827.686129	2546.362425
828.003522	2549.094730
828.320872	2547.872251
828.638177	2546.042312
828.955439	2545.593649
829.272656	2549.180430
829.589830	2543.859492
829.906960	2546.218752
830.224046	2545.245809
830.541088	2547.519370
830.858086	2544.688762
831.175041	2550.687735
831.491952	2544.174564
831.808819	2547.128680
832.125642	2546.216232
832.442421	2547.423588
832.759157	2544.426622
833.075849	2548.613300
833.392497	2544.217414
833.709101	2547.652960
834.025662	2543.662887
834.342179	2547.988197
834.658653	2545.185316
834.975083	2545.134904
835.291469	2552.938610
835.607811	2545.860830
835.924110	2542.679862
836.240366	2548.139432
836.556578	2546.720347
836.872746	2549.160265
837.188871	2542.780685
837.504952	2547.360573
837.820990	2545.744884
838.136984	2545.639019
838.452935	2546.894267
838.768842	2545.399565
839.084706	2546.785882
839.400526	2546.823691
839.716303	2546.367466
840.032037	2541.802701
840.347727	2541.820345
840.663373	2542.853782
840.978977	2543.302445
841.294537	2546.604400
841.610054	2543.264636
841.925527	2547.960471
842.240957	2546.896787
842.556344	2546.977446
842.871687	2545.152548
843.186987	2544.033412
843.502244	2547.519370
843.817458	2545.457538
844.132629	2544.300593
844.447756	2547.400903
844.762840	2545.523073
845.077881	2547.143804
845.392879	2543.501570
845.707833	2543.239430
846.022745	2545.936447
846.337613	2548.283105
846.652438	2545.243289
846.967221	2548.351160
847.281960	2543.269677
847.596656	2547.471479
847.911309	2546.349822
848.225919	2547.128680
848.540485	2548.134391
848.855009	2546.634647
849.169490	2546.367466
849.483928	2550.160934
849.798323	2545.354194
850.112675	2545.591128
850.426984	2546.188505
850.741251	2547.383259
851.055474	2546.523742
851.369654	2548.255378
851.683792	2545.359235
851.997887	2550.042467
852.311938	2542.649615
852.625947	2545.233207
852.939914	2544.787064
853.253837	2544.832435
853.567718	2548.361243
853.881555	2546.095244
854.195350	2546.193546
854.509103	2546.216232
854.822812	2543.544420
855.136479	2544.847558
855.450103	2546.319575
855.763685	2544.716488
856.077224	2541.901004
856.390720	2542.253885
856.704173	2539.274563
857.017584	2543.766231
857.330953	2544.482075
857.644278	2543.889739
857.957561	2544.527445
858.270802	2547.002652
858.584000	2546.304452
858.897155	2546.034750
859.210268	2546.362425
859.523339	2548.641027
859.836367	2543.597352
860.149352	2542.732794
860.462295	2542.891591
860.775195	2548.744370
861.088054	2547.920142
861.400869	2546.168341
861.713642	2543.756148
862.026373	2545.162630
862.339062	2547.015254
862.651708	2545.225645
862.964312	2544.010727
863.276873	2547.095913
863.589392	2545.845707
863.901869	2547.809236
864.214303	2545.298742
864.526696	2545.916283
864.839045	2543.120963
865.151353	2546.649771
865.463619	2547.905018
865.775842	2547.355532
866.088023	2545.293700
866.400162	2547.529452
866.712258	2543.889739
867.024313	2544.441745
867.336325	2545.260933
867.648296	2546.175902
867.960224	2545.923845
868.272110	2546.054915
868.583954	2544.298072
868.895755	2547.249668
869.207515	2545.545758
869.519233	2547.171530
869.830909	2544.182126
870.142542	2541.215407
870.454134	2546.750594
870.765684	2545.926365
871.077191	2543.153731
871.388657	2543.322609
871.700081	2536.955632
872.011463	2544.845038
872.322803	2538.677186
872.634101	2546.755635
872.945357	2546.256561
873.256571	2547.726057
873.567744	2543.350336
873.878874	2546.387631
874.189963	2544.648433
874.501010	2543.526776
874.812015	2545.056766
875.122979	2545.593649
875.433900	2547.297559
875.744780	2543.554502
876.055618	2544.885367
876.366415	2545.253371
876.677169	2544.988711
876.987882	2544.527445
877.298554	2543.572146
877.609183	2545.903680
877.919771	2543.123484
878.230317	2547.058104
878.540822	2545.608772
878.851285	2542.347146
879.161707	2544.202291
879.472087	2543.161292
879.782425	2543.100798
880.092722	2545.349153
880.402977	2546.516180
880.713191	2546.735470
881.023363	2544.913093
881.333494	2545.545758
881.643583	2545.520552
881.953631	2545.855789
882.263637	2544.955943
882.573602	2546.634647
882.883526	2544.086344
883.193408	2545.301262
883.503248	2544.272867
883.813048	2544.920655
884.122806	2544.580377
884.432522	2546.097764
884.742197	2545.170192
885.051831	2545.311344
885.361424	2544.963505
885.670975	2541.810263
885.980485	2546.889226
886.289954	2545.003834
886.599382	2543.068031
886.908768	2542.195911
887.218113	2541.570808
887.527417	2541.069213
887.836680	2539.740869
888.145901	2546.632127
888.455082	2545.928886
888.764221	2545.691952
889.073319	2543.897301
889.382376	2545.621375
889.691392	2545.792775
890.000366	2544.010727
890.309300	2543.708257
890.618193	2545.558361
890.927044	2542.878988
891.235855	2542.652136
891.544625	2546.077600
891.853353	2545.439894
892.162041	2548.152035
892.470687	2544.030891
892.779293	2545.379400
893.087858	2546.024668
893.396381	2544.479554
893.704864	2542.440407
894.013306	2543.504091
894.321707	2545.916283
894.630068	2543.110881
894.938387	2542.803370
895.246665	2545.429812
895.554903	2544.081303
895.863100	2544.393854
896.171256	2546.251520
896.479371	2545.041643
896.787446	2543.773792
897.095480	2542.942002
897.403473	2546.329657
897.711425	2545.659184
898.019336	2544.424101
898.327207	2545.107178
898.635038	2545.328988
898.942827	2543.216745
899.250576	2544.345963
899.558284	2543.468803
899.865952	2543.070552
900.173579	2542.142979
900.481165	2540.464275
900.788711	2544.769420
901.096216	2544.366128
901.403681	2546.483413
901.711105	2545.097095
902.018489	2544.494677
902.325832	2543.098278
902.633135	2540.975952
902.940397	2542.485778
903.247619	2540.648277
903.554800	2543.478885
903.861941	2547.045501
904.169041	2545.754966
904.476101	2541.512835
904.783121	2543.988042
905.090100	2546.490974
905.397039	2546.919472
905.703938	2542.916796
906.010796	2539.990407
906.317614	2543.720860
906.624391	2544.492157
906.931129	2542.818494
907.237826	2543.957795
907.544483	2543.655325
907.851099	2546.211190
908.157675	2543.942671
908.464211	2543.131045
908.770707	2545.250851
909.077163	2546.712785
909.383578	2544.257743
909.689954	2540.955787
909.996289	2545.359235
910.302584	2543.289842
910.608839	2543.158772
910.915054	2543.110881
911.221229	2542.001827
911.527363	2541.051569
911.833458	2542.505942
912.139513	2543.758669
912.445527	2542.276570
912.751502	2544.640871
913.057436	2543.955274
913.363331	2543.919986
913.669186	2544.356046
913.975000	2543.725902
914.280775	2543.937630
914.586510	2545.248330
914.892205	2544.416540
915.197859	2542.833617
915.503475	2544.025850
915.809050	2544.106509
916.114585	2542.039636
916.420081	2542.037115
916.725536	2544.484595
917.030952	2542.642053
917.336328	2542.717671
917.641665	2538.664583
917.946961	2540.461754
918.252218	2544.608103
918.557435	2540.015612
918.862612	2545.346633
919.167750	2542.823535
919.472848	2544.479554
919.777906	2545.248330
920.082925	2544.053577
920.387904	2541.742207
920.692843	2543.496529
920.997743	2546.349822
921.302603	2545.656663
921.607423	2543.862013
921.912204	2546.286808
922.216946	2542.735315
922.521647	2543.536858
922.826310	2543.743546
923.130932	2544.328319
923.435516	2543.599873
923.740059	2546.576674
924.044564	2540.892773
924.349028	2543.052908
924.653454	2543.894780
924.957840	2544.345963
925.262186	2544.149358
925.566493	2543.075593
925.870761	2543.675490
926.174989	2543.173895
926.479178	2543.012578
926.783328	2544.285470
927.087438	2542.732794
927.391509	2545.144986
927.695541	2543.844369
927.999533	2541.091899
928.303486	2541.933771
928.607400	2542.135417
928.911275	2543.738504
929.215110	2540.794471
929.518906	2542.352187
929.822663	2545.419729
930.126381	2539.851775
930.430060	2545.949050
930.733699	2544.338402
931.037299	2544.696324
931.340861	2540.756662
931.644383	2544.426622
931.947866	2541.636343
932.251309	2543.562064
932.554714	2543.408309
932.858080	2539.498894
933.161407	2539.493853
933.464694	2543.443597
933.767943	2540.134079
934.071153	2543.514173
934.374323	2541.510314
934.677455	2545.260933
934.980548	2543.720860
935.283602	2545.238248
935.586617	2540.358411
935.889593	2543.488967
936.192530	2542.127856
936.495428	2544.575336
936.798287	2543.534338
937.101108	2544.393854
937.403890	2545.563402
937.706632	2545.460058
938.009336	2541.961498
938.312002	2544.388813
938.614628	2544.114070
938.917216	2542.891591
939.219765	2545.359235
939.522275	2544.093906
939.824747	2542.465613
940.127179	2540.862526
940.429573	2542.974770
940.731929	2543.209183
941.034246	2542.977290
941.336524	2542.858823
941.638763	2543.549461
941.940964	2543.864533
942.243126	2543.420912
942.545250	2544.431663
942.847335	2541.356559
943.149381	2542.372352
943.451389	2541.981662
943.753359	2542.069883
944.055290	2541.049049
944.357182	2542.823535
944.659036	2545.598690
944.960851	2545.117260
945.262628	2544.114070
945.564367	2543.804039
945.866067	2545.371838
946.167729	2541.895963
946.469352	2544.464431
946.770937	2544.446787
947.072484	2541.769934
947.373992	2543.370500
947.675462	2543.209183
947.976893	2538.372196
948.278286	2538.737680
948.579641	2542.626930
948.880958	2537.154758
949.182236	2542.223638
949.483476	2541.837989
949.784678	2544.703885
950.085841	2542.132897
950.386967	2543.955274
950.688054	2544.040974
950.989103	2542.848741
951.290114	2543.801519
951.591087	2541.452341
951.892021	2543.241951
952.192917	2541.583411
952.493776	2543.405788
952.794596	2544.068700
953.095378	2542.284132
953.396122	2543.128525
953.696828	2541.497712
953.997496	2541.054090
954.298126	2540.300438
954.598718	2541.875798
954.899272	2543.191539
955.199788	2542.377393
955.500266	2542.437887
955.800706	2543.788916
956.101108	2544.383772
956.401472	2542.120294
956.701798	2541.901004
957.002087	2541.558205
957.302337	2543.667928
957.602550	2544.265305
957.902724	2541.429656
958.202861	2543.970397
958.502960	2543.201622
958.803022	2543.650284
959.103045	2543.793957
959.403031	2542.001827
959.702979	2543.514173
960.002889	2540.802032
960.302762	2543.589790
960.602596	2542.581560
960.902393	2540.202135
961.202153	2542.410160
961.501875	2543.771272
961.801559	2542.606765
962.101205	2539.685417
962.400814	2542.679862
962.700385	2543.388144
962.999918	2539.506456
963.299414	2539.710623
963.598873	2539.942516
963.898293	2538.614172
964.197677	2542.011909
964.497022	2543.042825
964.796331	2542.561395
965.095601	2542.384955
965.394835	2543.476364
965.694030	2540.328164
965.993189	2542.616848
966.292309	2539.511497
966.591393	2546.581715
966.890439	2541.502753
967.189447	2540.706250
967.488419	2541.054090
967.787353	2541.220448
968.086249	2542.999975
968.385108	2540.761703
968.683930	2544.202291
968.982714	2540.880170
969.281462	2540.993596
969.580172	2543.143648
969.878844	2541.225489
970.177480	2544.570295
970.476078	2542.737835
970.774639	2542.266487
971.073162	2540.948226
971.371649	2542.818494
971.670098	2541.961498
971.968510	2541.608617
972.266885	2541.906045
972.565223	2542.253885
972.863524	2542.296734
973.161788	2542.347146
973.460014	2542.314378
973.758204	2540.802032
974.056356	2542.654656
974.354471	2541.306148
974.652550	2543.378062
974.950591	2539.128369
975.248595	2543.672969
975.546563	2543.788916
975.844493	2543.604914
976.142386	2545.102137
976.440243	2540.935623
976.738062	2543.037784
977.035845	2541.656508
977.333590	2543.128525
977.631299	2540.885211
977.928971	2541.361600
978.226606	2538.495704
978.524204	2539.879501
978.821765	2535.382792
979.119290	2538.871270
979.416777	2542.488298
979.714228	2540.577701
980.011642	2542.440407
980.309020	2542.145500
980.606360	2543.030222
980.903664	2540.000489
981.200931	2538.982176
981.498162	2539.801363
981.795356	2543.834286
982.092513	2544.696324
982.389633	2542.712630
982.686717	2543.062990
982.983764	2537.893287
983.280775	2542.614327
983.577749	2541.837989
983.874686	2543.262115
984.171587	2542.122815
984.468451	2542.589121
984.765279	2542.092568
985.062070	2541.555685
985.358824	2542.828576
985.655543	2541.328833
985.952224	2542.190870
986.248869	2544.398896
986.545478	2544.235058
986.842050	2543.272198
987.138586	2539.831610
987.435086	2543.574667
987.731549	2543.511652
988.027975	2541.091899
988.324366	2541.338915
988.620719	2540.703730
988.917037	2542.079965
989.213318	2540.423946
989.509563	2540.668442
989.805772	2539.282124
990.101944	2541.018802
990.398080	2541.074255
990.694180	2544.353525
990.990244	2538.553678
991.286271	2543.241951
991.582262	2541.454862
991.878217	2541.696837
992.174136	2540.048380
992.470019	2541.598535
992.765865	2535.400436
993.061676	2539.014943
993.357450	2540.527289
993.653188	2535.443286
993.948890	2543.645243
994.244556	2542.412681
994.540186	2541.966539
994.835780	2542.437887
995.131337	2543.050387
995.426859	2541.966539
995.722345	2543.320089
996.017795	2541.331353
996.313208	2539.380427
996.608586	2541.538041
996.903928	2541.641384
997.199234	2543.962836
997.494504	2539.420756
997.789738	2541.603576
998.084936	2543.267157
998.380099	2542.226158
998.675225	2542.291693
998.970316	2540.628112
999.265371	2542.808412
999.560390	2541.296065
999.855373	2541.142310
1000.150320	2539.771116
1000.445232	2541.943854
1000.740108	2542.631971
1001.034948	2539.425797
1001.329752	2537.754655
1001.624521	2540.003009
1001.919254	2537.116949
1002.213951	2541.583411
1002.508613	2539.980324
1002.803239	2543.136087
1003.097829	2542.211035
1003.392384	2539.534182
1003.686903	2542.384955
1003.981386	2541.759852
1004.275834	2540.058462
1004.570246	2539.299768
1004.864623	2541.948895
1005.158964	2541.737166
1005.453270	2540.451672
1005.747540	2541.253216
1006.041775	2541.671631
1006.335974	2538.568801
1006.630138	2540.285314
1006.924266	2542.039636
1007.218359	2541.066693
1007.512416	2538.672145
1007.806438	2537.540406
1008.100425	2541.888401
1008.394376	2536.360776
1008.688292	2541.132228
1008.982172	2543.960315
1009.276017	2542.470654
1009.569827	2540.401261
1009.863602	2538.213400
1010.157341	2545.586087
1010.451045	2540.618030
1010.744714	2541.618699
1011.038347	2542.309337
1011.331945	2538.450334
1011.625508	2541.175078
1011.919036	2539.947557
1012.212528	2541.472506
1012.505986	2537.716846
1012.799408	2541.187681
1013.092795	2537.066537
1013.386147	2542.349667
1013.679464	2542.266488
1013.972745	2539.209028
1014.265992	2539.871939
1014.559204	2541.840510
1014.852380	2540.804553
1015.145521	2542.231199
1015.438628	2541.452341
1015.731699	2541.921168
1016.024736	2543.171375
1016.317737	2539.571991
1016.610703	2541.764893
1016.903635	2541.613658
1017.196531	2541.520397
1017.489393	2543.166333
1017.782219	2540.272711
1018.075011	2540.953267
1018.367768	2540.406302
1018.660490	2541.767413
1018.953177	2541.767413
1019.245829	2541.767413
