Dividing Wavelength (nm)	Counts (n)	Blue Motor Position (mm): 4.600000	Red Motor Position (mm): 0.000000	
326.493990	2159.269865
326.888308	2159.269865
327.282561	2159.269865
327.676750	2118.522219
328.070874	2117.607249
328.464933	2114.448966
328.858929	2117.100613
329.252859	2124.125461
329.646726	2131.969497
330.040528	2146.714872
330.434265	2155.935142
330.827938	2177.196208
331.221547	2194.210103
331.615091	2214.034440
332.008571	2230.733262
332.401986	2248.730181
332.795338	2262.800042
333.188625	2285.737292
333.581847	2305.717905
333.975006	2320.266675
334.368100	2338.316526
334.761129	2358.254290
335.154095	2375.701723
335.546996	2391.662016
335.939833	2403.859088
336.332606	2422.410534
336.725315	2434.282452
337.117960	2446.603032
337.510540	2458.797583
337.903056	2470.518265
338.295508	2480.865234
338.687896	2489.036944
339.080220	2493.309322
339.472480	2502.527072
339.864676	2510.285408
340.256807	2512.455624
340.648875	2515.964267
341.040879	2518.938548
341.432818	2523.281502
341.824694	2527.276617
342.216506	2525.055988
342.608253	2529.401463
342.999937	2527.115300
343.391557	2528.821730
343.783113	2525.686133
344.174605	2527.014477
344.566033	2525.786956
344.957397	2524.209074
345.348697	2521.340658
345.739934	2522.875689
346.131106	2520.360153
346.522215	2517.506860
346.913260	2515.019051
347.304241	2513.854544
347.695159	2513.665501
348.086012	2511.966632
348.476802	2507.515293
348.867528	2504.793070
349.258191	2502.108656
349.648789	2500.596310
350.039324	2497.254025
350.429796	2503.462206
350.820203	2498.453819
351.210548	2499.575476
351.600828	2496.853253
351.991045	2493.813437
352.381198	2495.018273
352.771288	2496.666730
353.161314	2494.166318
353.551276	2495.643376
353.941175	2490.201451
354.331010	2492.101966
354.720782	2492.979126
355.110490	2493.321925
355.500135	2492.590958
355.889717	2494.073057
356.279235	2495.562718
356.668689	2493.019456
357.058080	2493.276554
357.447408	2494.418376
357.836672	2493.594147
358.225873	2495.015753
358.615010	2495.061123
359.004084	2494.088180
359.393095	2495.945845
359.782043	2495.262769
360.170927	2495.224960
360.559748	2494.637666
360.948505	2498.557163
361.337199	2497.059940
361.725830	2496.651607
362.114398	2500.951711
362.502903	2498.287461
362.891344	2497.102790
363.279722	2499.063799
363.668037	2502.418687
364.056289	2501.531444
364.444478	2499.414159
364.832603	2499.855260
365.220665	2501.133193
365.608665	2502.711074
365.996601	2504.712412
366.384474	2501.884325
366.772284	2504.354490
367.160031	2503.555467
367.547715	2505.670231
367.935336	2505.219048
368.322893	2502.927843
368.710388	2502.154026
369.097820	2505.118225
369.485189	2501.327277
369.872495	2505.660149
370.259738	2504.311640
370.646918	2507.364059
371.034035	2505.768534
371.421090	2509.020078
371.808081	2507.694254
372.195010	2507.134686
372.581875	2506.227279
372.968678	2507.810201
373.355418	2508.410098
373.742096	2508.498318
374.128710	2508.251302
374.515262	2508.329440
374.901751	2509.521673
375.288177	2508.810870
375.674540	2508.299193
376.060841	2509.980418
376.447079	2509.937568
376.833254	2510.431601
377.219367	2511.177692
377.605417	2511.195336
377.991404	2511.722136
378.377329	2509.509070
378.763191	2508.226096
379.148991	2514.404030
379.534727	2510.718947
379.920402	2512.329595
380.306013	2514.918228
380.691563	2513.695748
381.077049	2512.995028
381.462474	2510.010665
381.847835	2511.659122
382.233134	2511.117198
382.618371	2511.989318
383.003545	2514.169617
383.388657	2512.052332
383.773706	2513.751201
384.158693	2514.799761
384.543618	2516.211284
384.928480	2514.283043
385.313280	2512.092661
385.698017	2515.407220
386.082692	2515.210615
386.467305	2515.571057
386.851856	2516.906963
387.236344	2513.685666
387.620770	2515.994514
388.005133	2513.499143
388.389435	2516.463342
388.773674	2511.099554
389.157851	2519.298991
389.541965	2514.230110
389.926018	2516.480986
390.310008	2517.753877
390.693936	2517.801768
391.077802	2519.258661
391.461606	2519.926614
391.845348	2519.374608
392.229027	2517.297653
392.612645	2519.593898
392.996200	2517.799247
393.379694	2520.771007
393.763125	2520.657582
394.146494	2519.621624
394.529801	2518.736902
394.913047	2517.269926
395.296230	2522.837881
395.679351	2519.092303
396.062410	2520.632376
396.445408	2519.785462
396.828343	2521.217150
397.211217	2520.682787
397.594028	2521.592716
397.976778	2523.652027
398.359466	2524.047757
398.742092	2522.041378
399.124656	2523.397449
399.507158	2519.185565
399.889598	2523.626821
400.271977	2522.371574
400.654294	2523.420134
401.036549	2522.618590
401.418742	2524.168745
401.800874	2522.427027
402.182944	2522.316121
402.564952	2521.990967
402.946898	2523.226049
403.328783	2522.381656
403.710606	2523.278982
404.092367	2523.100021
404.474067	2522.462315
404.855705	2522.822757
405.237282	2523.205885
405.618797	2525.194620
406.000250	2525.610515
406.381642	2526.601102
406.762972	2524.511544
407.144240	2521.096162
407.525447	2522.419465
407.906593	2520.559279
408.287677	2524.904754
408.668700	2524.924918
409.049661	2524.927439
409.430560	2523.173117
409.811399	2526.820392
410.192176	2524.085566
410.572891	2526.243180
410.953545	2524.196472
411.334138	2528.141174
411.714669	2528.063037
412.095139	2525.655886
412.475547	2527.957172
412.855894	2529.197296
413.236180	2528.499096
413.616405	2528.340300
413.996568	2525.018180
414.376670	2529.575383
414.756711	2528.055475
415.136691	2528.524302
415.516609	2528.494055
415.896466	2530.318953
416.276262	2527.926925
416.655997	2529.048582
417.035670	2531.380116
417.415283	2530.823068
417.794834	2528.549508
418.174324	2531.249046
418.553753	2530.291227
418.933121	2532.353058
419.312428	2528.851977
419.691674	2531.296937
420.070859	2529.192255
420.449983	2531.428007
420.829045	2531.453212
421.208047	2531.027235
421.586988	2530.361803
421.965867	2532.610157
422.344686	2530.427338
422.723444	2532.537061
423.102141	2532.219468
423.480777	2532.743748
423.859352	2529.068747
424.237866	2531.783408
424.616319	2531.992616
424.994712	2532.201824
425.373044	2531.256608
425.751314	2532.910106
426.129524	2529.449354
426.507673	2530.891124
426.885762	2528.398273
427.263789	2532.743748
427.641756	2533.041176
428.019662	2533.348686
428.397508	2533.270548
428.775292	2534.051927
429.153016	2533.754499
429.530679	2532.620240
429.908282	2533.998995
430.285824	2536.529654
430.663305	2534.309026
431.040726	2531.680064
431.418086	2537.502597
431.795385	2534.760209
432.172624	2535.922195
432.549802	2530.787780
432.926920	2532.912627
433.303977	2533.152081
433.680974	2537.109387
434.057910	2533.361289
434.434786	2534.440096
434.811601	2534.210724
435.188355	2534.798018
435.565050	2534.175436
435.941683	2532.627801
436.318257	2537.474871
436.694770	2535.097967
437.071222	2535.652494
437.447614	2534.760209
437.823946	2535.302133
438.200218	2535.712988
438.576429	2537.623585
438.952580	2538.316743
439.328670	2539.022505
439.704700	2537.353883
440.080670	2534.513193
440.456580	2537.764737
440.832429	2539.390509
441.208218	2540.295396
441.583947	2538.289017
441.959616	2536.653163
442.335224	2535.433203
442.710773	2534.437576
443.086261	2534.177956
443.461689	2538.452855
443.837057	2541.258257
444.212365	2533.436907
444.587612	2533.759540
444.962800	2535.655014
445.337927	2535.171063
445.712995	2531.362472
446.088002	2536.922864
446.462949	2535.090405
446.837837	2538.296579
447.212664	2535.614685
447.587431	2536.383461
447.962139	2537.321116
448.336786	2540.522248
448.711374	2539.841693
449.085901	2539.577032
449.460369	2538.795653
449.834776	2540.076106
450.209124	2536.416228
450.583412	2539.206507
450.957640	2537.036290
451.331808	2537.595858
451.705917	2536.451517
452.079965	2541.129707
452.453954	2540.933102
452.827883	2540.449152
453.201752	2538.450334
453.575562	2539.254398
453.949311	2541.162475
454.323001	2540.320602
454.696632	2538.573842
455.070202	2541.278421
455.443713	2542.478216
455.817164	2540.567619
456.190556	2538.198276
456.563888	2541.122146
456.937160	2539.380427
457.310373	2539.161137
457.683526	2540.486960
458.056619	2539.146013
458.429653	2541.996786
458.802628	2539.478729
459.175542	2539.113246
459.548398	2539.602238
459.921194	2541.333874
460.293930	2542.052238
460.666607	2542.218597
461.039224	2542.626930
461.411782	2540.391178
461.784280	2543.509132
462.156719	2541.858154
462.529099	2542.395037
462.901419	2541.159954
463.273680	2540.292876
463.645882	2536.108718
464.018024	2538.954449
464.390106	2534.919006
464.762130	2539.380427
465.134094	2541.575849
465.505999	2543.030222
465.877845	2540.449152
466.249631	2543.264636
466.621358	2540.804553
466.993026	2541.401930
467.364634	2545.835624
467.736184	2541.739687
468.107674	2542.289173
468.479105	2540.610468
468.850477	2541.452341
469.221790	2542.417722
469.593043	2540.678524
469.964238	2541.911086
470.335373	2540.698689
470.706449	2543.062990
471.077467	2542.097609
471.448425	2544.746735
471.819324	2540.287835
472.190164	2544.751776
472.560945	2541.759852
472.931667	2545.192877
473.302330	2543.292362
473.672934	2543.246992
474.043479	2542.863864
474.413965	2543.292362
474.784393	2544.686241
475.154761	2545.707075
475.525070	2544.497198
475.895321	2545.371838
476.265513	2541.976621
476.635645	2542.589121
477.005719	2543.141128
477.375734	2544.025850
477.745691	2544.267826
478.115588	2543.700696
478.485427	2543.478885
478.855207	2546.191026
479.224928	2545.671787
479.594591	2544.466951
479.964194	2546.460727
480.333739	2544.655994
480.703226	2541.777496
481.072653	2545.878474
481.442022	2545.820501
481.811333	2543.443597
482.180584	2540.247505
482.549777	2540.292876
482.918912	2538.984696
483.287988	2546.286808
483.657005	2545.984338
484.025964	2543.806560
484.394864	2543.488967
484.763706	2543.612476
485.132489	2542.629451
485.501213	2544.655994
485.869879	2545.596170
486.238487	2545.288659
486.607036	2543.541899
486.975527	2544.509801
487.343959	2544.587939
487.712333	2544.744215
488.080648	2544.030891
488.448905	2545.875954
488.817104	2544.953423
489.185244	2544.993752
489.553326	2544.870243
489.921350	2546.521221
490.289315	2549.215718
490.657222	2545.523073
491.025070	2548.210008
491.392861	2545.979297
491.760593	2547.103475
492.128267	2545.331509
492.495883	2541.598535
492.863440	2546.395192
493.230939	2544.812270
493.598380	2547.156407
493.965763	2547.383259
494.333088	2545.704554
494.700354	2547.289997
495.067563	2547.398382
495.434713	2544.315717
495.801805	2548.467107
496.168839	2544.971067
496.535815	2546.722868
496.902733	2544.373690
497.269593	2544.658515
497.636395	2547.272353
498.003139	2545.374359
498.369825	2545.190357
498.736453	2544.555171
499.103023	2545.223124
499.469535	2545.127342
499.835989	2547.010213
500.202385	2545.192877
500.568723	2543.907383
500.935003	2543.728422
501.301226	2539.249357
501.667390	2545.976777
502.033497	2548.197405
502.399546	2546.185985
502.765537	2544.741694
503.131470	2548.167158
503.497345	2546.702703
503.863163	2546.848896
504.228923	2544.489636
504.594625	2548.149514
504.960269	2546.438042
505.325856	2546.619524
505.691385	2545.021478
506.056856	2546.385110
506.422270	2545.170192
506.787625	2546.382590
507.152924	2547.345450
507.518164	2547.473999
507.883347	2545.359235
508.248472	2548.288146
508.613540	2547.269833
508.978550	2546.538865
509.343503	2545.959133
509.708398	2545.351674
510.073236	2548.527601
510.438016	2548.767055
510.802738	2546.881664
511.167403	2543.483926
511.532010	2548.467107
511.896561	2549.538352
512.261053	2548.951057
512.625488	2547.658002
512.989866	2548.184802
513.354186	2547.060625
513.718449	2547.055584
514.082655	2544.782023
514.446803	2550.276881
514.810894	2547.098433
515.174927	2547.337888
515.538904	2550.400389
515.902822	2547.461397
516.266684	2547.733619
516.630488	2545.679349
516.994235	2546.473330
517.357925	2548.716644
517.721558	2549.515667
518.085133	2548.376366
518.448651	2546.523742
518.812112	2543.713299
519.175516	2546.506098
519.538863	2542.014430
519.902152	2546.170861
520.265385	2548.719164
520.628560	2549.021634
520.991678	2546.798485
521.354739	2546.977446
521.717743	2546.798485
522.080690	2548.514998
522.443580	2547.975594
522.806413	2546.667415
523.169189	2548.172199
523.531908	2547.519370
523.894569	2546.422919
524.257174	2550.750749
524.619722	2550.412992
524.982213	2550.092879
525.344647	2550.415513
525.707025	2544.678680
526.069345	2547.161448
526.431608	2547.960471
526.793815	2549.099772
527.155964	2549.099772
527.518057	2545.366797
527.880093	2549.661860
528.242072	2547.461397
528.603995	2549.508105
528.965860	2547.635316
529.327669	2549.041798
529.689421	2547.123639
530.051117	2551.310318
530.412755	2548.983825
530.774337	2544.809750
531.135862	2546.372507
531.497331	2550.342416
531.858743	2547.705893
532.220098	2550.125646
532.581396	2548.923331
532.942638	2546.584236
533.303824	2546.228834
533.664953	2550.292004
534.026025	2547.640357
534.387040	2548.767055
534.747999	2548.706562
535.108902	2552.353836
535.469748	2545.578526
535.830537	2549.858465
536.191270	2547.209339
536.551947	2548.457024
536.912567	2544.960984
537.273131	2547.791592
537.633638	2544.557692
537.994089	2548.232693
538.354483	2550.357539
538.714821	2551.055739
539.075103	2548.850234
539.435328	2547.161448
539.795497	2546.591798
540.155609	2549.298897
540.515665	2550.165976
540.875665	2549.087169
541.235609	2549.462735
541.595496	2550.443239
541.955328	2547.060625
542.315102	2548.562889
542.674821	2548.396531
543.034483	2553.162942
543.394090	2551.053219
543.753640	2550.816284
544.113134	2551.733774
544.472571	2547.557178
544.831953	2550.498692
545.191278	2549.359391
545.550548	2549.520708
545.909761	2549.830739
546.268918	2546.987528
546.628019	2547.128680
546.987064	2550.039947
547.346053	2549.220759
547.704986	2547.393341
548.063863	2554.599670
548.422684	2548.580533
548.781449	2550.279402
549.140158	2548.537683
549.498811	2552.547921
549.857408	2547.441232
550.215949	2550.302087
550.574434	2550.607077
550.932864	2551.698486
551.291237	2548.877961
551.649555	2550.228990
552.007817	2550.715461
552.366022	2551.612787
552.724173	2550.294525
553.082267	2547.955430
553.440305	2548.270502
553.798288	2551.784186
554.156215	2551.885009
554.514086	2545.512991
554.871902	2546.546427
555.229661	2545.828063
555.587365	2543.945192
555.945014	2549.979453
556.302606	2547.703372
556.660143	2549.404761
557.017625	2549.954247
557.375050	2550.037426
557.732421	2550.723023
558.089735	2547.894936
558.446994	2549.785368
558.804197	2549.999618
559.161345	2550.443239
559.518437	2549.114895
559.875474	2551.136398
560.232455	2548.451983
560.589381	2551.484237
560.946251	2553.719989
561.303065	2550.627241
561.659825	2551.511964
562.016528	2549.747560
562.373177	2552.815102
562.729770	2549.981973
563.086307	2549.082127
563.442789	2546.720347
563.799216	2550.360060
564.155587	2550.228990
564.511904	2546.795964
564.868164	2548.444422
565.224370	2546.508618
565.580520	2551.879968
565.936615	2552.091696
566.292654	2547.718495
566.648638	2551.451470
567.004567	2548.699000
567.360441	2550.128167
567.716260	2549.581202
568.072023	2549.896274
568.427732	2550.455842
568.783385	2548.946016
569.138982	2549.515667
569.494525	2550.982642
569.850013	2549.412323
570.205445	2548.555327
570.560823	2548.144473
570.916145	2551.151521
571.271412	2548.293187
571.626625	2549.855945
571.981782	2546.692621
572.336884	2548.877961
572.691931	2544.794626
573.046923	2548.081458
573.401860	2545.497867
573.756743	2548.759494
574.111570	2548.862837
574.466342	2550.400389
574.821059	2550.818805
575.175722	2548.923331
575.530330	2548.172199
575.884882	2551.925338
576.239380	2549.588763
576.593823	2551.973229
576.948211	2551.300235
577.302544	2551.280071
577.656823	2551.224618
578.011047	2550.624721
578.365216	2550.949875
578.719330	2548.202446
579.073389	2550.682694
579.427394	2550.211346
579.781344	2551.547252
580.135239	2553.046995
580.489080	2550.612118
580.842866	2550.014741
581.196597	2553.916594
581.550273	2551.910215
581.903895	2549.407282
582.257463	2551.648075
582.610975	2551.305276
582.964434	2550.652447
583.317837	2548.888043
583.671186	2550.649926
584.024481	2549.266130
584.377721	2551.116233
584.730906	2551.746377
585.084037	2552.666388
585.437113	2550.276881
585.790135	2550.798640
586.143103	2550.503733
586.496016	2553.977088
586.848874	2551.945503
587.201679	2552.500030
587.554428	2552.343754
587.907124	2551.343085
588.259765	2550.801161
588.612352	2550.944834
588.964884	2550.896943
589.317362	2551.874927
589.669786	2549.208156
590.022155	2548.242775
590.374470	2548.600697
590.726731	2547.481561
591.078937	2546.087682
591.431090	2553.949362
591.783188	2549.971891
592.135232	2550.002138
592.487222	2550.488609
592.839157	2552.706717
593.191038	2550.639844
593.542866	2547.642878
593.894639	2552.164793
594.246358	2551.297715
594.598022	2550.912066
594.949633	2550.213867
595.301190	2549.397200
595.652692	2551.259906
596.004141	2552.623538
596.355535	2552.888199
596.706876	2551.587581
597.058162	2551.247303
597.409395	2550.937272
597.760573	2553.009186
598.111698	2552.137067
598.462768	2551.824515
598.813785	2554.425751
599.164748	2548.141952
599.515657	2552.386604
599.866511	2550.060111
600.217312	2549.858465
600.568060	2550.302087
600.918753	2552.086655
601.269392	2551.723692
601.619978	2550.569268
601.970510	2551.088507
602.320988	2548.406613
602.671412	2551.610266
603.021783	2550.980122
603.372100	2550.602035
603.722363	2549.442570
604.072572	2551.007848
604.422728	2552.462221
604.772830	2549.649257
605.122878	2549.593805
605.472872	2551.030533
605.822813	2555.333158
606.172701	2549.119936
606.522534	2555.275185
606.872314	2552.489947
607.222041	2552.479865
607.571714	2548.464586
607.921333	2547.030378
608.270899	2549.908877
608.620411	2549.664381
608.969870	2553.823333
609.319276	2558.123437
609.668627	2557.306770
610.017926	2563.971175
610.367171	2567.089129
610.716362	2565.183573
611.065500	2562.179045
611.414585	2558.945145
611.763616	2559.965979
612.112594	2556.167469
612.461518	2555.537325
612.810389	2554.692932
613.159207	2554.967675
613.507971	2553.614125
613.856682	2554.014897
614.205340	2553.530946
614.553945	2553.813250
614.902496	2550.967519
615.250994	2550.561706
615.599439	2550.944834
615.947830	2549.351829
616.296169	2550.944834
616.644454	2551.456511
616.992686	2552.933569
617.340864	2554.201419
617.688990	2550.551624
618.037063	2550.090358
618.385082	2550.947354
618.733048	2551.214536
619.080961	2550.851573
619.428821	2552.673950
619.776628	2554.869372
620.124382	2554.725699
620.472083	2554.337530
620.819731	2552.139587
621.167326	2552.857952
621.514868	2551.809392
621.862357	2550.153373
622.209793	2554.108158
622.557176	2551.965667
622.904506	2551.827036
623.251783	2548.913249
623.599007	2550.806202
623.946179	2553.228477
624.293297	2551.990873
624.640363	2550.806202
624.987376	2548.600697
625.334336	2549.525749
625.681243	2548.484751
626.028097	2546.828732
626.374899	2553.054557
626.721647	2550.390307
627.068343	2551.033054
627.414987	2551.524567
627.761577	2549.001469
628.108115	2550.717982
628.454600	2551.083466
628.801032	2551.184289
629.147412	2554.168652
629.493739	2551.448949
629.840014	2552.079093
630.186236	2552.825184
630.532405	2552.326110
630.878521	2552.782334
631.224585	2549.770245
631.570597	2552.406768
631.916556	2548.280584
632.262462	2551.166645
632.608316	2548.978784
632.954117	2550.501212
633.299866	2552.142108
633.645562	2549.208156
633.991206	2551.680842
634.336797	2549.654298
634.682336	2549.029195
635.027823	2548.628424
635.373257	2551.774104
635.718639	2550.297046
636.063968	2550.261757
636.409245	2547.814277
636.754470	2551.607746
637.099642	2548.260419
637.444762	2550.977601
637.789829	2548.663712
638.134845	2551.121274
638.479808	2550.312169
638.824719	2548.550286
639.169577	2550.899463
639.514383	2553.314176
639.859137	2548.419216
640.203839	2548.595656
640.548489	2550.347457
640.893086	2548.487271
641.237632	2548.139432
641.582125	2550.062632
641.926566	2550.125646
642.270955	2547.035419
642.615292	2548.104144
642.959576	2546.556509
643.303809	2543.804039
643.647990	2548.353681
643.992118	2549.924000
644.336195	2548.333516
644.680219	2549.492982
645.024192	2552.258054
645.368112	2551.368291
645.711981	2551.421223
646.055797	2549.871068
646.399562	2552.515153
646.743274	2549.034237
647.086935	2551.532128
647.430544	2547.930224
647.774101	2550.496171
648.117606	2548.416695
648.461059	2549.661860
648.804460	2552.449618
649.147810	2552.358878
649.491108	2551.585060
649.834354	2549.014072
650.177548	2549.924000
650.520690	2550.052550
650.863781	2549.971891
651.206820	2551.370811
651.549807	2550.838970
651.892742	2550.362581
652.235626	2551.524567
652.578458	2549.568599
652.921238	2552.744526
653.263967	2551.360729
653.606644	2550.523898
653.949269	2549.349309
654.291843	2550.755791
654.634365	2549.550955
654.976836	2550.836449
655.319255	2548.767055
655.661622	2549.160265
656.003938	2550.423074
656.346203	2548.623382
656.688416	2551.504402
657.030577	2548.709082
657.372687	2550.604556
657.714746	2546.705223
658.056753	2550.259237
658.398708	2549.326623
658.740612	2550.400389
659.082465	2549.931562
659.424266	2546.647250
659.766016	2546.243958
660.107715	2549.175389
660.449362	2547.887374
660.790958	2549.712272
661.132503	2550.634803
661.473996	2552.177396
661.815438	2549.871068
662.156829	2548.933413
662.498168	2551.353167
662.839456	2549.369473
663.180693	2553.447767
663.521879	2549.341747
663.863013	2549.918959
664.204097	2550.652447
664.545129	2548.242775
664.886110	2551.701007
665.227040	2550.692776
665.567918	2550.206305
665.908746	2549.490461
666.249522	2549.417364
666.590248	2550.581871
666.930922	2550.070194
667.271545	2549.470296
667.612118	2549.987015
667.952639	2551.948023
668.293109	2548.641027
668.633528	2546.969884
668.973896	2550.365101
669.314213	2550.125646
669.654480	2549.717313
669.994695	2552.016079
670.334859	2548.935934
670.674973	2547.317724
671.015035	2550.254196
671.355047	2548.333516
671.695008	2550.065153
672.034918	2548.076417
672.374777	2548.497354
672.714585	2549.266130
673.054342	2548.028526
673.394049	2550.307128
673.733705	2548.903167
674.073310	2550.891902
674.412864	2550.778476
674.752368	2551.985832
675.091820	2551.559855
675.431223	2548.809905
675.770574	2551.864844
676.109875	2549.898794
676.449125	2547.733619
676.788324	2542.483257
677.127473	2548.091541
677.466571	2542.432846
677.805619	2548.736808
678.144616	2547.048022
678.483562	2552.792417
678.822458	2552.172355
679.161303	2548.983825
679.500098	2547.804195
679.838842	2548.784699
680.177535	2552.610935
680.516179	2552.822664
680.854771	2546.669935
681.193314	2550.375183
681.531805	2549.987015
681.870247	2551.169165
682.208638	2549.520708
682.546978	2545.780172
682.885268	2549.949206
683.223508	2549.064483
683.561697	2548.739329
683.899836	2550.513815
684.237925	2548.167158
684.575963	2548.956099
684.913951	2547.579864
685.251889	2551.587581
685.589776	2549.084648
685.927614	2548.242775
686.265401	2548.018444
686.603137	2549.795451
686.940824	2549.278732
687.278460	2549.094730
687.616046	2550.105482
687.953582	2547.836963
688.291068	2550.428116
688.628504	2549.848383
688.965889	2549.036757
689.303224	2549.752601
689.640510	2547.398382
689.977745	2549.939124
690.314930	2548.298228
690.652065	2550.942313
690.989150	2551.610266
691.326185	2548.726726
691.663170	2548.323434
692.000105	2548.504915
692.336990	2551.287632
692.673825	2551.461552
693.010610	2547.408464
693.347345	2547.030378
693.684030	2545.202960
694.020665	2547.048022
694.357251	2544.605583
694.693786	2549.833259
695.030272	2550.004659
695.366707	2552.250493
695.703093	2549.248486
696.039429	2547.355532
696.375716	2551.111192
696.711952	2550.395348
697.048139	2546.569112
697.384276	2547.163968
697.720363	2549.893753
698.056400	2551.262427
698.392388	2549.288815
698.728326	2547.693290
699.064214	2548.462066
699.400053	2547.884853
699.735842	2548.116747
700.071581	2550.589433
700.407270	2550.730585
700.742910	2547.569781
701.078501	2548.341078
701.414042	2550.226469
701.749533	2548.273022
702.084974	2547.811757
702.420366	2549.707231
702.755709	2548.572971
703.091002	2551.035575
703.426246	2551.713610
703.761440	2550.591953
704.096584	2549.147662
704.431679	2548.696479
704.766725	2547.612631
705.101721	2549.147662
705.436668	2548.651109
705.771565	2546.390151
706.106413	2547.433670
706.441212	2550.246634
706.775961	2549.238403
707.110661	2549.881150
707.445311	2548.353681
707.779913	2551.537169
708.114465	2550.705379
708.448967	2547.017775
708.783421	2549.245965
709.117825	2548.608259
709.452180	2547.950388
709.786485	2549.301418
710.120742	2549.213197
710.454949	2545.886036
710.789107	2545.681869
711.123216	2546.269164
711.457275	2548.366284
711.791286	2548.502395
712.125247	2548.701520
712.459159	2550.244113
712.793023	2551.519525
713.126837	2549.067004
713.460602	2549.094730
713.794318	2545.553320
714.127985	2550.138249
714.461602	2550.503733
714.795171	2549.137580
715.128691	2551.484237
715.462162	2547.353012
715.795584	2551.161603
716.128957	2549.288815
716.462281	2547.300080
716.795556	2549.377035
717.128782	2548.772097
717.461960	2547.274874
717.795088	2547.408464
718.128167	2551.363250
718.461198	2549.392158
718.794180	2548.414175
719.127113	2549.682025
719.459997	2548.477189
719.792833	2549.576161
720.125619	2548.638506
720.458357	2544.812270
720.791046	2549.921480
721.123686	2549.636654
721.456278	2544.040974
721.788821	2548.194884
722.121315	2544.290511
722.453761	2548.988866
722.786158	2552.678991
723.118506	2549.530790
723.450805	2548.336037
723.783056	2546.869061
724.115259	2547.753783
724.447412	2549.203115
724.779518	2545.298742
725.111574	2549.072045
725.443582	2549.548434
725.775542	2548.958619
726.107453	2549.924000
726.439315	2547.146324
726.771129	2548.396531
727.102895	2544.716488
727.434612	2547.738660
727.766281	2543.095757
728.097901	2549.661860
728.429473	2550.743188
728.760996	2546.690100
729.092471	2546.369987
729.423897	2547.862168
729.755276	2545.114739
730.086606	2548.729247
730.417887	2548.124308
730.749120	2549.460214
731.080305	2549.273691
731.411442	2548.895605
731.742530	2546.483413
732.073570	2548.361243
732.404562	2548.240255
732.735506	2547.499205
733.066401	2549.397200
733.397249	2546.221273
733.728048	2548.426777
734.058798	2549.707231
734.389501	2546.836293
734.720156	2548.648588
735.050762	2547.433670
735.381320	2548.600697
735.711831	2547.254709
736.042293	2546.599359
736.372707	2548.474668
736.703073	2546.929555
737.033391	2547.484082
737.363661	2546.493495
737.693883	2546.322096
738.024056	2545.616334
738.354182	2547.814277
738.684260	2550.879299
739.014290	2543.824204
739.344272	2548.565409
739.674207	2551.539690
740.004093	2548.310831
740.333931	2551.073383
740.663722	2548.240255
740.993464	2545.238248
741.323159	2548.129349
741.652806	2549.049360
741.982405	2550.062632
742.311956	2547.113557
742.641460	2548.444422
742.970915	2546.506098
743.300323	2546.465769
743.629683	2543.604914
743.958996	2547.847045
744.288260	2544.509801
744.617477	2546.942158
744.946647	2548.875440
745.275768	2548.986346
745.604842	2545.374359
745.933869	2546.332178
746.262847	2546.702703
746.591778	2548.237734
746.920662	2547.622713
747.249498	2546.669935
747.578286	2547.932744
747.907027	2546.803526
748.235720	2546.793444
748.564365	2545.187836
748.892963	2549.712272
749.221514	2548.020965
749.550017	2545.855789
749.878473	2548.323434
750.206881	2548.930893
750.535242	2546.974925
750.863555	2546.241437
751.191821	2547.249668
751.520039	2543.670449
751.848210	2547.375697
752.176334	2549.240924
752.504411	2548.772097
752.832440	2547.521890
753.160421	2548.210008
753.488356	2547.158927
753.816243	2545.843186
754.144082	2545.238248
754.471875	2547.584905
754.799620	2547.539534
755.127318	2545.875954
755.454969	2548.285625
755.782572	2551.189330
756.110129	2546.967363
756.437638	2548.915769
756.765100	2547.771427
757.092515	2546.969884
757.419882	2548.663712
757.747203	2547.728578
758.074477	2547.658002
758.401703	2549.555996
758.728882	2546.823691
759.056014	2547.264792
759.383099	2547.940306
759.710138	2544.325799
760.037129	2542.934440
760.364073	2545.205480
760.690970	2541.366642
761.017820	2549.810574
761.344623	2545.669266
761.671379	2547.620193
761.998088	2544.595501
762.324751	2549.162786
762.651366	2546.669935
762.977935	2545.208001
763.304456	2548.935934
763.630931	2547.451314
763.957359	2546.392672
764.283740	2549.525749
764.610074	2548.081458
764.936362	2548.194884
765.262602	2547.156407
765.588796	2550.244113
765.914943	2548.583053
766.241044	2547.577343
766.567097	2545.845707
766.893104	2547.504246
767.219064	2547.143804
767.544978	2547.630275
767.870845	2548.933413
768.196665	2546.044832
768.522438	2545.142466
768.848165	2548.693959
769.173846	2546.526262
769.499479	2546.296890
769.825066	2547.675646
770.150607	2548.129349
770.476101	2545.449976
770.801548	2546.256561
771.126949	2545.293700
771.452303	2543.761190
771.777611	2546.685059
772.102872	2543.829245
772.428087	2546.548948
772.753256	2544.265305
773.078378	2548.575492
773.403453	2547.594987
773.728482	2547.564740
774.053465	2545.288659
774.378401	2546.553989
774.703291	2546.417878
775.028135	2547.161448
775.352932	2545.964174
775.677683	2549.354350
776.002388	2544.282949
776.327046	2541.323792
776.651658	2546.382590
776.976224	2543.584749
777.300743	2545.903680
777.625216	2546.740512
777.949643	2546.097764
778.274024	2547.237065
778.598359	2546.876623
778.922647	2545.379400
779.246889	2547.423588
779.571086	2545.626417
779.895236	2546.533824
780.219339	2546.924514
780.543397	2545.034081
780.867409	2546.909390
781.191374	2544.582898
781.515294	2547.368135
781.839167	2549.142621
782.162995	2548.043650
782.486776	2548.202446
782.810511	2546.526263
783.134201	2547.355532
783.457844	2549.742519
783.781441	2547.378218
784.104993	2547.136242
784.428498	2544.020809
784.751958	2547.355532
785.075372	2548.744370
785.398739	2546.848896
785.722061	2548.459545
786.045337	2546.238917
786.368568	2543.614996
786.691752	2545.747404
787.014891	2544.446787
787.337983	2544.845038
787.661030	2547.574822
787.984031	2546.985007
788.306987	2546.702703
788.629897	2547.274874
788.952760	2545.868392
789.275579	2545.704554
789.598351	2544.822352
789.921078	2546.816129
790.243759	2545.250851
790.566395	2546.052394
790.888984	2547.078269
791.211529	2548.648588
791.534027	2547.012734
791.856480	2549.379556
792.178888	2544.416540
792.501249	2540.544933
792.823566	2543.478885
793.145836	2539.985365
793.468062	2548.789741
793.790241	2546.286808
794.112375	2547.206818
794.434464	2546.422919
794.756507	2549.455173
795.078505	2547.680687
795.400457	2546.133053
795.722364	2545.281097
796.044226	2546.117929
796.366042	2545.238248
796.687812	2547.272353
797.009538	2545.732281
797.331218	2546.301931
797.652852	2547.098433
797.974442	2548.383928
798.295986	2544.063659
798.617484	2542.745397
798.938938	2544.842517
799.260346	2544.444266
799.581709	2545.626417
799.903026	2544.061138
800.224299	2547.995759
800.545526	2545.775131
800.866708	2548.308310
801.187845	2544.524924
801.508936	2548.436860
801.829983	2548.819988
802.150984	2543.292362
802.471940	2547.201777
802.792851	2548.489792
803.113717	2544.925696
803.434538	2546.254040
803.755314	2544.441745
804.076045	2543.693134
804.396731	2546.750594
804.717372	2544.529966
805.037967	2545.777651
805.358518	2547.300080
805.679024	2546.289328
805.999485	2548.270502
806.319901	2545.311344
806.640272	2547.746222
806.960598	2543.856972
807.280879	2545.386962
807.601115	2547.100954
807.921306	2545.376879
808.241453	2542.810932
808.561554	2545.087013
808.881611	2543.153731
809.201623	2540.199614
809.521590	2545.581046
809.841513	2542.654656
810.161390	2544.900490
810.481223	2544.935778
810.801011	2547.824360
811.120755	2544.897970
811.440453	2546.007024
811.760107	2547.045501
812.079716	2546.153217
812.399281	2546.145655
812.718801	2545.928886
813.038276	2546.037271
813.357707	2545.271015
813.677093	2545.097095
813.996434	2544.161961
814.315731	2544.235058
814.634983	2544.335881
814.954191	2544.903011
815.273354	2546.256561
815.592473	2546.985007
815.911547	2547.219421
816.230577	2547.456355
816.549562	2544.285470
816.868502	2544.608103
817.187399	2545.654143
817.506250	2546.095244
817.825058	2546.561551
818.143821	2546.803526
818.462539	2546.430481
818.781213	2544.509801
819.099843	2548.575492
819.418429	2546.904349
819.736970	2544.817311
820.055466	2545.732281
820.373919	2544.237579
820.692327	2546.306972
821.010691	2544.340922
821.329011	2543.667928
821.647286	2549.987015
821.965517	2548.136911
822.283704	2552.346275
822.601847	2550.841490
822.919945	2552.172355
823.237999	2549.956768
823.556010	2552.343754
823.873976	2550.692776
824.191897	2544.232538
824.509775	2544.522404
824.827609	2545.013916
825.145398	2542.198432
825.463144	2544.716488
825.780845	2545.510470
826.098502	2546.304452
826.416116	2545.122301
826.733685	2546.856458
827.051210	2548.514998
827.368692	2549.533311
827.686129	2548.734288
828.003522	2546.110367
828.320872	2543.720860
828.638177	2544.426622
828.955439	2545.399565
829.272656	2544.822353
829.589830	2544.751776
829.906960	2548.310831
830.224046	2545.933927
830.541088	2547.426108
830.858086	2547.035419
831.175041	2545.381921
831.491952	2543.012578
831.808819	2546.052394
832.125642	2544.973587
832.442421	2547.842004
832.759157	2544.192208
833.075849	2547.287477
833.392497	2546.001983
833.709101	2547.219421
834.025662	2547.282436
834.342179	2545.318906
834.658653	2548.038609
834.975083	2544.366128
835.291469	2553.384752
835.607811	2547.438711
835.924110	2544.507280
836.240366	2545.321427
836.556578	2545.558361
836.872746	2545.165151
837.188871	2545.034081
837.504952	2546.496016
837.820990	2543.267157
838.136984	2543.350336
838.452935	2546.667415
838.768842	2545.520552
839.084706	2546.886705
839.400526	2544.552651
839.716303	2545.137425
840.032037	2542.894111
840.347727	2543.811601
840.663373	2541.722043
840.978977	2541.830428
841.294537	2545.452497
841.610054	2545.654143
841.925527	2543.088196
842.240957	2545.208001
842.556344	2543.090716
842.871687	2547.466438
843.186987	2543.420912
843.502244	2545.646581
843.817458	2543.209183
844.132629	2543.751107
844.447756	2545.984338
844.762840	2544.963505
845.077881	2545.994421
845.392879	2544.058618
845.707833	2544.189688
846.022745	2545.507949
846.337613	2546.248999
846.652438	2545.177754
846.967221	2545.349153
847.281960	2544.834955
847.596656	2544.726571
847.911309	2545.293700
848.225919	2543.824204
848.540485	2547.385779
848.855009	2543.325130
849.169490	2544.958464
849.483928	2544.882846
849.798323	2545.422250
850.112675	2547.600028
850.426984	2545.475182
850.741251	2543.753628
851.055474	2543.869574
851.369654	2545.545758
851.683792	2543.448638
851.997887	2543.267157
852.311938	2544.371169
852.625947	2545.996941
852.939914	2544.293031
853.253837	2545.512991
853.567718	2543.347815
853.881555	2542.851261
854.195350	2546.425439
854.509103	2542.200953
854.822812	2546.155738
855.136479	2544.928217
855.450103	2544.313196
855.763685	2542.967208
856.077224	2540.358411
856.390720	2539.720705
856.704173	2541.109543
857.017584	2543.977959
857.330953	2543.829245
857.644278	2546.649771
857.957561	2543.972918
858.270802	2542.707588
858.584000	2545.185316
858.897155	2544.066179
859.210268	2544.688762
859.523339	2544.787064
859.836367	2546.440563
860.149352	2545.069369
860.462295	2543.234389
860.775195	2543.448638
861.088054	2542.843700
861.400869	2544.595501
861.713642	2543.607434
862.026373	2543.806560
862.339062	2545.636499
862.651708	2545.336550
862.964312	2543.683052
863.276873	2542.904193
863.589392	2547.131201
863.901869	2544.068700
864.214303	2542.047197
864.526696	2545.268495
864.839045	2545.228165
865.151353	2543.093237
865.463619	2545.417209
865.775842	2547.050542
866.088023	2546.478372
866.400162	2543.201622
866.712258	2542.899152
867.024313	2543.667928
867.336325	2542.087527
867.648296	2542.700027
867.960224	2542.165664
868.272110	2542.803370
868.583954	2542.589121
868.895755	2543.196580
869.207515	2543.854451
869.519233	2544.275387
869.830909	2544.111550
870.142542	2544.416540
870.454134	2541.517876
870.765684	2544.358566
871.077191	2545.328988
871.388657	2541.878319
871.700081	2540.025695
872.011463	2540.809594
872.322803	2540.154244
872.634101	2546.773279
872.945357	2543.546941
873.256571	2545.407126
873.567744	2542.200953
873.878874	2544.671118
874.189963	2542.808412
874.501010	2542.654656
874.812015	2546.221273
875.122979	2543.937630
875.433900	2542.939482
875.744780	2544.076262
876.055618	2545.598690
876.366415	2544.721529
876.677169	2544.751776
876.987882	2546.511139
877.298554	2543.463762
877.609183	2546.231355
877.919771	2543.957795
878.230317	2545.437373
878.540822	2544.867723
878.851285	2544.540048
879.161707	2544.950902
879.472087	2546.279246
879.782425	2545.823022
880.092722	2544.971067
880.402977	2545.823022
880.713191	2544.325799
881.023363	2545.996941
881.333494	2546.160779
881.643583	2544.499719
881.953631	2542.379913
882.263637	2546.848896
882.573602	2546.435522
882.883526	2546.380069
883.193408	2545.623896
883.503248	2543.398227
883.813048	2547.007693
884.122806	2542.931920
884.432522	2543.274718
884.742197	2545.790254
885.051831	2544.837476
885.361424	2545.144986
885.670975	2543.204142
885.980485	2540.693647
886.289954	2546.322096
886.599382	2543.123484
886.908768	2541.099460
887.218113	2540.673483
887.527417	2541.643905
887.836680	2540.365973
888.145901	2545.782692
888.455082	2543.133566
888.764221	2547.675646
889.073319	2542.599204
889.382376	2543.453679
889.691392	2543.899821
890.000366	2543.640202
890.309300	2543.960315
890.618193	2543.919986
890.927044	2544.149358
891.235855	2542.997455
891.544625	2542.573998
891.853353	2543.246992
892.162041	2541.371683
892.470687	2543.584749
892.779293	2541.674152
893.087858	2542.599204
893.396381	2542.773123
893.704864	2543.390665
894.013306	2544.741694
894.321707	2543.582229
894.630068	2545.926365
894.938387	2543.627599
895.246665	2544.913093
895.554903	2544.426622
895.863100	2544.877805
896.171256	2545.442414
896.479371	2544.966025
896.787446	2543.557023
897.095480	2543.133566
897.403473	2542.793288
897.711425	2542.863864
898.019336	2542.621889
898.327207	2545.132383
898.635038	2541.205325
898.942827	2543.758669
899.250576	2544.913093
899.558284	2544.623227
899.865952	2543.168854
900.173579	2544.033412
900.481165	2542.750438
900.788711	2543.055428
901.096216	2543.899821
901.403681	2543.887218
901.711105	2545.061807
902.018489	2540.807073
902.325832	2542.004348
902.633135	2538.362114
902.940397	2542.122815
903.247619	2538.044521
903.554800	2544.744215
903.861941	2543.524255
904.169041	2545.928886
904.476101	2542.387475
904.783121	2544.535007
905.090100	2546.095244
905.397039	2542.505942
905.703938	2545.397044
906.010796	2544.424101
906.317614	2544.008206
906.624391	2541.976621
906.931129	2543.758669
907.237826	2544.308155
907.544483	2545.568443
907.851099	2541.661549
908.157675	2544.071221
908.464211	2543.040305
908.770707	2542.326981
909.077163	2543.834286
909.383578	2543.962836
909.689954	2543.957795
909.996289	2545.840666
910.302584	2542.566436
910.608839	2542.566436
910.915054	2542.062321
911.221229	2542.291693
911.527363	2542.271529
911.833458	2544.103988
912.139513	2544.272867
912.445527	2542.884029
912.751502	2543.189019
913.057436	2545.006355
913.363331	2544.575336
913.669186	2546.417878
913.975000	2543.471323
914.280775	2542.397557
914.586510	2542.455531
914.892205	2541.966539
915.197859	2542.200953
915.503475	2543.710778
915.809050	2543.574667
916.114585	2543.529297
916.420081	2543.919986
916.725536	2545.092054
917.030952	2545.076931
917.336328	2543.151210
917.641665	2543.219266
917.946961	2540.628112
918.252218	2540.159285
918.557435	2538.336908
918.862612	2540.101312
919.167750	2543.718340
919.472848	2542.730274
919.777906	2541.167516
920.082925	2544.040974
920.387904	2543.834286
920.692843	2542.372352
920.997743	2542.601724
921.302603	2545.969215
921.607423	2543.199101
921.912204	2544.567774
922.216946	2540.398740
922.521647	2543.710778
922.826310	2540.960829
923.130932	2542.407640
923.435516	2541.664070
923.740059	2542.601724
924.044564	2544.545089
924.349028	2543.436035
924.653454	2540.980993
924.957840	2540.920499
925.262186	2540.955787
925.566493	2542.377393
925.870761	2542.737835
926.174989	2543.703216
926.479178	2541.767413
926.783328	2542.102650
927.087438	2541.129707
927.391509	2545.616334
927.695541	2542.826056
927.999533	2544.136756
928.303486	2541.679193
928.607400	2540.111394
928.911275	2539.516538
929.215110	2543.209183
929.518906	2541.449821
929.822663	2540.416384
930.126381	2539.239275
930.430060	2542.921838
930.733699	2538.941847
931.037299	2541.928730
931.340861	2540.698689
931.644383	2542.979811
931.947866	2539.153575
932.251309	2543.579708
932.554714	2542.684903
932.858080	2540.101312
933.161407	2537.313554
933.464694	2539.435880
933.767943	2537.008564
934.071153	2539.483771
934.374323	2539.282124
934.677455	2541.797660
934.980548	2542.727753
935.283602	2542.584080
935.586617	2542.432846
935.889593	2543.592311
936.192530	2541.162475
936.495428	2541.389327
936.798287	2542.851261
937.101108	2540.307999
937.403890	2542.563916
937.706632	2542.594162
938.009336	2542.405119
938.312002	2540.912938
938.614628	2544.736653
938.917216	2541.606096
939.219765	2545.906201
939.522275	2542.621889
939.824747	2541.618699
940.127179	2542.926879
940.429573	2540.391178
940.731929	2539.443441
941.034246	2541.943854
941.336524	2542.132897
941.638763	2543.405788
941.940964	2544.078782
942.243126	2541.598535
942.545250	2544.167003
942.847335	2540.887732
943.149381	2543.282280
943.451389	2538.720036
943.753359	2540.028215
944.055290	2540.842362
944.357182	2543.816642
944.659036	2541.870757
944.960851	2544.701365
945.262628	2541.149872
945.564367	2542.095088
945.866067	2541.868236
946.167729	2538.737680
946.469352	2545.981818
946.770937	2539.375386
947.072484	2540.885211
947.373992	2541.394368
947.675462	2540.867567
947.976893	2539.710622
948.278286	2537.666435
948.579641	2539.907227
948.880958	2535.866743
949.182236	2541.835469
949.483476	2541.033925
949.784678	2538.941847
950.085841	2541.757331
950.386967	2543.688093
950.688054	2541.119625
950.989103	2538.790612
951.290114	2540.980993
951.591087	2543.441076
951.892021	2543.151210
952.192917	2542.826056
952.493776	2541.941333
952.794596	2542.432846
953.095378	2541.865716
953.396122	2542.316899
953.696828	2540.968390
953.997496	2542.223638
954.298126	2540.141641
954.598718	2540.010571
954.899272	2540.129038
955.199788	2539.952598
955.500266	2541.782537
955.800706	2540.630633
956.101108	2542.906714
956.401472	2543.272198
956.701798	2543.945192
957.002087	2540.865047
957.302337	2539.314892
957.602550	2542.775644
957.902724	2541.759852
958.202861	2540.421425
958.502960	2540.796991
958.803022	2540.222300
959.103045	2541.011240
959.403031	2540.900335
959.702979	2541.843031
960.002889	2539.569470
960.302762	2541.928730
960.602596	2541.724563
960.902393	2542.004347
961.202153	2541.865716
961.501875	2542.387475
961.801559	2540.129038
962.101205	2538.036959
962.400814	2542.019471
962.700385	2539.813966
962.999918	2539.559388
963.299414	2537.164840
963.598873	2541.144831
963.898293	2536.844727
964.197677	2540.267670
964.497022	2541.192722
964.796331	2540.310520
965.095601	2542.004348
965.394835	2540.388658
965.694030	2541.054090
965.993189	2540.345808
966.292309	2538.747762
966.591393	2542.198432
966.890439	2540.716333
967.189447	2543.728422
967.488419	2541.159954
967.787353	2536.922864
968.086249	2540.789429
968.385108	2540.786909
968.683930	2542.014430
968.982714	2540.378575
969.281462	2541.409491
969.580172	2541.381765
969.878844	2541.906045
970.177480	2541.270860
970.476078	2541.212886
970.774639	2541.228010
971.073162	2541.228010
971.371649	2540.255067
971.670098	2541.101981
971.968510	2542.074924
972.266885	2542.170706
972.565223	2542.853782
972.863524	2541.348998
973.161788	2540.222300
973.460014	2541.263298
973.758204	2541.326312
974.056356	2540.454193
974.354471	2539.312371
974.652550	2539.435880
974.950591	2544.890408
975.248595	2539.506456
975.546563	2539.060314
975.844493	2542.972249
976.142386	2539.836651
976.440243	2544.013247
976.738062	2540.194573
977.035845	2540.965870
977.333590	2541.036446
977.631299	2541.485109
977.928971	2538.059645
978.226606	2534.288862
978.524204	2535.705426
978.821765	2536.138965
979.119290	2543.289842
979.416777	2540.983514
979.714228	2540.960829
980.011642	2543.148689
980.309020	2542.306817
980.606360	2540.670962
980.903664	2536.506969
981.200931	2539.733308
981.498162	2540.655839
981.795356	2540.572660
982.092513	2540.350849
982.389633	2540.577701
982.686717	2541.228010
982.983764	2542.271529
983.280775	2540.434028
983.577749	2540.882691
983.874686	2539.660211
984.171587	2538.170550
984.468451	2542.629451
984.765279	2543.693134
985.062070	2538.697351
985.358824	2541.069213
985.655543	2540.330684
985.952224	2541.805222
986.248869	2542.821014
986.545478	2542.642053
986.842050	2539.761034
987.138586	2539.287166
987.435086	2543.597352
987.731549	2538.798174
988.027975	2541.648946
988.324366	2540.446631
988.620719	2542.579039
988.917037	2541.782537
989.213318	2542.702547
989.509563	2539.425797
989.805772	2540.728936
990.101944	2543.340253
990.398080	2538.457896
990.694180	2542.304296
990.990244	2539.806404
991.286271	2540.358411
991.582262	2540.975952
991.878217	2541.696837
992.174136	2540.212217
992.470019	2539.060314
992.765865	2537.351363
993.061676	2536.272556
993.357450	2538.909079
993.653188	2535.150899
993.948890	2540.799512
994.244556	2541.291024
994.540186	2539.680376
994.835780	2539.022505
995.131337	2539.561908
995.426859	2540.562578
995.722345	2538.410005
996.017795	2541.797660
996.313208	2542.001827
996.608586	2540.396219
996.903928	2538.891435
997.199234	2541.359080
997.494504	2539.430838
997.789738	2540.524769
998.084936	2541.711961
998.380099	2539.723225
998.675225	2541.361600
998.970316	2538.462937
999.265371	2540.212217
999.560390	2539.201466
999.855373	2540.544933
1000.150320	2542.231199
1000.445232	2539.390509
1000.740108	2539.962680
1001.034948	2539.433359
1001.329752	2540.602907
1001.624521	2541.170037
1001.919254	2539.718184
1002.213951	2538.253729
1002.508613	2538.762886
1002.803239	2539.574511
1003.097829	2540.383617
1003.392384	2538.752803
1003.686903	2538.430169
1003.981386	2542.558874
1004.275834	2538.155427
1004.570246	2540.343287
1004.864623	2540.776827
1005.158964	2540.721374
1005.453270	2544.716488
1005.747540	2539.133410
1006.041775	2539.927392
1006.335974	2539.642567
1006.630138	2538.425128
1006.924266	2539.529141
1007.218359	2538.329346
1007.512416	2536.733821
1007.806438	2537.255581
1008.100425	2536.302802
1008.394376	2536.575025
1008.688292	2539.153575
1008.982172	2541.187681
1009.276017	2541.046528
1009.569827	2541.036446
1009.863602	2541.603576
1010.157341	2539.879501
1010.451045	2541.122146
1010.744714	2537.512679
1011.038347	2540.129038
1011.331945	2541.525438
1011.625508	2540.434028
1011.919036	2538.672145
1012.212528	2539.007382
1012.505986	2540.078627
1012.799408	2542.629451
1013.092795	2542.392516
1013.386147	2539.834131
1013.679464	2538.500746
1013.972745	2543.229348
1014.265992	2539.244316
1014.559204	2537.106867
1014.852380	2538.747762
1015.145521	2539.927392
1015.438628	2539.753472
1015.731699	2542.384955
1016.024736	2537.487474
1016.317737	2539.589635
1016.610703	2539.014943
1016.903635	2540.771785
1017.196531	2538.102494
1017.489393	2540.502084
1017.782219	2540.539892
1018.075011	2542.200952
1018.367768	2543.015099
1018.660490	2540.169368
1018.953177	2540.169368
1019.245829	2540.169368
