Dividing Wavelength (nm)	Counts (n)	Blue Motor Position (mm): 39.400000	Red Motor Position (mm): 0.000000	
326.493990	2246.370921
326.888308	2246.370921
327.282561	2246.370921
327.676750	2205.454396
328.070874	2203.329550
328.464933	2203.886597
328.858929	2207.962370
329.252859	2212.496888
329.646726	2220.658516
330.040528	2236.311299
330.434265	2244.694738
330.827938	2265.381113
331.221547	2281.374173
331.615091	2299.232461
332.008571	2318.446818
332.401986	2335.543892
332.795338	2357.548528
333.188625	2376.205839
333.581847	2397.275341
333.975006	2414.732857
334.368100	2434.332863
334.761129	2452.425564
335.154095	2467.286886
335.546996	2493.463077
335.939833	2534.611495
336.332606	2549.979453
336.725315	2563.106618
337.117960	2573.050293
337.510540	2587.420102
337.903056	2595.929570
338.295508	2604.295365
338.687896	2617.223404
339.080220	2619.449073
339.472480	2629.080198
339.864676	2632.419962
340.256807	2640.160654
340.648875	2641.960346
341.040879	2645.968063
341.432818	2650.275729
341.824694	2652.879485
342.216506	2652.939979
342.608253	2652.435864
342.999937	2653.786893
343.391557	2651.793117
343.783113	2651.762870
344.174605	2651.956954
344.566033	2651.057108
344.957397	2649.970739
345.348697	2647.089720
345.739934	2646.852786
346.131106	2645.980666
346.522215	2645.411016
346.913260	2643.359266
347.304241	2641.262146
347.695159	2639.490181
348.086012	2637.337608
348.476802	2637.075468
348.867528	2630.637914
349.258191	2629.309570
349.648789	2629.080198
350.039324	2626.337810
350.429796	2628.145064
350.820203	2627.847636
351.210548	2624.699435
351.600828	2626.012656
351.991045	2621.266409
352.381198	2619.854886
352.771288	2623.693725
353.161314	2620.563168
353.551276	2619.386059
353.941175	2619.305401
354.331010	2617.503188
354.720782	2620.500154
355.110490	2618.163579
355.500135	2617.911522
355.889717	2617.936727
356.279235	2620.217849
356.668689	2620.631224
357.058080	2618.634927
357.447408	2618.319855
357.836672	2618.544186
358.225873	2620.517798
358.615010	2622.806482
359.004084	2623.547532
359.393095	2621.941924
359.782043	2623.638272
360.170927	2621.515947
360.559748	2624.618777
360.948505	2625.352265
361.337199	2626.158849
361.725830	2626.297481
362.114398	2623.870165
362.502903	2627.552728
362.891344	2627.283027
363.279722	2627.172121
363.668037	2628.767646
364.056289	2627.383850
364.444478	2627.104066
364.832603	2629.251597
365.220665	2629.478449
365.608665	2630.930301
365.996601	2633.244191
366.384474	2634.174284
366.772284	2632.820734
367.160031	2631.547843
367.547715	2635.185035
367.935336	2632.296454
368.322893	2635.958852
368.710388	2632.349386
369.097820	2634.436424
369.485189	2632.359468
369.872495	2636.578914
370.259738	2637.637557
370.646918	2639.074285
371.034035	2639.424646
371.421090	2640.311889
371.808081	2639.512866
372.195010	2640.465644
372.581875	2642.038484
372.968678	2641.456231
373.355418	2639.114615
373.742096	2643.739873
374.128710	2643.011427
374.515262	2641.942702
374.901751	2643.553351
375.288177	2643.898670
375.674540	2647.152734
376.060841	2645.509318
376.447079	2644.705254
376.833254	2645.360604
377.219367	2645.983187
377.605417	2647.682056
377.991404	2646.802374
378.377329	2648.672642
378.763191	2648.995276
379.148991	2648.959988
379.534727	2651.165493
379.920402	2648.110554
380.306013	2650.129536
380.691563	2651.775472
381.077049	2652.597181
381.462474	2652.980308
381.847835	2652.342602
382.233134	2652.617345
382.618371	2653.454177
383.003545	2653.144146
383.388657	2656.894764
383.773706	2656.279743
384.158693	2655.470638
384.543618	2657.645896
384.928480	2655.624393
385.313280	2660.022800
385.698017	2658.134888
386.082692	2657.749240
386.467305	2657.252686
386.851856	2661.136895
387.236344	2662.402225
387.620770	2660.443737
388.005133	2660.587409
388.389435	2660.421051
388.773674	2662.808038
389.157851	2667.536640
389.541965	2675.148782
389.926018	2675.942764
390.310008	2683.136491
390.693936	2693.014632
391.077802	2701.700540
391.461606	2714.232848
391.845348	2729.394118
392.229027	2751.363467
392.612645	2769.188987
392.996200	2802.992444
393.379694	2838.169615
393.763125	2882.062942
394.146494	2927.725713
394.529801	2981.073724
394.913047	3043.029505
395.296230	3084.734971
395.679351	3161.403359
396.062410	3226.056157
396.445408	3282.476751
396.828343	3357.993235
397.211217	3441.827624
397.594028	3466.057930
397.976778	3570.500555
398.359466	3653.891322
398.742092	3734.247314
399.124656	3760.751181
399.507158	3882.321126
399.889598	3981.959532
400.271977	4118.050521
400.654294	4175.837268
401.036549	4277.396353
401.418742	4296.088952
401.800874	4488.610617
402.182944	4596.899643
402.564952	4736.945417
402.946898	4848.236450
403.328783	4803.642403
403.710606	4868.769070
404.092367	5172.886758
404.474067	5249.285444
404.855705	5233.068053
405.237282	5227.515222
405.618797	5487.820242
406.000250	5526.921951
406.381642	5739.376339
406.762972	5805.470907
407.144240	5899.944651
407.525447	5925.929278
407.906593	6000.480382
408.287677	6174.117885
408.668700	6124.565863
409.049661	6269.234376
409.430560	6319.837478
409.811399	6210.782197
410.192176	6500.976218
410.572891	6517.405338
410.953545	6738.064204
411.334138	6491.650083
411.714669	6675.828639
412.095139	6489.283262
412.475547	6740.103351
412.855894	6819.728376
413.236180	6993.083574
413.616405	6700.714295
413.996568	6918.300578
414.376670	6949.160001
414.756711	6856.007039
415.136691	6956.129396
415.516609	7162.610016
415.896466	7162.748648
416.276262	7351.300405
416.655997	7336.759197
417.035670	7535.476440
417.415283	7868.807615
417.794834	7922.132940
418.174324	7777.872761
418.553753	7701.159002
418.933121	8021.272272
419.312428	8122.566696
419.691674	7898.530258
420.070859	8381.200574
420.449983	8056.061274
420.829045	8421.318076
421.208047	8199.356072
421.586988	8490.918767
421.965867	8514.581943
422.344686	8625.930949
422.723444	8659.532760
423.102141	8028.289558
423.480777	8780.984238
423.859352	8302.631671
424.237866	8922.255013
424.616319	8792.195765
424.994712	9203.480822
425.373044	8773.246067
425.751314	9226.639883
426.129524	9095.264893
426.507673	9219.501609
426.885762	9371.701605
427.263789	9282.241289
427.641756	9206.099701
428.019662	9301.952200
428.397508	9545.455055
428.775292	9238.794104
429.153016	9614.922155
429.530679	9450.383934
429.908282	9487.998504
430.285824	9205.426707
430.663305	9886.456345
431.040726	9341.074075
431.418086	9327.946910
431.795385	9652.430860
432.172624	9735.720804
432.549802	9650.258123
432.926920	9734.553777
433.303977	9613.152710
433.680974	9812.003544
434.057910	9902.678778
434.434786	9971.460281
434.811601	9808.706629
435.188355	10374.777794
435.565050	10105.421383
435.941683	10034.812461
436.318257	10520.515032
436.694770	10661.047277
437.071222	10727.537576
437.447614	10568.910108
437.823946	10460.923552
438.200218	10600.886147
438.576429	10415.207848
438.952580	10645.119752
439.328670	10702.873731
439.704700	10485.121090
440.080670	10487.182922
440.456580	11037.898733
440.832429	10796.356888
441.208218	10398.148584
441.583947	10717.636750
441.959616	10869.408248
442.335224	10678.250215
442.710773	10812.077726
443.086261	11019.770744
443.461689	10296.803747
443.837057	10957.378903
444.212365	11231.272353
444.587612	10869.773732
444.962800	11095.655233
445.337927	10854.557009
445.712995	10462.950096
446.088002	11537.280474
446.462949	11200.231449
446.837837	11176.739672
447.212664	11154.316619
447.587431	11681.991837
447.962139	12414.176583
448.336786	14675.708774
448.711374	15211.036463
449.085901	13060.712125
449.460369	12684.100124
449.834776	12126.997172
450.209124	13014.429292
450.583412	13433.792798
450.957640	14371.613772
451.331808	13494.205986
451.705917	12505.744101
452.079965	11795.236317
452.453954	12704.151314
452.827883	12335.191784
453.201752	12621.821710
453.575562	12143.731282
453.949311	12565.406157
454.323001	12538.720809
454.696632	12762.056528
455.070202	13046.317111
455.443713	13275.533335
455.817164	13737.938213
456.190556	13738.066762
456.563888	14095.504734
456.937160	14252.415689
457.310373	13605.396196
457.683526	13698.402963
458.056619	13240.840114
458.429653	13410.573243
458.802628	12814.454281
459.175542	13194.789174
459.548398	14149.626562
459.921194	14495.356454
460.293930	14559.018666
460.666607	15427.231387
461.039224	16475.453630
461.411782	17184.055858
461.784280	17027.091972
462.156719	17103.314218
462.529099	16779.231040
462.901419	15726.602829
463.273680	15495.609598
463.645882	15370.379774
464.018024	15105.575525
464.390106	15333.327294
464.762130	16046.186777
465.134094	16820.996999
465.505999	18840.558847
465.877845	22094.263213
466.249631	24922.968062
466.621358	24585.210754
466.993026	23159.537158
467.364634	22593.473555
467.736184	21125.877723
468.107674	20322.998356
468.479105	20439.935481
468.850477	19911.357898
469.221790	19500.672738
469.593043	18819.401125
469.964238	18257.375485
470.335373	17912.535357
470.706449	18371.945789
471.077467	17937.234490
471.448425	19781.825450
471.819324	23854.432490
472.190164	25799.085312
472.560945	22208.266386
472.931667	19864.157574
473.302330	19239.540969
473.672934	18807.486358
474.043479	19092.808104
474.413965	18904.306758
474.784393	18517.453653
475.154761	19240.957533
475.525070	19200.461944
475.895321	18881.871103
476.265513	19481.939810
476.635645	20067.616023
477.005719	19836.975673
477.375734	20031.072699
477.745691	20509.193373
478.115588	21059.052188
478.485427	21581.827404
478.855207	22669.078259
479.224928	24429.842393
479.594591	26664.356520
479.964194	26636.937684
480.333739	26866.405966
480.703226	26436.619874
481.072653	26137.182898
481.442022	26721.135036
481.811333	27629.210681
482.180584	27548.426191
482.549777	26593.722393
482.918912	26251.329744
483.287988	26366.429369
483.657005	26027.530240
484.025964	25801.747041
484.394864	25694.372985
484.763706	25361.853436
485.132489	24814.285826
485.501213	24983.303112
485.869879	24891.057558
486.238487	24720.578338
486.607036	24864.347004
486.975527	24582.488531
487.343959	24890.008998
487.712333	24817.824716
488.080648	24490.250539
488.448905	24973.808098
488.817104	24741.375618
489.185244	25418.712610
489.553326	25374.632761
489.921350	26399.171663
490.289315	28707.432830
490.657222	30462.933999
491.025070	30969.514508
491.392861	30716.771218
491.760593	29875.737878
492.128267	28969.703900
492.495883	27911.976562
492.863440	27040.827369
493.230939	26182.034043
493.598380	26023.192327
493.965763	25632.974252
494.333088	25154.583875
494.700354	25104.280722
495.067563	24961.414422
495.434713	24714.975095
495.801805	24874.441915
496.168839	24675.621328
496.535815	24527.567680
496.902733	24745.058181
497.269593	24425.975828
497.636395	24602.209525
498.003139	24549.342944
498.369825	24294.225272
498.736453	24498.407126
499.103023	24379.193920
499.469535	24377.784917
499.835989	24599.290697
500.202385	24617.254848
500.568723	24139.688701
500.935003	24361.801939
501.301226	24001.142669
501.667390	24845.866134
502.033497	25066.552726
502.399546	24795.331088
502.765537	24343.399207
503.131470	24744.017182
503.497345	24870.613158
503.863163	24107.939514
504.228923	24681.731206
504.594625	24897.842951
504.960269	24451.463901
505.325856	24936.705206
505.691385	24319.783922
506.056856	24937.960453
506.422270	24907.247223
506.787625	24459.345745
507.152924	24884.234356
507.518164	24922.216930
507.883347	24731.895728
508.248472	24405.720471
508.613540	25189.675347
508.978550	24990.869883
509.343503	24985.886703
509.708398	25213.731733
510.073236	25383.815223
510.438016	25593.549908
510.802738	25254.073567
511.167403	25518.943352
511.532010	25232.409208
511.896561	25996.154098
512.261053	25960.583717
512.625488	25789.880165
512.989866	25689.014238
513.354186	25532.867019
513.718449	25638.401054
514.082655	26024.286257
514.446803	25746.233855
514.810894	26229.877114
515.174927	25720.957510
515.538904	25755.544866
515.902822	26233.821817
516.266684	25995.155950
516.630488	25909.075727
516.994235	25858.805341
517.357925	26184.710896
517.721558	26351.774735
518.085133	26473.626985
518.448651	26355.205240
518.812112	26108.002179
519.175516	26321.250548
519.538863	26459.405890
519.902152	26261.172597
520.265385	26525.896188
520.628560	26313.230072
520.991678	26312.441132
521.354739	26389.432154
521.717743	26471.449206
522.080690	26240.093012
522.443580	26576.262357
522.806413	26550.887709
523.169189	26669.289289
523.531908	26715.206639
523.894569	26319.776011
524.257174	26421.670333
524.619722	26567.190800
524.982213	26265.374399
525.344647	26302.459647
525.707025	26467.413763
526.069345	26429.370695
526.431608	26400.384061
526.793815	26578.261174
527.155964	26057.726751
527.518057	26230.051034
527.880093	26152.896174
528.242072	26365.763937
528.603995	26083.295484
528.965860	25883.138991
529.327669	25913.022951
529.689421	25926.581134
530.051117	25752.167293
530.412755	25934.951970
530.774337	25722.391718
531.135862	25600.332781
531.497331	25803.196373
531.858743	25369.198397
532.220098	25838.275242
532.581396	25531.636977
532.942638	25445.145901
533.303824	25547.078031
533.664953	25554.312087
534.026025	25222.916716
534.387040	25461.617871
534.747999	25513.448494
535.108902	25680.600553
535.469748	25172.162379
535.830537	25339.034653
536.191270	25475.801157
536.551947	25313.455839
536.912567	24957.482322
537.273131	25360.946028
537.633638	25046.499016
537.994089	25257.811582
538.354483	24768.272694
538.714821	25271.760455
539.075103	25323.046634
539.435328	25093.926192
539.795497	24676.206102
540.155609	25049.594285
540.515665	25347.836508
540.875665	24571.145935
541.235609	24899.015019
541.595496	24838.369938
541.955328	25204.312337
542.315102	25132.735514
542.674821	24655.406301
543.034483	24535.847776
543.394090	24693.908113
543.753640	24503.208825
544.113134	25138.396730
544.472571	24721.783173
544.831953	25018.245869
545.191278	24659.814790
545.550548	24565.076386
545.909761	24752.118317
546.268918	25002.570402
546.628019	24966.478261
546.987064	24657.591641
547.346053	24404.129987
547.704986	24515.370609
548.063863	24670.882643
548.422684	24694.427352
548.781449	24206.594894
549.140158	24615.011535
549.498811	24184.706204
549.857408	23943.073618
550.215949	24341.924669
550.574434	24043.722775
550.932864	24248.471759
551.291237	24428.750983
551.649555	24271.900522
552.007817	24333.503422
552.366022	24193.155178
552.724173	24211.726789
553.082267	24173.587940
553.440305	24662.879811
553.798288	23902.857813
554.156215	24410.640638
554.514086	24524.739593
554.871902	23912.551952
555.229661	24184.063457
555.587365	24033.050653
555.945014	23924.633077
556.302606	24154.907944
556.660143	24119.929898
557.017625	24364.914852
557.375050	23882.168918
557.732421	24281.095587
558.089735	24089.277162
558.446994	24147.925946
558.804197	24182.278889
559.161345	24098.996507
559.518437	23875.297825
559.875474	24054.377254
560.232455	24234.049018
560.589381	24049.613364
560.946251	24040.607342
561.303065	24359.329253
561.659825	24444.355874
562.016528	24048.332911
562.373177	23791.642398
562.729770	24152.621781
563.086307	24008.901005
563.442789	24185.666544
563.799216	24015.459546
564.155587	24023.721997
564.511904	23991.511545
564.868164	23949.848929
565.224370	23907.004162
565.580520	23847.037117
565.936615	23959.699344
566.292654	23668.567668
566.648638	23922.629219
567.004567	23757.833900
567.360441	23695.941133
567.716260	23423.466768
568.072023	23739.257248
568.427732	23521.139124
568.783385	23284.986272
569.138982	23523.785729
569.494525	23564.273757
569.850013	23316.402743
570.205445	23417.503083
570.560823	23233.173292
570.916145	22989.269667
571.271412	23183.522968
571.626625	22926.928237
571.981782	23037.700032
572.336884	22853.924768
572.691931	22984.460406
573.046923	22714.652811
573.401860	22605.491665
573.756743	22628.081076
574.111570	22521.621989
574.466342	22445.122479
574.821059	22529.876878
575.175722	22234.760170
575.530330	22206.602806
575.884882	22220.206359
576.239380	22143.152323
576.593823	22016.730267
576.948211	22002.516733
577.302544	21848.544771
577.656823	21725.764949
578.011047	21827.535763
578.365216	21697.617666
578.719330	21562.928118
579.073389	21456.038012
579.427394	21612.626333
579.781344	21374.855271
580.135239	21264.431316
580.489080	21213.833255
580.842866	20983.717185
581.196597	21198.419927
581.550273	21161.271665
581.903895	21045.652801
582.257463	21350.506498
582.610975	20887.882330
582.964434	21204.116431
583.317837	20889.737474
583.671186	20987.677011
584.024481	20967.036007
584.377721	20738.270966
584.730906	20812.769137
585.084037	20800.917385
585.437113	20722.136753
585.790135	20933.056109
586.143103	20379.539938
586.496016	20402.131869
586.848874	20651.646299
587.201679	20561.568441
587.554428	20247.625544
587.907124	20585.902091
588.259765	20348.801502
588.612352	20417.368756
588.964884	19992.573407
589.317362	20155.624487
589.669786	20216.957685
590.022155	20231.904706
590.374470	20458.310487
590.726731	20224.136288
591.078937	20007.500263
591.431090	20098.500652
591.783188	19864.046669
592.135232	19826.041410
592.487222	19920.840308
592.839157	19935.552916
593.191038	19822.762139
593.542866	19709.454645
593.894639	19420.780532
594.246358	19642.737494
594.598022	19535.204642
594.949633	19287.502506
595.301190	19263.186501
595.652692	19437.270146
596.004141	19655.363064
596.355535	18982.295929
596.706876	19011.779117
597.058162	18897.964987
597.409395	19140.469693
597.760573	19190.863587
598.111698	18959.850192
598.462768	18917.761598
598.813785	18879.284991
599.164748	18687.257359
599.515657	18733.653618
599.866511	18526.762144
600.217312	18890.796466
600.568060	18403.823525
600.918753	18723.069716
601.269392	18610.377242
601.619978	18396.506290
601.970510	18593.716229
602.320988	18553.051761
602.671412	18753.414942
603.021783	18667.218772
603.372100	18381.539105
603.722363	18534.525521
604.072572	18484.880238
604.422728	18635.575450
604.772830	18379.986429
605.122878	18336.050253
605.472872	18320.367223
605.822813	18309.269123
606.172701	18290.067368
606.522534	18463.014233
606.872314	18494.740735
607.222041	18330.865426
607.571714	18550.584117
607.921333	18376.802941
608.270899	18447.852963
608.620411	18606.606459
608.969870	18399.712464
609.319276	18398.948729
609.668627	18426.856557
610.017926	18551.806596
610.367171	18673.532818
610.716362	18722.731959
611.065500	18540.332930
611.414585	18685.790383
611.763616	18673.931069
612.112594	18600.428525
612.461518	18567.071210
612.810389	18763.865253
613.159207	18617.137430
613.507971	18535.107774
613.856682	18792.284758
614.205340	18721.920333
614.553945	18869.858034
614.902496	18619.310167
615.250994	18828.361776
615.599439	18782.890568
615.947830	18765.203680
616.296169	18838.181943
616.644454	18799.639802
616.992686	18764.414739
617.340864	18979.714858
617.688990	18737.270646
618.037063	18906.139218
618.385082	18765.508670
618.733048	19035.396923
619.080961	18922.497762
619.428821	18953.077401
619.776628	18830.252208
620.124382	18762.191590
620.472083	18811.433581
620.819731	18816.351227
621.167326	18527.301548
621.514868	18556.096618
621.862357	18326.214962
622.209793	18328.891814
622.557176	18168.199994
622.904506	18006.444491
623.251783	17924.349301
623.599007	17673.904777
623.946179	17613.181559
624.293297	17551.389616
624.640363	17276.974406
624.987376	17317.606106
625.334336	17111.274200
625.681243	16965.335316
626.028097	16971.470401
626.374899	16891.260602
626.721647	16756.099705
627.068343	16593.192298
627.414987	16521.837286
627.761577	16494.960374
628.108115	16520.776123
628.454600	16251.291162
628.801032	16368.452619
629.147412	16290.047553
629.493739	16302.723534
629.840014	16110.635408
630.186236	16213.913527
630.532405	15971.565097
630.878521	16170.206723
631.224585	16086.266470
631.570597	15889.603497
631.916556	15918.527117
632.262462	15907.350879
632.608316	15815.115408
632.954117	15749.439256
633.299866	15751.276756
633.645562	15671.757595
633.991206	15435.985351
634.336797	15306.962059
634.682336	15276.788233
635.027823	15146.739066
635.373257	15020.211146
635.718639	14937.347180
636.063968	14876.991965
636.409245	14626.933090
636.754470	14651.997707
637.099642	14506.724256
637.444762	14275.940233
637.789829	14319.793231
638.134845	14150.891892
638.479808	14179.208053
638.824719	14104.634264
639.169577	13961.185711
639.514383	14010.783103
639.859137	13845.115664
640.203839	13935.029684
640.548489	13779.961271
640.893086	13755.378084
641.237632	13633.445176
641.582125	13785.685501
641.926566	13608.188995
642.270955	13626.758085
642.615292	13576.492740
642.959576	13588.969596
643.303809	13617.825160
643.647990	13552.542218
643.992118	13616.516981
644.336195	13381.269016
644.680219	13612.713430
645.024192	13511.539993
645.368112	13756.403959
645.711981	13804.173933
646.055797	13988.846522
646.399562	13965.813490
646.743274	14230.786618
647.086935	14496.543646
647.430544	14469.376868
647.774101	14509.728784
648.117606	14638.747034
648.461059	14624.785559
648.804460	14606.387868
649.147810	14334.674717
649.491108	14244.221293
649.834354	14259.254014
650.177548	13942.566209
650.520690	13746.301487
650.863781	13667.485567
651.206820	13713.985170
651.549807	13553.411817
651.892742	13341.212008
652.235626	13280.052729
652.578458	13283.319397
652.921238	12981.240856
653.263967	13177.714786
653.606644	13001.937313
653.949269	12979.252120
654.291843	12779.244342
654.634365	12942.509671
654.976836	12795.192032
655.319255	12794.110704
655.661622	12757.776588
656.003938	12672.286180
656.346203	12600.752207
656.688416	12683.094414
657.030577	12635.911735
657.372687	12545.123075
657.714746	12518.367151
658.056753	12721.230743
658.398708	12527.794108
658.740612	12533.911548
659.082465	12643.234011
659.424266	12608.152621
659.766016	12632.430818
660.107715	12542.826829
660.449362	12627.094757
660.790958	12575.337230
661.132503	12515.481090
661.473996	12592.305754
661.815438	12598.602155
662.156829	12629.781692
662.498168	12593.203079
662.839456	12602.990480
663.180693	12617.680402
663.521879	12714.241183
663.863013	12681.793797
664.204097	12660.583142
664.545129	12783.521761
664.886110	12758.847833
665.227040	12846.304291
665.567918	12836.010254
665.908746	12876.445349
666.249522	12871.106767
666.590248	12911.433478
666.930922	13026.893545
667.271545	12997.430521
667.612118	13092.635232
667.952639	12987.859891
668.293109	13011.613808
668.633528	12959.861322
668.973896	12934.426180
669.314213	13002.527128
669.654480	12745.052716
669.994695	12827.689830
670.334859	12853.669416
670.674973	12799.330819
671.015035	12825.244870
671.355047	12774.510698
671.695008	12746.681008
672.034918	12753.594951
672.374777	12802.499184
672.714585	12706.742467
673.054342	12742.927869
673.394049	12697.333153
673.733705	12790.405456
674.073310	12699.198380
674.412864	12704.640306
674.752368	12563.349366
675.091820	12600.679111
675.431223	12579.796131
675.770574	12446.893671
676.109875	12371.112526
676.449125	12321.933550
676.788324	12275.383535
677.127473	12112.581992
677.466571	12096.959457
677.805619	11987.493321
678.144616	11921.673496
678.483562	11887.257539
678.822458	11762.385638
679.161303	11743.498955
679.500098	11722.018598
679.838842	11678.210971
680.177535	11709.105683
680.516179	11776.589088
680.854771	11720.463402
681.193314	11931.478540
681.531805	12092.147675
681.870247	12526.180939
682.208638	12940.543621
682.546978	13242.672573
682.885268	13270.897994
683.223508	12974.831028
683.561697	12824.884428
683.899836	12727.489336
684.237925	12518.757840
684.575963	12429.781475
684.913951	12353.234074
685.251889	12310.008700
685.589776	12409.793300
685.927614	12323.861791
686.265401	12287.817541
686.603137	12344.732168
686.940824	12491.192811
687.278460	12623.702060
687.616046	12665.125221
687.953582	12825.996002
688.291068	12766.986776
688.628504	12991.403822
688.965889	13003.951254
689.303224	12963.730408
689.640510	12847.735978
689.977745	12528.081454
690.314930	12312.420892
690.652065	12222.859753
690.989150	11926.208014
691.326185	11706.479241
691.663170	11497.682211
692.000105	11266.391552
692.336990	11142.023766
692.673825	10883.488191
693.010610	10771.473752
693.347345	10558.512729
693.684030	10364.531649
694.020665	10303.402618
694.357251	10105.451630
694.693786	10035.654334
695.030272	9879.479388
695.366707	9769.378067
695.703093	9705.163850
696.039429	9699.174959
696.375716	9611.819324
696.711952	9479.867122
697.048139	9527.236325
697.384276	9480.025919
697.720363	9504.538529
698.056400	9435.290720
698.392388	9386.971260
698.728326	9346.944498
699.064214	9283.438563
699.400053	9320.196136
699.735842	9140.809197
700.071581	9102.745965
700.407270	9026.077577
700.742910	8955.783728
701.078501	8849.049898
701.414042	8716.563333
701.749533	8670.676231
702.084974	8524.039148
702.420366	8643.685893
702.755709	8519.318107
703.091002	8385.483034
703.426246	8414.177282
703.761440	8363.785908
704.096584	8334.819438
704.431679	8262.335207
704.766725	8246.684945
705.101721	8196.054117
705.436668	8243.793843
705.771565	8137.667473
706.106413	8222.189979
706.441212	8257.725072
706.775961	8211.903504
707.110661	8260.159949
707.445311	8390.519147
707.779913	8291.989795
708.114465	8415.571161
708.448967	8460.150084
708.783421	8610.832693
709.117825	8784.462635
709.452180	8820.857245
709.786485	8910.196573
710.120742	9198.303557
710.454949	9197.479328
710.789107	9299.406418
711.123216	9525.781952
711.457275	9697.062715
711.791286	9842.976393
712.125247	9845.892700
712.459159	9831.134722
712.793023	10062.193488
713.126837	9643.825610
713.460602	9797.898395
713.794318	9626.514288
714.127985	9654.444801
714.461602	9312.921751
714.795171	9269.063713
715.128691	9021.732102
715.462162	8772.552909
715.795584	8717.604332
716.128957	8559.677585
716.462281	8391.116523
716.795556	8437.089326
717.128782	8236.998368
717.461960	7974.870971
717.795088	8044.020478
718.128167	7953.819112
718.461198	7789.651417
718.794180	7728.764361
719.127113	7722.404945
719.459997	7558.275058
719.792833	7334.992272
720.125619	7405.165134
720.458357	7255.049654
720.791046	7248.922132
721.123686	7240.072386
721.456278	7070.997127
721.788821	7093.979748
722.121315	6994.825293
722.453761	7066.797846
722.786158	7007.261819
723.118506	7016.789600
723.450805	6976.641851
723.783056	7036.177878
724.115259	6955.229550
724.447412	6959.897658
724.779518	7008.895153
725.111574	7003.861561
725.443582	7085.142605
725.775542	7060.813997
726.107453	7255.825992
726.439315	7165.969945
726.771129	7238.398723
727.102895	7414.455980
727.434612	7517.771908
727.766281	7557.612147
728.097901	7626.925491
728.429473	7632.130483
728.760996	7612.212884
729.092471	7591.622291
729.423897	7523.080243
729.755276	7530.768002
730.086606	7450.638862
730.417887	7553.710293
730.749120	7767.394723
731.080305	7956.034700
731.411442	8067.199704
731.742530	8051.667909
732.073570	8165.035897
732.404562	8252.711645
732.735506	8101.540044
733.066401	8243.451045
733.397249	8170.689551
733.728048	7921.933814
734.058798	7594.478105
734.389501	7365.942436
734.720156	7188.670261
735.050762	6956.436906
735.381320	6872.095882
735.711831	6816.607902
736.042293	6707.779472
736.372707	6720.246246
736.703073	6589.090546
737.033391	6625.890969
737.363661	6636.787423
737.693883	6673.751684
738.024056	6756.129179
738.354182	6793.988244
738.684260	6826.874211
739.014290	6951.536905
739.344272	7057.726290
739.674207	7083.887358
740.004093	7163.792167
740.333931	7170.910276
740.663722	7182.240269
740.993464	7256.746003
741.323159	7241.224290
741.652806	6993.635581
741.982405	7023.454006
742.311956	7063.062351
742.641460	6883.856894
742.970915	6699.214552
743.300323	6689.230547
743.629683	6646.746223
743.958996	6506.924780
744.288260	6416.526809
744.617477	6366.773141
744.946647	6359.415577
745.275768	6196.873653
745.604842	6155.493342
745.933869	6141.267206
746.262847	6099.657522
746.591778	6088.468681
746.920662	6041.580909
747.249498	6033.915835
747.578286	6086.376602
747.907027	6162.714795
748.235720	6218.374175
748.564365	6194.897521
748.892963	6235.473768
749.221514	6368.739191
749.550017	6190.050452
749.878473	6083.470377
750.206881	6140.984901
750.535242	6091.160657
750.863555	6014.393967
751.191821	6026.396954
751.520039	6022.981572
751.848210	5931.056132
752.176334	5960.357838
752.504411	6001.065156
752.832440	5931.739208
753.160421	5863.187078
753.488356	5909.298512
753.816243	5934.589981
754.144082	5791.829545
754.471875	5764.398106
754.799620	5807.787317
755.127318	5818.096477
755.454969	5773.862873
755.782572	5742.035548
756.110129	5788.363752
756.437638	5766.744763
756.765100	5705.741761
757.092515	5711.826433
757.419882	5765.275267
757.747203	5742.093521
758.074477	5799.718951
758.401703	5780.436537
758.728882	5741.901957
759.056014	5808.677081
759.383099	5922.503814
759.710138	5934.796668
760.037129	5921.125059
760.364073	5931.076296
760.690970	6009.320045
761.017820	5988.157281
761.344623	5948.344769
761.671379	6053.667076
761.998088	6175.849521
762.324751	6436.865344
762.651366	7061.918009
762.977935	8402.837206
763.304456	10057.963960
763.630931	10927.104254
763.957359	10488.586884
764.283740	9536.489363
764.610074	8671.427362
764.936362	7673.810743
765.262602	7085.916422
765.588796	6552.191821
765.914943	6222.180246
766.241044	6053.407456
766.567097	5838.046843
766.893104	5580.511937
767.219064	5404.283281
767.544978	5344.175083
767.870845	5264.260192
768.196665	5158.350591
768.522438	5091.088996
768.848165	5056.332760
769.173846	4982.353828
769.499479	4941.729689
769.825066	4890.166247
770.150607	4828.555786
770.476101	4808.063495
770.801548	4798.656702
771.126949	4718.784661
771.452303	4666.936393
771.777611	4628.865599
772.102872	4647.543074
772.428087	4610.057054
772.753256	4568.258327
773.078378	4521.305020
773.403453	4450.275163
773.728482	4435.958286
774.053465	4390.461872
774.378401	4378.136251
774.703291	4373.604254
775.028135	4298.652378
775.352932	4253.176130
775.677683	4240.376640
776.002388	4257.924897
776.327046	4268.642390
776.651658	4195.086914
776.976224	4133.796565
777.300743	4139.046927
777.625216	4158.548631
777.949643	4151.730470
778.274024	4114.398205
778.598359	4072.324735
778.922647	4097.399435
779.246889	4086.777723
779.571086	4082.785130
779.895236	4063.026327
780.219339	4052.661715
780.543397	4048.190211
780.867409	4097.288529
781.191374	4112.820324
781.515294	4046.771127
781.839167	4043.449006
782.162995	4064.435330
782.486776	4053.319585
782.810511	4059.883168
783.134201	4050.587280
783.457844	4006.179756
783.781441	3951.634471
784.104993	3954.543217
784.428498	3975.910147
784.751958	3973.765137
785.075372	3947.115077
785.398739	3912.910848
785.722061	3925.859052
786.045337	3976.227740
786.368568	4001.123478
786.691752	3910.135693
787.014891	3969.971668
787.337983	4097.275926
787.661030	4262.615690
787.984031	4423.478909
788.306987	4590.572995
788.629897	4672.824461
788.952760	4631.328203
789.275579	4559.622831
789.598351	4491.355525
789.921078	4344.289944
790.243759	4143.460457
790.566395	4137.501813
790.888984	4126.345740
791.211529	4017.260212
791.534027	3962.843477
791.856480	3938.860187
792.178888	3882.643760
792.501249	3833.706759
792.823566	3847.343080
793.145836	3874.953480
793.468062	3819.760407
793.790241	3776.383799
794.112375	3811.858398
794.434464	3875.631515
794.756507	3891.158269
795.078505	3873.531875
795.400457	3910.559150
795.722364	4057.332344
796.044226	4161.893436
796.366042	4233.976895
796.687812	4207.888924
797.009538	4209.549984
797.331218	4171.549767
797.652852	4147.206035
797.974442	4125.791213
798.295986	4119.918269
798.617484	4036.736710
798.938938	3957.653609
799.260346	3999.568282
799.581709	3988.291221
799.903026	3915.272628
800.224299	3881.161661
800.545526	3872.284189
800.866708	3834.432685
801.187845	3778.450672
801.508936	3812.589366
801.829983	3801.269455
802.150984	3726.239442
802.471940	3718.912124
802.792851	3730.395873
803.113717	3729.937128
803.434538	3729.473342
803.755314	3669.730628
804.076045	3645.855723
804.396731	3669.019825
804.717372	3692.708207
805.037967	3678.459385
805.358518	3664.530677
805.679024	3698.445040
805.999485	3708.252605
806.319901	3715.973132
806.640272	3725.821026
806.960598	3741.771237
807.280879	3718.949933
807.601115	3731.527612
807.921306	3742.698809
808.241453	3788.984163
808.561554	3757.613063
808.881611	3693.292981
809.201623	3732.969382
809.521590	3738.249991
809.841513	3714.569170
810.161390	3743.482708
810.481223	3719.776682
810.801011	3664.576048
811.120755	3662.221829
811.440453	3695.624514
811.760107	3698.195503
812.079716	3648.472082
812.399281	3627.561376
812.718801	3646.468223
813.038276	3621.035602
813.357707	3618.391517
813.677093	3633.313332
813.996434	3576.950712
814.315731	3594.425871
814.634983	3597.684977
814.954191	3608.004219
815.273354	3637.099239
815.592473	3631.720327
815.911547	3642.553767
816.230577	3691.064791
816.549562	3740.969693
816.868502	3777.253398
817.187399	3798.416162
817.506250	3798.658137
817.825058	3776.323305
818.143821	3869.970299
818.462539	3970.952173
818.781213	4015.939430
819.099843	4080.095674
819.418429	4336.030014
819.736970	4576.525820
820.055466	4829.649716
820.373919	5201.447415
820.692327	5615.016115
821.010691	6090.832982
821.329011	7536.126749
821.647286	10391.741277
821.965517	15076.699795
822.283704	19104.536348
822.601847	21164.152684
822.919945	19247.939531
823.237999	16620.669107
823.556010	14106.592752
823.873976	11963.600773
824.191897	9854.291263
824.509775	8512.641099
824.827609	7384.839201
825.145398	6852.793304
825.463144	6727.739921
825.780845	6845.181162
826.098502	7053.476597
826.416116	7981.152249
826.733685	9340.315381
827.051210	10435.299367
827.368692	10411.729452
827.686129	9108.490360
828.003522	7594.455419
828.320872	6574.239307
828.638177	5866.466348
828.955439	5294.587773
829.272656	4792.388027
829.589830	4518.960884
829.906960	4340.254501
830.224046	4152.075789
830.541088	4029.298487
830.858086	3979.660766
831.175041	3904.514806
831.491952	3885.544944
831.808819	3899.178745
832.125642	3979.461640
832.442421	4130.192140
832.759157	4417.963887
833.075849	4992.839428
833.392497	5879.533019
833.709101	6664.380179
834.025662	6980.838612
834.342179	6580.540749
834.658653	5901.726699
834.975083	5244.466101
835.291469	4666.870858
835.607811	4265.136267
835.924110	4118.423567
836.240366	3919.108947
836.556578	3714.407853
836.872746	3604.861060
837.188871	3564.685584
837.504952	3492.103051
837.820990	3412.225968
838.136984	3366.734596
838.452935	3396.961355
838.768842	3388.310735
839.084706	3413.551792
839.400526	3578.301741
839.716303	3935.144857
840.032037	4477.290706
840.347727	4723.440166
840.663373	4425.031585
840.978977	4031.904764
841.294537	3723.975963
841.610054	3498.311232
841.925527	3388.061198
842.240957	3321.180209
842.556344	3265.447733
842.871687	3204.822817
843.186987	3153.551762
843.502244	3121.248048
843.817458	3085.060125
844.132629	3055.150959
844.447756	3061.709500
844.762840	3045.892880
845.077881	3012.250740
845.392879	2998.715242
845.707833	2994.435302
846.022745	2992.529746
846.337613	2992.680981
846.652438	2978.263281
846.967221	2977.048363
847.281960	2962.504634
847.596656	2958.625466
847.911309	2960.548666
848.225919	2953.662450
848.540485	2948.974177
848.855009	2947.918055
849.169490	2937.175356
849.483928	2929.679161
849.798323	2928.418872
850.112675	2928.154212
850.426984	2939.000254
850.741251	2933.946497
851.055474	2921.134405
851.369654	2919.269178
851.683792	2921.421751
851.997887	2932.857608
852.311938	2934.627053
852.625947	2919.480906
852.939914	2924.973243
853.253837	2931.642690
853.567718	2914.366656
853.881555	2911.765420
854.195350	2929.787545
854.509103	2922.687080
854.822812	2920.516863
855.136479	2913.388672
855.450103	2917.459404
855.763685	2908.365162
856.077224	2907.246026
856.390720	2919.319589
856.704173	2930.382402
857.017584	2921.865372
857.330953	2919.548962
857.644278	2930.228646
857.957561	2939.338011
858.270802	2940.832713
858.584000	2938.027311
858.897155	2924.995929
859.210268	2924.627924
859.523339	2922.281267
859.836367	2921.207502
860.149352	2918.465114
860.462295	2912.720719
860.775195	2920.184147
861.088054	2917.169537
861.400869	2903.873494
861.713642	2901.642783
862.026373	2916.398241
862.339062	2919.130546
862.651708	2921.865372
862.964312	2926.296546
863.276873	2917.340937
863.589392	2930.863832
863.901869	2944.568208
864.214303	2967.467650
864.526696	2979.904176
864.839045	2976.715647
865.151353	2975.692292
865.463619	2973.469143
865.775842	2977.134062
866.088023	2996.539984
866.400162	3001.389574
866.712258	2971.767754
867.024313	2962.734006
867.336325	2971.087198
867.648296	2994.606702
867.960224	2986.228304
868.272110	2968.785912
868.583954	2972.213896
868.895755	2991.889520
869.207515	2974.973928
869.519233	2982.066831
869.830909	2993.984119
870.142542	3000.933350
870.454134	3001.689523
870.765684	3004.459637
871.077191	3004.182373
871.388657	3014.584794
871.700081	3027.535518
872.011463	3037.917775
872.322803	3039.127652
872.634101	3037.859802
872.945357	3054.301525
873.256571	3079.935792
873.567744	3071.859864
873.878874	3067.758885
874.189963	3090.675970
874.501010	3090.002976
874.812015	3077.435380
875.122979	3077.516038
875.433900	3077.332036
875.744780	3085.468458
876.055618	3094.081270
876.366415	3091.994232
876.677169	3101.027980
876.987882	3093.698142
877.298554	3091.923656
877.609183	3113.330916
877.919771	3133.235912
878.230317	3166.968793
878.540822	3219.006103
878.851285	3258.092690
879.161707	3304.050369
879.472087	3412.583890
879.782425	3652.840242
880.092722	4108.621043
880.402977	4651.334022
880.713191	5300.357374
881.023363	6503.393451
881.333494	7812.165210
881.643583	8342.391251
881.953631	8027.843416
882.263637	7356.397011
882.573602	6745.711634
882.883526	6156.725904
883.193408	5587.551909
883.503248	5125.998986
883.813048	4816.888035
884.122806	4494.365094
884.432522	4171.179242
884.742197	3935.427162
885.051831	3737.201431
885.361424	3610.118983
885.670975	3535.640976
885.980485	3444.915331
886.289954	3363.636807
886.599382	3318.889005
886.908768	3283.250568
887.218113	3238.596027
887.527417	3175.037159
887.836680	3126.526136
888.145901	3121.510188
888.455082	3108.446038
888.764221	3058.513409
889.073319	3031.883514
889.382376	3028.826054
889.691392	3033.123638
890.000366	3027.812782
890.309300	3017.962367
890.618193	3029.758667
890.927044	3045.534958
891.235855	3045.376162
891.544625	3033.584903
891.853353	3044.158723
892.162041	3065.767629
892.470687	3105.297837
892.779293	3157.718275
893.087858	3205.851212
893.396381	3281.586987
893.704864	3407.789753
894.013306	3659.212260
894.321707	3969.039055
894.630068	4171.453985
894.938387	4159.682890
895.246665	4115.141776
895.554903	3988.790296
895.863100	3784.484933
896.171256	3612.884056
896.479371	3469.435503
896.787446	3346.597707
897.095480	3241.789598
897.403473	3178.122346
897.711425	3142.078096
898.019336	3130.249028
898.327207	3097.980602
898.635038	3061.578430
898.942827	3048.209290
899.250576	3035.311498
899.558284	3004.021056
899.865952	2986.051863
900.173579	2965.766260
900.481165	2957.281998
900.788711	2945.127777
901.096216	2920.269847
901.403681	2911.619227
901.711105	2917.300607
902.018489	2913.176943
902.325832	2913.728950
902.633135	2923.723037
902.940397	2958.227215
903.247619	3049.993859
903.554800	3253.865682
903.861941	3614.507308
904.169041	4058.915266
904.476101	4353.364021
904.783121	4284.547230
905.090100	4028.333106
905.397039	3749.804315
905.703938	3494.910974
906.010796	3309.020946
906.317614	3196.648586
906.624391	3099.356837
906.931129	3026.565096
907.237826	2963.233081
907.544483	2916.564599
907.851099	2887.633417
908.157675	2863.657689
908.464211	2842.273115
908.770707	2829.166115
909.077163	2814.851758
909.383578	2804.338432
909.689954	2793.134467
909.996289	2790.986936
910.302584	2790.976854
910.608839	2792.050619
910.915054	2783.200874
911.221229	2776.160902
911.527363	2781.340688
911.833458	2787.695062
912.139513	2791.173459
912.445527	2795.939870
912.751502	2804.403967
913.057436	2812.348825
913.363331	2829.221567
913.669186	2848.740915
913.975000	2885.405227
914.280775	2951.877882
914.586510	3023.157276
914.892205	3101.910182
915.197859	3237.035790
915.503475	3441.419290
915.809050	3664.371881
916.114585	3806.025783
916.420081	3820.219152
916.725536	3759.788320
917.030952	3634.528250
917.336328	3500.541943
917.641665	3368.168804
917.946961	3268.931170
918.252218	3193.775128
918.557435	3112.572222
918.862612	3053.104251
919.167750	3003.504338
919.472848	2964.160653
919.777906	2936.812393
920.082925	2908.750810
920.387904	2877.576315
920.692843	2859.891947
920.997743	2848.821573
921.302603	2834.865139
921.607423	2823.305773
921.912204	2810.952426
922.216946	2800.318112
922.521647	2789.638427
922.826310	2782.021244
923.130932	2772.269132
923.435516	2765.826537
923.740059	2761.763367
924.044564	2751.328179
924.349028	2744.870461
924.653454	2738.226220
924.957840	2730.856053
925.262186	2729.487380
925.566493	2724.728530
925.870761	2720.516646
926.174989	2714.631099
926.479178	2711.467775
926.783328	2703.933771
927.087438	2702.428986
927.391509	2701.536702
927.695541	2698.373378
927.999533	2697.720549
928.303486	2695.225177
928.607400	2695.268027
928.911275	2690.715865
929.215110	2689.816019
929.518906	2688.911132
929.822663	2690.705783
930.126381	2688.701924
930.430060	2689.967254
930.733699	2692.036648
931.037299	2691.663602
931.340861	2696.019159
931.644383	2694.768953
931.947866	2692.513037
932.251309	2691.882892
932.554714	2691.098993
932.858080	2687.176975
933.161407	2688.298632
933.464694	2685.344516
933.767943	2679.683300
934.071153	2688.674198
934.374323	2683.617921
934.677455	2683.562468
934.980548	2681.722447
935.283602	2682.342509
935.586617	2681.694721
935.889593	2680.794875
936.192530	2684.636234
936.495428	2683.587674
936.798287	2683.738908
937.101108	2688.258303
937.403890	2691.996318
937.706632	2694.766432
938.009336	2702.015612
938.312002	2712.589432
938.614628	2722.482696
938.917216	2729.116855
939.219765	2726.765157
939.522275	2727.710373
939.824747	2723.029662
940.127179	2720.491441
940.429573	2717.466748
940.731929	2717.260061
941.034246	2714.270657
941.336524	2709.758824
941.638763	2707.240768
941.940964	2706.262784
942.243126	2703.553164
942.545250	2703.863195
942.847335	2699.321115
943.149381	2695.310877
943.451389	2692.999508
943.753359	2688.838036
944.055290	2691.083870
944.357182	2686.725792
944.659036	2684.006090
944.960851	2688.785103
945.262628	2683.481810
945.564367	2685.820905
945.866067	2684.041378
946.167729	2685.684794
946.469352	2685.037006
946.770937	2684.487520
947.072484	2682.846624
947.373992	2685.495751
947.675462	2680.346212
947.976893	2675.184070
948.278286	2675.237002
948.579641	2673.845644
948.880958	2673.016374
949.182236	2678.213804
949.483476	2675.022753
949.784678	2672.950839
950.085841	2675.809173
950.386967	2675.826817
950.688054	2674.339677
950.989103	2677.717250
951.290114	2677.616427
951.591087	2681.021727
951.892021	2683.141532
952.192917	2684.676563
952.493776	2688.684280
952.794596	2687.802078
953.095378	2687.824764
953.396122	2686.594722
953.696828	2687.292922
953.997496	2682.226562
954.298126	2678.670028
954.598718	2678.859072
954.899272	2673.565860
955.199788	2675.141221
955.500266	2672.300530
955.800706	2670.362207
956.101108	2667.645025
956.401472	2665.424397
956.701798	2665.862977
957.002087	2661.736792
957.302337	2660.103459
957.602550	2658.379384
957.902724	2658.674292
958.202861	2657.774446
958.502960	2656.602377
958.803022	2653.328148
959.103045	2655.952068
959.403031	2652.254382
959.702979	2652.319917
960.002889	2653.015596
960.302762	2651.213384
960.602596	2651.654485
960.902393	2649.907725
961.202153	2650.205153
961.501875	2649.615338
961.801559	2650.870585
962.101205	2649.665750
962.400814	2651.745226
962.700385	2650.416882
962.999918	2644.559061
963.299414	2644.773310
963.598873	2648.738177
963.898293	2645.010244
964.197677	2647.061994
964.497022	2645.584936
964.796331	2646.807415
965.095601	2647.571150
965.394835	2647.369504
965.694030	2647.455204
965.993189	2646.472179
966.292309	2647.245996
966.591393	2644.168371
966.890439	2644.546458
967.189447	2647.114926
967.488419	2646.068886
967.787353	2648.203815
968.086249	2645.237096
968.385108	2644.836324
968.683930	2644.332209
968.982714	2644.874133
969.281462	2645.980666
969.580172	2647.195584
969.878844	2647.089720
970.177480	2646.610810
970.476078	2645.630306
970.774639	2650.537869
971.073162	2647.082158
971.371649	2646.467138
971.670098	2647.755152
971.968510	2647.341778
972.266885	2647.293887
972.565223	2647.392189
972.863524	2648.816315
973.161788	2649.680873
973.460014	2647.775317
973.758204	2646.661222
974.056356	2647.049391
974.354471	2647.495533
974.652550	2646.593166
974.950591	2646.920841
975.248595	2647.639206
975.546563	2646.671304
975.844493	2647.704741
976.142386	2644.599390
976.440243	2644.022178
976.738062	2645.945378
977.035845	2646.089051
977.333590	2647.054432
977.631299	2645.211890
977.928971	2645.673156
978.226606	2641.907414
978.524204	2641.647794
978.821765	2640.208545
979.119290	2642.240130
979.416777	2644.944709
979.714228	2644.944709
980.011642	2646.313382
980.309020	2643.986890
980.606360	2644.720378
980.903664	2645.514359
981.200931	2645.640388
981.498162	2645.065697
981.795356	2646.532672
982.092513	2649.305307
982.389633	2651.941831
982.686717	2654.999290
982.983764	2658.137409
983.280775	2659.783345
983.577749	2664.590086
983.874686	2663.304591
984.171587	2659.463232
984.468451	2656.367964
984.765279	2656.380567
985.062070	2654.938797
985.358824	2650.048877
985.655543	2652.019968
985.952224	2648.541572
986.248869	2646.225162
986.545478	2646.671304
986.842050	2645.652991
987.138586	2646.341109
987.435086	2643.507980
987.731549	2643.323978
988.027975	2641.471354
988.324366	2639.412043
988.620719	2641.206693
988.917037	2642.285500
989.213318	2640.987403
989.509563	2640.395068
989.805772	2642.288021
990.101944	2640.246354
990.398080	2641.846920
990.694180	2638.678555
990.990244	2640.087557
991.286271	2639.061682
991.582262	2641.229379
991.878217	2641.950264
992.174136	2641.821714
992.470019	2640.546302
992.765865	2639.752321
993.061676	2635.086733
993.357450	2639.321302
993.653188	2639.013792
993.948890	2642.514873
994.244556	2640.087557
994.540186	2641.146200
994.835780	2643.099647
995.131337	2642.315747
995.426859	2642.913124
995.722345	2644.334729
996.017795	2645.486633
996.313208	2646.305821
996.608586	2643.263484
996.903928	2645.900008
997.199234	2647.225831
997.494504	2645.791623
997.789738	2647.379586
998.084936	2644.649802
998.380099	2643.981849
998.675225	2643.054276
998.970316	2642.237609
999.265371	2641.620068
999.560390	2641.962867
999.855373	2643.162661
1000.150320	2641.526807
1000.445232	2644.032260
1000.740108	2639.291055
1001.034948	2641.045377
1001.329752	2640.919348
1001.624521	2639.800212
1001.919254	2640.034625
1002.213951	2642.461941
1002.508613	2640.788278
1002.803239	2639.038997
1003.097829	2639.580921
1003.392384	2639.079327
1003.686903	2638.275262
1003.981386	2640.347177
1004.275834	2638.754172
1004.570246	2641.796508
1004.864623	2638.403812
1005.158964	2636.725108
1005.453270	2638.144192
1005.747540	2641.244502
1006.041775	2639.429687
1006.335974	2638.098822
1006.630138	2637.443472
1006.924266	2640.327012
1007.218359	2639.820376
1007.512416	2635.507669
1007.806438	2635.931126
1008.100425	2637.672845
1008.394376	2634.423821
1008.688292	2639.734677
1008.982172	2638.182001
1009.276017	2639.354069
1009.569827	2638.280304
1009.863602	2640.450520
1010.157341	2637.393061
1010.451045	2640.621920
1010.744714	2641.491519
1011.038347	2640.695016
1011.331945	2638.905407
1011.625508	2637.897176
1011.919036	2636.460447
1012.212528	2638.068575
1012.505986	2637.947587
1012.799408	2638.449182
1013.092795	2637.592186
1013.386147	2636.125210
1013.679464	2636.536064
1013.972745	2637.360293
1014.265992	2637.854326
1014.559204	2637.773668
1014.852380	2640.258957
1015.145521	2641.214255
1015.438628	2638.272742
1015.731699	2635.379120
1016.024736	2639.964049
1016.317737	2636.795684
1016.610703	2638.242495
1016.903635	2639.031436
1017.196531	2637.589666
1017.489393	2638.963380
1017.782219	2635.805097
1018.075011	2636.175622
1018.367768	2638.227372
1018.660490	2636.205869
1018.953177	2636.205869
1019.245829	2636.205869
