Dividing Wavelength (nm)	Counts (n)	Blue Motor Position (mm): 18.100000	Red Motor Position (mm): 0.000000	
326.493990	2177.332319
326.888308	2177.332319
327.282561	2177.332319
327.676750	2141.353604
328.070874	2138.281021
328.464933	2136.758593
328.858929	2141.628347
329.252859	2146.566158
329.646726	2153.926242
330.040528	2166.808911
330.434265	2180.465397
330.827938	2196.763447
331.221547	2214.105016
331.615091	2232.832903
332.008571	2247.671539
332.401986	2267.231216
332.795338	2287.163938
333.188625	2305.891825
333.581847	2324.775987
333.975006	2339.697803
334.368100	2361.087418
334.761129	2375.527803
335.154095	2394.709394
335.546996	2423.716193
335.939833	2446.703855
336.332606	2463.853860
336.725315	2473.558081
337.117960	2488.784886
337.510540	2499.114211
337.903056	2510.834893
338.295508	2517.388393
338.687896	2532.670651
339.080220	2535.471012
339.472480	2543.582229
339.864676	2548.247817
340.256807	2554.231666
340.648875	2556.447253
341.040879	2561.453119
341.432818	2561.427913
341.824694	2565.987637
342.216506	2567.232802
342.608253	2567.066444
342.999937	2567.147102
343.391557	2568.898903
343.783113	2570.476784
344.174605	2566.932853
344.566033	2569.219017
344.957397	2564.969324
345.348697	2565.029818
345.739934	2562.259704
346.131106	2561.836247
346.522215	2559.844991
346.913260	2555.920453
347.304241	2553.125133
347.695159	2553.117571
348.086012	2550.743188
348.476802	2549.891233
348.867528	2546.591797
349.258191	2544.214893
349.648789	2545.936447
350.039324	2539.191384
350.429796	2542.442928
350.820203	2539.750952
351.210548	2537.235416
351.600828	2538.609130
351.991045	2539.055273
352.381198	2538.092412
352.771288	2535.758358
353.161314	2533.353727
353.551276	2537.547967
353.941175	2534.135106
354.331010	2533.147040
354.720782	2533.212575
355.110490	2536.322967
355.500135	2534.261135
355.889717	2532.801721
356.279235	2532.950435
356.668689	2535.367668
357.058080	2532.819365
357.447408	2535.450848
357.836672	2533.326001
358.225873	2536.766589
358.615010	2536.779192
359.004084	2532.894983
359.393095	2536.834644
359.782043	2537.132072
360.170927	2535.617206
360.559748	2536.093595
360.948505	2538.659542
361.337199	2535.753317
361.725830	2539.894625
362.114398	2538.578883
362.502903	2539.017464
362.891344	2542.405119
363.279722	2537.802546
363.668037	2541.109543
364.056289	2541.669111
364.444478	2542.861344
364.832603	2541.079296
365.220665	2544.247661
365.608665	2543.264636
365.996601	2543.292362
366.384474	2545.465100
366.772284	2543.781354
367.160031	2545.371838
367.547715	2547.025337
367.935336	2546.879143
368.322893	2546.715306
368.710388	2542.006868
369.097820	2543.307486
369.485189	2543.196580
369.872495	2546.024668
370.259738	2551.156562
370.646918	2547.491643
371.034035	2550.352498
371.421090	2548.404092
371.808081	2547.920142
372.195010	2549.371994
372.581875	2550.208825
372.968678	2548.356201
373.355418	2551.106151
373.742096	2550.009700
374.128710	2548.530121
374.515262	2551.474155
374.901751	2552.701676
375.288177	2548.729247
375.674540	2551.441388
376.060841	2550.599515
376.447079	2552.636141
376.833254	2551.587581
377.219367	2552.479865
377.605417	2554.894578
377.991404	2552.411810
378.377329	2550.697817
378.763191	2553.339382
379.148991	2553.858621
379.534727	2551.885009
379.920402	2552.603373
380.306013	2553.445246
380.691563	2556.548076
381.077049	2556.787531
381.462474	2552.545400
381.847835	2553.006666
382.233134	2553.457849
382.618371	2554.612273
383.003545	2554.090514
383.388657	2554.861810
383.773706	2557.944476
384.158693	2556.381718
384.543618	2556.419527
384.928480	2557.699980
385.313280	2555.996070
385.698017	2557.775597
386.082692	2556.449774
386.467305	2558.685526
386.851856	2561.402707
387.236344	2559.033365
387.620770	2556.041440
388.005133	2554.899619
388.389435	2557.876420
388.773674	2554.120761
389.157851	2556.963972
389.541965	2558.728375
389.926018	2561.473284
390.310008	2557.531101
390.693936	2559.693756
391.077802	2557.427758
391.461606	2563.134344
391.845348	2560.601164
392.229027	2559.776935
392.612645	2559.724003
392.996200	2560.023952
393.379694	2559.361040
393.763125	2562.133675
394.146494	2560.820454
394.529801	2561.823644
394.913047	2559.350958
395.296230	2563.182235
395.679351	2561.695094
396.062410	2563.661144
396.445408	2562.035372
396.828343	2565.591906
397.211217	2563.880435
397.594028	2561.569066
397.976778	2562.216854
398.359466	2564.765157
398.742092	2563.514951
399.124656	2565.148285
399.507158	2565.097873
399.889598	2565.919581
400.271977	2565.105435
400.654294	2564.853377
401.036549	2565.249108
401.418742	2565.052503
401.800874	2564.089643
402.182944	2566.169118
402.564952	2568.125086
402.946898	2565.884293
403.328783	2563.986299
403.710606	2564.296330
404.092367	2565.813717
404.474067	2567.454613
404.855705	2566.660631
405.237282	2566.224571
405.618797	2567.139541
406.000250	2568.732545
406.381642	2569.387895
406.762972	2564.271124
407.144240	2566.713563
407.525447	2566.499314
407.906593	2561.460681
408.287677	2571.416960
408.668700	2567.653738
409.049661	2571.979048
409.430560	2566.869839
409.811399	2571.177505
410.192176	2570.527196
410.572891	2571.611044
410.953545	2570.688513
411.334138	2568.997206
411.714669	2572.702454
412.095139	2569.266907
412.475547	2571.028791
412.855894	2569.642473
413.236180	2569.198852
413.616405	2572.634398
413.996568	2572.064748
414.376670	2572.621795
414.756711	2573.350242
415.136691	2573.211610
415.516609	2571.590879
415.896466	2574.623133
416.276262	2574.192115
416.655997	2573.650191
417.035670	2570.827145
417.415283	2576.753021
417.794834	2571.210272
418.174324	2575.097002
418.553753	2574.416446
418.933121	2575.583473
419.312428	2575.147413
419.691674	2575.699420
420.070859	2572.881415
420.449983	2573.105746
420.829045	2571.487536
421.208047	2573.947619
421.586988	2572.014336
421.965867	2576.253947
422.344686	2574.827300
422.723444	2576.952147
423.102141	2578.953485
423.480777	2576.944585
423.859352	2574.479461
424.237866	2576.551375
424.616319	2577.110943
424.994712	2579.182857
425.373044	2574.976014
425.751314	2572.843606
426.129524	2572.405026
426.507673	2573.917372
426.885762	2572.881415
427.263789	2576.894173
427.641756	2575.591035
428.019662	2578.406519
428.397508	2574.799574
428.775292	2577.400809
429.153016	2578.774524
429.530679	2576.248906
429.908282	2578.507343
430.285824	2577.055490
430.663305	2579.621437
431.040726	2577.030284
431.418086	2580.443146
431.795385	2578.630851
432.172624	2578.945923
432.549802	2577.282342
432.926920	2578.686303
433.303977	2578.414081
433.680974	2579.797878
434.057910	2578.482137
434.434786	2578.421643
434.811601	2579.669328
435.188355	2579.364339
435.565050	2580.579257
435.941683	2578.535069
436.318257	2580.143197
436.694770	2580.412899
437.071222	2581.796695
437.447614	2580.536407
437.823946	2581.466500
438.200218	2581.703434
438.576429	2582.250399
438.952580	2580.712847
439.328670	2581.146387
439.704700	2581.176633
440.080670	2582.091603
440.456580	2580.919535
440.832429	2586.288363
441.208218	2580.843917
441.583947	2585.388517
441.959616	2582.552868
442.335224	2582.812488
442.710773	2583.160327
443.086261	2585.847262
443.461689	2581.826942
443.837057	2584.191243
444.212365	2583.964392
444.587612	2580.740574
444.962800	2583.702252
445.337927	2582.194947
445.712995	2580.097827
446.088002	2585.471697
446.462949	2585.116295
446.837837	2586.928590
447.212664	2586.260637
447.587431	2586.618559
447.962139	2586.046388
448.336786	2585.277612
448.711374	2586.061512
449.085901	2586.328693
449.460369	2586.240472
449.834776	2585.307859
450.209124	2590.870772
450.583412	2588.554362
450.957640	2589.676019
451.331808	2589.703745
451.705917	2585.106213
452.079965	2588.836667
452.453954	2588.428333
452.827883	2587.364650
453.201752	2587.220977
453.575562	2589.408838
453.949311	2586.542942
454.323001	2586.812643
454.696632	2587.959506
455.070202	2589.847418
455.443713	2587.344485
455.817164	2588.314907
456.190556	2590.583427
456.563888	2592.347830
456.937160	2587.480596
457.310373	2592.519230
457.683526	2590.139805
458.056619	2593.419076
458.429653	2589.938159
458.802628	2588.430854
459.175542	2589.663416
459.548398	2588.821543
459.921194	2593.290526
460.293930	2590.570824
460.666607	2589.973447
461.039224	2593.719024
461.411782	2595.274220
461.784280	2592.859507
462.156719	2596.143819
462.529099	2597.399067
462.901419	2591.891606
463.273680	2593.771956
463.645882	2590.641400
464.018024	2591.568972
464.390106	2590.472521
464.762130	2598.016608
465.134094	2595.435537
465.505999	2596.083325
465.877845	2599.229005
466.249631	2600.670775
466.621358	2604.960797
466.993026	2604.300406
467.364634	2608.020778
467.736184	2602.155395
468.107674	2599.304623
468.479105	2600.272524
468.850477	2597.482246
469.221790	2601.477360
469.593043	2601.830241
469.964238	2600.426279
470.335373	2601.971393
470.706449	2601.132041
471.077467	2596.945363
471.448425	2602.205807
471.819324	2605.215376
472.190164	2607.073041
472.560945	2606.359717
472.931667	2605.187649
473.302330	2602.067175
473.672934	2601.527772
474.043479	2602.866198
474.413965	2602.205807
474.784393	2603.065323
475.154761	2601.779829
475.525070	2601.542895
475.895321	2602.982144
476.265513	2600.806887
476.635645	2605.011209
477.005719	2605.974069
477.375734	2607.683020
477.745691	2605.903493
478.115588	2604.703698
478.485427	2606.422732
478.855207	2608.769389
479.224928	2610.861468
479.594591	2614.062601
479.964194	2611.237034
480.333739	2612.577981
480.703226	2613.994545
481.072653	2614.395317
481.442022	2614.786006
481.811333	2615.000255
482.180584	2616.573095
482.549777	2615.539659
482.918912	2615.688373
483.287988	2618.660133
483.657005	2618.251799
484.025964	2619.083590
484.394864	2618.798765
484.763706	2617.992180
485.132489	2617.430091
485.501213	2618.975205
485.869879	2619.766666
486.238487	2619.454115
486.607036	2618.002262
486.975527	2619.365894
487.343959	2619.305401
487.712333	2620.404372
488.080648	2620.691718
488.448905	2620.767335
488.817104	2623.953344
489.185244	2624.336472
489.553326	2625.090125
489.921350	2627.139354
490.289315	2631.018522
490.657222	2637.201497
491.025070	2635.926085
491.392861	2636.836013
491.760593	2636.841054
492.128267	2637.100674
492.495883	2634.701084
492.863440	2631.948614
493.230939	2635.076650
493.598380	2636.427680
493.965763	2633.897020
494.333088	2636.893986
494.700354	2635.001033
495.067563	2639.081847
495.434713	2638.517238
495.801805	2641.859523
496.168839	2641.705768
496.535815	2643.107208
496.902733	2642.961015
497.269593	2645.380769
497.636395	2647.329175
498.003139	2649.610297
498.369825	2648.634834
498.736453	2653.186996
499.103023	2656.511637
499.469535	2659.748057
499.835989	2660.622697
500.202385	2662.757626
500.568723	2660.935249
500.935003	2668.754079
501.301226	2666.601506
501.667390	2680.162210
502.033497	2684.991635
502.399546	2687.769311
502.765537	2688.069260
503.131470	2693.990095
503.497345	2702.965869
503.863163	2704.868905
504.228923	2711.412322
504.594625	2721.408931
504.960269	2723.621997
505.325856	2729.920919
505.691385	2733.890827
506.056856	2746.309710
506.422270	2753.001842
506.787625	2761.942328
507.152924	2771.949018
507.518164	2784.342695
507.883347	2788.710855
508.248472	2802.826086
508.613540	2816.666574
508.978550	2829.130827
509.343503	2844.725636
509.708398	2857.613346
510.073236	2879.098743
510.438016	2897.176321
510.802738	2906.510018
511.167403	2926.747730
511.532010	2944.747169
511.896561	2978.598518
512.261053	2995.065447
512.625488	3015.918179
512.989866	3032.662372
513.354186	3055.834036
513.718449	3084.772779
514.082655	3118.712347
514.446803	3142.183960
514.810894	3182.150227
515.174927	3197.467773
515.538904	3233.607805
515.902822	3276.059362
516.266684	3310.354332
516.630488	3337.500945
516.994235	3376.579970
517.357925	3423.626538
517.721558	3479.462358
518.085133	3518.135570
518.448651	3564.183989
518.812112	3596.986777
519.175516	3652.063904
519.538863	3710.765620
519.902152	3751.167947
520.265385	3819.505829
520.628560	3863.101727
520.991678	3926.723609
521.354739	3988.991942
521.717743	4051.275397
522.080690	4097.492696
522.443580	4191.215308
522.806413	4240.177514
523.169189	4330.061287
523.531908	4385.776120
523.894569	4437.372329
524.257174	4515.769833
524.619722	4602.044140
524.982213	4646.713805
525.344647	4735.783431
525.707025	4820.807532
526.069345	4908.097632
526.431608	4988.856916
526.793815	5099.469914
527.155964	5106.421665
527.518057	5216.833017
527.880093	5302.459535
528.242072	5388.196959
528.603995	5450.039314
528.965860	5516.890055
529.327669	5650.248739
529.689421	5715.950097
530.051117	5786.589265
530.412755	5932.669301
530.774337	5976.958358
531.135862	6062.219393
531.497331	6183.315470
531.858743	6222.391974
532.220098	6419.816162
532.581396	6427.014929
532.942638	6572.956333
533.303824	6666.142062
533.664953	6785.511544
534.026025	6857.965528
534.387040	6976.576316
534.747999	7141.185112
535.108902	7259.679954
535.469748	7284.028727
535.830537	7444.047553
536.191270	7561.014925
536.551947	7693.529216
536.912567	7697.857047
537.273131	7896.823827
537.633638	7938.204138
537.994089	8147.706931
538.354483	8137.627143
538.714821	8379.171509
539.075103	8545.053197
539.435328	8611.833362
539.795497	8615.876368
540.155609	8857.642544
540.515665	9056.654695
540.875665	8967.706056
541.235609	9165.528495
541.595496	9314.736567
541.955328	9536.811996
542.315102	9642.406525
542.674821	9662.440071
543.034483	9744.005940
543.394090	9888.891222
543.753640	9962.353437
544.113134	10291.923910
544.472571	10329.820784
544.831953	10584.777140
545.191278	10547.583507
545.550548	10680.498569
545.909761	10825.860241
546.268918	11089.220200
546.628019	11187.946157
546.987064	11280.950404
547.346053	11314.264869
547.704986	11466.086779
548.063863	11686.365038
548.422684	11757.558733
548.781449	11768.460228
549.140158	12048.889534
549.498811	12064.630537
549.857408	12039.576002
550.215949	12375.634441
550.574434	12352.772808
550.932864	12597.598966
551.291237	12782.745423
551.649555	12901.159606
552.007817	13056.512844
552.366022	13150.621104
552.724173	13273.063169
553.082267	13396.158064
553.440305	13751.375408
553.798288	13526.489535
554.156215	13913.781220
554.514086	14100.787863
554.871902	13906.164037
555.229661	14172.813349
555.587365	14268.854892
555.945014	14284.038847
556.302606	14592.204582
556.660143	14654.044416
557.017625	14949.506443
557.375050	14847.266802
557.732421	15155.787938
558.089735	15225.335696
558.446994	15346.925806
558.804197	15513.225910
559.161345	15632.393746
559.518437	15549.534820
559.875474	15870.769746
560.232455	16044.029163
560.589381	16116.596573
560.946251	16184.395051
561.303065	16531.612083
561.659825	16712.672686
562.016528	16580.987665
562.373177	16562.806743
562.729770	16864.398813
563.086307	16955.797453
563.442789	17171.026996
563.799216	17182.067123
564.155587	17267.880164
564.511904	17398.993014
564.868164	17432.456193
565.224370	17589.841017
565.580520	17586.667610
565.936615	17826.006471
566.292654	17674.048450
566.648638	18061.884580
567.004567	18004.506167
567.360441	18086.863498
567.716260	17971.925190
568.072023	18361.732411
568.427732	18259.989324
568.783385	18197.441207
569.138982	18461.106156
569.494525	18619.859653
569.850013	18534.790182
570.205445	18694.085602
570.560823	18605.585626
570.916145	18552.630825
571.271412	18733.018433
571.626625	18661.670983
571.981782	18818.269386
572.336884	18730.422239
572.691931	18935.365307
573.046923	18784.037431
573.401860	18809.550710
573.756743	18883.998470
574.111570	18886.118275
574.466342	18901.536644
574.821059	19073.137521
575.175722	18884.535353
575.530330	18973.496595
575.884882	19049.597853
576.239380	19058.558504
576.593823	19017.354633
576.948211	19066.856244
577.302544	18992.700871
577.656823	18953.004305
578.011047	19114.984139
578.365216	19059.400377
578.719330	19018.337658
579.073389	18976.561617
579.427394	19169.136214
579.781344	19009.102265
580.135239	18995.168515
580.489080	19012.852883
580.842866	18831.862857
581.196597	19063.670234
581.550273	19072.199867
581.903895	19066.427746
582.257463	19383.821312
582.610975	18997.860492
582.964434	19313.547628
583.317837	19102.013251
583.671186	19224.488083
584.024481	19234.585514
584.377721	19055.717814
584.730906	19146.098141
585.084037	19230.192149
585.437113	19166.537499
585.790135	19378.926352
586.143103	18945.553479
586.496016	18976.959868
586.848874	19256.383464
587.201679	19230.076202
587.554428	18934.750287
587.907124	19276.419530
588.259765	19103.202963
588.612352	19203.380772
588.964884	18830.859668
589.317362	19018.743471
589.669786	19087.991281
590.022155	19176.219035
590.374470	19358.391212
590.726731	19200.114104
591.078937	18976.881730
591.431090	19116.103276
591.783188	18878.059991
592.135232	18883.232215
592.487222	19006.062449
592.839157	19051.732782
593.191038	18969.524166
593.542866	18881.246000
593.894639	18633.198546
594.246358	18851.782977
594.598022	18794.951529
594.949633	18568.414678
595.301190	18549.787614
595.652692	18700.676911
596.004141	18971.316296
596.355535	18337.799533
596.706876	18349.736986
597.058162	18256.291637
597.409395	18480.055854
597.760573	18598.555737
598.111698	18401.643226
598.462768	18336.675356
598.813785	18302.675294
599.164748	18146.369278
599.515657	18181.864042
599.866511	17987.240215
600.217312	18357.888531
600.568060	17908.573010
600.918753	18220.416266
601.269392	18125.975290
601.619978	17909.377074
601.970510	18138.303432
602.320988	18084.423579
602.671412	18308.134863
603.021783	18207.493268
603.372100	17964.040825
603.722363	18094.316844
604.072572	18040.593267
604.422728	18174.549328
604.772830	17950.608671
605.122878	17899.549344
605.472872	17903.720899
605.822813	17898.742760
606.172701	17844.822578
606.522534	18066.819870
606.872314	18089.232840
607.222041	17930.131504
607.571714	18150.850863
607.921333	17979.549935
608.270899	18055.653714
608.620411	18257.060413
608.969870	18008.075304
609.319276	18022.465278
609.668627	18050.499134
610.017926	18183.232715
610.367171	18320.775557
610.716362	18347.450822
611.065500	18178.410852
611.414585	18311.948496
611.763616	18287.367830
612.112594	18237.241117
612.461518	18205.859934
612.810389	18415.322397
613.159207	18265.524511
613.507971	18168.184871
613.856682	18456.697667
614.205340	18405.305624
614.553945	18534.835552
614.902496	18281.595709
615.250994	18538.540800
615.599439	18472.297518
615.947830	18459.911403
616.296169	18489.200507
616.644454	18473.144432
616.992686	18446.678374
617.340864	18650.076329
617.688990	18409.641017
618.037063	18589.537112
618.385082	18436.359132
618.733048	18718.467143
619.080961	18581.854394
619.428821	18621.742524
619.776628	18518.653448
620.124382	18445.488662
620.472083	18465.943143
620.819731	18502.453700
621.167326	18189.962656
621.514868	18243.802179
621.862357	17996.944437
622.209793	18022.838323
622.557176	17850.103187
622.904506	17678.729162
623.251783	17582.216271
623.599007	17365.328189
623.946179	17311.163511
624.293297	17254.185870
624.640363	17013.672420
624.987376	17025.899739
625.334336	16814.572049
625.681243	16662.195612
626.028097	16666.475552
626.374899	16606.816017
626.721647	16476.965976
627.068343	16314.076213
627.414987	16237.231384
627.761577	16210.972014
628.108115	16268.834377
628.454600	15981.967518
628.801032	16081.805049
629.147412	16005.817217
629.493739	16034.415682
629.840014	15834.854046
630.186236	15947.387723
630.532405	15705.152719
630.878521	15905.450364
631.224585	15793.957685
631.570597	15614.429594
631.916556	15646.387989
632.262462	15627.077849
632.608316	15557.192333
632.954117	15497.978940
633.299866	15492.234545
633.645562	15413.584983
633.991206	15166.679350
634.336797	15036.846954
634.682336	15003.872766
635.027823	14904.224278
635.373257	14789.885868
635.718639	14679.968549
636.063968	14616.780207
636.409245	14391.861566
636.754470	14415.214711
637.099642	14262.044293
637.444762	14033.548953
637.789829	14082.848918
638.134845	13921.584927
638.479808	13942.142752
638.824719	13910.330551
639.169577	13749.739554
639.514383	13798.522799
639.859137	13614.561013
640.203839	13692.222509
640.548489	13532.778374
640.893086	13520.291436
641.237632	13394.678485
641.582125	13536.677707
641.926566	13373.399775
642.270955	13383.000653
642.615292	13353.393956
642.959576	13360.212117
643.303809	13394.068506
643.647990	13331.490142
643.992118	13379.892781
644.336195	13164.169205
644.680219	13357.479811
645.024192	13287.027166
645.368112	13521.919729
645.711981	13583.051281
646.055797	13755.705759
646.399562	13708.545765
646.743274	13987.409793
647.086935	14271.720787
647.430544	14229.629673
647.774101	14256.531791
648.117606	14411.943002
648.461059	14379.578795
648.804460	14376.458320
649.147810	14105.302217
649.491108	13997.567718
649.834354	14024.038817
650.177548	13730.840268
650.520690	13538.563098
650.863781	13459.021253
651.206820	13501.445083
651.549807	13317.528667
651.892742	13136.982262
652.235626	13074.154362
652.578458	13085.844798
652.921238	12765.093823
653.263967	12958.230509
653.606644	12786.611988
653.949269	12753.733583
654.291843	12576.537025
654.634365	12723.259808
654.976836	12573.414030
655.319255	12593.039242
655.661622	12537.750387
656.003938	12468.018627
656.346203	12396.023388
656.688416	12453.684106
657.030577	12424.107656
657.372687	12347.416582
657.714746	12313.103969
658.056753	12496.019716
658.398708	12323.957573
658.740612	12327.488901
659.082465	12419.623550
659.424266	12386.760268
659.766016	12405.843556
660.107715	12316.589927
660.449362	12384.857232
660.790958	12346.559586
661.132503	12304.639872
661.473996	12362.797143
661.815438	12380.673074
662.156829	12377.434133
662.498168	12368.392824
662.839456	12360.185825
663.180693	12385.494938
663.521879	12474.022641
663.863013	12449.273096
664.204097	12434.419336
664.545129	12545.433106
664.886110	12515.400432
665.227040	12597.412443
665.567918	12602.713216
665.908746	12646.508240
666.249522	12631.213379
666.590248	12671.325841
666.930922	12782.647120
667.271545	12771.007096
667.612118	12858.786187
667.952639	12763.503339
668.293109	12759.029315
668.633528	12717.643962
668.973896	12692.697812
669.314213	12783.499075
669.654480	12531.068338
669.994695	12579.755802
670.334859	12616.329373
670.674973	12558.467009
671.015035	12600.210283
671.355047	12541.095193
671.695008	12507.531190
672.034918	12514.631656
672.374777	12554.260166
672.714585	12474.413330
673.054342	12504.761076
673.394049	12450.286368
673.733705	12540.858258
674.073310	12457.026391
674.412864	12479.096562
674.752368	12354.368334
675.091820	12353.907068
675.431223	12352.185514
675.770574	12233.045405
676.109875	12139.713482
676.449125	12109.035541
676.788324	12050.384236
677.127473	11888.399360
677.466571	11868.398582
677.805619	11780.052361
678.144616	11689.286386
678.483562	11661.562561
678.822458	11529.300328
679.161303	11507.729230
679.500098	11508.646720
679.838842	11459.417333
680.177535	11472.846966
680.516179	11534.638910
680.854771	11481.429531
681.193314	11689.324195
681.531805	11840.848677
681.870247	12247.644586
682.208638	12648.746513
682.546978	12968.154020
682.885268	13039.347715
683.223508	12722.654869
683.561697	12568.448493
683.899836	12460.754324
684.237925	12267.163934
684.575963	12183.543794
684.913951	12112.287085
685.251889	12060.935371
685.589776	12154.037921
685.927614	12085.427817
686.265401	12039.742360
686.603137	12079.270048
686.940824	12242.263154
687.278460	12357.372861
687.616046	12406.861869
687.953582	12578.142632
688.291068	12501.252433
688.628504	12723.882390
688.965889	12737.180954
689.303224	12710.130122
689.640510	12608.555913
689.977745	12306.830253
690.314930	12082.768608
690.652065	12000.068480
690.989150	11716.445603
691.326185	11488.038483
691.663170	11281.762030
692.000105	11037.513085
692.336990	10935.727148
692.673825	10684.352532
693.010610	10555.606503
693.347345	10359.671977
693.684030	10154.713785
694.020665	10103.936763
694.357251	9903.382019
694.693786	9863.569506
695.030272	9686.952681
695.366707	9561.543897
695.703093	9498.738682
696.039429	9493.619390
696.375716	9424.548021
696.711952	9291.297722
697.048139	9329.371036
697.384276	9280.378583
697.720363	9304.109814
698.056400	9237.173373
698.392388	9188.576650
698.728326	9151.307400
699.064214	9088.582843
699.400053	9136.814083
699.735842	8954.916649
700.071581	8907.902848
700.407270	8838.743259
700.742910	8756.764015
701.078501	8667.049120
701.414042	8547.863641
701.749533	8478.414185
702.084974	8345.118515
702.420366	8443.574770
702.755709	8337.788678
703.091002	8211.543062
703.426246	8232.017708
703.761440	8178.825973
704.096584	8138.496742
704.431679	8071.071310
704.766725	8064.926143
705.101721	8010.642999
705.436668	8052.517343
705.771565	7945.803678
706.106413	8025.194289
706.441212	8071.711536
706.775961	8022.456943
707.110661	8055.731079
707.445311	8204.049387
707.779913	8100.269673
708.114465	8233.187256
708.448967	8276.715099
708.783421	8397.397801
709.117825	8582.854289
709.452180	8624.549673
709.786485	8713.818425
710.120742	8988.848656
710.454949	8992.440478
710.789107	9090.642155
711.123216	9294.844173
711.457275	9454.285787
711.791286	9624.517991
712.125247	9611.282442
712.459159	9603.014949
712.793023	9863.700576
713.126837	9438.184342
713.460602	9584.581970
713.794318	9408.726359
714.127985	9433.054968
714.461602	9136.141089
714.795171	9082.170496
715.128691	8839.630502
715.462162	8587.850073
715.795584	8522.496554
716.128957	8396.805466
716.462281	8214.718989
716.795556	8266.353007
717.128782	8066.161226
717.461960	7792.282899
717.795088	7868.724436
718.128167	7774.969056
718.461198	7605.036801
718.794180	7549.596712
719.127113	7545.193264
719.459997	7401.911069
719.792833	7160.601117
720.125619	7227.925726
720.458357	7084.726710
720.791046	7074.460400
721.123686	7075.965185
721.456278	6926.295847
721.788821	6938.261026
722.121315	6826.705333
722.453761	6890.506176
722.786158	6839.882909
723.118506	6854.537543
723.450805	6817.767367
723.783056	6888.051134
724.115259	6790.582945
724.447412	6787.051617
724.779518	6833.629358
725.111574	6834.138514
725.443582	6915.757315
725.775542	6897.657053
726.107453	7078.977274
726.439315	7000.005078
726.771129	7046.552573
727.102895	7213.281174
727.434612	7330.077147
727.766281	7359.721652
728.097901	7444.909591
728.429473	7432.314268
728.760996	7403.420894
729.092471	7381.859879
729.423897	7335.962694
729.755276	7346.032399
730.086606	7278.347347
730.417887	7369.652725
730.749120	7551.033441
731.080305	7743.353460
731.411442	7877.173409
731.742530	7872.638892
732.073570	7977.905746
732.404562	8061.006646
732.735506	7912.736229
733.066401	8059.474135
733.397249	7990.677509
733.728048	7757.735872
734.058798	7423.930829
734.389501	7206.972170
734.720156	7034.363062
735.050762	6798.522762
735.381320	6689.240629
735.711831	6648.230843
736.042293	6535.651795
736.372707	6561.182718
736.703073	6422.974445
737.033391	6458.620443
737.363661	6468.594366
737.693883	6491.408108
738.024056	6573.773000
738.354182	6624.973479
738.684260	6662.300703
739.014290	6769.342043
739.344272	6877.563013
739.674207	6902.320120
740.004093	6969.415357
740.333931	6985.559652
740.663722	6998.649008
740.993464	7073.147180
741.323159	7076.464259
741.652806	6826.324726
741.982405	6814.599002
742.311956	6880.975874
742.641460	6740.007569
742.970915	6539.440222
743.300323	6531.611310
743.629683	6477.476879
743.958996	6346.109451
744.288260	6256.618888
744.617477	6204.367329
744.946647	6214.754626
745.275768	6046.715324
745.604842	6004.415003
745.933869	5986.418083
746.262847	5939.187513
746.591778	5930.153765
746.920662	5886.741869
747.249498	5870.206884
747.578286	5923.401140
747.907027	6000.261092
748.235720	6058.221758
748.564365	6030.013982
748.892963	6043.231887
749.221514	6206.963523
749.550017	6058.924999
749.878473	5925.611686
750.206881	5978.402649
750.535242	5917.087094
750.863555	5849.364234
751.191821	5870.592533
751.520039	5870.869796
751.848210	5779.133399
752.176334	5792.968846
752.504411	5847.032700
752.832440	5775.045023
753.160421	5705.192275
753.488356	5750.681127
753.816243	5786.866529
754.144082	5640.574765
754.471875	5603.754177
754.799620	5650.576414
755.127318	5663.481768
755.454969	5612.538388
755.782572	5581.215178
756.110129	5622.519872
756.437638	5616.014263
756.765100	5559.021498
757.092515	5542.783942
757.419882	5590.987455
757.747203	5577.104117
758.074477	5639.992512
758.401703	5634.104444
758.728882	5580.804324
759.056014	5627.618999
759.383099	5765.607983
759.710138	5773.540239
760.037129	5756.029791
760.364073	5763.858703
760.690970	5845.384243
761.017820	5833.608107
761.344623	5779.980313
761.671379	5878.628132
761.998088	5992.739690
762.324751	6225.462037
762.651366	6790.023377
762.977935	8054.090183
763.304456	9671.330146
763.630931	10594.345250
763.957359	10247.564277
764.283740	9321.158997
764.610074	8510.029781
764.936362	7529.487549
765.262602	6933.426560
765.588796	6390.277521
765.914943	6047.171549
766.241044	5890.903341
766.567097	5702.901070
766.893104	5445.381288
767.219064	5262.377321
767.544978	5200.721489
767.870845	5124.955467
768.196665	5016.941184
768.522438	4943.093322
768.848165	4914.840175
769.173846	4853.388509
769.499479	4808.353362
769.825066	4756.132049
770.150607	4695.146690
770.476101	4665.419006
770.801548	4663.268954
771.126949	4595.654478
771.452303	4545.827713
771.777611	4496.941124
772.102872	4515.358979
772.428087	4477.794822
772.753256	4437.820992
773.078378	4401.582658
773.403453	4326.144311
773.728482	4314.214420
774.053465	4268.695322
774.378401	4251.114298
774.703291	4259.648971
775.028135	4188.845965
775.352932	4136.934684
775.677683	4124.591418
776.002388	4144.670334
776.327046	4157.749608
776.651658	4083.737908
776.976224	4022.268598
777.300743	4022.351777
777.625216	4046.597207
777.949643	4045.394892
778.274024	3999.036441
778.598359	3948.569450
778.922647	3974.380157
779.246889	3966.616780
779.571086	3961.285760
779.895236	3949.857464
780.219339	3932.097479
780.543397	3926.854679
780.867409	3972.552739
781.191374	3991.144514
781.515294	3936.644600
781.839167	3922.284873
782.162995	3943.878656
782.486776	3929.773507
782.810511	3937.988068
783.134201	3940.503603
783.457844	3896.675812
783.781441	3839.856967
784.104993	3844.416691
784.428498	3861.571737
784.751958	3864.450236
785.075372	3843.030373
785.398739	3805.299857
785.722061	3811.250939
786.045337	3856.039071
786.368568	3891.755646
786.691752	3806.028304
787.014891	3849.694779
787.337983	3968.953355
787.661030	4125.478662
787.984031	4286.604021
788.306987	4456.072490
788.629897	4540.259759
788.952760	4496.545393
789.275579	4426.778345
789.598351	4368.341289
789.921078	4239.383533
790.243759	4041.747617
790.566395	4009.670755
790.888984	4008.382740
791.211529	3904.461874
791.534027	3844.719160
791.856480	3838.150536
792.178888	3777.583593
792.501249	3722.541755
792.823566	3731.709093
793.145836	3763.244031
793.468062	3717.377093
793.790241	3667.908250
794.112375	3696.267261
794.434464	3757.754215
794.756507	3779.345477
795.078505	3768.128909
795.400457	3791.343423
795.722364	3929.029937
796.044226	4033.636400
796.366042	4103.342955
796.687812	4091.259309
797.009538	4096.192078
797.331218	4053.427970
797.652852	4027.208929
797.974442	4003.039117
798.295986	4012.118235
798.617484	3928.107406
798.938938	3840.867718
799.260346	3878.545302
799.581709	3876.546485
799.903026	3807.540650
800.224299	3769.283334
800.545526	3764.801748
800.866708	3728.462590
801.187845	3664.792817
801.508936	3701.222716
801.829983	3701.010987
802.150984	3624.312352
802.471940	3610.267697
802.792851	3623.972074
803.113717	3622.094244
803.434538	3625.807054
803.755314	3571.067685
804.076045	3539.041235
804.396731	3559.021848
804.717372	3589.293977
805.037967	3573.076585
805.358518	3563.221129
805.679024	3586.526383
805.999485	3601.947273
806.319901	3602.164042
806.640272	3621.937968
806.960598	3636.088487
807.280879	3608.573870
807.601115	3620.130715
807.921306	3633.691419
808.241453	3675.653983
808.561554	3652.663801
808.881611	3585.583687
809.201623	3620.198770
809.521590	3635.561687
809.841513	3608.538582
810.161390	3635.009680
810.481223	3617.045529
810.801011	3561.497054
811.120755	3548.170764
811.440453	3587.199377
811.760107	3593.694904
812.079716	3555.296435
812.399281	3516.724047
812.718801	3540.271276
813.038276	3515.126001
813.357707	3509.106863
813.677093	3531.492107
813.996434	3478.907831
814.315731	3484.735405
814.634983	3489.952999
814.954191	3498.245697
815.273354	3527.801982
815.592473	3529.868855
815.911547	3533.495965
816.230577	3569.774629
816.549562	3620.110550
816.868502	3662.592354
817.187399	3689.489430
817.506250	3686.036240
817.825058	3653.508194
818.143821	3740.279055
818.462539	3845.213193
818.781213	3892.572313
819.099843	3942.542750
819.418429	4174.997916
819.736970	4413.114297
820.055466	4647.981655
820.373919	5008.139330
820.692327	5414.564714
821.010691	5820.690151
821.329011	7119.644262
821.647286	9742.276824
821.965517	14161.906813
822.283704	18180.064350
822.601847	20451.472162
822.919945	18724.461074
823.237999	16217.452417
823.556010	13768.535496
823.873976	11715.820499
824.191897	9645.403491
824.509775	8291.833519
824.827609	7175.008734
825.145398	6619.826461
825.463144	6497.974211
825.780845	6620.438961
826.098502	6783.732017
826.416116	7602.637212
826.733685	8885.883088
827.051210	10008.364048
827.368692	10121.190112
827.686129	8923.114530
828.003522	7417.629387
828.320872	6404.516260
828.638177	5715.148554
828.955439	5168.374925
829.272656	4675.390408
829.589830	4386.363414
829.906960	4216.816808
830.224046	4035.000032
830.541088	3906.990013
830.858086	3861.065101
831.175041	3787.431488
831.491952	3769.580762
831.808819	3777.218110
832.125642	3843.922658
832.442421	3982.682938
832.759157	4243.958380
833.075849	4770.063277
833.392497	5611.565445
833.709101	6374.801178
834.025662	6731.324181
834.342179	6409.426344
834.658653	5756.677579
834.975083	5120.642760
835.291469	4552.119073
835.607811	4140.584479
835.924110	4001.831761
836.240366	3813.133810
836.556578	3607.200155
836.872746	3495.178155
837.188871	3465.896613
837.504952	3398.050244
837.820990	3315.670228
838.136984	3264.195006
838.452935	3288.402627
838.768842	3287.555713
839.084706	3309.391471
839.400526	3457.528298
839.716303	3779.605096
840.032037	4280.146303
840.347727	4562.697935
840.663373	4308.626301
840.978977	3935.089404
841.294537	3635.788539
841.610054	3405.806059
841.925527	3294.048719
842.240957	3223.943913
842.556344	3174.832993
842.871687	3117.835187
843.186987	3067.761406
843.502244	3032.586755
843.817458	2998.233812
844.132629	2964.185859
844.447756	2973.869915
844.762840	2964.054789
845.077881	2931.879624
845.392879	2915.326996
845.707833	2912.849268
846.022745	2907.462796
846.337613	2907.087230
846.652438	2896.473080
846.967221	2896.329407
847.281960	2882.287273
847.596656	2877.896428
847.911309	2875.736294
848.225919	2871.030377
848.540485	2862.694829
848.855009	2864.925539
849.169490	2855.685104
849.483928	2847.578929
849.798323	2844.113136
850.112675	2844.518949
850.426984	2854.840711
850.741251	2851.266533
851.055474	2839.732373
851.369654	2832.203410
851.683792	2839.913855
851.997887	2851.697552
852.311938	2850.848117
852.625947	2839.800429
852.939914	2843.934175
853.253837	2847.468024
853.567718	2832.611743
853.881555	2827.540342
854.195350	2847.064731
854.509103	2845.272601
854.822812	2835.094512
855.136479	2832.337000
855.450103	2833.181394
855.763685	2826.169149
856.077224	2820.218067
856.390720	2837.894872
856.704173	2848.289732
857.017584	2837.821776
857.330953	2835.399501
857.644278	2843.135152
857.957561	2852.776359
858.270802	2855.463294
858.584000	2857.421782
858.897155	2844.836541
859.210268	2841.237157
859.523339	2841.015347
859.836367	2838.658607
860.149352	2834.255159
860.462295	2829.125785
860.775195	2837.468895
861.088054	2838.608196
861.400869	2821.808551
861.713642	2817.432829
862.026373	2831.941270
862.339062	2837.219358
862.651708	2840.823783
862.964312	2847.939372
863.276873	2837.363031
863.589392	2846.553054
863.901869	2858.913963
864.214303	2875.443907
864.526696	2896.589027
864.839045	2892.021741
865.151353	2890.411093
865.463619	2889.453273
865.775842	2889.221380
866.088023	2906.270563
866.400162	2915.200967
866.712258	2887.625855
867.024313	2876.381562
867.336325	2884.636451
867.648296	2905.569842
867.960224	2897.214130
868.272110	2884.959085
868.583954	2890.292626
868.895755	2905.647980
869.207515	2890.718603
869.519233	2894.413769
869.830909	2902.804769
870.142542	2914.389341
870.454134	2912.161151
870.765684	2918.137439
871.077191	2916.327665
871.388657	2921.451998
871.700081	2935.224430
872.011463	2946.680452
872.322803	2949.037191
872.634101	2948.522994
872.945357	2962.842391
873.256571	2992.365909
873.567744	2983.528766
873.878874	2973.685913
874.189963	2994.420179
874.501010	2999.872187
874.812015	2991.090497
875.122979	2989.646206
875.433900	2988.922801
875.744780	2989.903305
876.055618	2997.749861
876.366415	2996.751713
876.677169	3006.498783
876.987882	3003.360665
877.298554	2998.264059
877.609183	3014.723426
877.919771	3036.980120
878.230317	3063.131106
878.540822	3113.328395
878.851285	3152.541010
879.161707	3191.070549
879.472087	3283.243006
879.782425	3498.162518
880.092722	3914.536620
880.402977	4432.031227
880.713191	5027.497360
881.023363	6133.216483
881.333494	7393.043679
881.643583	7972.269736
881.953631	7688.732558
882.263637	7090.892041
882.573602	6526.048397
882.883526	5955.737621
883.193408	5390.873812
883.503248	4931.110499
883.813048	4635.114110
884.122806	4348.373279
884.432522	4041.551012
884.742197	3813.416115
885.051831	3619.283801
885.361424	3485.025271
885.670975	3412.420053
885.980485	3333.876355
886.289954	3258.266609
886.599382	3214.637943
886.908768	3177.903055
887.218113	3132.578041
887.527417	3076.666604
887.836680	3026.928059
888.145901	3023.295908
888.455082	3018.463962
888.764221	2967.286168
889.073319	2937.490428
889.382376	2935.060592
889.691392	2936.746858
890.000366	2938.236519
890.309300	2924.345620
890.618193	2936.590583
890.927044	2953.879220
891.235855	2956.220836
891.544625	2938.715429
891.853353	2948.351594
892.162041	2964.453040
892.470687	3004.404184
892.779293	3056.378480
893.087858	3100.448247
893.396381	3171.084895
893.704864	3281.453397
894.013306	3505.817510
894.321707	3801.529074
894.630068	4007.553470
894.938387	4011.719984
895.246665	3963.211481
895.554903	3853.609235
895.863100	3661.148063
896.171256	3494.147239
896.479371	3362.283257
896.787446	3240.821697
897.095480	3141.412663
897.403473	3075.955801
897.711425	3038.868032
898.019336	3031.719676
898.327207	3007.746469
898.635038	2972.171046
898.942827	2954.358129
899.250576	2946.017540
899.558284	2912.824063
899.865952	2896.788152
900.173579	2875.917775
900.481165	2867.844367
900.788711	2857.320959
901.096216	2835.419666
901.403681	2820.386945
901.711105	2829.758450
902.018489	2824.616473
902.325832	2828.563697
902.633135	2836.561487
902.940397	2867.307485
903.247619	2941.730039
903.554800	3122.228552
903.861941	3449.485137
904.169041	3857.092672
904.476101	4161.275895
904.783121	4133.153818
905.090100	3899.541708
905.397039	3632.617653
905.703938	3387.504150
906.010796	3210.549568
906.317614	3099.818103
906.624391	3008.162364
906.931129	2939.816921
907.237826	2878.259391
907.544483	2834.610561
907.851099	2801.951446
908.157675	2781.411264
908.464211	2761.899478
908.770707	2752.303642
909.077163	2737.538102
909.383578	2721.746688
909.689954	2713.544731
909.996289	2712.163454
910.302584	2710.325954
910.608839	2713.592622
910.915054	2707.235727
911.221229	2700.843543
911.527363	2701.224151
911.833458	2707.767568
912.139513	2711.412322
912.445527	2716.327447
912.751502	2723.526215
913.057436	2733.268245
913.363331	2744.091602
913.669186	2765.282092
913.975000	2792.249745
914.280775	2853.247707
914.586510	2921.373860
914.892205	2997.709532
915.197859	3117.361318
915.503475	3300.118269
915.809050	3503.798528
916.114585	3650.319665
916.420081	3673.420752
916.725536	3622.172382
917.030952	3508.575021
917.336328	3383.519118
917.641665	3257.928852
917.946961	3158.509737
918.252218	3094.096393
918.557435	3016.825587
918.862612	2959.623614
919.167750	2910.968918
919.472848	2872.212527
919.777906	2847.316789
920.082925	2823.396514
920.387904	2792.829478
920.692843	2777.277518
920.997743	2764.972062
921.302603	2752.553179
921.607423	2744.305851
921.912204	2734.026939
922.216946	2725.083932
922.521647	2714.497509
922.826310	2704.606765
923.130932	2697.833975
923.435516	2692.079497
923.740059	2683.559947
924.044564	2674.770696
924.349028	2670.475633
924.653454	2663.355003
924.957840	2658.996925
925.262186	2655.084990
925.566493	2650.958806
925.870761	2646.073927
926.174989	2640.962197
926.479178	2637.577063
926.783328	2632.321660
927.087438	2630.443830
927.391509	2629.170939
927.695541	2625.712707
927.999533	2624.770011
928.303486	2620.076697
928.607400	2620.757253
928.911275	2623.144239
929.215110	2618.758435
929.518906	2618.279526
929.822663	2619.698611
930.126381	2617.291460
930.430060	2615.083434
930.733699	2618.385390
931.037299	2619.880092
931.340861	2619.252468
931.644383	2622.594753
931.947866	2618.889505
932.251309	2619.998559
932.554714	2619.209619
932.858080	2616.850359
933.161407	2614.239041
933.464694	2611.237034
933.767943	2607.670417
934.071153	2611.773917
934.374323	2612.487240
934.677455	2612.701489
934.980548	2610.440532
935.283602	2609.694441
935.586617	2608.734101
935.889593	2611.688217
936.192530	2611.163937
936.495428	2608.542537
936.798287	2611.766355
937.101108	2616.217694
937.403890	2620.747171
937.706632	2624.326390
938.009336	2630.171608
938.312002	2637.773668
938.614628	2648.332364
938.917216	2651.480565
939.219765	2654.900988
939.522275	2655.178251
939.824747	2649.275060
940.127179	2647.798002
940.429573	2646.338588
940.731929	2641.604945
941.034246	2639.255767
941.336524	2637.294758
941.638763	2634.645632
941.940964	2632.974489
942.243126	2628.916360
942.545250	2631.076495
942.847335	2628.707153
943.149381	2623.078704
943.451389	2617.001593
943.753359	2616.174844
944.055290	2615.663167
944.357182	2613.563526
944.659036	2614.559154
944.960851	2614.758280
945.262628	2611.267281
945.564367	2611.710902
945.866067	2614.375152
946.167729	2613.283742
946.469352	2613.886160
946.770937	2612.638475
947.072484	2610.564040
947.373992	2611.874740
947.675462	2609.167640
947.976893	2604.965838
948.278286	2604.620519
948.579641	2602.485591
948.880958	2602.178080
949.182236	2603.902155
949.483476	2600.774119
949.784678	2602.556167
950.085841	2601.416866
950.386967	2604.890221
950.688054	2603.660180
950.989103	2604.708740
951.290114	2607.579677
951.591087	2608.633278
951.892021	2613.059411
952.192917	2614.574278
952.493776	2614.755759
952.794596	2614.458331
953.095378	2615.272477
953.396122	2615.685852
953.696828	2616.275667
953.997496	2612.149483
954.298126	2609.097064
954.598718	2610.029678
954.899272	2603.372834
955.199788	2604.650766
955.500266	2600.852257
955.800706	2599.231526
956.101108	2596.055599
956.401472	2594.807913
956.701798	2592.302460
957.002087	2589.063519
957.302337	2589.141657
957.602550	2586.918508
957.902724	2585.519587
958.202861	2585.398600
958.502960	2585.091089
958.803022	2587.092427
959.103045	2584.082859
959.403031	2581.234607
959.702979	2579.132446
960.002889	2579.359297
960.302762	2581.708475
960.602596	2581.325347
960.902393	2582.961202
961.202153	2579.981880
961.501875	2578.242682
961.801559	2577.637743
962.101205	2576.082547
962.400814	2579.076993
962.700385	2580.128073
962.999918	2576.362332
963.299414	2573.733370
963.598873	2577.733525
963.898293	2571.769840
964.197677	2573.383010
964.497022	2576.977352
964.796331	2577.272260
965.095601	2576.566498
965.394835	2575.631364
965.694030	2576.594225
965.993189	2577.219328
966.292309	2576.120356
966.591393	2578.580439
966.890439	2573.690520
967.189447	2575.611200
967.488419	2577.438618
967.787353	2576.994996
968.086249	2577.786457
968.385108	2576.216138
968.683930	2575.633885
968.982714	2577.131107
969.281462	2575.666652
969.580172	2577.267219
969.878844	2575.646488
970.177480	2576.790830
970.476078	2578.479616
970.774639	2577.483988
971.073162	2577.723443
971.371649	2578.567836
971.670098	2577.257136
971.968510	2575.802763
972.266885	2577.705799
972.565223	2577.882239
972.863524	2575.631364
973.161788	2578.267888
973.460014	2576.584142
973.758204	2576.256467
974.056356	2578.416602
974.354471	2576.853844
974.652550	2577.932651
974.950591	2575.573391
975.248595	2577.259657
975.546563	2578.409040
975.844493	2574.834862
976.142386	2574.708833
976.440243	2573.864440
976.738062	2574.088771
977.035845	2574.897876
977.333590	2575.785119
977.631299	2574.421487
977.928971	2571.101887
978.226606	2568.820765
978.524204	2572.853688
978.821765	2569.798749
979.119290	2573.468709
979.416777	2571.583318
979.714228	2575.890984
980.011642	2574.308061
980.309020	2571.714388
980.606360	2578.028433
980.903664	2574.363514
981.200931	2572.906621
981.498162	2579.079513
981.795356	2575.366704
982.092513	2577.317630
982.389633	2578.648495
982.686717	2582.835173
982.983764	2587.374732
983.280775	2589.660895
983.577749	2593.313211
983.874686	2589.217274
984.171587	2588.324990
984.468451	2587.286512
984.765279	2584.097982
985.062070	2581.675708
985.358824	2578.159503
985.655543	2578.388875
985.952224	2575.918710
986.248869	2574.081209
986.545478	2576.722774
986.842050	2572.495767
987.138586	2576.241344
987.435086	2572.465520
987.731549	2572.221024
988.027975	2571.046435
988.324366	2572.989800
988.620719	2570.383523
988.917037	2571.530386
989.213318	2572.498287
989.509563	2570.806980
989.805772	2570.239850
990.101944	2570.738924
990.398080	2572.815880
990.694180	2571.840417
990.990244	2571.792526
991.286271	2571.918554
991.582262	2571.991651
991.878217	2570.002916
992.174136	2570.350756
992.470019	2569.304716
992.765865	2569.637432
993.061676	2569.191290
993.357450	2569.834037
993.653188	2567.371434
993.948890	2571.248081
994.244556	2570.567525
994.540186	2573.995510
994.835780	2573.297310
995.131337	2570.804459
995.426859	2572.647001
995.722345	2576.087589
996.017795	2575.036508
996.313208	2577.748649
996.608586	2576.316961
996.903928	2575.245716
997.199234	2575.926272
997.494504	2574.834862
997.789738	2576.891653
998.084936	2573.751014
998.380099	2573.539285
998.675225	2574.038360
998.970316	2574.507187
999.265371	2572.029460
999.560390	2571.331260
999.855373	2570.635581
1000.150320	2569.266908
1000.445232	2568.533420
1000.740108	2567.447051
1001.034948	2569.561815
1001.329752	2569.408060
1001.624521	2570.232288
1001.919254	2569.508883
1002.213951	2572.190777
1002.508613	2566.625343
1002.803239	2570.096177
1003.097829	2570.204562
1003.392384	2570.295303
1003.686903	2567.119376
1003.981386	2568.861095
1004.275834	2569.463512
1004.570246	2567.865467
1004.864623	2569.667679
1005.158964	2569.304716
1005.453270	2569.949984
1005.747540	2569.297154
1006.041775	2568.457802
1006.335974	2568.835889
1006.630138	2567.157185
1006.924266	2566.224571
1007.218359	2566.947977
1007.512416	2567.492421
1007.806438	2564.155178
1008.100425	2566.227092
1008.394376	2561.256514
1008.688292	2569.748338
1008.982172	2570.169274
1009.276017	2567.840261
1009.569827	2570.287741
1009.863602	2570.010478
1010.157341	2568.989644
1010.451045	2570.381002
1010.744714	2566.733728
1011.038347	2568.956877
1011.331945	2571.084243
1011.625508	2568.157854
1011.919036	2566.937894
1012.212528	2568.672051
1012.505986	2567.510065
1012.799408	2567.499983
1013.092795	2566.242215
1013.386147	2568.130127
1013.679464	2568.520817
1013.972745	2569.821434
1014.265992	2566.867318
1014.559204	2571.704305
1014.852380	2567.318502
1015.145521	2567.668862
1015.438628	2568.916547
1015.731699	2567.444530
1016.024736	2567.152143
1016.317737	2566.998388
1016.610703	2567.631053
1016.903635	2568.152813
1017.196531	2568.861095
1017.489393	2567.280693
1017.782219	2567.754561
1018.075011	2569.150961
1018.367768	2570.411249
1018.660490	2568.702298
1018.953177	2568.702298
1019.245829	2568.702298
