Dividing Wavelength (nm)	Counts (n)	Blue Motor Position (mm): 14.400000	Red Motor Position (mm): 0.000000	
326.493990	2170.554488
326.888308	2170.554488
327.282561	2170.554488
327.676750	2130.860443
328.070874	2127.737448
328.464933	2127.447582
328.858929	2130.507562
329.252859	2135.137862
329.646726	2144.814357
330.040528	2153.228042
330.434265	2172.376865
330.827938	2187.734740
331.221547	2206.482792
331.615091	2221.770091
332.008571	2240.384551
332.401986	2260.579413
332.795338	2279.781168
333.188625	2297.122738
333.581847	2314.313072
333.975006	2329.618015
334.368100	2348.550069
334.761129	2370.801722
335.154095	2385.907539
335.546996	2407.133317
335.939833	2432.699529
336.332606	2449.138732
336.725315	2462.926288
337.117960	2475.990438
337.510540	2489.115082
337.903056	2499.005826
338.295508	2505.216527
338.687896	2516.181037
339.080220	2519.785462
339.472480	2531.329704
339.864676	2536.144006
340.256807	2538.825900
340.648875	2545.122301
341.040879	2545.812939
341.432818	2548.124308
341.824694	2551.675801
342.216506	2552.623538
342.608253	2552.179917
342.999937	2553.266285
343.391557	2556.255689
343.783113	2553.823333
344.174605	2551.428785
344.566033	2552.605894
344.957397	2552.517674
345.348697	2549.480379
345.739934	2546.884184
346.131106	2546.185985
346.522215	2544.356046
346.913260	2543.466282
347.304241	2541.517876
347.695159	2536.673327
348.086012	2536.769109
348.476802	2535.891948
348.867528	2530.845753
349.258191	2526.051616
349.648789	2527.669827
350.039324	2521.048271
350.429796	2528.718387
350.820203	2526.459950
351.210548	2523.110103
351.600828	2523.175638
351.991045	2520.977695
352.381198	2521.887623
352.771288	2520.145904
353.161314	2519.372087
353.551276	2520.113137
353.941175	2520.070287
354.331010	2518.580626
354.720782	2518.701614
355.110490	2517.771521
355.500135	2521.731347
355.889717	2519.266223
356.279235	2519.377128
356.668689	2516.183558
357.058080	2518.474762
357.447408	2518.227745
357.836672	2519.815709
358.225873	2519.311593
358.615010	2519.999711
359.004084	2519.513240
359.393095	2522.038858
359.782043	2521.519619
360.170927	2521.859897
360.559748	2522.081708
360.948505	2523.704959
361.337199	2524.045237
361.725830	2521.391069
362.114398	2524.413241
362.502903	2524.110772
362.891344	2524.831657
363.279722	2527.896678
363.668037	2526.641431
364.056289	2526.888448
364.444478	2524.816533
364.832603	2527.571524
365.220665	2529.391381
365.608665	2528.945238
365.996601	2529.908099
366.384474	2529.860208
366.772284	2531.017153
367.160031	2529.199817
367.547715	2532.917668
367.935336	2530.684437
368.322893	2531.992616
368.710388	2527.168232
369.097820	2527.082532
369.485189	2528.226874
369.872495	2530.470188
370.259738	2532.630322
370.646918	2532.834489
371.034035	2532.090918
371.421090	2537.280786
371.808081	2533.073943
372.195010	2532.781557
372.581875	2534.137627
372.968678	2535.226516
373.355418	2532.980682
373.742096	2535.723070
374.128710	2535.251722
374.515262	2535.007226
374.901751	2536.466640
375.288177	2539.017464
375.674540	2536.796836
376.060841	2536.766589
376.447079	2536.244829
376.833254	2537.500077
377.219367	2538.566281
377.605417	2535.909592
377.991404	2535.438245
378.377329	2537.424459
378.763191	2539.811446
379.148991	2538.407484
379.534727	2536.877494
379.920402	2539.070396
380.306013	2539.191384
380.691563	2539.713143
381.077049	2538.808256
381.462474	2539.864378
381.847835	2539.493853
382.233134	2542.054759
382.618371	2539.687937
383.003545	2541.815304
383.388657	2540.502084
383.773706	2541.250695
384.158693	2541.089378
384.543618	2540.779347
384.928480	2543.136087
385.313280	2541.570808
385.698017	2543.443597
386.082692	2538.762886
386.467305	2542.763041
386.851856	2542.382434
387.236344	2543.609955
387.620770	2541.215407
388.005133	2541.752290
388.389435	2540.963349
388.773674	2536.912782
389.157851	2542.528628
389.541965	2544.043494
389.926018	2543.299924
390.310008	2544.202291
390.693936	2547.879812
391.077802	2543.620037
391.461606	2545.810419
391.845348	2545.762528
392.229027	2547.456355
392.612645	2547.214380
392.996200	2546.821170
393.379694	2545.112219
393.763125	2545.512991
394.146494	2546.400234
394.529801	2547.872251
394.913047	2546.233876
395.296230	2546.667415
395.679351	2546.218752
396.062410	2544.603062
396.445408	2547.718495
396.828343	2546.967363
397.211217	2550.458362
397.594028	2547.022816
397.976778	2549.064483
398.359466	2549.145142
398.742092	2549.593805
399.124656	2551.519525
399.507158	2550.564227
399.889598	2553.702345
400.271977	2547.521890
400.654294	2548.898125
401.036549	2548.557847
401.418742	2550.516336
401.800874	2551.655637
402.182944	2549.525749
402.564952	2551.133877
402.946898	2550.770914
403.328783	2550.647406
403.710606	2550.914587
404.092367	2552.825184
404.474067	2551.471634
404.855705	2550.110523
405.237282	2551.743857
405.618797	2553.498178
406.000250	2553.828374
406.381642	2554.519012
406.762972	2548.663712
407.144240	2545.858310
407.525447	2549.684545
407.906593	2545.775131
408.287677	2553.788045
408.668700	2553.309135
409.049661	2554.733261
409.430560	2553.432643
409.811399	2551.443908
410.192176	2552.376522
410.572891	2553.243600
410.953545	2553.276368
411.334138	2555.091183
411.714669	2554.415668
412.095139	2557.561348
412.475547	2554.022458
412.855894	2555.645710
413.236180	2554.632438
413.616405	2556.790052
413.996568	2552.416851
414.376670	2553.785524
414.756711	2556.911039
415.136691	2556.071687
415.516609	2556.182593
415.896466	2557.730227
416.276262	2556.575803
416.655997	2556.454815
417.035670	2553.944320
417.415283	2558.582182
417.794834	2557.289126
418.174324	2556.701832
418.553753	2555.136553
418.933121	2558.720814
419.312428	2554.783672
419.691674	2558.342727
420.070859	2557.813406
420.449983	2555.920453
420.829045	2558.481359
421.208047	2559.560166
421.586988	2559.882800
421.965867	2559.771894
422.344686	2557.858776
422.723444	2558.128478
423.102141	2557.437840
423.480777	2555.381049
423.859352	2558.650238
424.237866	2559.159394
424.616319	2558.037737
424.994712	2559.953376
425.373044	2560.931360
425.751314	2558.990515
426.129524	2557.999929
426.507673	2558.249466
426.885762	2554.355174
427.263789	2559.403890
427.641756	2558.559497
428.019662	2559.988664
428.397508	2559.524878
428.775292	2559.971020
429.153016	2559.774415
429.530679	2559.779456
429.908282	2560.356668
430.285824	2560.563355
430.663305	2561.115362
431.040726	2561.984961
431.418086	2562.206772
431.795385	2559.814744
432.172624	2560.505382
432.549802	2563.025959
432.926920	2563.572924
433.303977	2562.577296
433.680974	2562.410938
434.057910	2564.697102
434.434786	2560.601164
434.811601	2561.274158
435.188355	2560.681822
435.565050	2562.214333
435.941683	2560.449929
436.318257	2559.925649
436.694770	2564.308933
437.071222	2563.981258
437.447614	2563.323387
437.823946	2564.906309
438.200218	2561.342214
438.576429	2564.024107
438.952580	2563.497307
439.328670	2563.164591
439.704700	2562.988150
440.080670	2563.850188
440.456580	2562.859601
440.832429	2565.581824
441.208218	2561.382543
441.583947	2565.090312
441.959616	2566.763975
442.335224	2565.317163
442.710773	2564.999571
443.086261	2564.311453
443.461689	2565.269272
443.837057	2565.533933
444.212365	2563.278017
444.587612	2562.519323
444.962800	2560.833057
445.337927	2561.584189
445.712995	2560.820454
446.088002	2563.625856
446.462949	2564.835733
446.837837	2564.939077
447.212664	2565.813717
447.587431	2566.796742
447.962139	2567.527709
448.336786	2564.440003
448.711374	2565.556618
449.085901	2568.228430
449.460369	2566.726166
449.834776	2565.849005
450.209124	2565.254149
450.583412	2566.786660
450.957640	2567.197514
451.331808	2567.280693
451.705917	2569.115673
452.079965	2565.806155
452.453954	2566.012843
452.827883	2568.712381
453.201752	2568.324212
453.575562	2567.116855
453.949311	2567.711712
454.323001	2568.387226
454.696632	2568.795560
455.070202	2568.397308
455.443713	2570.711198
455.817164	2570.817062
456.190556	2570.774213
456.563888	2570.562484
456.937160	2569.208934
457.310373	2570.035683
457.683526	2568.001578
458.056619	2568.362020
458.429653	2569.713050
458.802628	2569.329922
459.175542	2566.821948
459.548398	2572.762948
459.921194	2569.299675
460.293930	2570.801939
460.666607	2570.411249
461.039224	2572.132803
461.411782	2571.863102
461.784280	2571.905952
462.156719	2572.810839
462.529099	2574.101374
462.901419	2571.512742
463.273680	2571.800087
463.645882	2570.449058
464.018024	2569.516445
464.390106	2567.643656
464.762130	2572.679769
465.134094	2575.394430
465.505999	2575.180181
465.877845	2576.014492
466.249631	2577.330233
466.621358	2576.221179
466.993026	2577.236972
467.364634	2579.495409
467.736184	2580.249061
468.107674	2574.048442
468.479105	2578.048597
468.850477	2575.936354
469.221790	2577.189081
469.593043	2575.119687
469.964238	2574.323185
470.335373	2575.694379
470.706449	2575.616241
471.077467	2575.465006
471.448425	2576.803433
471.819324	2579.530697
472.190164	2580.818712
472.560945	2576.833679
472.931667	2577.978021
473.302330	2577.879719
473.672934	2580.107909
474.043479	2576.848803
474.413965	2576.886612
474.784393	2577.156313
475.154761	2578.043556
475.525070	2580.060018
475.895321	2576.740418
476.265513	2580.246541
476.635645	2579.402147
477.005719	2577.393247
477.375734	2578.035995
477.745691	2579.855851
478.115588	2581.342992
478.485427	2579.631520
478.855207	2582.560430
479.224928	2580.937179
479.594591	2582.658733
479.964194	2586.588312
480.333739	2583.213260
480.703226	2584.997828
481.072653	2585.456573
481.442022	2582.830132
481.811333	2581.431212
482.180584	2581.615214
482.549777	2583.903898
482.918912	2583.165369
483.287988	2582.300811
483.657005	2584.833991
484.025964	2587.314238
484.394864	2583.414906
484.763706	2585.726275
485.132489	2583.190574
485.501213	2583.598908
485.869879	2582.452045
486.238487	2584.586974
486.607036	2585.615369
486.975527	2583.598908
487.343959	2585.917839
487.712333	2583.165369
488.080648	2584.987746
488.448905	2584.334916
488.817104	2584.065215
489.185244	2589.038313
489.553326	2585.910277
489.921350	2588.554362
490.289315	2590.628797
490.657222	2590.406986
491.025070	2591.914291
491.392861	2590.840525
491.760593	2587.525967
492.128267	2588.536718
492.495883	2588.703076
492.863440	2586.500092
493.230939	2589.494537
493.598380	2589.814651
493.965763	2586.336254
494.333088	2585.012952
494.700354	2587.856162
495.067563	2587.420102
495.434713	2587.634352
495.801805	2588.214084
496.168839	2586.648806
496.535815	2586.525298
496.902733	2588.856831
497.269593	2588.146029
497.636395	2588.952613
498.003139	2590.303642
498.369825	2587.203333
498.736453	2588.355237
499.103023	2586.603436
499.469535	2589.060998
499.835989	2587.611666
500.202385	2586.757191
500.568723	2585.254927
500.935003	2587.606625
501.301226	2585.769125
501.667390	2590.273396
502.033497	2593.187183
502.399546	2590.704414
502.765537	2589.849939
503.131470	2592.332707
503.497345	2594.419745
503.863163	2593.179621
504.228923	2592.120978
504.594625	2593.749271
504.960269	2592.068046
505.325856	2593.809765
505.691385	2595.501072
506.056856	2594.288675
506.422270	2593.532502
506.787625	2597.245311
507.152924	2596.930239
507.518164	2595.259097
507.883347	2596.998295
508.248472	2597.482246
508.613540	2596.320260
508.978550	2601.033738
509.343503	2597.676330
509.708398	2600.602720
510.073236	2604.154213
510.438016	2603.408122
510.802738	2603.881990
511.167403	2601.963831
511.532010	2601.265632
511.896561	2607.246961
512.261053	2605.439707
512.625488	2604.764192
512.989866	2606.894080
513.354186	2607.622527
513.718449	2607.433483
514.082655	2609.762496
514.446803	2609.437342
514.810894	2612.446911
515.174927	2611.675614
515.538904	2612.313320
515.902822	2612.013372
516.266684	2614.153341
516.630488	2618.423199
516.994235	2614.959926
517.357925	2616.900770
517.721558	2618.755915
518.085133	2618.284567
518.448651	2619.106275
518.812112	2618.584516
519.175516	2616.699124
519.538863	2617.835904
519.902152	2622.224229
520.265385	2627.593057
520.628560	2626.098355
520.991678	2627.141874
521.354739	2625.498458
521.717743	2627.114148
522.080690	2630.272431
522.443580	2629.022225
522.806413	2632.195631
523.169189	2631.817544
523.531908	2632.891310
523.894569	2636.175622
524.257174	2636.213431
524.619722	2638.277783
524.982213	2638.829789
525.344647	2642.633340
525.707025	2640.243833
526.069345	2643.134935
526.431608	2642.857671
526.793815	2643.419760
527.155964	2647.601397
527.518057	2643.334060
527.880093	2647.200625
528.242072	2649.822025
528.603995	2649.968219
528.965860	2650.938641
529.327669	2650.036274
529.689421	2652.849238
530.051117	2654.061636
530.412755	2655.412665
530.774337	2659.420382
531.135862	2657.724034
531.497331	2661.792245
531.858743	2661.298212
532.220098	2664.784170
532.581396	2668.799449
532.942638	2666.062102
533.303824	2667.337514
533.664953	2672.971004
534.026025	2669.623678
534.387040	2675.025274
534.747999	2678.042405
535.108902	2679.711027
535.469748	2679.582477
535.830537	2680.875533
536.191270	2689.306863
536.551947	2682.619772
536.912567	2685.102541
537.273131	2693.178469
537.633638	2689.705114
537.994089	2697.176104
538.354483	2696.450178
538.714821	2705.055427
539.075103	2707.132383
539.435328	2710.615820
539.795497	2710.313351
540.155609	2713.816953
540.515665	2716.985318
540.875665	2719.001780
541.235609	2724.781462
541.595496	2727.342369
541.955328	2732.060889
542.315102	2740.739235
542.674821	2738.168247
543.034483	2740.396437
543.394090	2747.428846
543.753640	2749.601583
544.113134	2760.130033
544.472571	2760.951741
544.831953	2768.518513
545.191278	2767.401898
545.550548	2774.835079
545.909761	2780.120729
546.268918	2790.802934
546.628019	2795.229067
546.987064	2798.803245
547.346053	2802.821045
547.704986	2809.500573
548.063863	2821.886688
548.422684	2823.144456
548.781449	2827.247956
549.140158	2838.643484
549.498811	2842.895697
549.857408	2847.357118
550.215949	2863.508975
550.574434	2863.725745
550.932864	2877.336860
551.291237	2884.129815
551.649555	2897.267062
552.007817	2905.370717
552.366022	2912.846748
552.724173	2921.159611
553.082267	2933.197886
553.440305	2953.919549
553.798288	2950.257151
554.156215	2975.283959
554.514086	2987.102944
554.871902	2985.658653
555.229661	3000.429234
555.587365	3016.248375
555.945014	3027.711959
556.302606	3052.658109
556.660143	3061.268399
557.017625	3086.471648
557.375050	3091.543049
557.732421	3111.168261
558.089735	3130.049903
558.446994	3147.237717
558.804197	3166.162208
559.161345	3190.634489
559.518437	3191.244469
559.875474	3219.996690
560.232455	3238.464957
560.589381	3261.437495
560.946251	3278.297634
561.303065	3312.655618
561.659825	3339.139320
562.016528	3349.284642
562.373177	3365.335676
562.729770	3387.083214
563.086307	3424.864141
563.442789	3454.518729
563.799216	3476.309116
564.155587	3499.057323
564.511904	3538.201883
564.868164	3548.301834
565.224370	3588.815067
565.580520	3599.588013
565.936615	3650.070128
566.292654	3657.231087
566.648638	3716.273080
567.004567	3730.065677
567.360441	3759.599277
567.716260	3777.679375
568.072023	3838.939477
568.427732	3872.332080
568.783385	3886.941344
569.138982	3931.913477
569.494525	3986.194101
569.850013	4016.562012
570.205445	4048.863205
570.560823	4062.865010
570.916145	4107.590127
571.271412	4139.074653
571.626625	4185.486036
571.981782	4224.378538
572.336884	4244.717073
572.691931	4300.431906
573.046923	4308.422135
573.401860	4362.811143
573.756743	4421.774999
574.111570	4450.842293
574.466342	4484.733970
574.821059	4545.167322
575.175722	4553.470103
575.530330	4617.102067
575.884882	4662.416999
576.239380	4709.786201
576.593823	4743.705605
576.948211	4780.027118
577.302544	4809.646417
577.656823	4848.211244
578.011047	4917.615330
578.365216	4950.584476
578.719330	5001.232949
579.073389	5030.572464
579.427394	5122.608810
579.781344	5121.424139
580.135239	5189.494839
580.489080	5225.193770
580.842866	5232.392538
581.196597	5350.045507
581.550273	5371.961923
581.903895	5452.650632
582.257463	5540.850659
582.610975	5540.596081
582.964434	5642.371936
583.317837	5665.256254
583.671186	5732.293518
584.024481	5811.119520
584.377721	5808.417462
584.730906	5884.206168
585.084037	5962.137366
585.437113	6001.395351
585.790135	6082.620943
586.143103	6065.720474
586.496016	6107.037771
586.848874	6252.442292
587.201679	6285.547550
587.554428	6280.869359
587.907124	6411.767960
588.259765	6432.998779
588.612352	6543.793258
588.964884	6514.456263
589.317362	6612.219360
589.669786	6681.736872
590.022155	6749.875628
590.374470	6873.439349
590.726731	6899.305510
591.078937	6903.507312
591.431090	6990.318501
591.783188	6986.782132
592.135232	7026.403081
592.487222	7152.416803
592.839157	7210.609363
593.191038	7261.179697
593.542866	7272.650843
593.894639	7289.349665
594.246358	7412.048829
594.598022	7438.610669
594.949633	7446.265661
595.301190	7488.752506
595.652692	7611.703727
596.004141	7749.480982
596.355535	7621.536498
596.706876	7692.195831
597.058162	7736.918427
597.409395	7844.506732
597.760573	7958.290616
598.111698	7960.690205
598.462768	8007.870364
598.813785	8052.524905
599.164748	8063.602840
599.515657	8139.363821
599.866511	8150.706417
600.217312	8317.414854
600.568060	8228.257007
600.918753	8418.540400
601.269392	8467.981517
601.619978	8430.772760
601.970510	8607.339174
602.320988	8626.866083
602.671412	8775.438969
603.021783	8802.749420
603.372100	8772.404195
603.722363	8900.867918
604.072572	8951.571843
604.422728	9046.960557
604.772830	9055.752329
605.122878	9062.381446
605.472872	9158.609511
605.822813	9226.022341
606.172701	9269.593034
606.522534	9424.225387
606.872314	9496.613836
607.222041	9473.411925
607.571714	9645.088419
607.921333	9659.284308
608.270899	9756.177806
608.620411	9931.776318
608.969870	9854.303866
609.319276	9931.297408
609.668627	10033.960506
610.017926	10150.537189
610.367171	10268.011197
610.716362	10388.088961
611.065500	10333.190796
611.414585	10465.652154
611.763616	10537.481035
612.112594	10589.659498
612.461518	10614.361152
612.810389	10780.295772
613.159207	10750.857954
613.507971	10781.515731
613.856682	11041.936697
614.205340	11045.221009
614.553945	11216.600075
614.902496	11100.777045
615.250994	11346.487925
615.599439	11364.512570
615.947830	11412.403532
616.296169	11472.403345
616.644454	11552.698843
616.992686	11564.497664
617.340864	11766.905032
617.688990	11710.439068
618.037063	11885.462888
618.385082	11860.400792
618.733048	12071.136146
619.080961	12047.503217
619.428821	12153.649752
619.776628	12167.162565
620.124382	12163.054025
620.472083	12261.374169
620.819731	12348.656706
621.167326	12215.839947
621.514868	12298.560240
621.862357	12228.387378
622.209793	12292.629323
622.557176	12253.225143
622.904506	12183.896675
623.251783	12195.468644
623.599007	12147.111376
623.946179	12159.628561
624.293297	12187.906913
624.640363	12090.746234
624.987376	12139.247176
625.334336	12052.771222
625.681243	12018.115810
626.028097	12056.804146
626.374899	12111.379677
626.721647	12034.834797
627.068343	11980.085346
627.414987	11983.041983
627.761577	12039.402082
628.108115	12125.784774
628.454600	11962.161523
628.801032	12056.761296
629.147412	12063.972666
629.493739	12126.830814
629.840014	12052.004967
630.186236	12150.093218
630.532405	12038.091383
630.878521	12215.469422
631.224585	12176.294615
631.570597	12108.281888
631.916556	12144.542908
632.262462	12169.325220
632.608316	12168.266578
632.954117	12154.784012
633.299866	12200.643388
633.645562	12195.146010
633.991206	12039.056763
634.336797	11965.760907
634.682336	12012.809996
635.027823	11962.844600
635.373257	11936.116402
635.718639	11879.584903
636.063968	11880.547763
636.409245	11742.538615
636.754470	11793.418981
637.099642	11723.414998
637.444762	11567.640823
637.789829	11656.733135
638.134845	11562.390462
638.479808	11612.292843
638.824719	11619.312650
639.169577	11519.371775
639.514383	11592.705440
639.859137	11482.011784
640.203839	11571.635938
640.548489	11465.381018
640.893086	11504.949034
641.237632	11402.469938
641.582125	11576.165414
641.926566	11468.090638
642.270955	11503.658499
642.615292	11500.464928
642.959576	11535.397603
643.303809	11597.015627
643.647990	11564.946327
643.992118	11640.772842
644.336195	11474.591206
644.680219	11658.116932
645.024192	11640.966927
645.368112	11851.682116
645.711981	11929.835124
646.055797	12091.204979
646.399562	12088.364289
646.743274	12315.995071
647.086935	12584.567583
647.430544	12574.674318
647.774101	12607.404010
648.117606	12789.780353
648.461059	12759.195673
648.804460	12815.671719
649.147810	12603.303031
649.491108	12517.550484
649.834354	12587.778798
650.177548	12348.772653
650.520690	12213.740306
650.863781	12162.207111
651.206820	12219.605688
651.549807	12094.186822
651.892742	11963.217645
652.235626	11919.420100
652.578458	11944.966147
652.921238	11694.365349
653.263967	11877.240766
653.606644	11750.261663
653.949269	11736.809343
654.291843	11592.816346
654.634365	11738.901422
654.976836	11625.581325
655.319255	11658.328660
655.661622	11634.935186
656.003938	11568.848180
656.346203	11532.947603
656.688416	11607.337389
657.030577	11589.211921
657.372687	11553.676827
657.714746	11531.147911
658.056753	11706.910260
658.398708	11578.262534
658.740612	11583.495252
659.082465	11689.419977
659.424266	11651.381950
659.766016	11689.800584
660.107715	11623.088474
660.449362	11695.791995
660.790958	11691.413753
661.132503	11651.185345
661.473996	11714.590458
661.815438	11743.919891
662.156829	11755.020512
662.498168	11762.806574
662.839456	11771.227821
663.180693	11800.627831
663.521879	11889.541182
663.863013	11892.281049
664.204097	11882.667568
664.545129	11996.159065
664.886110	11971.258285
665.227040	12063.392934
665.567918	12081.183166
665.908746	12125.184877
666.249522	12112.345058
666.590248	12156.946667
666.930922	12271.562341
667.271545	12273.099893
667.612118	12357.340094
667.952639	12282.194134
668.293109	12291.240485
668.633528	12266.228800
668.973896	12246.979154
669.314213	12354.690968
669.654480	12124.552212
669.994695	12180.650172
670.334859	12212.023793
670.674973	12174.799913
671.015035	12220.039228
671.355047	12171.714727
671.695008	12153.506079
672.034918	12163.994200
672.374777	12203.179089
672.714585	12123.576749
673.054342	12168.831187
673.394049	12122.129938
673.733705	12212.162425
674.073310	12145.500727
674.412864	12182.344000
674.752368	12056.355483
675.091820	12054.908672
675.431223	12075.852145
675.770574	11959.000720
676.109875	11892.301213
676.449125	11863.662418
676.788324	11799.604476
677.127473	11658.555512
677.466571	11648.591672
677.805619	11558.818804
678.144616	11484.844912
678.483562	11453.579676
678.822458	11333.461583
679.161303	11318.070940
679.500098	11318.602782
679.838842	11270.222829
680.177535	11292.477002
680.516179	11353.648884
680.854771	11312.160187
681.193314	11522.078875
681.531805	11664.499033
681.870247	12048.143443
682.208638	12439.626848
682.546978	12763.972166
682.885268	12844.015607
683.223508	12538.529245
683.561697	12379.616953
683.899836	12289.997840
684.237925	12102.383738
684.575963	12023.351049
684.913951	11963.298303
685.251889	11902.219683
685.589776	12001.265754
685.927614	11937.790065
686.265401	11894.796584
686.603137	11937.394334
686.940824	12094.035587
687.278460	12197.401926
687.616046	12258.891400
687.953582	12428.223758
688.291068	12345.508506
688.628504	12560.969942
688.965889	12566.353894
689.303224	12556.858881
689.640510	12460.766927
689.977745	12175.684636
690.314930	11952.046448
690.652065	11875.713297
690.989150	11591.903897
691.326185	11367.812005
691.663170	11169.760194
692.000105	10931.074163
692.336990	10832.040695
692.673825	10588.207645
693.010610	10474.499379
693.347345	10275.434296
693.684030	10064.862779
694.020665	10014.453762
694.357251	9820.949071
694.693786	9789.295666
695.030272	9609.323953
695.366707	9493.445470
695.703093	9426.496427
696.039429	9423.290253
696.375716	9357.805664
696.711952	9230.619873
697.048139	9262.782435
697.384276	9220.582936
697.720363	9232.681705
698.056400	9176.097274
698.392388	9132.392991
698.728326	9095.895037
699.064214	9020.565075
699.400053	9077.767048
699.735842	8891.246876
700.071581	8848.192902
700.407270	8781.400134
700.742910	8704.588072
701.078501	8620.844425
701.414042	8494.661823
701.749533	8419.997294
702.084974	8292.347717
702.420366	8398.025425
702.755709	8285.282540
703.091002	8155.384608
703.426246	8181.903598
703.761440	8138.048080
704.096584	8094.840350
704.431679	8021.915019
704.766725	8015.840428
705.101721	7967.009292
705.436668	8005.601845
705.771565	7900.990341
706.106413	7983.796334
706.441212	8031.750310
706.775961	7976.285015
707.110661	8002.047831
707.445311	8163.538674
707.779913	8059.688384
708.114465	8187.358126
708.448967	8234.192966
708.783421	8356.824074
709.117825	8538.850057
709.452180	8576.298269
709.786485	8658.779107
710.120742	8937.900234
710.454949	8940.183877
710.789107	9036.840440
711.123216	9235.487107
711.457275	9393.791941
711.791286	9565.823837
712.125247	9560.860821
712.459159	9548.094099
712.793023	9812.595879
713.126837	9382.068738
713.460602	9530.850832
713.794318	9359.890182
714.127985	9389.880006
714.461602	9084.605373
714.795171	9036.316160
715.128691	8797.385632
715.462162	8538.335860
715.795584	8481.038105
716.128957	8358.369188
716.462281	8178.553751
716.795556	8232.857060
717.128782	8029.756533
717.461960	7756.468022
717.795088	7833.620361
718.128167	7734.778457
718.461198	7570.767038
718.794180	7510.961309
719.127113	7507.109867
719.459997	7370.602983
719.792833	7128.567104
720.125619	7195.221241
720.458357	7049.622635
720.791046	7040.109978
721.123686	7039.784823
721.456278	6887.181535
721.788821	6905.082672
722.121315	6795.664428
722.453761	6854.156936
722.786158	6811.581871
723.118506	6821.931360
723.450805	6786.711339
723.783056	6856.478387
724.115259	6756.991216
724.447412	6752.696153
724.779518	6802.331354
725.111574	6804.935110
725.443582	6882.047120
725.775542	6861.675817
726.107453	7044.790689
726.439315	6964.500232
726.771129	7005.399113
727.102895	7169.178640
727.434612	7289.425282
727.766281	7314.401679
728.097901	7401.926192
728.429473	7388.357927
728.760996	7356.641507
729.092471	7343.665577
729.423897	7295.056251
729.755276	7307.147459
730.086606	7243.959116
730.417887	7342.967377
730.749120	7503.626430
731.080305	7698.598096
731.411442	7840.269643
731.742530	7838.820311
732.073570	7935.547450
732.404562	8020.574072
732.735506	7863.675720
733.066401	8011.487392
733.397249	7944.180426
733.728048	7720.164152
734.058798	7387.074953
734.389501	7173.261974
734.720156	7000.975501
735.050762	6758.422904
735.381320	6650.811913
735.711831	6613.802282
736.042293	6508.346385
736.372707	6527.265835
736.703073	6394.486884
737.033391	6430.626916
737.363661	6438.448266
737.693883	6456.548529
738.024056	6542.096910
738.354182	6590.509631
738.684260	6629.931454
739.014290	6729.600107
739.344272	6836.147414
739.674207	6867.420212
740.004093	6925.025477
740.333931	6947.249403
740.663722	6957.447658
740.993464	7032.525562
741.323159	7036.109822
741.652806	6784.203365
741.982405	6776.069463
742.311956	6844.177972
742.641460	6700.994079
742.970915	6503.272464
743.300323	6495.612430
743.629683	6439.375839
743.958996	6307.889943
744.288260	6223.707715
744.617477	6165.505074
744.946647	6176.880437
745.275768	6012.120406
745.604842	5964.864630
745.933869	5948.715294
746.262847	5903.218880
746.591778	5898.086986
746.920662	5854.186097
747.249498	5842.339386
747.578286	5885.345469
747.907027	5961.464372
748.235720	6025.048445
748.564365	5990.282128
748.892963	6007.674108
749.221514	6168.983470
749.550017	6023.221027
749.878473	5885.587445
750.206881	5935.207522
750.535242	5879.482607
750.863555	5812.573893
751.191821	5838.374518
751.520039	5832.221790
751.848210	5746.396146
752.176334	5764.685452
752.504411	5817.047917
752.832440	5746.716259
753.160421	5664.631151
753.488356	5715.657710
753.816243	5751.666672
754.144082	5604.429692
754.471875	5570.648920
754.799620	5615.474860
755.127318	5630.437004
755.454969	5576.904992
755.782572	5544.755033
756.110129	5587.975366
756.437638	5586.999902
756.765100	5518.193193
757.092515	5513.565414
757.419882	5552.147885
757.747203	5542.582296
758.074477	5606.713334
758.401703	5598.309731
758.728882	5550.164191
759.056014	5589.901086
759.383099	5733.553806
759.710138	5735.567747
760.037129	5718.153081
760.364073	5725.745059
760.690970	5807.084076
761.017820	5794.519000
761.344623	5740.523202
761.671379	5837.998952
761.998088	5948.183452
762.324751	6175.796589
762.651366	6734.547999
762.977935	7989.268506
763.304456	9583.082227
763.630931	10510.334421
763.957359	10179.637250
764.283740	9268.178990
764.610074	8460.762584
764.936362	7487.499779
765.262602	6893.356948
765.588796	6348.768660
765.914943	6010.618142
766.241044	5851.736097
766.567097	5667.643240
766.893104	5408.870731
767.219064	5226.965736
767.544978	5166.164379
767.870845	5093.453297
768.196665	4984.871884
768.522438	4915.742541
768.848165	4885.001585
769.173846	4820.754600
769.499479	4780.551398
769.825066	4727.352102
770.150607	4663.311804
770.476101	4633.747957
770.801548	4635.015807
771.126949	4564.691711
771.452303	4514.386037
771.777611	4470.066733
772.102872	4485.860668
772.428087	4449.771047
772.753256	4410.134975
773.078378	4371.688615
773.403453	4302.622287
773.728482	4287.118218
774.053465	4242.403184
774.378401	4226.916759
774.703291	4232.860280
775.028135	4166.153211
775.352932	4110.448461
775.677683	4101.520578
776.002388	4118.032877
776.327046	4135.850836
776.651658	4060.374680
776.976224	3995.051409
777.300743	4002.688757
777.625216	4018.646529
777.949643	4021.255326
778.274024	3974.677585
778.598359	3926.138836
778.922647	3943.687092
779.246889	3940.969910
779.571086	3937.854477
779.895236	3925.745626
780.219339	3911.849685
780.543397	3898.246131
780.867409	3952.831745
781.191374	3964.857418
781.515294	3911.015374
781.839167	3903.622522
782.162995	3919.182043
782.486776	3904.532450
782.810511	3913.278852
783.134201	3915.103750
783.457844	3877.136300
783.781441	3815.740087
784.104993	3819.412567
784.428498	3838.596678
784.751958	3837.258252
785.075372	3817.978359
785.398739	3777.636526
785.722061	3786.292187
786.045337	3828.584947
786.368568	3864.263713
786.691752	3780.149541
787.014891	3821.663443
787.337983	3938.882872
787.661030	4090.523301
787.984031	4258.444135
788.306987	4431.350671
788.629897	4507.487218
788.952760	4465.809478
789.275579	4391.689393
789.598351	4340.453626
789.921078	4206.658883
790.243759	4011.029346
790.566395	3980.537927
790.888984	3983.517249
791.211529	3876.491032
791.534027	3815.810663
791.856480	3813.993327
792.178888	3750.837752
792.501249	3699.791028
792.823566	3708.459292
793.145836	3740.964652
793.468062	3690.966488
793.790241	3642.972183
794.112375	3671.502593
794.434464	3730.942838
794.756507	3757.439143
795.078505	3741.287286
795.400457	3769.419445
795.722364	3896.408631
796.044226	4001.236904
796.366042	4073.552256
796.687812	4062.388621
797.009538	4073.418666
797.331218	4024.078372
797.652852	3994.471676
797.974442	3977.490549
798.295986	3982.198987
798.617484	3908.081422
798.938938	3816.561795
799.260346	3852.336343
799.581709	3850.884491
799.903026	3782.032412
800.224299	3748.302051
800.545526	3738.179414
800.866708	3703.410576
801.187845	3636.345586
801.508936	3672.530988
801.829983	3680.654808
802.150984	3600.170266
802.471940	3585.003955
802.792851	3599.681274
803.113717	3597.279164
803.434538	3602.766460
803.755314	3549.365518
804.076045	3513.812780
804.396731	3535.154505
804.717372	3558.502609
805.037967	3552.143193
805.358518	3540.596431
805.679024	3565.456881
805.999485	3573.966348
806.319901	3579.257039
806.640272	3593.833536
806.960598	3610.844909
807.280879	3585.167792
807.601115	3593.888988
807.921306	3609.506483
808.241453	3649.555930
808.561554	3630.243269
808.881611	3564.312539
809.201623	3596.197837
809.521590	3611.817852
809.841513	3580.502204
810.161390	3610.849951
810.481223	3594.904781
810.801011	3539.520144
811.120755	3524.885675
811.440453	3558.686611
811.760107	3570.051892
812.079716	3529.813403
812.399281	3490.346209
812.718801	3511.912265
813.038276	3489.985767
813.357707	3484.642143
813.677093	3507.423118
813.996434	3460.734471
814.315731	3460.689101
814.634983	3464.215388
814.954191	3474.648056
815.273354	3506.407325
815.592473	3507.748272
815.911547	3506.782891
816.230577	3541.892007
816.549562	3593.611725
816.868502	3639.009836
817.187399	3660.727127
817.506250	3657.568844
817.825058	3627.510964
818.143821	3710.407698
818.462539	3815.888801
818.781213	3858.179041
819.099843	3910.914551
819.418429	4139.031804
819.736970	4374.244480
820.055466	4605.439358
820.373919	4958.793995
820.692327	5362.908011
821.010691	5764.829125
821.329011	7024.769747
821.647286	9597.736861
821.965517	13948.741622
822.283704	17931.207790
822.601847	20240.557847
822.919945	18527.659469
823.237999	16058.041050
823.556010	13628.807314
823.873976	11613.137237
824.191897	9568.871214
824.509775	8215.956592
824.827609	7103.177333
825.145398	6552.874897
825.463144	6440.424399
825.780845	6556.867491
826.098502	6713.541511
826.416116	7505.703385
826.733685	8774.680276
827.051210	9885.536334
827.368692	10021.793682
827.686129	8839.363321
828.003522	7351.328131
828.320872	6349.333269
828.638177	5671.093910
828.955439	5122.056804
829.272656	4639.013442
829.589830	4351.617261
829.906960	4181.715253
830.224046	4000.447964
830.541088	3876.047410
830.858086	3834.921677
831.175041	3760.599946
831.491952	3736.914085
831.808819	3750.328595
832.125642	3811.061896
832.442421	3952.307465
832.759157	4205.663255
833.075849	4722.502512
833.392497	5546.411052
833.709101	6301.999355
834.025662	6662.651063
834.342179	6350.296130
834.658653	5704.857038
834.975083	5076.220112
835.291469	4518.794526
835.607811	4106.725569
835.924110	3973.132472
836.240366	3785.147845
836.556578	3580.121597
836.872746	3468.681850
837.188871	3437.081378
837.504952	3378.130124
837.820990	3290.686270
838.136984	3242.354207
838.452935	3265.964451
838.768842	3265.828340
839.084706	3285.940023
839.400526	3427.742640
839.716303	3742.968511
840.032037	4236.842791
840.347727	4522.777037
840.663373	4276.468781
840.978977	3903.798962
841.294537	3605.844085
841.610054	3380.907800
841.925527	3272.152468
842.240957	3206.410780
842.556344	3153.881957
842.871687	3096.228801
843.186987	3051.917059
843.502244	3012.215452
843.817458	2979.253868
844.132629	2945.359670
844.447756	2955.504992
844.762840	2944.575770
845.077881	2913.567633
845.392879	2894.338152
845.707833	2892.054509
846.022745	2888.434960
846.337613	2890.816906
846.652438	2880.444732
846.967221	2877.641850
847.281960	2862.533512
847.596656	2859.256762
847.911309	2861.595857
848.225919	2852.725947
848.540485	2846.870647
848.855009	2849.028261
849.169490	2838.303206
849.483928	2829.753409
849.798323	2826.884992
850.112675	2823.144456
850.426984	2834.010663
850.741251	2833.567042
851.055474	2825.589416
851.369654	2817.306800
851.683792	2820.117243
851.997887	2828.256186
852.311938	2829.168635
852.625947	2822.741164
852.939914	2824.369457
853.253837	2828.281392
853.567718	2816.800164
853.881555	2810.675162
854.195350	2827.837771
854.509103	2825.012204
854.822812	2816.734629
855.136479	2812.870585
855.450103	2816.805205
855.763685	2808.663742
856.077224	2803.834317
856.390720	2818.330154
856.704173	2830.590241
857.017584	2822.874755
857.330953	2817.281594
857.644278	2827.177379
857.957561	2835.376816
858.270802	2836.377485
858.584000	2836.183401
858.897155	2826.670743
859.210268	2824.492965
859.523339	2826.975733
859.836367	2820.702017
860.149352	2817.541214
860.462295	2810.133238
860.775195	2819.555155
861.088054	2820.893581
861.400869	2802.195942
861.713642	2798.001702
862.026373	2813.709937
862.339062	2818.695638
862.651708	2823.217553
862.964312	2827.817606
863.276873	2819.459373
863.589392	2827.923470
863.901869	2839.364369
864.214303	2858.435054
864.526696	2875.479195
864.839045	2871.189173
865.151353	2872.938453
865.463619	2868.101466
865.775842	2871.078268
866.088023	2886.577295
866.400162	2896.841084
866.712258	2868.512320
867.024313	2857.583099
867.336325	2866.047196
867.648296	2882.821636
867.960224	2878.634957
868.272110	2862.465456
868.583954	2869.265973
868.895755	2886.473952
869.207515	2872.898124
869.519233	2870.821169
869.830909	2884.545710
870.142542	2893.634911
870.454134	2894.612894
870.765684	2900.132958
871.077191	2892.944273
871.388657	2899.331414
871.700081	2917.209867
872.011463	2927.468615
872.322803	2927.294695
872.634101	2928.411310
872.945357	2941.107456
873.256571	2966.406487
873.567744	2962.570169
873.878874	2952.399641
874.189963	2973.451499
874.501010	2979.092551
874.812015	2970.000830
875.122979	2967.976806
875.433900	2963.764922
875.744780	2967.379430
876.055618	2974.036273
876.366415	2973.925368
876.677169	2984.652943
876.987882	2984.663026
877.298554	2974.822693
877.609183	2990.377173
877.919771	3015.431708
878.230317	3038.479863
878.540822	3090.910384
878.851285	3126.833646
879.161707	3165.038031
879.472087	3257.553286
879.782425	3461.384780
880.092722	3869.425855
880.402977	4372.172566
880.713191	4961.473368
881.023363	6046.135592
881.333494	7292.545757
881.643583	7864.066409
881.953631	7583.417813
882.263637	7006.818198
882.573602	6454.295133
882.883526	5894.464917
883.193408	5331.945244
883.503248	4873.492631
883.813048	4580.684772
884.122806	4306.506496
884.432522	4003.031555
884.742197	3775.801546
885.051831	3584.832556
885.361424	3452.512349
885.670975	3383.861916
885.980485	3306.361738
886.289954	3232.425655
886.599382	3189.210363
886.908768	3152.160403
887.218113	3105.970831
887.527417	3055.652554
887.836680	3006.937364
888.145901	2999.892351
888.455082	2994.014366
888.764221	2947.444187
889.073319	2915.737850
889.382376	2916.577202
889.691392	2915.168199
890.000366	2915.137952
890.309300	2904.750655
890.618193	2915.763055
890.927044	2932.023297
891.235855	2936.517486
891.544625	2917.953437
891.853353	2928.358378
892.162041	2943.706171
892.470687	2982.381903
892.779293	3031.500386
893.087858	3074.539237
893.396381	3142.133548
893.704864	3251.939961
894.013306	3473.574290
894.321707	3760.839401
894.630068	3966.962099
894.938387	3971.776401
895.246665	3923.464503
895.554903	3815.082216
895.863100	3623.457876
896.171256	3464.336376
896.479371	3334.055316
896.787446	3214.673232
897.095480	3119.052625
897.403473	3054.591391
897.711425	3016.709641
898.019336	3008.275790
898.327207	2982.339054
898.635038	2949.105247
898.942827	2935.337856
899.250576	2923.095414
899.558284	2895.053995
899.865952	2876.310985
900.173579	2855.236442
900.481165	2848.040195
900.788711	2838.237671
901.096216	2814.128353
901.403681	2800.910447
901.711105	2809.243475
902.018489	2806.896817
902.325832	2807.065696
902.633135	2815.302942
902.940397	2844.486181
903.247619	2919.120464
903.554800	3094.918101
903.861941	3411.172367
904.169041	3813.524500
904.476101	4114.662866
904.783121	4095.844239
905.090100	3862.998384
905.397039	3599.613219
905.703938	3360.864173
906.010796	3183.150897
906.317614	3074.957653
906.624391	2986.717296
906.931129	2915.909249
907.237826	2861.142153
907.544483	2813.909062
907.851099	2783.057201
908.157675	2765.597165
908.464211	2745.258629
908.770707	2734.662124
909.077163	2719.818447
909.383578	2708.642208
909.689954	2695.583099
909.996289	2693.080167
910.302584	2694.831967
910.608839	2696.493028
910.915054	2690.123530
911.221229	2683.103723
911.527363	2683.403672
911.833458	2693.473377
912.139513	2695.550332
912.445527	2696.422452
912.751502	2707.500387
913.057436	2718.414485
913.363331	2727.806155
913.669186	2747.363311
913.975000	2776.954884
914.280775	2834.456806
914.586510	2899.553225
914.892205	2973.378403
915.197859	3088.281422
915.503475	3268.553084
915.809050	3472.326605
916.114585	3609.287193
916.420081	3639.869353
916.725536	3582.445569
917.030952	3475.958756
917.336328	3352.485775
917.641665	3227.298801
917.946961	3131.789101
918.252218	3066.425500
918.557435	2992.411279
918.862612	2939.103598
919.167750	2889.753222
919.472848	2853.764425
919.777906	2827.560507
920.082925	2802.768112
920.387904	2775.092178
920.692843	2760.467791
920.997743	2747.297776
921.302603	2735.090622
921.607423	2726.180383
921.912204	2716.302242
922.216946	2706.219934
922.521647	2696.402287
922.826310	2688.903571
923.130932	2681.767817
923.435516	2673.333967
923.740059	2667.385405
924.044564	2658.712100
924.349028	2655.238745
924.653454	2650.300935
924.957840	2641.151241
925.262186	2639.901035
925.566493	2634.338121
925.870761	2631.946094
926.174989	2625.962244
926.479178	2623.978550
926.783328	2618.632407
927.087438	2616.535287
927.391509	2614.130656
927.695541	2612.222579
927.999533	2608.837445
928.303486	2604.882659
928.607400	2602.916609
928.911275	2607.451127
929.215110	2604.940633
929.518906	2603.196393
929.822663	2603.995416
930.126381	2602.324274
930.430060	2603.521548
930.733699	2603.627412
931.037299	2605.427104
931.340861	2605.495160
931.644383	2607.267125
931.947866	2607.559512
932.251309	2603.516507
932.554714	2605.989193
932.858080	2601.371496
933.161407	2600.877463
933.464694	2596.905033
933.767943	2594.228181
934.071153	2598.591299
934.374323	2597.966196
934.677455	2595.150712
934.980548	2596.388315
935.283602	2594.570979
935.586617	2593.693818
935.889593	2595.541401
936.192530	2596.892431
936.495428	2595.153233
936.798287	2600.035590
937.101108	2600.522061
937.403890	2604.986003
937.706632	2610.317023
938.009336	2613.513115
938.312002	2621.102572
938.614628	2633.468522
938.917216	2639.928761
939.219765	2637.892135
939.522275	2637.579583
939.824747	2634.696043
940.127179	2630.897534
940.429573	2630.590023
940.731929	2630.552215
941.034246	2623.625669
941.336524	2622.962758
941.638763	2617.916563
941.940964	2614.697786
942.243126	2616.373970
942.545250	2615.784155
942.847335	2611.965481
943.149381	2605.986672
943.451389	2604.005499
943.753359	2601.981475
944.055290	2603.093050
944.357182	2599.760847
944.659036	2598.603902
944.960851	2599.939808
945.262628	2595.188521
945.564367	2599.047524
945.866067	2598.606423
946.167729	2597.981320
946.469352	2599.687750
946.770937	2597.315887
947.072484	2595.934611
947.373992	2593.497213
947.675462	2595.455702
947.976893	2588.022520
948.278286	2590.086873
948.579641	2588.834146
948.880958	2587.583940
949.182236	2590.064188
949.483476	2588.461101
949.784678	2590.263313
950.085841	2587.339444
950.386967	2589.149218
950.688054	2589.227356
950.989103	2592.110896
951.290114	2592.161308
951.591087	2593.908067
951.892021	2594.359251
952.192917	2598.256063
952.493776	2600.496856
952.794596	2601.996599
953.095378	2600.569952
953.396122	2600.106166
953.696828	2598.427462
953.997496	2598.457709
954.298126	2595.080136
954.598718	2593.081318
954.899272	2592.088211
955.199788	2587.687284
955.500266	2585.885071
955.800706	2583.896336
956.101108	2582.900708
956.401472	2578.562795
956.701798	2579.923907
957.002087	2578.018351
957.302337	2574.943247
957.602550	2575.689338
957.902724	2571.152299
958.202861	2571.076682
958.502960	2571.285890
958.803022	2573.327557
959.103045	2570.262535
959.403031	2567.590724
959.702979	2571.225396
960.002889	2568.475446
960.302762	2568.785477
960.602596	2567.726835
960.902393	2567.525189
961.202153	2566.862277
961.501875	2565.218861
961.801559	2565.143244
962.101205	2567.820096
962.400814	2565.357493
962.700385	2564.755075
962.999918	2562.300033
963.299414	2561.450598
963.598873	2564.155177
963.898293	2557.498334
964.197677	2563.824982
964.497022	2561.259035
964.796331	2564.450085
965.095601	2561.483366
965.394835	2566.504355
965.694030	2564.865980
965.993189	2566.743810
966.292309	2561.203582
966.591393	2563.903120
966.890439	2559.983623
967.189447	2565.327246
967.488419	2564.679457
967.787353	2563.036041
968.086249	2561.664847
968.385108	2565.481001
968.683930	2562.655434
968.982714	2560.661658
969.281462	2560.608726
969.580172	2562.978068
969.878844	2562.630228
970.177480	2565.639797
970.476078	2563.615774
970.774639	2564.949159
971.073162	2563.787173
971.371649	2562.539488
971.670098	2564.472770
971.968510	2566.700960
972.266885	2562.108469
972.565223	2565.430589
972.863524	2564.402194
973.161788	2563.991340
973.460014	2564.505538
973.758204	2563.804817
974.056356	2565.322205
974.354471	2562.042934
974.652550	2563.666186
974.950591	2565.604509
975.248595	2564.256001
975.546563	2564.087122
975.844493	2562.390774
976.142386	2562.967986
976.440243	2561.725341
976.738062	2564.379509
977.035845	2564.215671
977.333590	2563.830023
977.631299	2563.086453
977.928971	2561.558983
978.226606	2558.060422
978.524204	2559.721483
978.821765	2556.704352
979.119290	2562.478994
979.416777	2560.129816
979.714228	2561.770712
980.011642	2560.530588
980.309020	2563.519992
980.606360	2561.647203
980.903664	2561.417831
981.200931	2560.303736
981.498162	2561.501010
981.795356	2562.771381
982.092513	2565.092832
982.389633	2568.999726
982.686717	2569.055179
982.983764	2571.414439
983.280775	2576.223700
983.577749	2578.673701
983.874686	2579.878536
984.171587	2574.600448
984.468451	2574.976014
984.765279	2570.285221
985.062070	2568.561146
985.358824	2570.887638
985.655543	2568.157854
985.952224	2566.935374
986.248869	2563.577965
986.545478	2561.347255
986.842050	2563.575445
987.138586	2563.761968
987.435086	2562.226936
987.731549	2560.608726
988.027975	2561.284240
988.324366	2560.838098
988.620719	2559.449260
988.917037	2559.023283
989.213318	2558.841801
989.509563	2559.534960
989.805772	2559.151832
990.101944	2559.902964
990.398080	2564.082081
990.694180	2558.284754
990.990244	2558.312480
991.286271	2556.772408
991.582262	2560.170145
991.878217	2560.225598
992.174136	2557.634445
992.470019	2558.438509
992.765865	2557.432799
993.061676	2555.623025
993.357450	2555.660833
993.653188	2554.682849
993.948890	2558.998077
994.244556	2561.115362
994.540186	2561.886658
994.835780	2561.387584
995.131337	2561.158212
995.426859	2562.138716
995.722345	2560.376833
996.017795	2561.218705
996.313208	2560.817934
996.608586	2561.180897
996.903928	2562.075702
997.199234	2566.411094
997.494504	2563.953531
997.789738	2560.775084
998.084936	2562.796587
998.380099	2557.752912
998.675225	2560.326421
998.970316	2561.881617
999.265371	2559.146791
999.560390	2559.313149
999.855373	2559.645865
1000.150320	2561.790876
1000.445232	2561.216185
1000.740108	2554.392983
1001.034948	2557.412634
1001.329752	2556.918601
1001.624521	2556.406924
1001.919254	2555.789383
1002.213951	2558.675443
1002.508613	2556.853066
1002.803239	2556.031358
1003.097829	2555.983467
1003.392384	2556.580844
1003.686903	2555.650751
1003.981386	2559.419013
1004.275834	2554.629917
1004.570246	2559.635783
1004.864623	2557.175700
1005.158964	2557.493293
1005.453270	2555.262582
1005.747540	2557.531101
1006.041775	2557.367264
1006.335974	2558.680484
1006.630138	2554.677808
1006.924266	2557.843653
1007.218359	2556.868190
1007.512416	2556.154866
1007.806438	2552.651264
1008.100425	2552.368960
1008.394376	2551.701007
1008.688292	2557.687377
1008.982172	2556.870710
1009.276017	2556.500185
1009.569827	2554.992880
1009.863602	2556.691749
1010.157341	2559.058571
1010.451045	2556.563200
1010.744714	2556.706873
1011.038347	2555.706204
1011.331945	2556.081770
1011.625508	2557.039589
1011.919036	2555.055895
1012.212528	2557.505896
1012.505986	2556.676626
1012.799408	2555.194527
1013.092795	2556.782490
1013.386147	2555.549928
1013.679464	2556.543035
1013.972745	2555.885165
1014.265992	2556.061605
1014.559204	2555.353323
1014.852380	2555.645710
1015.145521	2557.740309
1015.438628	2555.285267
1015.731699	2555.834753
1016.024736	2556.815258
1016.317737	2555.055895
1016.610703	2558.549414
1016.903635	2556.971533
1017.196531	2556.525391
1017.489393	2554.493806
1017.782219	2556.971533
1018.075011	2555.804506
1018.367768	2558.133519
1018.660490	2557.909188
1018.953177	2557.909188
1019.245829	2557.909188
