Dividing Wavelength (nm)	Counts (n)	Blue Motor Position (mm): 31.100000	Red Motor Position (mm): 0.000000	
326.493990	2217.389328
326.888308	2217.389328
327.282561	2217.389328
327.676750	2177.291990
328.070874	2172.089519
328.464933	2172.026505
328.858929	2178.164110
329.252859	2181.788699
329.646726	2191.588703
330.040528	2203.090095
330.434265	2213.858000
330.827938	2233.962121
331.221547	2250.436612
331.615091	2270.392019
332.008571	2286.569082
332.401986	2306.277473
332.795338	2324.685246
333.188625	2342.203256
333.581847	2361.583972
333.975006	2380.755480
334.368100	2398.530588
334.761129	2416.015831
335.154095	2434.552153
335.546996	2463.614405
335.939833	2499.875425
336.332606	2515.576098
336.725315	2529.144364
337.117960	2541.704399
337.510540	2551.277550
337.903056	2561.511092
338.295508	2573.733370
338.687896	2581.849628
339.080220	2587.556214
339.472480	2597.189859
339.864676	2598.271186
340.256807	2605.497680
340.648875	2609.691920
341.040879	2612.517487
341.432818	2613.026643
341.824694	2616.005965
342.216506	2617.992180
342.608253	2617.677108
342.999937	2620.505195
343.391557	2621.442850
343.783113	2622.486369
344.174605	2619.421347
344.566033	2616.948661
344.957397	2615.605194
345.348697	2612.431787
345.739934	2613.775255
346.131106	2612.462034
346.522215	2609.344081
346.913260	2607.226796
347.304241	2608.154368
347.695159	2604.116404
348.086012	2602.238574
348.476802	2600.935436
348.867528	2595.881679
349.258191	2593.920670
349.648789	2593.966041
350.039324	2591.180803
350.429796	2593.272882
350.820203	2591.158118
351.210548	2592.128540
351.600828	2591.614342
351.991045	2588.715679
352.381198	2585.476738
352.771288	2587.427664
353.161314	2588.342634
353.551276	2583.616552
353.941175	2582.963722
354.331010	2583.019175
354.720782	2586.300966
355.110490	2583.871130
355.500135	2582.971284
355.889717	2583.180492
356.279235	2586.041347
356.668689	2584.944896
357.058080	2585.748960
357.447408	2585.690987
357.836672	2586.323652
358.225873	2585.393559
358.615010	2585.343147
359.004084	2585.398600
359.393095	2589.529825
359.782043	2585.007910
360.170927	2587.311718
360.559748	2588.478745
360.948505	2590.036461
361.337199	2589.255082
361.725830	2594.888572
362.114398	2591.137953
362.502903	2591.362285
362.891344	2593.104003
363.279722	2588.181317
363.668037	2591.677357
364.056289	2593.348499
364.444478	2595.080136
364.832603	2599.019797
365.220665	2594.795311
365.608665	2598.394694
365.996601	2595.435537
366.384474	2597.053747
366.772284	2596.332863
367.160031	2596.557194
367.547715	2593.146853
367.935336	2599.196238
368.322893	2595.496031
368.710388	2595.490990
369.097820	2595.218767
369.485189	2597.270517
369.872495	2600.527102
370.259738	2600.033069
370.646918	2599.967534
371.034035	2597.580548
371.421090	2600.942998
371.808081	2598.243460
372.195010	2602.684716
372.581875	2601.066506
372.968678	2604.761672
373.355418	2599.226485
373.742096	2602.399891
374.128710	2604.318050
374.515262	2604.834768
374.901751	2605.288472
375.288177	2604.713781
375.674540	2603.012391
376.060841	2602.596496
376.447079	2607.572115
376.833254	2606.188318
377.219367	2605.822835
377.605417	2604.169336
377.991404	2604.880139
378.377329	2603.932402
378.763191	2605.374172
379.148991	2606.205962
379.534727	2606.213524
379.920402	2606.248812
380.306013	2606.175715
380.691563	2609.132352
381.077049	2606.027001
381.462474	2608.040942
381.847835	2608.776951
382.233134	2610.387599
382.618371	2607.688062
383.003545	2609.449945
383.388657	2609.855758
383.773706	2612.681324
384.158693	2608.945829
384.543618	2611.050511
384.928480	2612.361211
385.313280	2609.840634
385.698017	2610.304420
386.082692	2614.135697
386.467305	2613.689555
386.851856	2614.150821
387.236344	2612.759462
387.620770	2610.521190
388.005133	2611.844493
388.389435	2613.402209
388.773674	2608.494646
389.157851	2613.122425
389.541965	2615.814402
389.926018	2615.970677
390.310008	2617.712396
390.693936	2617.921604
391.077802	2614.145780
391.461606	2617.263733
391.845348	2617.354474
392.229027	2617.162910
392.612645	2617.941768
392.996200	2620.084259
393.379694	2622.325052
393.763125	2618.483692
394.146494	2617.669546
394.529801	2621.526029
394.913047	2619.733899
395.296230	2621.455453
395.679351	2619.938065
396.062410	2621.029475
396.445408	2621.755401
396.828343	2622.803961
397.211217	2622.584671
397.594028	2625.138016
397.976778	2623.171966
398.359466	2624.893520
398.742092	2625.939559
399.124656	2624.540639
399.507158	2625.090125
399.889598	2625.201030
400.271977	2626.670526
400.654294	2626.579786
401.036549	2627.633387
401.418742	2626.725979
401.800874	2628.744961
402.182944	2629.049951
402.564952	2628.583644
402.946898	2632.387195
403.328783	2631.976341
403.710606	2631.260497
404.092367	2633.685292
404.474067	2633.332411
404.855705	2634.000364
405.237282	2635.306023
405.618797	2633.793677
406.000250	2636.478091
406.381642	2636.866260
406.762972	2634.209572
407.144240	2632.868625
407.525447	2636.324336
407.906593	2634.980868
408.287677	2638.320633
408.668700	2638.940695
409.049661	2641.057979
409.430560	2641.920017
409.811399	2642.693834
410.192176	2643.245840
410.572891	2641.357928
410.953545	2643.618886
411.334138	2643.714667
411.714669	2644.259112
412.095139	2642.386323
412.475547	2646.512508
412.855894	2648.728095
413.236180	2647.621562
413.616405	2649.300266
413.996568	2648.176089
414.376670	2650.197591
414.756711	2650.510143
415.136691	2646.734319
415.516609	2650.220277
415.896466	2655.238745
416.276262	2653.769249
416.655997	2654.795124
417.035670	2659.233860
417.415283	2664.101094
417.794834	2666.846002
418.174324	2670.614264
418.553753	2675.834379
418.933121	2676.991324
419.312428	2689.180834
419.691674	2695.464632
420.070859	2708.972404
420.449983	2710.525079
420.829045	2730.772874
421.208047	2744.457086
421.586988	2765.549274
421.965867	2786.139867
422.344686	2817.069866
422.723444	2839.903772
423.102141	2847.198322
423.480777	2904.203690
423.859352	2921.961154
424.237866	2989.510095
424.616319	3029.095756
424.994712	3106.200204
425.373044	3131.421096
425.751314	3219.853017
426.129524	3267.854884
426.507673	3349.637523
426.885762	3434.555759
427.263789	3502.197962
427.641756	3572.877459
428.019662	3662.705780
428.397508	3779.932771
428.775292	3814.081547
429.153016	3980.817711
429.530679	4038.110424
429.908282	4139.704798
430.285824	4164.829908
430.663305	4418.329371
431.040726	4390.761821
431.418086	4482.795646
431.795385	4667.122916
432.172624	4797.809788
432.549802	4878.571593
432.926920	5013.853478
433.303977	5072.504782
433.680974	5254.941619
434.057910	5404.389145
434.434786	5532.661305
434.811601	5607.406493
435.188355	5948.581703
435.565050	5952.599503
435.941683	6042.107710
436.318257	6389.791049
436.694770	6570.450880
437.071222	6735.883905
437.447614	6784.253776
437.823946	6848.215936
438.200218	7068.055614
438.576429	7078.813437
438.952580	7330.079668
439.328670	7500.382448
439.704700	7479.237328
440.080670	7586.934018
440.456580	8076.936692
440.832429	8034.228037
441.208218	7873.949592
441.583947	8212.389976
441.959616	8424.501565
442.335224	8403.883246
442.710773	8610.336140
443.086261	8877.096357
443.461689	8434.551105
443.837057	9009.807253
444.212365	9345.706895
444.587612	9160.605808
444.962800	9456.224111
445.337927	9367.525009
445.712995	9079.418026
446.088002	10086.685934
446.462949	9866.168221
446.837837	9923.017313
447.212664	10018.819401
447.587431	10512.910451
447.962139	11192.359687
448.336786	13225.883011
448.711374	13865.434034
449.085901	12027.225175
449.460369	11741.505178
449.834776	11307.008128
450.209124	12118.654062
450.583412	12536.414481
450.957640	13499.456347
451.331808	12809.400524
451.705917	11873.734644
452.079965	11281.719180
452.453954	12170.318327
452.827883	11849.083401
453.201752	12158.897593
453.575562	11716.927033
453.949311	12139.985705
454.323001	12125.094136
454.696632	12357.841689
455.070202	12654.362358
455.443713	12940.931789
455.817164	13393.314853
456.190556	13425.716870
456.563888	13797.922902
456.937160	13987.860976
457.310373	13345.638141
457.683526	13431.942695
458.056619	13010.789579
458.429653	13144.730516
458.802628	12625.030404
459.175542	12977.810350
459.548398	13928.917285
459.921194	14256.922480
460.293930	14312.624710
460.666607	15217.957967
461.039224	16237.798514
461.411782	16921.875529
461.784280	16854.039242
462.156719	16892.631796
462.529099	16600.184379
462.901419	15523.091448
463.273680	15325.432847
463.645882	15179.894735
464.018024	14918.972174
464.390106	15133.480832
464.762130	15874.658997
465.134094	16608.265348
465.505999	18567.754287
465.877845	21815.036222
466.249631	24655.854963
466.621358	24401.919441
466.993026	22932.339916
467.364634	22389.543758
467.736184	20940.872418
468.107674	20140.236365
468.479105	20275.069586
468.850477	19738.584953
469.221790	19315.730447
469.593043	18639.126943
469.964238	18086.445082
470.335373	17760.476513
470.706449	18164.678748
471.077467	17714.133185
471.448425	19530.423107
471.819324	23501.546679
472.190164	25607.869306
472.560945	22118.359928
472.931667	19707.783502
473.302330	19064.421366
473.672934	18549.074291
474.043479	18913.761443
474.413965	18728.241940
474.784393	18371.484523
475.154761	19030.605306
475.525070	19044.370177
475.895321	18701.307055
476.265513	19270.269322
476.635645	19854.657520
477.005719	19640.237082
477.375734	19845.187712
477.745691	20324.538429
478.115588	20816.968419
478.485427	21332.930515
478.855207	22384.850444
479.224928	24143.126767
479.594591	26337.036921
479.964194	26432.791118
480.333739	26633.020708
480.703226	26199.163884
481.072653	25874.929472
481.442022	26421.745950
481.811333	27330.048447
482.180584	27260.956913
482.549777	26317.399107
482.918912	25959.668747
483.287988	26073.986993
483.657005	25765.808656
484.025964	25481.298535
484.394864	25420.691263
484.763706	25128.863908
485.132489	24536.485482
485.501213	24712.210022
485.869879	24635.317303
486.238487	24423.407360
486.607036	24582.740589
486.975527	24270.345326
487.343959	24597.296920
487.712333	24562.291148
488.080648	24223.308840
488.448905	24683.049468
488.817104	24443.952582
489.185244	25098.763179
489.553326	25091.198927
489.921350	26050.104527
490.289315	28306.298136
490.657222	30121.090836
491.025070	30610.755753
491.392861	30412.091442
491.760593	29562.941844
492.128267	28669.808178
492.495883	27635.819634
492.863440	26760.113237
493.230939	25875.415943
493.598380	25726.633849
493.965763	25319.999256
494.333088	24880.761001
494.700354	24808.942203
495.067563	24701.676531
495.434713	24438.535862
495.801805	24588.003553
496.168839	24397.931889
496.535815	24222.222471
496.902733	24452.527585
497.269593	24109.058650
497.636395	24302.845645
498.003139	24285.153715
498.369825	24036.841600
498.736453	24229.161620
499.103023	24115.352530
499.469535	24119.992912
499.835989	24326.362627
500.202385	24357.622823
500.568723	23852.378219
500.935003	24122.362255
501.301226	23709.993350
501.667390	24562.548247
502.033497	24813.257431
502.399546	24520.242884
502.765537	24105.108906
503.131470	24482.106555
503.497345	24630.245902
503.863163	23836.435570
504.228923	24438.747591
504.594625	24636.398630
504.960269	24167.089892
505.325856	24673.015051
505.691385	24066.654984
506.056856	24681.330434
506.422270	24638.399968
506.787625	24216.052099
507.152924	24626.187773
507.518164	24652.963862
507.883347	24459.776764
508.248472	24142.758763
508.613540	24935.633961
508.978550	24699.294586
509.343503	24708.850093
509.708398	24971.726102
510.073236	25119.499965
510.438016	25343.347360
510.802738	25007.702296
511.167403	25258.204793
511.532010	24958.228412
511.896561	25735.907052
512.261053	25711.971653
512.625488	25535.059921
512.989866	25439.855210
513.354186	25286.740244
513.718449	25389.909978
514.082655	25768.218327
514.446803	25508.639233
514.810894	25959.686391
515.174927	25445.791168
515.538904	25479.624872
515.902822	25976.208773
516.266684	25721.532201
516.630488	25630.665403
516.994235	25614.821057
517.357925	25905.919965
517.721558	26097.067916
518.085133	26177.169330
518.448651	26099.346518
518.812112	25824.381822
519.175516	26024.036720
519.538863	26185.300711
519.902152	25967.200231
520.265385	26259.982885
520.628560	26045.874999
520.991678	26048.887088
521.354739	26132.565201
521.717743	26192.736413
522.080690	25980.672715
522.443580	26314.064383
522.806413	26313.819887
523.169189	26408.694403
523.531908	26454.077390
523.894569	26056.698356
524.257174	26137.349256
524.619722	26335.580028
524.982213	26007.708423
525.344647	26080.134680
525.707025	26209.669649
526.069345	26195.879573
526.431608	26143.849824
526.793815	26342.766193
527.155964	25787.904033
527.518057	25969.556971
527.880093	25888.182665
528.242072	26115.858817
528.603995	25833.460940
528.965860	25628.051565
529.327669	25675.788771
529.689421	25660.448540
530.051117	25483.398176
530.412755	25670.344325
530.774337	25478.046991
531.135862	25335.364693
531.497331	25549.490223
531.858743	25097.870894
532.220098	25578.391158
532.581396	25248.840849
532.942638	25190.121489
533.303824	25296.396574
533.664953	25317.897095
534.026025	24974.057635
534.387040	25216.925304
534.747999	25275.594253
535.108902	25438.282370
535.469748	24924.956797
535.830537	25114.909994
536.191270	25224.837395
536.551947	25117.654903
536.912567	24764.600214
537.273131	25092.008033
537.633638	24802.592870
537.994089	25011.077349
538.354483	24559.145468
538.714821	25056.094853
539.075103	25095.282262
539.435328	24882.084304
539.795497	24451.983140
540.155609	24844.386556
540.515665	25134.331040
540.875665	24373.467169
541.235609	24661.856457
541.595496	24630.283711
541.955328	24988.480377
542.315102	24903.196656
542.674821	24449.704539
543.034483	24326.103008
543.394090	24508.960782
543.753640	24294.719305
544.113134	24926.123824
544.472571	24520.752040
544.831953	24822.727238
545.191278	24432.158803
545.550548	24351.732234
545.909761	24560.335180
546.268918	24791.182218
546.628019	24766.344453
546.987064	24462.846827
547.346053	24217.927408
547.704986	24338.116078
548.063863	24498.966694
548.422684	24494.424614
548.781449	24034.522670
549.140158	24435.385141
549.498811	24015.867880
549.857408	23759.247943
550.215949	24195.879922
550.574434	23867.998235
550.932864	24091.003757
551.291237	24233.267639
551.649555	24112.196768
552.007817	24158.880373
552.366022	24036.912177
552.724173	24076.724689
553.082267	24014.093394
553.440305	24488.695343
553.798288	23754.184104
554.156215	24256.875363
554.514086	24358.101732
554.871902	23729.273242
555.229661	24020.977089
555.587365	23882.131109
555.945014	23742.881837
556.302606	23979.342200
556.660143	23927.912348
557.017625	24185.462378
557.375050	23713.108783
557.732421	24110.853301
558.089735	23906.527773
558.446994	23977.923115
558.804197	24021.014898
559.161345	23955.510145
559.518437	23725.893149
559.875474	23898.252719
560.232455	24078.327776
560.589381	23905.673298
560.946251	23888.908941
561.303065	24211.048754
561.659825	24285.186483
562.016528	23905.806888
562.373177	23651.331963
562.729770	23992.335774
563.086307	23858.483057
563.442789	24036.508884
563.799216	23848.602395
564.155587	23863.209138
564.511904	23857.197562
564.868164	23783.637046
565.224370	23764.538634
565.580520	23677.707280
565.936615	23813.294154
566.292654	23487.907838
566.648638	23797.084323
567.004567	23609.717238
567.360441	23569.640065
567.716260	23301.992604
568.072023	23618.340132
568.427732	23387.039390
568.783385	23164.850534
569.138982	23400.005238
569.494525	23431.252830
569.850013	23179.185055
570.205445	23267.523715
570.560823	23070.210433
570.916145	22846.244570
571.271412	23014.558615
571.626625	22774.203961
571.981782	22882.389643
572.336884	22688.411084
572.691931	22829.182785
573.046923	22562.687228
573.401860	22436.658382
573.756743	22447.602727
574.111570	22358.296166
574.466342	22290.260754
574.821059	22386.009909
575.175722	22088.012182
575.530330	22069.990057
575.884882	22094.018717
576.239380	21993.152790
576.593823	21883.248074
576.948211	21866.133357
577.302544	21712.398329
577.656823	21574.411866
578.011047	21681.145696
578.365216	21561.352757
578.719330	21425.788569
579.073389	21327.735606
579.427394	21478.365283
579.781344	21246.673852
580.135239	21133.686471
580.489080	21104.457861
580.842866	20874.094774
581.196597	21057.088659
581.550273	21032.379443
581.903895	20925.585119
582.257463	21245.123697
582.610975	20765.778022
582.964434	21078.810991
583.317837	20781.826535
583.671186	20883.864530
584.024481	20844.107470
584.377721	20615.226483
584.730906	20674.023981
585.084037	20690.964778
585.437113	20610.797829
585.790135	20810.107408
586.143103	20268.400139
586.496016	20284.897315
586.848874	20534.615912
587.201679	20458.333172
587.554428	20142.421705
587.907124	20463.344079
588.259765	20247.159238
588.612352	20309.127621
588.964884	19896.035311
589.317362	20064.614016
589.669786	20110.483475
590.022155	20149.219701
590.374470	20345.804536
590.726731	20140.311982
591.078937	19908.161806
591.431090	19993.390074
591.783188	19750.734133
592.135232	19730.294775
592.487222	19809.887032
592.839157	19837.936013
593.191038	19711.982784
593.542866	19608.840776
593.894639	19321.986519
594.246358	19549.312311
594.598022	19452.575089
594.949633	19201.303817
595.301190	19160.656993
595.652692	19322.173042
596.004141	19571.579087
596.355535	18890.665396
596.706876	18912.289426
597.058162	18808.247572
597.409395	19033.907262
597.760573	19103.848231
598.111698	18885.871259
598.462768	18827.046035
598.813785	18789.176887
599.164748	18599.516076
599.515657	18636.694586
599.866511	18437.601777
600.217312	18789.091187
600.568060	18317.103076
600.918753	18637.536459
601.269392	18530.333802
601.619978	18310.078228
601.970510	18518.771915
602.320988	18462.666393
602.671412	18662.737187
603.021783	18572.359381
603.372100	18298.715468
603.722363	18457.123645
604.072572	18396.120642
604.422728	18536.557106
604.772830	18289.578376
605.122878	18228.386330
605.472872	18228.217452
605.822813	18217.046255
606.172701	18193.320064
606.522534	18381.360144
606.872314	18406.465090
607.222041	18236.996621
607.571714	18465.665880
607.921333	18276.236962
608.270899	18357.086988
608.620411	18534.182723
608.969870	18303.219738
609.319276	18315.547880
609.668627	18342.087035
610.017926	18474.901274
610.367171	18596.453575
610.716362	18630.587228
611.065500	18450.202141
611.414585	18583.013859
611.763616	18567.179595
612.112594	18513.617335
612.461518	18475.634762
612.810389	18666.994441
613.159207	18526.439510
613.507971	18432.117001
613.856682	18714.073777
614.205340	18640.273805
614.553945	18791.422721
614.902496	18524.435652
615.250994	18762.698226
615.599439	18709.319969
615.947830	18700.659267
616.296169	18752.091639
616.644454	18721.355724
616.992686	18689.024283
617.340864	18890.113390
617.688990	18653.776536
618.037063	18824.830447
618.385082	18675.851748
618.733048	18963.366396
619.080961	18827.272887
619.428821	18865.721767
619.776628	18747.715917
620.124382	18675.577006
620.472083	18718.242811
620.819731	18737.376511
621.167326	18429.271270
621.514868	18462.560529
621.862357	18238.924862
622.209793	18252.982120
622.557176	18082.205472
622.904506	17909.525788
623.251783	17824.978076
623.599007	17571.697904
623.946179	17522.274432
624.293297	17458.410574
624.640363	17219.079275
624.987376	17236.859424
625.334336	17029.060542
625.681243	16872.865431
626.028097	16886.385806
626.374899	16809.135164
626.721647	16672.046027
627.068343	16505.423289
627.414987	16443.482632
627.761577	16423.401196
628.108115	16452.924713
628.454600	16174.340469
628.801032	16276.287723
629.147412	16208.827003
629.493739	16225.787965
629.840014	16037.145467
630.186236	16132.614839
630.532405	15890.135339
630.878521	16094.246617
631.224585	15988.337016
631.570597	15813.298072
631.916556	15843.746641
632.262462	15816.030377
632.608316	15735.739920
632.954117	15681.890315
633.299866	15676.317319
633.645562	15597.342603
633.991206	15349.542165
634.336797	15218.220107
634.682336	15200.896182
635.027823	15074.489249
635.373257	14949.627430
635.718639	14851.597153
636.063968	14804.815245
636.409245	14552.765114
636.754470	14582.762500
637.099642	14430.885138
637.444762	14196.509293
637.789829	14242.227517
638.134845	14086.700359
638.479808	14117.464000
638.824719	14053.814392
639.169577	13910.756528
639.514383	13950.753043
639.859137	13780.432619
640.203839	13862.432027
640.548489	13696.341132
640.893086	13686.755377
641.237632	13553.573134
641.582125	13714.494327
641.926566	13536.891956
642.270955	13548.065673
642.615292	13513.672401
642.959576	13522.380995
643.303809	13548.849573
643.647990	13493.946366
643.992118	13549.918297
644.336195	13311.685970
644.680219	13526.159339
645.024192	13447.023306
645.368112	13690.826109
645.711981	13742.003903
646.055797	13928.516513
646.399562	13889.669382
646.743274	14166.527030
647.086935	14440.879225
647.430544	14407.537034
647.774101	14439.331591
648.117606	14580.892232
648.461059	14554.650506
648.804460	14547.970977
649.147810	14270.508390
649.491108	14171.091795
649.834354	14190.139795
650.177548	13883.889699
650.520690	13683.554245
650.863781	13605.441566
651.206820	13656.984843
651.549807	13486.117454
651.892742	13284.667906
652.235626	13225.835120
652.578458	13223.642218
652.921238	12910.354671
653.263967	13111.403448
653.606644	12936.808126
653.949269	12917.069488
654.291843	12718.899209
654.634365	12870.353115
654.976836	12732.306158
655.319255	12736.321437
655.661622	12688.488449
656.003938	12610.227056
656.346203	12542.599977
656.688416	12617.997995
657.030577	12566.343812
657.372687	12486.857418
657.714746	12468.827732
658.056753	12651.393118
658.398708	12468.684059
658.740612	12470.758494
659.082465	12570.868247
659.424266	12540.238197
659.766016	12561.930282
660.107715	12472.608597
660.449362	12548.059547
660.790958	12499.533400
661.132503	12446.102210
661.473996	12520.804548
661.815438	12530.140765
662.156829	12547.026110
662.498168	12528.462061
662.839456	12529.495498
663.180693	12541.478320
663.521879	12637.086324
663.863013	12604.860748
664.204097	12579.952407
664.545129	12703.314482
664.886110	12681.493848
665.227040	12770.344184
665.567918	12777.636213
665.908746	12803.023464
666.249522	12786.165846
666.590248	12836.670646
666.930922	12949.534518
667.271545	12933.022219
667.612118	13016.423068
667.952639	12921.987133
668.293109	12926.579624
668.633528	12886.832647
668.973896	12861.130324
669.314213	12945.892285
669.654480	12681.405628
669.994695	12750.363571
670.334859	12784.406483
670.674973	12721.223181
671.015035	12756.113007
671.355047	12698.137217
671.695008	12669.689986
672.034918	12676.669464
672.374777	12717.512892
672.714585	12629.549799
673.054342	12670.063032
673.394049	12617.143519
673.733705	12717.321328
674.073310	12623.621402
674.412864	12647.599650
674.752368	12497.874860
675.091820	12522.735310
675.431223	12514.984536
675.770574	12378.507899
676.109875	12298.779530
676.449125	12260.590269
676.788324	12200.963502
677.127473	12034.025692
677.466571	12026.869774
677.805619	11917.421283
678.144616	11846.784635
678.483562	11815.897486
678.822458	11687.552229
679.161303	11660.624906
679.500098	11657.058290
679.838842	11603.594332
680.177535	11628.921089
680.516179	11692.938702
680.854771	11640.538428
681.193314	11853.295285
681.531805	12013.172959
681.870247	12426.371134
682.208638	12838.215759
682.546978	13156.385664
682.885268	13200.309237
683.223508	12891.094942
683.561697	12734.441087
683.899836	12639.304431
684.237925	12430.083944
684.575963	12355.129548
684.913951	12277.117692
685.251889	12229.952657
685.589776	12324.968324
685.927614	12240.425654
686.265401	12208.699152
686.603137	12261.956422
686.940824	12412.361768
687.278460	12536.167465
687.616046	12584.600350
687.953582	12751.248294
688.291068	12677.334896
688.628504	12909.752253
688.965889	12915.783993
689.303224	12886.759550
689.640510	12781.906071
689.977745	12460.582925
690.314930	12242.442115
690.652065	12149.253866
690.989150	11861.300638
691.326185	11640.830815
691.663170	11431.020513
692.000105	11183.144458
692.336990	11079.019425
692.673825	10817.280197
693.010610	10700.564882
693.347345	10497.358491
693.684030	10295.150249
694.020665	10228.785979
694.357251	10046.507938
694.693786	9981.519903
695.030272	9809.036825
695.366707	9701.105721
695.703093	9634.028128
696.039429	9629.297005
696.375716	9547.221979
696.711952	9421.241024
697.048139	9462.717117
697.384276	9412.177029
697.720363	9435.036141
698.056400	9370.348055
698.392388	9319.782762
698.728326	9282.644581
699.064214	9215.531700
699.400053	9265.025748
699.735842	9078.003982
700.071581	9035.134010
700.407270	8953.865568
700.742910	8883.150783
701.078501	8786.668139
701.414042	8664.319336
701.749533	8598.686033
702.084974	8456.822923
702.420366	8578.090399
702.755709	8456.104558
703.091002	8321.115061
703.426246	8353.113785
703.761440	8309.563257
704.096584	8259.612984
704.431679	8191.718724
704.766725	8176.829676
705.101721	8128.021225
705.436668	8176.917897
705.771565	8068.971669
706.106413	8146.547465
706.441212	8196.475053
706.775961	8141.135787
707.110661	8186.274278
707.445311	8324.563210
707.779913	8224.955052
708.114465	8355.195782
708.448967	8388.205257
708.783421	8536.142958
709.117825	8721.959889
709.452180	8750.492819
709.786485	8840.409360
710.120742	9122.272874
710.454949	9125.234552
710.789107	9227.907733
711.123216	9438.748951
711.457275	9604.461760
711.791286	9763.613508
712.125247	9764.972099
712.459159	9747.582639
712.793023	9996.784517
713.126837	9566.146471
713.460602	9724.002642
713.794318	9551.587618
714.127985	9583.566178
714.461602	9258.242876
714.795171	9206.964259
715.128691	8958.815982
715.462162	8704.956077
715.795584	8655.779621
716.128957	8505.659101
716.462281	8335.321033
716.795556	8387.703662
717.128782	8179.042743
717.461960	7918.785614
717.795088	7985.820357
718.128167	7893.766367
718.461198	7721.225315
718.794180	7667.957963
719.127113	7657.500089
719.459997	7500.788260
719.792833	7280.467152
720.125619	7337.638878
720.458357	7197.968669
720.791046	7187.417534
721.123686	7175.843045
721.456278	7030.536827
721.788821	7042.247427
722.121315	6933.194667
722.453761	7001.482137
722.786158	6945.222860
723.118506	6961.258770
723.450805	6925.111176
723.783056	6988.377657
724.115259	6901.412712
724.447412	6895.088585
724.779518	6940.821932
725.111574	6939.130625
725.443582	7026.796291
725.775542	7003.566654
726.107453	7202.646860
726.439315	7106.748991
726.771129	7171.205184
727.102895	7339.519228
727.434612	7449.232380
727.766281	7478.760939
728.097901	7561.004843
728.429473	7551.794655
728.760996	7528.489401
729.092471	7506.242789
729.423897	7454.124820
729.755276	7466.324412
730.086606	7392.385809
730.417887	7495.227868
730.749120	7689.496293
731.080305	7882.451497
731.411442	8005.979931
731.742530	7993.704722
732.073570	8103.546423
732.404562	8187.287550
732.735506	8040.405971
733.066401	8181.215480
733.397249	8109.618493
733.728048	7870.294755
734.058798	7538.672532
734.389501	7311.629045
734.720156	7128.219265
735.050762	6897.972125
735.381320	6805.419061
735.711831	6757.656648
736.042293	6644.132384
736.372707	6660.604355
736.703073	6523.926071
737.033391	6569.336785
737.363661	6579.479586
737.693883	6609.126612
738.024056	6689.616195
738.354182	6735.803247
738.684260	6767.590242
739.014290	6880.746502
739.344272	6996.955180
739.674207	7018.281782
740.004093	7093.483194
740.333931	7103.207580
740.663722	7115.961699
740.993464	7185.854777
741.323159	7177.577202
741.652806	6927.588903
741.982405	6949.439785
742.311956	6999.737897
742.641460	6831.123904
742.970915	6643.799668
743.300323	6627.047914
743.629683	6581.082673
743.958996	6450.960410
744.288260	6357.837696
744.617477	6306.526311
744.946647	6311.892620
745.275768	6144.876672
745.604842	6098.452686
745.933869	6082.424338
746.262847	6041.510333
746.591778	6024.410739
746.920662	5990.831613
747.249498	5980.668647
747.578286	6028.065576
747.907027	6102.712461
748.235720	6162.722357
748.564365	6138.902905
748.892963	6164.388458
749.221514	6314.700542
749.550017	6148.158463
749.878473	6026.051635
750.206881	6078.174645
750.535242	6020.012333
750.863555	5953.648063
751.191821	5969.915866
751.520039	5971.561803
751.848210	5878.489500
752.176334	5903.415485
752.504411	5947.712104
752.832440	5871.033633
753.160421	5803.144415
753.488356	5850.453123
753.816243	5886.628443
754.144082	5734.040278
754.471875	5705.401483
754.799620	5751.069295
755.127318	5759.062045
755.454969	5717.638884
755.782572	5681.261917
756.110129	5725.649277
756.437638	5706.502975
756.765100	5647.771012
757.092515	5650.455426
757.419882	5696.816398
757.747203	5679.888203
758.074477	5739.099076
758.401703	5728.363938
758.728882	5678.607750
759.056014	5737.816102
759.383099	5864.805288
759.710138	5879.104521
760.037129	5864.596080
760.364073	5868.092120
760.690970	5945.798986
761.017820	5930.224341
761.344623	5883.802876
761.671379	5987.088557
761.998088	6106.926866
762.324751	6350.354103
762.651366	6956.613347
762.977935	8274.320551
763.304456	9910.963914
763.630931	10807.961624
763.957359	10401.294264
764.283740	9456.912228
764.610074	8622.926421
764.936362	7626.721325
765.262602	7025.936774
765.588796	6488.136399
765.914943	6154.901007
766.241044	5994.161296
766.567097	5787.055572
766.893104	5527.599987
767.219064	5350.605075
767.544978	5287.988903
767.870845	5206.927149
768.196665	5103.555769
768.522438	5033.186303
768.848165	4998.346888
769.173846	4932.204429
769.499479	4887.476792
769.825066	4838.196992
770.150607	4775.026293
770.476101	4753.765227
770.801548	4750.337243
771.126949	4671.652393
771.452303	4618.871512
771.777611	4575.182352
772.102872	4596.884519
772.428087	4558.428077
772.753256	4515.061551
773.078378	4471.765602
773.403453	4402.553080
773.728482	4388.483219
774.053465	4342.933874
774.378401	4334.149663
774.703291	4331.820650
775.028135	4259.976646
775.352932	4213.832444
775.677683	4200.932132
776.002388	4220.335533
776.327046	4227.972881
776.651658	4151.874143
776.976224	4091.181171
777.300743	4094.203343
777.625216	4115.809728
777.949643	4107.217082
778.274024	4067.238211
778.598359	4023.589381
778.922647	4048.767423
779.246889	4040.028583
779.571086	4032.393756
779.895236	4016.559492
780.219339	4004.160774
780.543397	3996.573837
780.867409	4049.276580
781.191374	4066.134198
781.515294	3999.308663
781.839167	3992.992097
782.162995	4015.233668
782.486776	3998.113910
782.810511	4012.133358
783.134201	4004.337214
783.457844	3958.908856
783.781441	3905.727204
784.104993	3912.227772
784.428498	3931.033796
784.751958	3929.448353
785.075372	3908.865322
785.398739	3869.352758
785.722061	3881.081002
786.045337	3923.976181
786.368568	3957.333496
786.691752	3865.473590
787.014891	3919.658432
787.337983	4047.532341
787.661030	4208.221640
787.984031	4369.470508
788.306987	4533.633162
788.629897	4622.367552
788.952760	4577.987754
789.275579	4510.849667
789.598351	4440.807876
789.921078	4300.194972
790.243759	4103.547122
790.566395	4083.324533
790.888984	4080.680448
791.211529	3971.116010
791.534027	3910.591917
791.856480	3903.251997
792.178888	3840.275383
792.501249	3788.590953
792.823566	3801.864311
793.145836	3829.671316
793.468062	3778.049900
793.790241	3733.216398
794.112375	3762.593723
794.434464	3826.656706
794.756507	3852.147300
795.078505	3831.060153
795.400457	3863.063919
795.722364	4002.489631
796.044226	4109.886373
796.366042	4177.273997
796.687812	4163.294877
797.009538	4165.712110
797.331218	4126.943117
797.652852	4098.236266
797.974442	4079.994851
798.295986	4076.579469
798.617484	3995.792458
798.938938	3911.819438
799.260346	3948.324954
799.581709	3949.481898
799.903026	3872.503479
800.224299	3835.337572
800.545526	3831.841532
800.866708	3790.405768
801.187845	3729.889237
801.508936	3769.658900
801.829983	3762.792848
802.150984	3682.550282
802.471940	3674.930578
802.792851	3688.098072
803.113717	3688.103113
803.434538	3686.736960
803.755314	3629.552631
804.076045	3604.077160
804.396731	3625.733957
804.717372	3651.017864
805.037967	3636.242242
805.358518	3626.447281
805.679024	3652.308400
805.999485	3666.927746
806.319901	3668.883714
806.640272	3683.699665
806.960598	3700.680792
807.280879	3668.881193
807.601115	3686.353832
807.921306	3701.449568
808.241453	3741.153695
808.561554	3717.659398
808.881611	3653.135149
809.201623	3687.793082
809.521590	3702.132644
809.841513	3671.376564
810.161390	3700.340514
810.481223	3679.724715
810.801011	3624.360243
811.120755	3617.607617
811.440453	3653.309069
811.760107	3653.309069
812.079716	3612.498408
812.399281	3576.736462
812.718801	3602.650514
813.038276	3576.829724
813.357707	3575.171184
813.677093	3593.233638
813.996434	3539.013508
814.315731	3549.705796
814.634983	3552.100344
814.954191	3564.375553
815.273354	3598.267231
815.592473	3591.726333
815.911547	3597.019545
816.230577	3638.891369
816.549562	3693.517312
816.868502	3736.556163
817.187399	3756.839245
817.506250	3752.191302
817.825058	3724.709451
818.143821	3816.322340
818.462539	3924.175306
818.781213	3963.145946
819.099843	4025.888147
819.418429	4272.667751
819.736970	4514.822097
820.055466	4758.624899
820.373919	5126.946723
820.692327	5534.778590
821.010691	5986.649976
821.329011	7375.215639
821.647286	10140.364141
821.965517	14719.604622
822.283704	18758.365355
822.601847	20904.563508
822.919945	19071.509229
823.237999	16473.132178
823.556010	13986.121778
823.873976	11883.101108
824.191897	9781.139079
824.509775	8432.020446
824.827609	7298.809390
825.145398	6762.589418
825.463144	6645.798486
825.780845	6760.590600
826.098502	6950.027079
826.416116	7838.790064
826.733685	9166.554370
827.051210	10283.505183
827.368692	10309.870418
827.686129	9043.890494
828.003522	7534.140534
828.320872	6512.580954
828.638177	5810.990971
828.955439	5249.265280
829.272656	4748.129217
829.589830	4464.778562
829.906960	4292.701296
830.224046	4107.670786
830.541088	3980.391733
830.858086	3936.072429
831.175041	3858.436139
831.491952	3840.063654
831.808819	3852.623689
832.125642	3925.528856
832.442421	4072.344900
832.759157	4349.255481
833.075849	4906.819699
833.392497	5775.773470
833.709101	6548.642848
834.025662	6888.041052
834.342179	6518.688312
834.658653	5848.824830
834.975083	5200.766859
835.291469	4624.366370
835.607811	4215.818659
835.924110	4076.466043
836.240366	3876.342318
836.556578	3672.210875
836.872746	3564.650296
837.188871	3521.608925
837.504952	3456.867906
837.820990	3373.275493
838.136984	3328.482321
838.452935	3350.731453
838.768842	3347.691638
839.084706	3368.987992
839.400526	3527.260058
839.716303	3868.624311
840.032037	4399.939242
840.347727	4661.194519
840.663373	4378.728587
840.978977	3994.340606
841.294537	3685.879964
841.610054	3459.033082
841.925527	3354.242617
842.240957	3286.577729
842.556344	3228.163359
842.871687	3170.071623
843.186987	3119.166051
843.502244	3082.857141
843.817458	3051.145763
844.132629	3015.398941
844.447756	3024.062163
844.762840	3008.300996
845.077881	2978.515338
845.392879	2960.957000
845.707833	2958.754015
846.022745	2956.193109
846.337613	2955.666309
846.652438	2945.964608
846.967221	2943.388578
847.281960	2930.742844
847.596656	2928.859973
847.911309	2925.439550
848.225919	2917.378745
848.540485	2912.761048
848.855009	2912.645102
849.169490	2903.813000
849.483928	2896.526012
849.798323	2894.512071
850.112675	2890.174158
850.426984	2902.716549
850.741251	2899.575910
851.055474	2887.532594
851.369654	2883.988663
851.683792	2888.772718
851.997887	2895.858059
852.311938	2897.398132
852.625947	2886.466390
852.939914	2888.298849
853.253837	2894.607853
853.567718	2880.560678
853.881555	2879.572612
854.195350	2893.123233
854.509103	2888.782800
854.822812	2882.544372
855.136479	2880.117057
855.450103	2882.332644
855.763685	2874.349977
856.077224	2869.762527
856.390720	2884.565875
856.704173	2894.237328
857.017584	2887.227604
857.330953	2883.540000
857.644278	2894.012997
857.957561	2899.459964
858.270802	2904.233937
858.584000	2907.036818
858.897155	2892.717421
859.210268	2893.985271
859.523339	2887.434291
859.836367	2887.162069
860.149352	2884.192829
860.462295	2877.326778
860.775195	2886.922614
861.088054	2884.263406
861.400869	2869.823020
861.713642	2863.947556
862.026373	2882.395658
862.339062	2880.810215
862.651708	2888.351781
862.964312	2892.382184
863.276873	2884.815412
863.589392	2895.084242
863.901869	2911.021850
864.214303	2928.071033
864.526696	2944.676593
864.839045	2939.857250
865.151353	2941.377158
865.463619	2936.025973
865.775842	2939.141406
866.088023	2959.469859
866.400162	2963.691826
866.712258	2935.126127
867.024313	2925.701690
867.336325	2934.112855
867.648296	2957.203861
867.960224	2946.504012
868.272110	2935.758792
868.583954	2941.611572
868.895755	2953.281843
869.207515	2941.092333
869.519233	2945.762962
869.830909	2955.245372
870.142542	2964.498410
870.454134	2964.281641
870.765684	2968.521251
871.077191	2964.992443
871.388657	2977.449134
871.700081	2987.932214
872.011463	2998.495952
872.322803	3000.877897
872.634101	3001.669358
872.945357	3015.527490
873.256571	3041.015564
873.567744	3035.361910
873.878874	3028.768081
874.189963	3048.262223
874.501010	3055.460990
874.812015	3046.885987
875.122979	3042.364072
875.433900	3040.294679
875.744780	3045.771892
876.055618	3053.744477
876.366415	3050.077038
876.677169	3061.848132
876.987882	3060.237483
877.298554	3052.617779
877.609183	3072.127045
877.919771	3094.945828
878.230317	3121.038840
878.540822	3173.857529
878.851285	3215.424363
879.161707	3257.117226
879.472087	3362.253010
879.782425	3594.950151
880.092722	4030.326883
880.402977	4562.357657
880.713191	5196.307959
881.023363	6364.912955
881.333494	7654.583782
881.643583	8203.615847
881.953631	7898.525217
882.263637	7262.253463
882.573602	6672.677918
882.883526	6085.214616
883.193408	5514.389643
883.503248	5052.284714
883.813048	4746.412704
884.122806	4442.390798
884.432522	4122.499340
884.742197	3889.139287
885.051831	3692.844318
885.361424	3558.202660
885.670975	3484.153152
885.980485	3398.072929
886.289954	3323.564675
886.599382	3275.582973
886.908768	3237.567632
887.218113	3195.670602
887.527417	3138.370327
887.836680	3087.260589
888.145901	3081.191039
888.455082	3068.573031
888.764221	3019.865403
889.073319	2989.925990
889.382376	2986.853407
889.691392	2990.359529
890.000366	2991.899602
890.309300	2979.579022
890.618193	2991.866834
890.927044	3008.225379
891.235855	3011.383662
891.544625	2993.633759
891.853353	3007.005419
892.162041	3025.266999
892.470687	3065.167732
892.779293	3116.335443
893.087858	3164.854029
893.396381	3235.641911
893.704864	3359.984491
894.013306	3600.709670
894.321707	3909.598810
894.630068	4109.059623
894.938387	4102.566617
895.246665	4059.563054
895.554903	3938.935805
895.863100	3735.071543
896.171256	3566.704566
896.479371	3426.013524
896.787446	3303.142961
897.095480	3202.403063
897.403473	3133.616519
897.711425	3102.031169
898.019336	3091.205292
898.327207	3061.318811
898.635038	3023.830270
898.942827	3010.627488
899.250576	3000.343535
899.558284	2966.030921
899.865952	2949.828653
900.173579	2925.681526
900.481165	2920.002666
900.788711	2905.249729
901.096216	2882.854403
901.403681	2871.421066
901.711105	2878.569422
902.018489	2877.742673
902.325832	2876.159751
902.633135	2886.378170
902.940397	2920.915115
903.247619	3002.990140
903.554800	3197.555994
903.861941	3546.388716
904.169041	3977.722442
904.476101	4276.582207
904.783121	4230.753077
905.090100	3983.481961
905.397039	3706.077347
905.703938	3452.852627
906.010796	3270.037704
906.317614	3158.209788
906.624391	3062.614388
906.931129	2990.722493
907.237826	2930.132864
907.544483	2883.807181
907.851099	2849.943230
908.157675	2829.236691
908.464211	2809.719864
908.770707	2796.040693
909.077163	2783.311779
909.383578	2768.818462
909.689954	2758.085845
909.996289	2756.568458
910.302584	2756.500402
910.608839	2757.997625
910.915054	2752.464959
911.221229	2744.038670
911.527363	2747.542272
911.833458	2755.376225
912.139513	2757.150711
912.445527	2759.441916
912.751502	2771.213010
913.057436	2779.228445
913.363331	2791.259158
913.669186	2812.202632
913.975000	2845.892663
914.280775	2910.890780
914.586510	2979.342088
914.892205	3060.875189
915.197859	3189.313707
915.503475	3387.491547
915.809050	3601.556583
916.114585	3749.501846
916.420081	3770.475567
916.725536	3707.773695
917.030952	3585.508070
917.336328	3457.835808
917.641665	3324.852690
917.946961	3223.898543
918.252218	3156.276505
918.557435	3074.093095
918.862612	3014.050432
919.167750	2966.897999
919.472848	2925.903336
919.777906	2897.970303
920.082925	2874.609596
920.387904	2841.970645
920.692843	2827.109324
920.997743	2815.171872
921.302603	2802.695016
921.607423	2789.509878
921.912204	2776.894390
922.216946	2766.653286
922.521647	2758.889909
922.826310	2750.130905
923.130932	2743.700913
923.435516	2733.782443
923.740059	2727.722976
924.044564	2719.589074
924.349028	2714.197560
924.653454	2710.953577
924.957840	2702.670962
925.262186	2697.765919
925.566493	2692.893644
925.870761	2686.413241
926.174989	2682.397962
926.479178	2680.762107
926.783328	2676.429235
927.087438	2671.279697
927.391509	2672.247598
927.695541	2667.987823
927.999533	2664.864828
928.303486	2663.113027
928.607400	2662.929025
928.911275	2661.580517
929.215110	2658.593633
929.518906	2657.298057
929.822663	2659.349806
930.126381	2657.809734
930.430060	2658.250835
930.733699	2659.627070
931.037299	2661.305774
931.340861	2662.024138
931.644383	2663.382729
931.947866	2660.416010
932.251309	2659.009528
932.554714	2659.097748
932.858080	2659.659837
933.161407	2656.569610
933.464694	2656.443581
933.767943	2650.883188
934.071153	2654.389311
934.374323	2653.060967
934.677455	2653.076090
934.980548	2651.737664
935.283602	2652.153559
935.586617	2650.933600
935.889593	2651.130205
936.192530	2648.783548
936.495428	2651.473003
936.798287	2655.294198
937.101108	2655.921822
937.403890	2662.737462
937.706632	2666.324242
938.009336	2670.820952
938.312002	2681.324196
938.614628	2689.871472
938.917216	2695.343645
939.219765	2696.689633
939.522275	2693.987574
939.824747	2692.298788
940.127179	2693.334745
940.429573	2689.632017
940.731929	2684.598425
941.034246	2679.953002
941.336524	2678.521314
941.638763	2672.396312
941.940964	2672.799605
942.243126	2672.683658
942.545250	2672.867660
942.847335	2668.013029
943.149381	2663.907009
943.451389	2659.722852
943.753359	2659.259065
944.055290	2657.209836
944.357182	2656.032727
944.659036	2655.813437
944.960851	2655.856287
945.262628	2650.351347
945.564367	2652.299752
945.866067	2652.226656
946.167729	2651.961995
946.469352	2653.507109
946.770937	2654.759836
947.072484	2652.559372
947.373992	2650.626089
947.675462	2648.972591
947.976893	2646.071407
948.278286	2644.627116
948.579641	2645.043012
948.880958	2643.505460
949.182236	2645.761376
949.483476	2643.966725
949.784678	2645.189205
950.085841	2645.161479
950.386967	2644.435552
950.688054	2645.277425
950.989103	2647.810605
951.290114	2649.143990
951.591087	2649.007879
951.892021	2652.529125
952.192917	2654.142294
952.493776	2658.618839
952.794596	2656.307470
953.095378	2656.015083
953.396122	2654.719506
953.696828	2653.907881
953.997496	2653.338230
954.298126	2650.492499
954.598718	2650.820174
954.899272	2644.589308
955.199788	2642.141827
955.500266	2641.050418
955.800706	2638.383647
956.101108	2636.979686
956.401472	2633.453399
956.701798	2633.967597
957.002087	2630.388377
957.302337	2628.959210
957.602550	2631.111783
957.902724	2626.138685
958.202861	2623.350927
958.502960	2627.182203
958.803022	2625.581637
959.103045	2624.018879
959.403031	2622.607356
959.702979	2619.335647
960.002889	2621.321862
960.302762	2619.267592
960.602596	2622.151132
960.902393	2619.759104
961.202153	2619.683487
961.501875	2618.942437
961.801559	2618.261882
962.101205	2620.003600
962.400814	2620.275823
962.700385	2617.311624
962.999918	2614.080245
963.299414	2616.631068
963.598873	2615.625358
963.898293	2613.624020
964.197677	2614.375152
964.497022	2615.915225
964.796331	2617.964454
965.095601	2615.332971
965.394835	2616.457149
965.694030	2616.835235
965.993189	2615.751387
966.292309	2613.929010
966.591393	2615.703496
966.890439	2617.651902
967.189447	2616.976387
967.488419	2617.180554
967.787353	2615.751387
968.086249	2612.232662
968.385108	2616.303393
968.683930	2613.780296
968.982714	2619.209619
969.281462	2615.398506
969.580172	2615.027982
969.878844	2615.506891
970.177480	2617.314145
970.476078	2613.790378
970.774639	2614.657457
971.073162	2615.529576
971.371649	2617.417488
971.670098	2613.389607
971.968510	2615.025461
972.266885	2618.340020
972.565223	2620.240535
972.863524	2615.479165
973.161788	2615.852210
973.460014	2616.247941
973.758204	2615.741305
974.056356	2615.859772
974.354471	2615.280039
974.652550	2616.873044
974.950591	2615.406068
975.248595	2618.889505
975.546563	2616.832715
975.844493	2615.297683
976.142386	2615.953033
976.440243	2614.687704
976.738062	2616.157200
977.035845	2615.585029
977.333590	2618.035030
977.631299	2614.418002
977.928971	2611.763834
978.226606	2610.947167
978.524204	2610.974894
978.821765	2610.511108
979.119290	2612.144442
979.416777	2611.594956
979.714228	2613.437497
980.011642	2612.008330
980.309020	2613.157713
980.606360	2612.908176
980.903664	2614.619648
981.200931	2614.082765
981.498162	2617.724999
981.795356	2616.252982
982.092513	2617.775410
982.389633	2618.095524
982.686717	2623.585340
982.983764	2628.818058
983.280775	2629.498614
983.577749	2627.499796
983.874686	2630.862246
984.171587	2629.687657
984.468451	2625.024590
984.765279	2626.647841
985.062070	2622.463683
985.358824	2620.948817
985.655543	2618.670215
985.952224	2615.728702
986.248869	2615.242231
986.545478	2615.779113
986.842050	2613.843310
987.138586	2613.228290
987.435086	2613.661829
987.731549	2612.817436
988.027975	2615.867334
988.324366	2613.979422
988.620719	2612.187291
988.917037	2611.022785
989.213318	2608.577825
989.509563	2608.855089
989.805772	2611.463886
990.101944	2611.163937
990.398080	2611.471448
990.694180	2611.148814
990.990244	2609.235696
991.286271	2610.511108
991.582262	2608.827362
991.878217	2605.795108
992.174136	2612.388937
992.470019	2609.961622
992.765865	2607.698144
993.061676	2605.749738
993.357450	2609.780140
993.653188	2606.515993
993.948890	2609.034050
994.244556	2609.293669
994.540186	2613.039246
994.835780	2612.295676
995.131337	2610.390120
995.426859	2611.307610
995.722345	2612.308279
996.017795	2615.693414
996.313208	2613.331633
996.608586	2617.856069
996.903928	2614.927158
997.199234	2615.277519
997.494504	2615.045626
997.789738	2615.595111
998.084936	2614.591922
998.380099	2613.165275
998.675225	2611.441201
998.970316	2611.645367
999.265371	2610.080089
999.560390	2611.599997
999.855373	2610.369955
1000.150320	2608.880294
1000.445232	2610.009513
1000.740108	2610.921962
1001.034948	2609.729729
1001.329752	2610.561519
1001.624521	2606.591611
1001.919254	2607.438524
1002.213951	2609.893566
1002.508613	2607.143617
1002.803239	2607.635129
1003.097829	2608.219903
1003.392384	2607.975407
1003.686903	2607.471292
1003.981386	2608.623196
1004.275834	2608.129162
1004.570246	2607.879625
1004.864623	2607.113370
1005.158964	2610.037239
1005.453270	2609.757455
1005.747540	2607.814090
1006.041775	2607.342742
1006.335974	2608.081272
1006.630138	2610.138062
1006.924266	2608.229986
1007.218359	2606.657146
1007.512416	2605.815273
1007.806438	2602.079778
1008.100425	2605.792588
1008.394376	2602.896445
1008.688292	2608.965994
1008.982172	2607.912393
1009.276017	2606.296703
1009.569827	2608.192177
1009.863602	2606.654625
1010.157341	2607.851899
1010.451045	2607.481374
1010.744714	2606.304265
1011.038347	2606.589090
1011.331945	2605.512804
1011.625508	2606.833586
1011.919036	2605.250664
1012.212528	2609.240737
1012.505986	2607.579677
1012.799408	2604.943153
1013.092795	2605.122114
1013.386147	2607.536827
1013.679464	2608.890377
1013.972745	2606.082454
1014.265992	2605.923658
1014.559204	2606.757969
1014.852380	2604.804522
1015.145521	2605.686723
1015.438628	2607.282249
1015.731699	2610.362394
1016.024736	2603.899634
1016.317737	2607.398195
1016.610703	2606.999944
1016.903635	2607.965325
1017.196531	2608.391302
1017.489393	2605.558174
1017.782219	2607.463730
1018.075011	2608.716457
1018.367768	2608.567743
1018.660490	2606.964656
1018.953177	2606.964656
1019.245829	2606.964656
