Dividing Wavelength (nm)	Counts (n)	Blue Motor Position (mm): 20.500000	Red Motor Position (mm): 0.000000	
326.493990	2186.923115
326.888308	2186.923115
327.282561	2186.923115
327.676750	2145.041208
328.070874	2141.711526
328.464933	2143.251599
328.858929	2144.433749
329.252859	2150.578916
329.646726	2157.137457
330.040528	2170.625064
330.434265	2182.660819
330.827938	2203.730322
331.221547	2218.992415
331.615091	2234.839282
332.008571	2256.347365
332.401986	2277.270674
332.795338	2291.179217
333.188625	2311.217804
333.581847	2332.221771
333.975006	2348.116529
334.368100	2367.056144
334.761129	2385.733619
335.154095	2398.061761
335.546996	2428.306164
335.939833	2457.386060
336.332606	2470.094808
336.725315	2485.233393
337.117960	2498.862153
337.510540	2508.445386
337.903056	2519.402334
338.295508	2530.737369
338.687896	2536.469161
339.080220	2546.785882
339.472480	2551.849721
339.864676	2557.828529
340.256807	2562.607543
340.648875	2565.773388
341.040879	2569.206414
341.432818	2569.975190
341.824694	2575.845613
342.216506	2578.028433
342.608253	2575.507856
342.999937	2580.554051
343.391557	2578.308217
343.783113	2576.279152
344.174605	2577.526838
344.566033	2576.425346
344.957397	2575.238154
345.348697	2571.752196
345.739934	2570.315467
346.131106	2568.566187
346.522215	2569.889490
346.913260	2566.416135
347.304241	2563.729200
347.695159	2562.267265
348.086012	2562.484035
348.476802	2560.064281
348.867528	2551.128836
349.258191	2548.852755
349.648789	2550.259237
350.039324	2549.500543
350.429796	2551.025492
350.820203	2548.545245
351.210548	2547.005172
351.600828	2547.839483
351.991045	2545.835624
352.381198	2547.380738
352.771288	2546.380069
353.161314	2545.765048
353.551276	2543.456200
353.941175	2544.262784
354.331010	2542.016950
354.720782	2543.345294
355.110490	2542.120294
355.500135	2541.752290
355.889717	2544.645912
356.279235	2542.173226
356.668689	2545.202960
357.058080	2545.328988
357.447408	2543.909904
357.836672	2544.799667
358.225873	2542.319420
358.615010	2543.297403
359.004084	2542.072403
359.393095	2544.018288
359.782043	2546.755635
360.170927	2546.987528
360.559748	2545.765048
360.948505	2545.689431
361.337199	2545.800336
361.725830	2548.474668
362.114398	2546.727909
362.502903	2547.814277
362.891344	2548.547765
363.279722	2547.446273
363.668037	2552.053888
364.056289	2552.222766
364.444478	2551.590102
364.832603	2551.955585
365.220665	2550.861655
365.608665	2552.868034
365.996601	2553.659495
366.384474	2552.129505
366.772284	2554.392983
367.160031	2552.031202
367.547715	2554.307283
367.935336	2553.712427
368.322893	2554.287119
368.710388	2553.430123
369.097820	2553.649413
369.485189	2552.575647
369.872495	2555.101265
370.259738	2556.986657
370.646918	2556.147305
371.034035	2558.438509
371.421090	2556.885834
371.808081	2556.215360
372.195010	2559.061092
372.581875	2560.538150
372.968678	2557.160577
373.355418	2554.642520
373.742096	2558.461194
374.128710	2560.137378
374.515262	2562.352965
374.901751	2557.868859
375.288177	2561.034703
375.674540	2558.304918
376.060841	2560.744837
376.447079	2559.222408
376.833254	2557.178221
377.219367	2561.440516
377.605417	2562.335321
377.991404	2558.826678
378.377329	2561.846329
378.763191	2564.571073
379.148991	2561.584189
379.534727	2561.732903
379.920402	2562.000084
380.306013	2562.239539
380.691563	2562.138716
381.077049	2562.824313
381.462474	2565.551577
381.847835	2562.904971
382.233134	2565.811197
382.618371	2563.126782
383.003545	2565.859087
383.388657	2566.464026
383.773706	2565.236505
384.158693	2564.470250
384.543618	2567.341187
384.928480	2565.924622
385.313280	2567.189952
385.698017	2566.113666
386.082692	2565.601989
386.467305	2566.027966
386.851856	2566.625343
387.236344	2562.335321
387.620770	2565.428069
388.005133	2564.402194
388.389435	2565.145764
388.773674	2566.864798
389.157851	2567.164746
389.541965	2568.016701
389.926018	2571.679100
390.310008	2568.624160
390.693936	2570.461661
391.077802	2570.464182
391.461606	2570.539799
391.845348	2569.266907
392.229027	2570.280179
392.612645	2571.565674
392.996200	2569.012329
393.379694	2571.873184
393.763125	2570.239850
394.146494	2571.701785
394.529801	2571.895869
394.913047	2572.417629
395.296230	2573.526683
395.679351	2572.520972
396.062410	2573.473750
396.445408	2572.526013
396.828343	2571.364027
397.211217	2575.091961
397.594028	2574.164388
397.976778	2572.190777
398.359466	2572.097515
398.742092	2571.706826
399.124656	2572.505849
399.507158	2572.304203
399.889598	2576.039698
400.271977	2574.295458
400.654294	2574.560119
401.036549	2574.292938
401.418742	2574.847465
401.800874	2574.325705
402.182944	2574.476940
402.564952	2575.664132
402.946898	2577.615058
403.328783	2576.800912
403.710606	2577.108422
404.092367	2576.518607
404.474067	2579.243351
404.855705	2577.952816
405.237282	2577.978021
405.618797	2579.770152
406.000250	2578.686303
406.381642	2577.022723
406.762972	2575.328895
407.144240	2576.238823
407.525447	2573.798905
407.906593	2572.692372
408.287677	2579.394586
408.668700	2580.102868
409.049661	2578.245203
409.430560	2580.019689
409.811399	2580.029771
410.192176	2580.796026
410.572891	2577.347877
410.953545	2578.923238
411.334138	2581.194278
411.714669	2580.102868
412.095139	2582.323496
412.475547	2581.234607
412.855894	2581.809298
413.236180	2583.825760
413.616405	2580.508681
413.996568	2579.848289
414.376670	2581.703434
414.756711	2580.085224
415.136691	2581.201839
415.516609	2582.192426
415.896466	2583.876171
416.276262	2582.915832
416.655997	2584.922211
417.035670	2585.474217
417.415283	2584.833991
417.794834	2586.046388
418.174324	2581.758887
418.553753	2585.501943
418.933121	2583.520770
419.312428	2583.931624
419.691674	2586.374063
420.070859	2584.919690
420.449983	2584.471027
420.829045	2585.864907
421.208047	2587.621749
421.586988	2584.569330
421.965867	2589.086204
422.344686	2585.834660
422.723444	2586.651327
423.102141	2586.696697
423.480777	2589.179465
423.859352	2588.077973
424.237866	2587.800710
424.616319	2586.006059
424.994712	2587.767942
425.373044	2587.140318
425.751314	2583.719896
426.129524	2583.334247
426.507673	2583.424988
426.885762	2586.038826
427.263789	2587.513364
427.641756	2588.204002
428.019662	2589.035792
428.397508	2587.667119
428.775292	2586.767273
429.153016	2585.683425
429.530679	2590.412027
429.908282	2589.602922
430.285824	2591.768098
430.663305	2590.107037
431.040726	2590.885896
431.418086	2592.070567
431.795385	2592.914960
432.172624	2591.203488
432.549802	2591.294229
432.926920	2589.663416
433.303977	2589.456729
433.680974	2591.727768
434.057910	2592.017635
434.434786	2589.391194
434.811601	2591.465628
435.188355	2592.191555
435.565050	2591.662233
435.941683	2592.609970
436.318257	2592.617532
436.694770	2593.908067
437.071222	2592.912440
437.447614	2592.967892
437.823946	2593.676174
438.200218	2593.968561
438.576429	2594.606267
438.952580	2594.245825
439.328670	2594.966710
439.704700	2594.641555
440.080670	2596.824375
440.456580	2593.890423
440.832429	2594.016452
441.208218	2597.031062
441.583947	2595.269179
441.959616	2596.829416
442.335224	2595.543922
442.710773	2596.310177
443.086261	2596.390836
443.461689	2593.963520
443.837057	2598.102307
444.212365	2595.256576
444.587612	2593.872779
444.962800	2593.933273
445.337927	2596.355548
445.712995	2590.495206
446.088002	2596.083325
446.462949	2597.693974
446.837837	2599.546598
447.212664	2598.971907
447.587431	2599.798656
447.962139	2597.298243
448.336786	2603.839141
448.711374	2602.568770
449.085901	2600.822010
449.460369	2600.222113
449.834776	2598.147678
450.209124	2599.299582
450.583412	2601.411825
450.957640	2601.227823
451.331808	2604.930550
451.705917	2601.545416
452.079965	2600.678337
452.453954	2601.850405
452.827883	2601.981475
453.201752	2602.294027
453.575562	2601.734459
453.949311	2602.480550
454.323001	2604.726384
454.696632	2604.696137
455.070202	2605.669079
455.443713	2605.338884
455.817164	2604.539861
456.190556	2605.137238
456.563888	2605.991713
456.937160	2603.652618
457.310373	2603.614809
457.683526	2604.519696
458.056619	2605.343925
458.429653	2604.895262
458.802628	2605.989193
459.175542	2607.219234
459.548398	2605.374172
459.921194	2609.157558
460.293930	2608.303082
460.666607	2611.100923
461.039224	2612.646036
461.411782	2612.086468
461.784280	2612.759462
462.156719	2614.740636
462.529099	2611.259719
462.901419	2611.179061
463.273680	2612.182250
463.645882	2608.955912
464.018024	2609.770058
464.390106	2607.524224
464.762130	2614.516304
465.134094	2615.169134
465.505999	2616.802468
465.877845	2622.756070
466.249631	2625.173304
466.621358	2627.822430
466.993026	2625.415279
467.364634	2628.518109
467.736184	2624.288581
468.107674	2623.297994
468.479105	2622.660288
468.850477	2622.372943
469.221790	2627.378808
469.593043	2622.506533
469.964238	2620.270782
470.335373	2623.822274
470.706449	2624.984260
471.077467	2626.383181
471.448425	2628.495424
471.819324	2632.787967
472.190164	2635.991620
472.560945	2634.844757
472.931667	2633.539098
473.302330	2630.877369
473.672934	2628.787811
474.043479	2632.417442
474.413965	2632.921557
474.784393	2634.754017
475.154761	2637.771147
475.525070	2638.517238
475.895321	2637.521610
476.265513	2640.611837
476.635645	2645.204328
477.005719	2646.278094
477.375734	2647.848414
477.745691	2651.699855
478.115588	2657.081287
478.485427	2661.237718
478.855207	2662.140085
479.224928	2673.477640
479.594591	2682.876871
479.964194	2688.744774
480.333739	2690.201668
480.703226	2695.814992
481.072653	2699.921012
481.442022	2705.539378
481.811333	2721.126626
482.180584	2719.967161
482.549777	2726.883624
482.918912	2725.819940
483.287988	2743.416088
483.657005	2748.643764
484.025964	2754.869589
484.394864	2763.684047
484.763706	2770.363576
485.132489	2774.625871
485.501213	2788.501647
485.869879	2800.444141
486.238487	2812.878147
486.607036	2829.705518
486.975527	2837.433607
487.343959	2861.800024
487.712333	2878.365256
488.080648	2899.946435
488.448905	2921.215063
488.817104	2938.894390
489.185244	2978.747232
489.553326	3005.704802
489.921350	3050.724826
490.289315	3140.475009
490.657222	3220.430229
491.025070	3273.110287
491.392861	3306.364258
491.760593	3329.992146
492.128267	3343.618385
492.495883	3349.093078
492.863440	3372.206769
493.230939	3389.162690
493.598380	3444.065896
493.965763	3480.367245
494.333088	3511.203983
494.700354	3564.829257
495.067563	3624.561889
495.434713	3675.659024
495.801805	3737.634970
496.168839	3802.040751
496.535815	3863.585678
496.902733	3939.162657
497.269593	3980.764779
497.636395	4076.231630
498.003139	4152.279956
498.369825	4228.582861
498.736453	4305.808296
499.103023	4378.771437
499.469535	4473.116631
499.835989	4577.410542
500.202385	4679.141027
500.568723	4723.344384
500.935003	4823.310465
501.301226	4895.129263
501.667390	5065.394234
502.033497	5232.901694
502.399546	5269.412251
502.765537	5348.656669
503.131470	5489.672866
503.497345	5622.618175
503.863163	5629.491788
504.228923	5822.169729
504.594625	5979.355427
504.960269	6006.512122
505.325856	6209.990736
505.691385	6260.140134
506.056856	6455.068951
506.422270	6607.803309
506.787625	6642.519215
507.152924	6881.374126
507.518164	6984.480845
507.883347	7079.957778
508.248472	7143.902294
508.613540	7447.755322
508.978550	7581.731547
509.343503	7718.969399
509.708398	7930.332377
510.073236	8097.809590
510.438016	8293.965927
510.802738	8391.786997
511.167403	8604.564018
511.532010	8681.308024
511.896561	9044.724805
512.261053	9238.189166
512.625488	9328.337600
512.989866	9461.860121
513.354186	9558.360408
513.718449	9793.028641
514.082655	10039.170539
514.446803	10167.669550
514.810894	10469.485952
515.174927	10469.851435
515.538904	10650.584363
515.902822	10981.304219
516.266684	11102.284350
516.630488	11218.298944
516.994235	11399.306614
517.357925	11675.410610
517.721558	11948.242897
518.085133	12169.733553
518.448651	12312.360399
518.812112	12400.651167
519.175516	12619.785084
519.538863	12929.667331
519.902152	12999.273063
520.265385	13345.207122
520.628560	13420.763936
520.991678	13624.988640
521.354739	13841.438142
521.717743	14058.127099
522.080690	14112.964771
522.443580	14495.671527
522.806413	14652.375794
523.169189	14919.935034
523.531908	15083.356639
523.894569	15105.701553
524.257174	15317.717361
524.619722	15602.633294
524.982213	15593.342447
525.344647	15852.218300
525.707025	16059.175310
526.069345	16278.049607
526.431608	16429.075014
526.793815	16742.947335
527.155964	16540.169442
527.518057	16834.416551
527.880093	16980.244529
528.242072	17229.509422
528.603995	17230.666367
528.965860	17273.052388
529.327669	17542.948203
529.689421	17662.166451
530.051117	17716.951190
530.412755	18048.482673
530.774337	18026.029374
531.135862	18109.682281
531.497331	18409.237724
531.858743	18239.842352
532.220098	18771.653836
532.581396	18629.430283
532.942638	18822.735848
533.303824	18994.646756
533.664953	19163.033897
534.026025	19083.053471
534.387040	19363.331543
534.747999	19599.204610
535.108902	19826.580813
535.469748	19591.070709
535.830537	19892.559435
536.191270	20073.252033
536.551947	20169.036477
536.912567	19989.730196
537.273131	20350.144970
537.633638	20246.047663
537.994089	20573.372303
538.354483	20304.726694
538.714821	20812.133952
539.075103	20984.639716
539.435328	20925.396076
539.795497	20652.772997
540.155609	21118.278184
540.515665	21457.772169
540.875665	20917.178995
541.235609	21240.011967
541.595496	21348.427022
541.955328	21727.148746
542.315102	21752.982138
542.674821	21491.255513
543.034483	21471.894962
543.394090	21679.366169
543.753640	21584.390830
544.113134	22217.839537
544.472571	21971.448102
544.831953	22326.572185
545.191278	22037.819934
545.550548	22078.723856
545.909761	22312.048621
546.268918	22604.007046
546.628019	22625.701651
546.987064	22458.400878
547.346053	22303.191313
547.704986	22473.534422
548.063863	22689.575591
548.422684	22710.771122
548.781449	22387.802039
549.140158	22810.979178
549.498811	22480.297130
549.857408	22268.760233
550.215949	22762.823556
550.574434	22486.553202
550.932864	22757.568153
551.291237	22911.575403
551.649555	22859.626313
552.007817	22947.513789
552.366022	22883.987689
552.724173	22943.710239
553.082267	22915.179828
553.440305	23411.194079
553.798288	22755.239140
554.156215	23301.579230
554.514086	23403.201329
554.871902	22829.215552
555.229661	23143.866732
555.587365	23034.130895
555.945014	22898.395307
556.302606	23207.755795
556.660143	23139.871617
557.017625	23434.537142
557.375050	23014.603985
557.732421	23410.614346
558.089735	23239.510023
558.446994	23335.032327
558.804197	23367.494837
559.161345	23355.012940
559.518437	23099.955761
559.875474	23337.220187
560.232455	23522.338918
560.589381	23374.688563
560.946251	23351.874822
561.303065	23689.599362
561.659825	23789.726759
562.016528	23417.994595
562.373177	23182.938194
562.729770	23538.032030
563.086307	23440.170631
563.442789	23611.854687
563.799216	23434.736267
564.155587	23470.384787
564.511904	23464.153921
564.868164	23386.457137
565.224370	23392.567015
565.580520	23290.244195
565.936615	23450.741931
566.292654	23114.428914
566.648638	23443.122227
567.004567	23270.409775
567.360441	23230.229259
567.716260	22965.361994
568.072023	23297.455566
568.427732	23060.783475
568.783385	22865.216953
569.138982	23090.969904
569.494525	23136.778869
569.850013	22879.291854
570.205445	22989.229337
570.560823	22783.706536
570.916145	22561.063977
571.271412	22726.040777
571.626625	22493.696517
571.981782	22612.884518
572.336884	22413.791708
572.691931	22549.917985
573.046923	22287.049539
573.401860	22175.062827
573.756743	22169.809944
574.111570	22094.860589
574.466342	22035.296836
574.821059	22127.802009
575.175722	21826.093993
575.530330	21814.262405
575.884882	21843.864060
576.239380	21758.958426
576.593823	21653.200060
576.948211	21632.054940
577.302544	21477.382258
577.656823	21349.987259
578.011047	21437.063109
578.365216	21323.183444
578.719330	21197.920853
579.073389	21115.321547
579.427394	21260.957961
579.781344	21039.822707
580.135239	20929.030748
580.489080	20890.261754
580.842866	20663.014101
581.196597	20839.106646
581.550273	20831.383598
581.903895	20726.673792
582.257463	21042.910413
582.610975	20564.550284
582.964434	20866.981706
583.317837	20570.574463
583.671186	20672.874598
584.024481	20640.402005
584.377721	20417.371277
584.730906	20467.165274
585.084037	20507.441572
585.437113	20404.990203
585.790135	20598.467167
586.143103	20073.824204
586.496016	20089.058571
586.848874	20328.513378
587.201679	20268.566497
587.554428	19931.953532
587.907124	20261.682802
588.259765	20048.421830
588.612352	20131.744541
588.964884	19690.560400
589.317362	19874.015551
589.669786	19914.337220
590.022155	19983.143928
590.374470	20147.934207
590.726731	19975.604883
591.078937	19702.971721
591.431090	19813.761159
591.783188	19551.142250
592.135232	19520.272744
592.487222	19627.646800
592.839157	19652.978598
593.191038	19538.367966
593.542866	19437.625547
593.894639	19152.500406
594.246358	19369.527121
594.598022	19288.341858
594.949633	19044.791113
595.301190	18994.460233
595.652692	19155.174738
596.004141	19405.344519
596.355535	18729.524913
596.706876	18736.577488
597.058162	18636.034195
597.409395	18857.300519
597.760573	18943.809240
598.111698	18722.646259
598.462768	18655.966917
598.813785	18613.865721
599.164748	18452.281617
599.515657	18475.246593
599.866511	18264.198687
600.217312	18634.599987
600.568060	18161.835538
600.918753	18469.807188
601.269392	18366.829018
601.619978	18142.298546
601.970510	18357.233181
602.320988	18300.623544
602.671412	18511.565586
603.021783	18400.584584
603.372100	18155.771030
603.722363	18281.588147
604.072572	18221.812666
604.422728	18352.154219
604.772830	18126.895300
605.122878	18069.040498
605.472872	18059.656390
605.822813	18050.909988
606.172701	18015.374895
606.522534	18213.381336
606.872314	18238.488803
607.222041	18067.888595
607.571714	18279.906922
607.921333	18110.940048
608.270899	18190.093726
608.620411	18380.253610
608.969870	18128.362276
609.319276	18140.942476
609.668627	18167.829470
610.017926	18306.683011
610.367171	18420.771884
610.716362	18465.572619
611.065500	18281.941028
611.414585	18410.354340
611.763616	18391.936484
612.112594	18355.436010
612.461518	18309.223753
612.810389	18512.956944
613.159207	18361.772740
613.507971	18261.327750
613.856682	18539.707827
614.205340	18481.328745
614.553945	18621.041803
614.902496	18364.172330
615.250994	18612.885216
615.599439	18539.823774
615.947830	18536.758752
616.296169	18561.283966
616.644454	18550.871462
616.992686	18512.770422
617.340864	18722.305981
617.688990	18496.679058
618.037063	18659.876332
618.385082	18506.632817
618.733048	18793.083781
619.080961	18653.002719
619.428821	18689.185600
619.776628	18588.100383
620.124382	18499.955808
620.472083	18531.526034
620.819731	18559.300272
621.167326	18261.373120
621.514868	18307.512281
621.862357	18051.509886
622.209793	18067.366835
622.557176	17917.296726
622.904506	17739.686794
623.251783	17637.913460
623.599007	17418.353566
623.946179	17364.834156
624.293297	17300.471224
624.640363	17062.196046
624.987376	17074.556956
625.334336	16867.811675
625.681243	16716.723253
626.028097	16720.859519
626.374899	16661.295766
626.721647	16527.969850
627.068343	16357.296545
627.414987	16289.263653
627.761577	16256.735608
628.108115	16304.863504
628.454600	16022.647109
628.801032	16114.164216
629.147412	16052.798250
629.493739	16072.892289
629.840014	15882.167795
630.186236	15978.436190
630.532405	15746.394399
630.878521	15941.698781
631.224585	15839.527195
631.570597	15659.368960
631.916556	15700.262800
632.262462	15675.901424
632.608316	15596.263796
632.954117	15538.416556
633.299866	15526.448856
633.645562	15460.744978
633.991206	15207.507655
634.336797	15074.070834
634.682336	15039.697726
635.027823	14938.425987
635.373257	14821.425847
635.718639	14715.566657
636.063968	14662.347196
636.409245	14425.284416
636.754470	14451.770638
637.099642	14293.289364
637.444762	14071.586980
637.789829	14112.236324
638.134845	13954.375112
638.479808	13983.097086
638.824719	13928.385443
639.169577	13779.011013
639.514383	13823.347962
639.859137	13648.656857
640.203839	13726.043610
640.548489	13566.970000
640.893086	13552.635479
641.237632	13425.865584
641.582125	13577.866454
641.926566	13404.624682
642.270955	13422.636725
642.615292	13379.484448
642.959576	13391.278227
643.303809	13424.214606
643.647990	13355.589378
643.992118	13413.918049
644.336195	13199.270759
644.680219	13384.202968
645.024192	13315.532370
645.368112	13547.130539
645.711981	13611.153193
646.055797	13791.308908
646.399562	13756.436727
646.743274	14016.940872
647.086935	14298.678358
647.430544	14269.227937
647.774101	14284.527839
648.117606	14445.149083
648.461059	14416.527932
648.804460	14404.469492
649.147810	14144.043484
649.491108	14027.759188
649.834354	14049.320203
650.177548	13759.509310
650.520690	13566.483529
650.863781	13491.196417
651.206820	13526.519782
651.549807	13361.739586
651.892742	13175.733612
652.235626	13099.705450
652.578458	13105.903549
652.921238	12781.417079
653.263967	12987.864932
653.606644	12814.101400
653.949269	12779.670319
654.291843	12595.000251
654.634365	12744.195719
654.976836	12590.806011
655.319255	12615.404321
655.661622	12562.298286
656.003938	12491.301196
656.346203	12418.295206
656.688416	12478.375677
657.030577	12442.843104
657.372687	12364.140610
657.714746	12340.386693
658.056753	12516.811955
658.398708	12352.740041
658.740612	12341.452898
659.082465	12445.255296
659.424266	12406.236766
659.766016	12426.151844
660.107715	12343.444153
660.449362	12412.472673
660.790958	12375.783155
661.132503	12323.670227
661.473996	12378.545708
661.815438	12398.453224
662.156829	12418.206985
662.498168	12388.562480
662.839456	12393.986762
663.180693	12409.952096
663.521879	12498.499963
663.863013	12477.833753
664.204097	12454.299126
664.545129	12571.405130
664.886110	12544.888661
665.227040	12625.668110
665.567918	12636.887198
665.908746	12667.252588
666.249522	12645.802479
666.590248	12694.061444
666.930922	12811.452273
667.271545	12791.496866
667.612118	12873.856717
667.952639	12785.197944
668.293109	12781.535546
668.633528	12743.348806
668.973896	12715.035165
669.314213	12812.102582
669.654480	12550.819578
669.994695	12606.539452
670.334859	12639.417857
670.674973	12575.291860
671.015035	12611.585647
671.355047	12552.228581
671.695008	12529.198070
672.034918	12534.057742
672.374777	12573.083834
672.714585	12491.943943
673.054342	12522.707584
673.394049	12470.377887
673.733705	12565.585118
674.073310	12482.499341
674.412864	12498.671362
674.752368	12376.249462
675.091820	12377.391283
675.431223	12373.214687
675.770574	12248.733475
676.109875	12170.819922
676.449125	12126.097326
676.788324	12064.920403
677.127473	11906.093810
677.466571	11896.084599
677.805619	11799.269240
678.144616	11719.303937
678.483562	11678.372288
678.822458	11554.417877
679.161303	11536.678056
679.500098	11523.583659
679.838842	11478.959365
680.177535	11499.607932
680.516179	11557.513145
680.854771	11502.564568
681.193314	11716.795963
681.531805	11868.539735
681.870247	12266.228800
682.208638	12673.319617
682.546978	12993.558915
682.885268	13061.813618
683.223508	12748.886513
683.561697	12583.536667
683.899836	12483.192500
684.237925	12289.624795
684.575963	12214.483876
684.913951	12144.174903
685.251889	12089.153230
685.589776	12178.248062
685.927614	12106.668719
686.265401	12066.528531
686.603137	12109.839605
686.940824	12263.211669
687.278460	12374.729554
687.616046	12429.295003
687.953582	12598.944954
688.291068	12513.935976
688.628504	12746.769228
688.965889	12754.535126
689.303224	12728.938667
689.640510	12631.069707
689.977745	12334.170951
690.314930	12098.350815
690.652065	12016.653876
690.989150	11733.305742
691.326185	11504.465083
691.663170	11292.424070
692.000105	11056.127545
692.336990	10951.130393
692.673825	10705.268279
693.010610	10578.029556
693.347345	10382.634433
693.684030	10176.017701
694.020665	10116.002765
694.357251	9924.217108
694.693786	9876.154747
695.030272	9701.632521
695.366707	9584.082896
695.703093	9519.099902
696.039429	9509.988017
696.375716	9436.677037
696.711952	9313.226741
697.048139	9342.241102
697.384276	9299.272827
697.720363	9323.059512
698.056400	9254.328420
698.392388	9210.838386
698.728326	9169.553856
699.064214	9103.439124
699.400053	9155.768821
699.735842	8971.703691
700.071581	8926.610570
700.407270	8858.270168
700.742910	8764.565200
701.078501	8689.371350
701.414042	8563.589520
701.749533	8494.505548
702.084974	8358.898509
702.420366	8470.819686
702.755709	8352.443312
703.091002	8221.859783
703.426246	8248.209894
703.761440	8200.145013
704.096584	8156.634814
704.431679	8089.244669
704.766725	8076.828307
705.101721	8024.637242
705.436668	8066.103253
705.771565	7960.458312
706.106413	8039.932102
706.441212	8090.792304
706.775961	8037.449334
707.110661	8071.703975
707.445311	8226.149805
707.779913	8115.320038
708.114465	8244.834842
708.448967	8285.627859
708.783421	8421.096265
709.117825	8606.096529
709.452180	8643.375862
709.786485	8726.633038
710.120742	9003.699895
710.454949	9005.189556
710.789107	9104.104556
711.123216	9318.719078
711.457275	9468.937901
711.791286	9642.368717
712.125247	9634.658272
712.459159	9617.866188
712.793023	9881.364779
713.126837	9458.273340
713.460602	9596.627807
713.794318	9428.316283
714.127985	9463.785842
714.461602	9150.795723
714.795171	9095.373277
715.128691	8858.023152
715.462162	8599.122093
715.795584	8539.747383
716.128957	8401.455930
716.462281	8232.877225
716.795556	8279.759956
717.128782	8080.518432
717.461960	7812.802916
717.795088	7880.674491
718.128167	7788.688557
718.461198	7622.726210
718.794180	7561.405615
719.127113	7560.349493
719.459997	7416.691732
719.792833	7182.754467
720.125619	7245.836946
720.458357	7097.526200
720.791046	7083.582368
721.123686	7095.721467
721.456278	6933.000582
721.788821	6952.943387
722.121315	6841.980029
722.453761	6907.567961
722.786158	6852.894127
723.118506	6863.737649
723.450805	6829.886301
723.783056	6904.001345
724.115259	6802.628782
724.447412	6804.410830
724.779518	6848.634352
725.111574	6844.629155
725.443582	6927.793070
725.775542	6909.339927
726.107453	7099.278001
726.439315	7015.078128
726.771129	7065.895480
727.102895	7232.931592
727.434612	7349.467945
727.766281	7381.756536
728.097901	7466.490770
728.429473	7452.725900
728.760996	7429.750841
729.092471	7404.817294
729.423897	7354.806527
729.755276	7364.611572
730.086606	7293.533823
730.417887	7385.744088
730.749120	7568.916934
731.080305	7760.246367
731.411442	7891.301243
731.742530	7883.560551
732.073570	7995.834609
732.404562	8078.698576
732.735506	7921.830471
733.066401	8065.150475
733.397249	8005.039756
733.728048	7766.086543
734.058798	7440.937161
734.389501	7224.878349
734.720156	7043.359002
735.050762	6811.513816
735.381320	6704.379214
735.711831	6663.442524
736.042293	6554.818262
736.372707	6580.797848
736.703073	6439.912722
737.033391	6472.692824
737.363661	6487.536502
737.693883	6506.471076
738.024056	6594.865188
738.354182	6641.021993
738.684260	6676.206726
739.014290	6784.006760
739.344272	6890.002060
739.674207	6924.954901
740.004093	6987.656772
740.333931	7005.449525
740.663722	7013.119640
740.993464	7090.471105
741.323159	7085.520692
741.652806	6836.230593
741.982405	6838.272260
742.311956	6900.401961
742.641460	6747.660040
742.970915	6552.683333
743.300323	6542.187651
743.629683	6484.529454
743.958996	6358.861050
744.288260	6263.643736
744.617477	6218.616150
744.946647	6230.745166
745.275768	6059.063631
745.604842	6013.529409
745.933869	5991.088712
746.262847	5948.685047
746.591778	5942.796979
746.920662	5909.011166
747.249498	5895.193363
747.578286	5934.073262
747.907027	6013.526888
748.235720	6074.746660
748.564365	6041.931269
748.892963	6068.430095
749.221514	6218.812755
749.550017	6066.900104
749.878473	5938.764056
750.206881	5991.010574
750.535242	5934.784065
750.863555	5860.081727
751.191821	5887.679523
751.520039	5884.669955
751.848210	5796.719464
752.176334	5812.526002
752.504411	5864.293611
752.832440	5787.403412
753.160421	5718.236260
753.488356	5765.902891
753.816243	5800.679290
754.144082	5654.937012
754.471875	5621.168843
754.799620	5668.351522
755.127318	5678.635476
755.454969	5627.397189
755.782572	5592.144400
756.110129	5636.493951
756.437638	5631.709896
756.765100	5567.379732
757.092515	5562.124329
757.419882	5610.836998
757.747203	5593.213124
758.074477	5655.373072
758.401703	5653.011291
758.728882	5595.978197
759.056014	5646.944263
759.383099	5780.741527
759.710138	5784.340911
760.037129	5770.336585
760.364073	5779.123317
760.690970	5857.777919
761.017820	5842.916598
761.344623	5790.291993
761.671379	5892.738321
761.998088	6008.775601
762.324751	6237.207925
762.651366	6815.768549
762.977935	8089.544618
763.304456	9699.358961
763.630931	10625.202153
763.957359	10265.253686
764.283740	9337.373868
764.610074	8524.951596
764.936362	7545.591515
765.262602	6940.864782
765.588796	6403.571043
765.914943	6059.892901
766.241044	5904.562348
766.567097	5712.023038
766.893104	5454.906548
767.219064	5274.397952
767.544978	5208.837747
767.870845	5139.181603
768.196665	5033.110685
768.522438	4959.938337
768.848165	4927.581691
769.173846	4862.202967
769.499479	4818.836441
769.825066	4765.992546
770.150607	4704.412331
770.476101	4679.478784
770.801548	4678.079864
771.126949	4606.417341
771.452303	4554.364907
771.777611	4508.515613
772.102872	4529.204508
772.428087	4492.262933
772.753256	4450.227272
773.078378	4409.381323
773.403453	4339.256352
773.728482	4323.406964
774.053465	4280.799132
774.378401	4267.326648
774.703291	4269.244808
775.028135	4198.381308
775.352932	4148.559584
775.677683	4133.431082
776.002388	4151.564112
776.327046	4165.472656
776.651658	4091.970112
776.976224	4029.555586
777.300743	4033.777552
777.625216	4056.041808
777.949643	4049.387485
778.274024	4009.945498
778.598359	3962.999752
778.922647	3988.061849
779.246889	3978.345025
779.571086	3974.118017
779.895236	3958.074545
780.219339	3946.482412
780.543397	3938.706432
780.867409	3987.769462
781.191374	4003.686905
781.515294	3943.419911
781.839167	3932.987243
782.162995	3955.753094
782.486776	3940.143161
782.810511	3952.284780
783.134201	3949.436528
783.457844	3908.830034
783.781441	3849.195704
784.104993	3854.161241
784.428498	3873.662945
784.751958	3869.534240
785.075372	3848.825180
785.398739	3811.744973
785.722061	3822.961540
786.045337	3865.702963
786.368568	3901.210330
786.691752	3812.188594
787.014891	3860.195502
787.337983	3983.779389
787.661030	4137.453923
787.984031	4299.204385
788.306987	4470.648986
788.629897	4548.033218
788.952760	4509.513762
789.275579	4442.237043
789.598351	4381.362590
789.921078	4246.410901
790.243759	4047.537382
790.566395	4019.561499
790.888984	4023.937220
791.211529	3913.117535
791.534027	3854.481354
791.856480	3846.594469
792.178888	3785.777989
792.501249	3729.241449
792.823566	3744.637133
793.145836	3771.675361
793.468062	3725.639544
793.790241	3675.913603
794.112375	3702.982078
794.434464	3765.772170
794.756507	3793.266623
795.078505	3778.143162
795.400457	3805.844302
795.722364	3940.813634
796.044226	4045.276424
796.366042	4116.671766
796.687812	4099.698201
797.009538	4107.693471
797.331218	4066.620670
797.652852	4039.075805
797.974442	4017.343391
798.295986	4019.213659
798.617484	3939.351700
798.938938	3856.225593
799.260346	3891.246489
799.581709	3889.509812
799.903026	3820.524142
800.224299	3781.064510
800.545526	3771.395577
800.866708	3735.260586
801.187845	3674.721370
801.508936	3708.529868
801.829983	3712.744273
802.150984	3632.441212
802.471940	3621.605252
802.792851	3632.637818
803.113717	3629.764360
803.434538	3635.654948
803.755314	3577.447265
804.076045	3547.936351
804.396731	3567.128023
804.717372	3594.950151
805.037967	3585.528235
805.358518	3572.212027
805.679024	3598.668002
805.999485	3609.362810
806.319901	3614.610651
806.640272	3628.098258
806.960598	3645.454951
807.280879	3616.203656
807.601115	3629.151860
807.921306	3646.198521
808.241453	3683.727391
808.561554	3666.443795
808.881611	3597.753033
809.201623	3628.713279
809.521590	3646.024602
809.841513	3617.358080
810.161390	3647.400837
810.481223	3630.462560
810.801011	3570.946697
811.120755	3561.292888
811.440453	3597.909309
811.760107	3604.692181
812.079716	3562.840522
812.399281	3528.220398
812.718801	3549.731001
813.038276	3525.329296
813.357707	3519.731095
813.677093	3539.600803
813.996434	3489.958040
814.315731	3492.995335
814.634983	3502.739886
814.954191	3511.619878
815.273354	3544.629354
815.592473	3541.634908
815.911547	3539.736914
816.230577	3579.587235
816.549562	3629.229997
816.868502	3676.155578
817.187399	3701.658775
817.506250	3695.437992
817.825058	3666.685771
818.143821	3753.779265
818.462539	3855.300542
818.781213	3905.961617
819.099843	3952.758648
819.418429	4191.180020
819.736970	4430.178603
820.055466	4669.081404
820.373919	5028.868554
820.692327	5433.973157
821.010691	5846.949521
821.329011	7163.950963
821.647286	9810.206372
821.965517	14258.182769
822.283704	18276.458773
822.601847	20523.830364
822.919945	18779.384446
823.237999	16250.066162
823.556010	13793.569866
823.873976	11737.610887
824.191897	9656.804061
824.509775	8310.561406
824.827609	7193.048503
825.145398	6643.328320
825.463144	6524.954466
825.780845	6637.513349
826.098502	6806.389483
826.416116	7648.199161
826.733685	8937.796891
827.051210	10050.583711
827.368692	10150.232199
827.686129	8950.044374
828.003522	7433.824093
828.320872	6429.031391
828.638177	5729.672118
828.955439	5180.584600
829.272656	4684.819887
829.589830	4399.896392
829.906960	4228.855083
830.224046	4046.030077
830.541088	3916.590890
830.858086	3871.764950
831.175041	3802.388591
831.491952	3778.695168
831.808819	3789.700007
832.125642	3860.767673
832.442421	3997.347654
832.759157	4266.494858
833.075849	4792.821567
833.392497	5638.384383
833.709101	6403.006434
834.025662	6760.091526
834.342179	6423.279434
834.658653	5770.858345
834.975083	5135.849401
835.291469	4568.643976
835.607811	4153.308351
835.924110	4015.954553
836.240366	3820.420798
836.556578	3616.695168
836.872746	3508.234743
837.188871	3471.761995
837.504952	3410.098602
837.820990	3325.427382
838.136984	3277.987603
838.452935	3302.338897
838.768842	3295.825726
839.084706	3320.938234
839.400526	3467.469453
839.716303	3792.376859
840.032037	4296.570382
840.347727	4579.510183
840.663373	4317.153413
840.978977	3939.611319
841.294537	3639.408087
841.610054	3411.472316
841.925527	3304.519196
842.240957	3237.555029
842.556344	3181.109229
842.871687	3126.531177
843.186987	3075.371027
843.502244	3039.430121
843.817458	3008.046418
844.132629	2972.660038
844.447756	2983.561533
844.762840	2970.172229
845.077881	2940.552929
845.392879	2919.785896
845.707833	2916.811615
846.022745	2915.490833
846.337613	2916.945206
846.652438	2906.066396
846.967221	2903.061868
847.281960	2888.003942
847.596656	2883.955895
847.911309	2884.331461
848.225919	2876.973897
848.540485	2873.354349
848.855009	2873.702188
849.169490	2862.581403
849.483928	2854.868437
849.798323	2851.316945
850.112675	2848.277129
850.426984	2861.855477
850.741251	2859.970085
851.055474	2850.714527
851.369654	2843.636747
851.683792	2848.221676
851.997887	2856.524457
852.311938	2860.612832
852.625947	2846.865606
852.939914	2851.586646
853.253837	2857.086545
853.567718	2842.300841
853.881555	2835.797752
854.195350	2854.734847
854.509103	2847.833507
854.822812	2840.728001
855.136479	2839.107270
855.450103	2839.903772
855.763685	2832.934377
856.077224	2828.394818
856.390720	2844.113136
856.704173	2855.599405
857.017584	2848.435925
857.330953	2841.910152
857.644278	2851.763087
857.957561	2859.869262
858.270802	2865.084336
858.584000	2863.806403
858.897155	2850.991790
859.210268	2850.764938
859.523339	2848.191429
859.836367	2848.723271
860.149352	2842.789833
860.462295	2838.827486
860.775195	2846.563137
861.088054	2845.144052
861.400869	2830.776763
861.713642	2826.827019
862.026373	2841.527024
862.339062	2845.065914
862.651708	2849.844928
862.964312	2850.349043
863.276873	2845.650688
863.589392	2856.882378
863.901869	2867.345293
864.214303	2886.857079
864.526696	2903.679410
864.839045	2901.567166
865.151353	2898.330745
865.463619	2898.098852
865.775842	2900.427865
866.088023	2915.357243
866.400162	2920.912594
866.712258	2895.946280
867.024313	2885.158210
867.336325	2890.332955
867.648296	2910.926068
867.960224	2906.850295
868.272110	2894.428892
868.583954	2896.949469
868.895755	2912.398085
869.207515	2898.499624
869.519233	2900.332083
869.830909	2910.152251
870.142542	2920.658016
870.454134	2924.312852
870.765684	2923.231525
871.077191	2925.174890
871.388657	2929.510282
871.700081	2942.841613
872.011463	2956.152780
872.322803	2959.116978
872.634101	2954.489199
872.945357	2974.172384
873.256571	2995.803976
873.567744	2992.000425
873.878874	2985.000783
874.189963	3006.987775
874.501010	3007.680934
874.812015	3000.691374
875.122979	2996.766836
875.433900	2994.805827
875.744780	3000.366220
876.055618	3007.650687
876.366415	3004.396622
876.677169	3017.279291
876.987882	3015.091430
877.298554	3007.386027
877.609183	3022.184334
877.919771	3050.155176
878.230317	3075.733990
878.540822	3126.614356
878.851285	3163.419820
879.161707	3203.673434
879.472087	3298.847898
879.782425	3513.540558
880.092722	3937.657872
880.402977	4455.523004
880.713191	5062.558585
881.023363	6176.958575
881.333494	7441.491688
881.643583	8018.935697
881.953631	7737.225937
882.263637	7125.630632
882.573602	6555.892027
882.883526	5987.146530
883.193408	5413.722842
883.503248	4954.451041
883.813048	4657.522038
884.122806	4363.093448
884.432522	4058.012900
884.742197	3824.524298
885.051831	3629.943321
885.361424	3495.740244
885.670975	3426.094183
885.980485	3343.187367
886.289954	3268.434617
886.599382	3226.003225
886.908768	3188.940662
887.218113	3143.272849
887.527417	3087.900815
887.836680	3037.975748
888.145901	3036.637322
888.455082	3025.738347
888.764221	2978.051552
889.073319	2945.291614
889.382376	2943.721295
889.691392	2947.882767
890.000366	2946.955195
890.309300	2933.656631
890.618193	2947.280349
890.927044	2967.175263
891.235855	2964.188379
891.544625	2949.495936
891.853353	2958.375929
892.162041	2976.093064
892.470687	3016.760052
892.779293	3067.143864
893.087858	3112.877212
893.396381	3177.688806
893.704864	3295.384625
894.013306	3526.377856
894.321707	3820.987928
894.630068	4024.285060
894.938387	4030.861245
895.246665	3983.262670
895.554903	3871.253273
895.863100	3671.169877
896.171256	3506.301461
896.479371	3371.848847
896.787446	3254.185795
897.095480	3150.325423
897.403473	3088.173038
897.711425	3050.553427
898.019336	3040.539175
898.327207	3015.318282
898.635038	2978.104484
898.942827	2965.254583
899.250576	2957.206381
899.558284	2927.463573
899.865952	2905.854668
900.173579	2885.183416
900.481165	2877.357025
900.788711	2865.361599
901.096216	2843.440142
901.403681	2831.061588
901.711105	2834.156857
902.018489	2832.952021
902.325832	2834.809686
902.633135	2843.548527
902.940397	2872.946015
903.247619	2950.746143
903.554800	3133.984523
903.861941	3462.450984
904.169041	3882.580746
904.476101	4185.140717
904.783121	4154.848424
905.090100	3913.861105
905.397039	3644.373624
905.703938	3402.269690
906.010796	3220.548696
906.317614	3109.063579
906.624391	3015.472037
906.931129	2947.850000
907.237826	2890.156514
907.544483	2840.783454
907.851099	2811.040646
908.157675	2789.726647
908.464211	2771.490273
908.770707	2760.099786
909.077163	2745.964391
909.383578	2731.806310
909.689954	2721.681153
909.996289	2718.406923
910.302584	2720.337685
910.608839	2721.877758
910.915054	2716.307283
911.221229	2708.052393
911.527363	2707.180274
911.833458	2717.348281
912.139513	2721.166955
912.445527	2722.999415
912.751502	2734.006774
913.057436	2739.867115
913.363331	2753.649630
913.669186	2772.717794
913.975000	2806.662404
914.280775	2863.604757
914.586510	2931.715787
914.892205	3007.068434
915.197859	3129.303812
915.503475	3317.139725
915.809050	3522.571785
916.114585	3669.602078
916.420081	3694.102086
916.725536	3639.090494
917.030952	3523.030530
917.336328	3398.544277
917.641665	3271.923095
917.946961	3173.683610
918.252218	3104.561829
918.557435	3027.507792
918.862612	2971.193063
919.167750	2923.723037
919.472848	2884.470093
919.777906	2859.798686
920.082925	2832.952021
920.387904	2800.068575
920.692843	2788.105917
920.997743	2775.167795
921.302603	2760.188007
921.607423	2751.345823
921.912204	2740.714029
922.216946	2728.516957
922.521647	2722.500340
922.826310	2710.081458
923.130932	2708.274204
923.435516	2698.769109
923.740059	2688.785103
924.044564	2683.380987
924.349028	2679.257323
924.653454	2673.762465
924.957840	2667.836589
925.262186	2661.215033
925.566493	2658.949034
925.870761	2654.124650
926.174989	2646.661222
926.479178	2643.137455
926.783328	2639.033956
927.087438	2638.169398
927.391509	2637.927423
927.695541	2635.008595
927.999533	2628.699591
928.303486	2626.073150
928.607400	2628.732358
928.911275	2626.902419
929.215110	2626.133643
929.518906	2623.948303
929.822663	2623.580299
930.126381	2623.822274
930.430060	2625.596761
930.733699	2625.054837
931.037299	2624.649024
931.340861	2627.197327
931.644383	2627.860239
931.947866	2626.340331
932.251309	2626.317646
932.554714	2624.959055
932.858080	2621.984774
933.161407	2623.111472
933.464694	2620.006121
933.767943	2616.154679
934.071153	2620.328755
934.374323	2619.310442
934.677455	2621.034516
934.980548	2618.619804
935.283602	2618.970164
935.586617	2617.687190
935.889593	2616.822632
936.192530	2616.873044
936.495428	2619.655761
936.798287	2617.314145
937.101108	2621.672222
937.403890	2625.485855
937.706632	2629.435599
938.009336	2636.394912
938.312002	2644.455717
938.614628	2658.041627
938.917216	2660.758809
939.219765	2661.893068
939.522275	2659.138078
939.824747	2657.066163
940.127179	2656.438540
940.429573	2652.602222
940.731929	2650.512663
941.034246	2646.212559
941.336524	2644.468320
941.638763	2639.326343
941.940964	2639.369193
942.243126	2635.752165
942.545250	2636.566311
942.847335	2631.905765
943.149381	2630.471556
943.451389	2628.318984
943.753359	2623.038375
944.055290	2622.340175
944.357182	2623.146760
944.659036	2621.291615
944.960851	2623.844960
945.262628	2617.127622
945.564367	2621.989815
945.866067	2618.410596
946.167729	2621.765484
946.469352	2618.599639
946.770937	2619.812037
947.072484	2618.110647
947.373992	2619.509567
947.675462	2616.845318
947.976893	2612.514966
948.278286	2609.749893
948.579641	2611.728546
948.880958	2608.338370
949.182236	2611.446242
949.483476	2610.029677
949.784678	2610.266612
950.085841	2610.158227
950.386967	2611.665532
950.688054	2611.574791
950.989103	2611.665532
951.290114	2614.526387
951.591087	2618.912191
951.892021	2615.900101
952.192917	2619.295318
952.493776	2622.125926
952.794596	2622.887140
953.095378	2621.236162
953.396122	2621.047119
953.696828	2619.514608
953.997496	2616.331120
954.298126	2615.413630
954.598718	2613.853393
954.899272	2609.255860
955.199788	2606.775613
955.500266	2607.115891
955.800706	2606.354676
956.101108	2602.097422
956.401472	2602.059613
956.701798	2601.469798
957.002087	2596.963007
957.302337	2594.044179
957.602550	2594.565938
957.902724	2592.229363
958.202861	2590.802717
958.502960	2591.979826
958.803022	2591.183324
959.103045	2589.587799
959.403031	2588.123343
959.702979	2588.219125
960.002889	2585.980853
960.302762	2587.220977
960.602596	2585.779207
960.902393	2586.553024
961.202153	2585.854824
961.501875	2583.598908
961.801559	2583.649319
962.101205	2583.387179
962.400814	2585.670822
962.700385	2583.263671
962.999918	2583.193095
963.299414	2579.361818
963.598873	2580.634709
963.898293	2577.859554
964.197677	2584.839032
964.497022	2584.614700
964.796331	2585.053281
965.095601	2583.077148
965.394835	2582.968764
965.694030	2581.756366
965.993189	2582.189905
966.292309	2582.699062
966.591393	2583.669484
966.890439	2581.191757
967.189447	2583.934145
967.488419	2582.963722
967.787353	2580.854000
968.086249	2581.214442
968.385108	2585.133939
968.683930	2583.961871
968.982714	2583.798033
969.281462	2581.431212
969.580172	2585.509505
969.878844	2582.898187
970.177480	2582.484813
970.476078	2583.924062
970.774639	2584.304669
971.073162	2582.459607
971.371649	2580.843917
971.670098	2583.089751
971.968510	2583.029257
972.266885	2582.048753
972.565223	2582.038671
972.863524	2583.593867
973.161788	2584.057653
973.460014	2581.428691
973.758204	2584.483630
974.056356	2582.925914
974.354471	2581.499267
974.652550	2581.516911
974.950591	2585.590164
975.248595	2583.271233
975.546563	2583.039340
975.844493	2581.758887
976.142386	2582.447004
976.440243	2581.249730
976.738062	2582.502457
977.035845	2582.570512
977.333590	2584.196285
977.631299	2580.677559
977.928971	2576.483319
978.226606	2577.415933
978.524204	2581.731160
978.821765	2575.449883
979.119290	2579.444997
979.416777	2578.661098
979.714228	2580.917014
980.011642	2578.676221
980.309020	2577.534400
980.606360	2578.290573
980.903664	2581.045563
981.200931	2582.212591
981.498162	2582.620924
981.795356	2583.866089
982.092513	2582.981367
982.389633	2586.676532
982.686717	2589.280288
982.983764	2590.815320
983.280775	2597.184818
983.577749	2598.233377
983.874686	2599.372678
984.171587	2594.666761
984.468451	2591.584096
984.765279	2589.978488
985.062070	2586.540421
985.358824	2588.314907
985.655543	2585.605287
985.952224	2583.994638
986.248869	2584.143352
986.545478	2579.515573
986.842050	2584.027406
987.138586	2580.385172
987.435086	2580.899370
987.731549	2580.475913
988.027975	2580.480954
988.324366	2574.020716
988.620719	2575.608679
988.917037	2578.703947
989.213318	2579.039184
989.509563	2579.931468
989.805772	2579.833166
990.101944	2579.079513
990.398080	2576.138000
990.694180	2578.673701
990.990244	2579.054308
991.286271	2576.374934
991.582262	2574.839903
991.878217	2578.305696
992.174136	2580.281829
992.470019	2575.535582
992.765865	2576.914338
993.061676	2572.450396
993.357450	2575.981724
993.653188	2570.547361
993.948890	2577.841910
994.244556	2577.922569
994.540186	2577.244533
994.835780	2578.396437
995.131337	2576.697568
995.426859	2578.961046
995.722345	2579.031623
996.017795	2580.669997
996.313208	2583.172930
996.608586	2581.519432
996.903928	2582.298290
997.199234	2580.213773
997.494504	2580.571695
997.789738	2581.993300
998.084936	2578.482137
998.380099	2580.503639
998.675225	2580.158320
998.970316	2577.940213
999.265371	2579.482806
999.560390	2577.115984
999.855373	2577.816704
1000.150320	2577.970460
1000.445232	2578.366190
1000.740108	2575.969122
1001.034948	2574.776889
1001.329752	2577.688155
1001.624521	2573.967783
1001.919254	2574.418967
1002.213951	2576.372414
1002.508613	2577.052970
1002.803239	2573.718246
1003.097829	2575.044070
1003.392384	2574.224882
1003.686903	2573.912331
1003.981386	2573.302351
1004.275834	2573.672876
1004.570246	2575.961560
1004.864623	2574.781930
1005.158964	2575.621282
1005.453270	2574.665983
1005.747540	2573.687999
1006.041775	2574.363514
1006.335974	2575.018864
1006.630138	2574.744121
1006.924266	2575.308730
1007.218359	2575.311251
1007.512416	2575.190263
1007.806438	2572.140365
1008.100425	2574.779409
1008.394376	2570.852350
1008.688292	2575.283525
1008.982172	2573.559450
1009.276017	2573.977866
1009.569827	2574.514749
1009.863602	2575.298648
1010.157341	2574.514749
1010.451045	2575.049111
1010.744714	2575.180181
1011.038347	2576.536251
1011.331945	2573.758576
1011.625508	2571.681620
1011.919036	2574.950808
1012.212528	2575.091961
1012.505986	2572.115159
1012.799408	2574.915520
1013.092795	2572.654563
1013.386147	2577.121025
1013.679464	2573.912331
1013.972745	2573.561971
1014.265992	2572.367217
1014.559204	2575.326374
1014.852380	2574.176991
1015.145521	2573.350242
1015.438628	2573.604820
1015.731699	2575.197825
1016.024736	2575.669173
1016.317737	2574.814697
1016.610703	2574.277814
1016.903635	2576.448031
1017.196531	2574.232444
1017.489393	2573.725808
1017.782219	2574.285376
1018.075011	2572.697413
1018.367768	2577.181519
1018.660490	2574.318144
1018.953177	2574.318144
1019.245829	2574.318144
