Dividing Wavelength (nm)	Counts (n)	Blue Motor Position (mm): 0.800000	Red Motor Position (mm): 0.000000	
326.493990	2164.442089
326.888308	2164.442089
327.282561	2164.442089
327.676750	2125.879783
328.070874	2122.650924
328.464933	2124.117899
328.858929	2125.385750
329.252859	2131.561163
329.646726	2139.087606
330.040528	2152.197126
330.434265	2165.173056
330.827938	2183.777435
331.221547	2202.344004
331.615091	2217.175079
332.008571	2234.496483
332.401986	2255.220667
332.795338	2270.767585
333.188625	2291.423713
333.581847	2310.839717
333.975006	2326.759681
334.368100	2347.078052
334.761129	2366.196628
335.154095	2382.519884
335.546996	2399.306926
335.939833	2412.441653
336.332606	2430.423448
336.725315	2448.127981
337.117960	2456.367747
337.510540	2468.350569
337.903056	2478.732826
338.295508	2489.767911
338.687896	2495.106493
339.080220	2503.893224
339.472480	2511.704492
339.864676	2516.339833
340.256807	2522.096831
340.648875	2524.942562
341.040879	2529.237625
341.432818	2530.881042
341.824694	2532.537061
342.216506	2535.322298
342.608253	2537.253060
342.999937	2533.467153
343.391557	2536.703574
343.783113	2533.779705
344.174605	2533.389016
344.566033	2532.043027
344.957397	2534.175436
345.348697	2529.734179
345.739934	2528.645290
346.131106	2528.176463
346.522215	2524.685463
346.913260	2524.481297
347.304241	2522.535411
347.695159	2518.459638
348.086012	2517.222035
348.476802	2513.347908
348.867528	2512.168278
349.258191	2506.895232
349.648789	2508.803308
350.039324	2504.533451
350.429796	2507.406909
350.820203	2504.853564
351.210548	2504.515807
351.600828	2502.300220
351.991045	2502.695950
352.381198	2499.948522
352.771288	2503.328615
353.161314	2501.710405
353.551276	2501.322236
353.941175	2497.846360
354.331010	2498.622698
354.720782	2498.915085
355.110490	2499.094046
355.500135	2498.627739
355.889717	2498.688233
356.279235	2501.607061
356.668689	2499.086484
357.058080	2498.605054
357.447408	2500.649242
357.836672	2500.198059
358.225873	2500.651762
358.615010	2499.547750
359.004084	2500.127482
359.393095	2501.957421
359.782043	2503.368944
360.170927	2503.230313
360.559748	2505.392968
360.948505	2503.789881
361.337199	2504.898935
361.725830	2503.560508
362.114398	2504.397340
362.502903	2505.556805
362.891344	2504.659480
363.279722	2508.228617
363.668037	2508.652074
364.056289	2505.710560
364.444478	2510.257681
364.832603	2510.567712
365.220665	2508.634430
365.608665	2509.725839
365.996601	2507.480005
366.384474	2509.690551
366.772284	2508.962105
367.160031	2514.101561
367.547715	2512.158196
367.935336	2511.810357
368.322893	2510.968484
368.710388	2509.564522
369.097820	2512.054853
369.485189	2509.186436
369.872495	2514.522497
370.259738	2515.543331
370.646918	2511.928824
371.034035	2516.228928
371.421090	2513.882271
371.808081	2513.141221
372.195010	2513.902435
372.581875	2513.294976
372.968678	2516.405368
373.355418	2515.762621
373.742096	2517.103568
374.128710	2514.630882
374.515262	2516.828825
374.901751	2514.363701
375.288177	2515.724813
375.674540	2516.874196
376.060841	2516.319669
376.447079	2519.301511
376.833254	2519.510719
377.219367	2518.956192
377.605417	2520.765966
377.991404	2520.846625
378.377329	2519.142715
378.763191	2521.534742
379.148991	2517.400996
379.534727	2518.230266
379.920402	2520.236645
380.306013	2519.384690
380.691563	2516.213804
381.077049	2521.431399
381.462474	2521.668333
381.847835	2519.261182
382.233134	2520.130781
382.618371	2523.001718
383.003545	2519.359484
383.388657	2523.316790
383.773706	2522.452232
384.158693	2520.551717
384.543618	2523.132788
384.928480	2520.549197
385.313280	2521.247397
385.698017	2524.917357
386.082692	2524.859383
386.467305	2522.880730
386.851856	2525.239990
387.236344	2520.826460
387.620770	2521.935514
388.005133	2518.812519
388.389435	2522.147243
388.773674	2521.174300
389.157851	2523.117665
389.541965	2524.579599
389.926018	2524.393077
390.310008	2522.938704
390.693936	2526.298633
391.077802	2524.335103
391.461606	2525.126564
391.845348	2524.871986
392.229027	2528.078160
392.612645	2524.733354
392.996200	2527.067409
393.379694	2526.558252
393.763125	2527.256452
394.146494	2526.374250
394.529801	2528.315094
394.913047	2527.745444
395.296230	2528.748633
395.679351	2529.051103
396.062410	2526.079342
396.445408	2528.940197
396.828343	2529.000691
397.211217	2528.667975
397.594028	2530.049251
397.976778	2529.129241
398.359466	2530.162677
398.742092	2530.591175
399.124656	2527.221164
399.507158	2528.262162
399.889598	2529.419107
400.271977	2529.010773
400.654294	2530.762574
401.036549	2527.120341
401.418742	2533.303316
401.800874	2529.769467
402.182944	2531.301978
402.564952	2529.346010
402.946898	2532.189221
403.328783	2529.782070
403.710606	2532.922709
404.092367	2530.518078
404.474067	2530.571011
404.855705	2533.532688
405.237282	2532.947915
405.618797	2533.751979
406.000250	2531.506145
406.381642	2532.037986
406.762972	2531.024714
407.144240	2529.351051
407.525447	2529.920702
407.906593	2528.194107
408.287677	2534.140148
408.668700	2535.271887
409.049661	2530.850795
409.430560	2535.266845
409.811399	2534.931609
410.192176	2532.741227
410.572891	2533.751979
410.953545	2533.739376
411.334138	2535.927237
411.714669	2534.372041
412.095139	2534.956814
412.475547	2533.535209
412.855894	2534.684592
413.236180	2535.191228
413.616405	2539.239275
413.996568	2536.401105
414.376670	2537.222813
414.756711	2536.267514
415.136691	2533.724252
415.516609	2533.580579
415.896466	2532.907585
416.276262	2534.765251
416.655997	2534.107380
417.035670	2535.435724
417.415283	2535.599562
417.794834	2535.334901
418.174324	2537.784902
418.553753	2536.461599
418.933121	2538.152906
419.312428	2537.220292
419.691674	2534.893800
420.070859	2534.450178
420.449983	2537.154758
420.829045	2539.120807
421.208047	2536.653163
421.586988	2538.309182
421.965867	2540.728936
422.344686	2539.009902
422.723444	2542.440407
423.102141	2537.870601
423.480777	2541.149872
423.859352	2539.912269
424.237866	2539.413194
424.616319	2536.741383
424.994712	2539.468647
425.373044	2540.204656
425.751314	2537.981507
426.129524	2537.391692
426.507673	2537.323636
426.885762	2536.204500
427.263789	2539.924872
427.641756	2539.319933
428.019662	2541.154913
428.397508	2541.202804
428.775292	2538.962011
429.153016	2543.370500
429.530679	2541.573329
429.908282	2541.371683
430.285824	2543.584749
430.663305	2540.577701
431.040726	2540.199614
431.418086	2540.302958
431.795385	2542.407640
432.172624	2539.942516
432.549802	2542.052238
432.926920	2541.948895
433.303977	2542.112732
433.680974	2541.502753
434.057910	2541.931251
434.434786	2540.413863
434.811601	2542.982331
435.188355	2538.289017
435.565050	2543.022661
435.941683	2541.926210
436.318257	2544.361087
436.694770	2543.088196
437.071222	2545.465100
437.447614	2542.543751
437.823946	2543.451159
438.200218	2543.413350
438.576429	2543.304965
438.952580	2543.506611
439.328670	2543.536858
439.704700	2542.999975
440.080670	2542.546272
440.456580	2542.107691
440.832429	2544.547610
441.208218	2540.953267
441.583947	2544.585418
441.959616	2546.357384
442.335224	2543.299924
442.710773	2546.070038
443.086261	2544.595501
443.461689	2545.114739
443.837057	2548.189843
444.212365	2543.919986
444.587612	2543.214224
444.962800	2540.665921
445.337927	2543.307486
445.712995	2539.861857
446.088002	2545.157589
446.462949	2546.271684
446.837837	2547.138763
447.212664	2547.143804
447.587431	2545.477702
447.962139	2546.869061
448.336786	2548.023485
448.711374	2545.654143
449.085901	2545.944009
449.460369	2546.387631
449.834776	2545.467620
450.209124	2545.707075
450.583412	2548.628424
450.957640	2545.250851
451.331808	2546.743032
451.705917	2548.943496
452.079965	2547.176571
452.453954	2546.085162
452.827883	2548.247817
453.201752	2545.306303
453.575562	2546.339740
453.949311	2549.543393
454.323001	2547.214380
454.696632	2546.090203
455.070202	2545.195398
455.443713	2547.778989
455.817164	2548.618341
456.190556	2544.822352
456.563888	2549.974412
456.937160	2545.545758
457.310373	2549.238403
457.683526	2548.472148
458.056619	2546.453166
458.429653	2547.194215
458.802628	2545.946530
459.175542	2547.048022
459.548398	2547.489123
459.921194	2547.322765
460.293930	2547.209339
460.666607	2547.252189
461.039224	2548.333516
461.411782	2548.041129
461.784280	2549.510626
462.156719	2549.553475
462.529099	2548.457024
462.901419	2549.072045
463.273680	2547.267312
463.645882	2546.291849
464.018024	2545.613814
464.390106	2543.604914
464.762130	2547.161448
465.134094	2550.155893
465.505999	2547.446273
465.877845	2549.896274
466.249631	2548.983825
466.621358	2547.116077
466.993026	2552.578168
467.364634	2554.256872
467.736184	2550.473486
468.107674	2549.634134
468.479105	2548.918290
468.850477	2549.558517
469.221790	2548.396531
469.593043	2552.215205
469.964238	2551.101110
470.335373	2548.716644
470.706449	2551.637992
471.077467	2551.494320
471.448425	2550.221428
471.819324	2551.340564
472.190164	2550.516336
472.560945	2553.644372
472.931667	2552.081614
473.302330	2550.279402
473.672934	2550.783517
474.043479	2550.181099
474.413965	2547.529452
474.784393	2553.649413
475.154761	2549.679504
475.525070	2548.998948
475.895321	2551.872406
476.265513	2553.455328
476.635645	2551.398538
477.005719	2553.261244
477.375734	2553.472973
477.745691	2551.030533
478.115588	2552.931048
478.485427	2551.416182
478.855207	2552.268137
479.224928	2552.215205
479.594591	2552.268137
479.964194	2549.503064
480.333739	2552.008517
480.703226	2550.773435
481.072653	2552.668908
481.442022	2550.102961
481.811333	2551.799309
482.180584	2548.409133
482.549777	2551.925338
482.918912	2546.375028
483.287988	2554.067829
483.657005	2548.446942
484.025964	2553.578837
484.394864	2551.741336
484.763706	2552.038764
485.132489	2552.807540
485.501213	2549.399720
485.869879	2554.443395
486.238487	2554.551779
486.607036	2551.131357
486.975527	2550.836449
487.343959	2550.954916
487.712333	2554.710576
488.080648	2552.303425
488.448905	2552.835267
488.817104	2554.592109
489.185244	2555.507078
489.553326	2551.101110
489.921350	2553.377191
490.289315	2554.024979
490.657222	2551.995914
491.025070	2553.389793
491.392861	2554.677808
491.760593	2550.450801
492.128267	2555.340720
492.495883	2555.489434
492.863440	2551.315359
493.230939	2553.097407
493.598380	2554.632438
493.965763	2552.613456
494.333088	2554.937428
494.700354	2551.315359
495.067563	2555.902809
495.434713	2555.862479
495.801805	2551.978270
496.168839	2553.354505
496.535815	2555.330638
496.902733	2553.820812
497.269593	2554.163611
497.636395	2553.646892
498.003139	2553.949362
498.369825	2554.634958
498.736453	2552.116902
499.103023	2554.718137
499.469535	2554.556821
499.835989	2554.198899
500.202385	2550.556665
500.568723	2550.057591
500.935003	2549.218239
501.301226	2551.186809
501.667390	2553.273847
502.033497	2557.062274
502.399546	2553.934238
502.765537	2549.916438
503.131470	2555.444064
503.497345	2553.447767
503.863163	2554.753426
504.228923	2554.466080
504.594625	2556.028838
504.960269	2553.800647
505.325856	2554.380380
505.691385	2554.554300
506.056856	2553.851059
506.422270	2555.781821
506.787625	2556.427089
507.152924	2552.696635
507.518164	2555.373487
507.883347	2558.980433
508.248472	2553.351985
508.613540	2552.747046
508.978550	2552.855431
509.343503	2552.709238
509.708398	2555.179403
510.073236	2555.764177
510.438016	2555.592778
510.802738	2554.428271
511.167403	2557.019424
511.532010	2556.376677
511.896561	2554.975236
512.261053	2555.955741
512.625488	2554.740823
512.989866	2556.142263
513.354186	2555.128992
513.718449	2555.242418
514.082655	2556.364074
514.446803	2554.231666
514.810894	2556.099414
515.174927	2557.916750
515.538904	2553.006666
515.902822	2553.876265
516.266684	2555.865000
516.630488	2555.496996
516.994235	2555.063457
517.357925	2556.477500
517.721558	2554.879454
518.085133	2557.155535
518.448651	2555.633107
518.812112	2551.958106
519.175516	2555.980947
519.538863	2549.369473
519.902152	2554.692932
520.265385	2553.278888
520.628560	2558.004970
520.991678	2558.554456
521.354739	2557.014383
521.717743	2558.483879
522.080690	2556.898437
522.443580	2554.614794
522.806413	2555.885165
523.169189	2556.212840
523.531908	2557.629404
523.894569	2557.271482
524.257174	2554.448436
524.619722	2554.866852
524.982213	2553.523384
525.344647	2556.134702
525.707025	2555.050854
526.069345	2555.567572
526.431608	2558.861966
526.793815	2557.621842
527.155964	2556.883313
527.518057	2556.921122
527.880093	2554.708055
528.242072	2556.081770
528.603995	2558.209137
528.965860	2555.960782
529.327669	2555.567572
529.689421	2555.804506
530.051117	2553.069680
530.412755	2555.547407
530.774337	2556.694270
531.135862	2554.730740
531.497331	2554.544218
531.858743	2556.530432
532.220098	2554.892057
532.581396	2556.157387
532.942638	2553.689742
533.303824	2555.746533
533.664953	2558.771225
534.026025	2557.329455
534.387040	2557.866338
534.747999	2554.680329
535.108902	2555.905329
535.469748	2555.895247
535.830537	2558.435988
536.191270	2555.895247
536.551947	2554.692932
536.912567	2551.506922
537.273131	2557.473128
537.633638	2553.566234
537.994089	2555.302911
538.354483	2554.594629
538.714821	2555.403734
539.075103	2558.428427
539.435328	2555.436502
539.795497	2558.917419
540.155609	2556.696790
540.515665	2556.490103
540.875665	2558.786349
541.235609	2557.016904
541.595496	2558.751061
541.955328	2558.783828
542.315102	2558.645196
542.674821	2554.274516
543.034483	2557.198385
543.394090	2558.249466
543.753640	2557.589075
544.113134	2556.469938
544.472571	2557.546225
544.831953	2557.631924
545.191278	2556.480021
545.550548	2557.979764
545.909761	2558.607388
546.268918	2555.890206
546.628019	2556.961451
546.987064	2558.173848
547.346053	2555.628066
547.704986	2554.115720
548.063863	2560.712069
548.422684	2557.337017
548.781449	2556.051523
549.140158	2555.484393
549.498811	2555.413817
549.857408	2555.544887
550.215949	2559.721483
550.574434	2556.822819
550.932864	2557.400031
551.291237	2556.467418
551.649555	2559.179559
552.007817	2559.073694
552.366022	2555.514640
552.724173	2557.480690
553.082267	2559.671071
553.440305	2558.622511
553.798288	2562.017728
554.156215	2558.572100
554.514086	2554.443395
554.871902	2555.340720
555.229661	2553.999773
555.587365	2554.188816
555.945014	2556.351471
556.302606	2556.555638
556.660143	2558.602347
557.017625	2557.079918
557.375050	2555.912891
557.732421	2558.796431
558.089735	2559.396328
558.446994	2555.822150
558.804197	2556.918601
559.161345	2556.880793
559.518437	2555.872562
559.875474	2558.103272
560.232455	2558.380536
560.589381	2556.434650
560.946251	2557.279044
561.303065	2555.696121
561.659825	2557.815927
562.016528	2556.096893
562.373177	2557.271482
562.729770	2555.711245
563.086307	2556.817778
563.442789	2556.215360
563.799216	2558.932542
564.155587	2555.491955
564.511904	2557.047151
564.868164	2556.316183
565.224370	2559.219888
565.580520	2557.707542
565.936615	2559.098900
566.292654	2559.101421
566.648638	2558.025134
567.004567	2558.627552
567.360441	2558.758622
567.716260	2558.793910
568.072023	2558.735937
568.427732	2557.072356
568.783385	2558.932542
569.138982	2557.410114
569.494525	2556.827860
569.850013	2556.074208
570.205445	2557.667213
570.560823	2559.229970
570.916145	2557.851215
571.271412	2556.815257
571.626625	2557.982285
571.981782	2557.568910
572.336884	2557.039589
572.691931	2552.900802
573.046923	2556.684187
573.401860	2552.784855
573.756743	2554.871893
574.111570	2556.699311
574.466342	2555.905329
574.821059	2556.180072
575.175722	2557.946997
575.530330	2557.490772
575.884882	2557.324414
576.239380	2556.013714
576.593823	2560.046637
576.948211	2558.546894
577.302544	2559.088818
577.656823	2558.884651
578.011047	2559.096380
578.365216	2558.574620
578.719330	2556.190154
579.073389	2560.573438
579.427394	2559.063612
579.781344	2557.644527
580.135239	2558.383056
580.489080	2558.345248
580.842866	2560.460012
581.196597	2560.079405
581.550273	2561.485887
581.903895	2559.106462
582.257463	2558.612429
582.610975	2559.981102
582.964434	2555.580175
583.317837	2558.655279
583.671186	2558.536812
584.024481	2558.816596
584.377721	2557.488252
584.730906	2556.280895
585.084037	2558.995557
585.437113	2556.603529
585.790135	2558.178890
586.143103	2561.440516
586.496016	2559.391287
586.848874	2557.614280
587.201679	2560.013870
587.554428	2558.413303
587.907124	2558.655279
588.259765	2558.831719
588.612352	2559.718962
588.964884	2557.485731
589.317362	2560.079405
589.669786	2557.687377
590.022155	2555.391132
590.374470	2554.360216
590.726731	2555.529763
591.078937	2555.978426
591.431090	2558.514126
591.783188	2558.753581
592.135232	2559.724003
592.487222	2559.018242
592.839157	2556.159907
593.191038	2559.103941
593.542866	2559.739127
593.894639	2558.259548
594.246358	2557.357182
594.598022	2557.447922
594.949633	2560.714590
595.301190	2561.324570
595.652692	2559.255176
596.004141	2557.515978
596.355535	2558.466235
596.706876	2558.204095
597.058162	2558.811554
597.409395	2558.264589
597.760573	2558.972871
598.111698	2561.508572
598.462768	2559.262738
598.813785	2558.751061
599.164748	2555.149156
599.515657	2558.015052
599.866511	2559.363561
600.217312	2557.503375
600.568060	2557.057233
600.918753	2559.711400
601.269392	2559.267779
601.619978	2558.060423
601.970510	2558.105793
602.320988	2559.759291
602.671412	2559.711400
603.021783	2557.135371
603.372100	2558.151163
603.722363	2558.660320
604.072572	2556.162428
604.422728	2558.856925
604.772830	2558.602347
605.122878	2560.971689
605.472872	2558.095711
605.822813	2559.171997
606.172701	2556.540515
606.522534	2557.306770
606.872314	2558.766184
607.222041	2557.868859
607.571714	2554.899619
607.921333	2554.912222
608.270899	2554.559341
608.620411	2553.546069
608.969870	2561.969837
609.319276	2562.882286
609.668627	2567.724314
610.017926	2568.994685
610.367171	2571.747155
610.716362	2575.185222
611.065500	2569.128276
611.414585	2566.297668
611.763616	2565.392781
612.112594	2564.097204
612.461518	2561.569066
612.810389	2562.146278
613.159207	2563.850188
613.507971	2560.860783
613.856682	2562.393294
614.205340	2562.269786
614.553945	2559.557645
614.902496	2560.777604
615.250994	2562.189127
615.599439	2560.828016
615.947830	2559.280382
616.296169	2560.767522
616.644454	2556.389280
616.992686	2557.483210
617.340864	2557.556307
617.688990	2559.653427
618.037063	2559.305588
618.385082	2557.069836
618.733048	2561.125444
619.080961	2559.766853
619.428821	2558.272151
619.776628	2561.087635
620.124382	2561.284240
620.472083	2559.862635
620.819731	2558.526729
621.167326	2560.001267
621.514868	2558.420865
621.862357	2556.900957
622.209793	2559.618139
622.557176	2557.848694
622.904506	2558.869528
623.251783	2557.644527
623.599007	2559.202244
623.946179	2560.276010
624.293297	2557.757953
624.640363	2560.011349
624.987376	2555.683518
625.334336	2555.217212
625.681243	2558.816596
626.028097	2554.082952
626.374899	2558.567058
626.721647	2557.939435
627.068343	2557.828529
627.414987	2556.744681
627.761577	2560.749878
628.108115	2556.991698
628.454600	2558.078067
628.801032	2560.001267
629.147412	2559.862635
629.493739	2560.253324
629.840014	2558.587223
630.186236	2562.572255
630.532405	2559.895402
630.878521	2557.334496
631.224585	2559.114024
631.570597	2558.945145
631.916556	2559.265258
632.262462	2555.217212
632.608316	2558.516647
632.954117	2559.277861
633.299866	2557.674774
633.645562	2557.193344
633.991206	2555.817109
634.336797	2557.195865
634.682336	2557.952038
635.027823	2557.047151
635.373257	2556.588406
635.718639	2556.585885
636.063968	2558.730896
636.409245	2557.823488
636.754470	2558.872048
637.099642	2560.676781
637.444762	2558.287274
637.789829	2554.854249
638.134845	2557.014383
638.479808	2558.413303
638.824719	2556.767367
639.169577	2558.882131
639.514383	2560.981771
639.859137	2558.718293
640.203839	2558.128478
640.548489	2558.569579
640.893086	2559.103941
641.237632	2560.626370
641.582125	2556.033879
641.926566	2556.338868
642.270955	2554.506409
642.615292	2552.936090
642.959576	2554.808878
643.303809	2552.164793
643.647990	2556.606050
643.992118	2557.024465
644.336195	2556.049002
644.680219	2558.935063
645.024192	2557.573951
645.368112	2558.022614
645.711981	2559.270299
646.055797	2557.861297
646.399562	2556.301060
646.743274	2558.050340
647.086935	2561.317008
647.430544	2557.090000
647.774101	2556.603529
648.117606	2558.478838
648.461059	2561.196020
648.804460	2559.552604
649.147810	2558.869528
649.491108	2555.943138
649.834354	2557.337017
650.177548	2558.478838
650.520690	2558.499003
650.863781	2558.070505
651.206820	2556.369115
651.549807	2557.677295
651.892742	2555.096224
652.235626	2557.205947
652.578458	2558.415824
652.921238	2558.690567
653.263967	2558.357851
653.606644	2556.132181
653.949269	2558.695608
654.291843	2557.281564
654.634365	2557.692418
654.976836	2555.968344
655.319255	2557.896585
655.661622	2559.247614
656.003938	2555.640669
656.346203	2559.741647
656.688416	2557.228632
657.030577	2558.622511
657.372687	2555.877603
657.714746	2559.275341
658.056753	2556.545556
658.398708	2555.837274
658.740612	2558.367933
659.082465	2557.130330
659.424266	2555.683518
659.766016	2555.421378
660.107715	2555.781821
660.449362	2552.784855
660.790958	2558.272151
661.132503	2559.968499
661.473996	2558.355330
661.815438	2557.057233
662.156829	2559.214847
662.498168	2556.767367
662.839456	2558.168807
663.180693	2556.422047
663.521879	2556.918601
663.863013	2554.438353
664.204097	2557.757953
664.545129	2558.791390
664.886110	2557.218550
665.227040	2557.578992
665.567918	2555.643189
665.908746	2557.372305
666.249522	2559.726524
666.590248	2557.231153
666.930922	2557.389949
667.271545	2556.628735
667.612118	2556.270813
667.952639	2556.480021
668.293109	2556.921122
668.633528	2557.117727
668.973896	2557.699980
669.314213	2554.050185
669.654480	2554.773590
669.994695	2557.578992
670.334859	2556.507747
670.674973	2556.434650
671.015035	2556.202757
671.355047	2557.972202
671.695008	2554.957592
672.034918	2555.943138
672.374777	2556.296019
672.714585	2557.969682
673.054342	2556.275854
673.394049	2556.885834
673.733705	2558.067984
674.073310	2555.280226
674.412864	2559.098900
674.752368	2559.698797
675.091820	2558.090669
675.431223	2556.578323
675.770574	2558.410783
676.109875	2558.042778
676.449125	2556.923642
676.788324	2552.197561
677.127473	2554.337530
677.466571	2552.915925
677.805619	2558.196534
678.144616	2555.444064
678.483562	2557.876420
678.822458	2558.085628
679.161303	2557.417675
679.500098	2555.842315
679.838842	2558.640155
680.177535	2554.960113
680.516179	2558.103272
680.854771	2554.957592
681.193314	2560.177707
681.531805	2556.664023
681.870247	2558.370453
682.208638	2557.016904
682.546978	2556.396842
682.885268	2556.570762
683.223508	2556.885834
683.561697	2558.685526
683.899836	2557.248797
684.237925	2555.287788
684.575963	2555.360885
684.913951	2556.948848
685.251889	2555.255020
685.589776	2557.979764
685.927614	2556.485062
686.265401	2557.553787
686.603137	2559.794579
686.940824	2556.704352
687.278460	2558.698128
687.616046	2555.232335
687.953582	2557.319373
688.291068	2556.779969
688.628504	2556.757284
688.965889	2556.104455
689.303224	2553.929197
689.640510	2553.677139
689.977745	2557.357182
690.314930	2554.574465
690.652065	2557.004301
690.989150	2557.347099
691.326185	2555.973385
691.663170	2559.519837
692.000105	2558.554456
692.336990	2554.022458
692.673825	2557.400031
693.010610	2556.633776
693.347345	2556.076728
693.684030	2552.144628
694.020665	2554.473642
694.357251	2550.564227
694.693786	2555.315514
695.030272	2553.924156
695.366707	2558.002449
695.703093	2556.099414
696.039429	2559.124106
696.375716	2555.668395
696.711952	2558.408262
697.048139	2559.106462
697.384276	2554.914742
697.720363	2555.814588
698.056400	2556.323745
698.392388	2558.133519
698.728326	2558.710731
699.064214	2558.577141
699.400053	2556.225443
699.735842	2555.174362
700.071581	2557.591595
700.407270	2557.568910
700.742910	2557.480690
701.078501	2555.902809
701.414042	2556.618653
701.749533	2556.054043
702.084974	2559.015721
702.420366	2557.180741
702.755709	2554.536656
703.091002	2558.524209
703.426246	2556.769887
703.761440	2559.015721
704.096584	2557.614280
704.431679	2555.786862
704.766725	2556.875751
705.101721	2554.697973
705.436668	2557.755433
705.771565	2557.954558
706.106413	2557.183262
706.441212	2555.285267
706.775961	2556.185113
707.110661	2560.298695
707.445311	2558.786349
707.779913	2555.610422
708.114465	2557.808365
708.448967	2557.463046
708.783421	2554.566903
709.117825	2558.793910
709.452180	2558.463715
709.786485	2557.717624
710.120742	2555.703683
710.454949	2553.029351
710.789107	2552.414330
711.123216	2552.893240
711.457275	2555.252500
711.791286	2556.273333
712.125247	2556.905998
712.459159	2557.178221
712.793023	2555.761656
713.126837	2554.166131
713.460602	2557.836091
713.794318	2557.261400
714.127985	2555.945658
714.461602	2556.157387
714.795171	2556.447253
715.128691	2559.862635
715.462162	2556.827860
715.795584	2556.185113
716.128957	2552.310987
716.462281	2557.163097
716.795556	2557.021945
717.128782	2553.561193
717.461960	2557.150494
717.795088	2556.732078
718.128167	2554.952551
718.461198	2556.230484
718.794180	2555.607901
719.127113	2556.104455
719.459997	2555.980947
719.792833	2553.420040
720.125619	2553.694783
720.458357	2554.965154
720.791046	2556.517829
721.123686	2554.067829
721.456278	2555.814588
721.788821	2555.174362
722.121315	2556.522871
722.453761	2554.478683
722.786158	2556.379198
723.118506	2553.253682
723.450805	2554.574465
723.783056	2555.045812
724.115259	2553.581357
724.447412	2556.681667
724.779518	2555.091183
725.111574	2553.846018
725.443582	2556.747202
725.775542	2555.791903
726.107453	2555.063457
726.439315	2557.521019
726.771129	2556.895916
727.102895	2551.534649
727.434612	2554.231666
727.766281	2549.687066
728.097901	2555.197047
728.429473	2553.747715
728.760996	2556.658982
729.092471	2554.793755
729.423897	2553.813250
729.755276	2555.169321
730.086606	2555.416337
730.417887	2556.583364
730.749120	2556.046482
731.080305	2553.941800
731.411442	2557.694939
731.742530	2555.975905
732.073570	2555.219732
732.404562	2551.602704
732.735506	2556.056564
733.066401	2554.917263
733.397249	2556.301060
733.728048	2558.030176
734.058798	2556.086811
734.389501	2556.454815
734.720156	2557.470607
735.050762	2553.016748
735.381320	2554.440874
735.711831	2555.179403
736.042293	2555.678477
736.372707	2552.668908
736.703073	2556.565720
737.033391	2555.197047
737.363661	2557.021945
737.693883	2556.613611
738.024056	2553.591440
738.354182	2555.086142
738.684260	2555.060936
739.014290	2556.616132
739.344272	2555.549928
739.674207	2556.588406
740.004093	2556.122099
740.333931	2556.157387
740.663722	2556.888354
740.993464	2554.980277
741.323159	2554.771070
741.652806	2554.632438
741.982405	2553.924156
742.311956	2554.302242
742.641460	2552.918446
742.970915	2553.442726
743.300323	2552.573127
743.629683	2550.982642
743.958996	2550.743188
744.288260	2549.838301
744.617477	2552.893240
744.946647	2555.237376
745.275768	2554.844166
745.604842	2556.006152
745.933869	2554.791234
746.262847	2556.081770
746.591778	2555.219732
746.920662	2555.325597
747.249498	2554.660164
747.578286	2555.746533
747.907027	2557.440361
748.235720	2554.556821
748.564365	2556.742161
748.892963	2555.156718
749.221514	2554.889537
749.550017	2554.866852
749.878473	2554.483724
750.206881	2555.590257
750.535242	2555.527243
750.863555	2554.408107
751.191821	2553.735113
751.520039	2553.825853
751.848210	2555.164280
752.176334	2557.571431
752.504411	2556.096893
752.832440	2555.565051
753.160421	2555.701162
753.488356	2554.471121
753.816243	2554.942469
754.144082	2555.557490
754.471875	2555.123950
754.799620	2555.590257
755.127318	2554.864331
755.454969	2552.363919
755.782572	2554.960113
756.110129	2553.707386
756.437638	2555.698642
756.765100	2554.776111
757.092515	2556.361554
757.419882	2556.913560
757.747203	2556.661502
758.074477	2554.952551
758.401703	2555.446584
758.728882	2556.351471
759.056014	2557.422717
759.383099	2555.804506
759.710138	2551.794268
760.037129	2552.051367
760.364073	2551.585060
760.690970	2545.402085
761.017820	2555.751574
761.344623	2553.064639
761.671379	2555.348282
761.998088	2553.483055
762.324751	2559.839950
762.651366	2553.936759
762.977935	2553.974567
763.304456	2552.459701
763.630931	2555.136553
763.957359	2554.561862
764.283740	2554.869372
764.610074	2552.507592
764.936362	2554.317366
765.262602	2553.997253
765.588796	2554.443395
765.914943	2554.768549
766.241044	2555.249979
766.567097	2556.233004
766.893104	2555.885165
767.219064	2556.235525
767.544978	2553.021789
767.870845	2552.401727
768.196665	2552.593291
768.522438	2556.159907
768.848165	2555.118909
769.173846	2553.641851
769.499479	2553.581357
769.825066	2553.203271
770.150607	2555.539846
770.476101	2552.673950
770.801548	2552.694114
771.126949	2551.259906
771.452303	2553.208312
771.777611	2552.958775
772.102872	2555.817109
772.428087	2555.744012
772.753256	2552.074052
773.078378	2554.415668
773.403453	2555.771739
773.728482	2552.910884
774.053465	2554.944989
774.378401	2554.531615
774.703291	2554.730740
775.028135	2553.727551
775.352932	2557.238714
775.677683	2554.128322
776.002388	2550.627241
776.327046	2553.021789
776.651658	2547.947868
776.976224	2548.414175
777.300743	2553.503219
777.625216	2554.675288
777.949643	2554.750905
778.274024	2554.231666
778.598359	2553.213353
778.922647	2551.819474
779.246889	2554.720658
779.571086	2554.266954
779.895236	2553.851059
780.219339	2552.956254
780.543397	2555.081101
780.867409	2554.322407
781.191374	2554.347613
781.515294	2554.322407
781.839167	2552.744526
782.162995	2554.244269
782.486776	2556.122099
782.810511	2554.990360
783.134201	2552.810061
783.457844	2553.871224
783.781441	2552.094217
784.104993	2551.937941
784.428498	2555.398693
784.751958	2555.055895
785.075372	2558.088149
785.398739	2554.259393
785.722061	2552.189999
786.045337	2555.706204
786.368568	2555.048333
786.691752	2554.115720
787.014891	2554.705535
787.337983	2554.135884
787.661030	2553.725030
787.984031	2552.958775
788.306987	2554.604712
788.629897	2550.942313
788.952760	2552.200081
789.275579	2553.881306
789.598351	2554.952551
789.921078	2554.612273
790.243759	2554.783672
790.566395	2555.726368
790.888984	2554.551779
791.211529	2555.300391
791.534027	2554.100596
791.856480	2552.918446
792.178888	2548.459545
792.501249	2550.319731
792.823566	2549.026675
793.145836	2548.729247
793.468062	2551.895091
793.790241	2552.779814
794.112375	2552.948693
794.434464	2554.322407
794.756507	2554.894578
795.078505	2552.883158
795.400457	2552.810061
795.722364	2550.551624
796.044226	2552.787376
796.366042	2553.634289
796.687812	2553.825853
797.009538	2553.488096
797.331218	2554.881975
797.652852	2550.367622
797.974442	2556.379198
798.295986	2552.172355
798.617484	2551.915256
798.938938	2554.277037
799.260346	2554.655123
799.581709	2553.026830
799.903026	2555.098745
800.224299	2553.553631
800.545526	2554.874413
800.866708	2552.187478
801.187845	2552.855431
801.508936	2550.881819
801.829983	2551.910215
802.150984	2552.850390
802.471940	2552.321069
802.792851	2553.079762
803.113717	2552.129505
803.434538	2553.846018
803.755314	2552.091696
804.076045	2553.546069
804.396731	2554.939948
804.717372	2553.500699
805.037967	2553.125133
805.358518	2551.466593
805.679024	2554.403065
805.999485	2552.431974
806.319901	2555.791903
806.640272	2556.356512
806.960598	2555.013045
807.280879	2553.135215
807.601115	2554.108158
807.921306	2551.955585
808.241453	2552.086655
808.561554	2548.862837
808.881611	2550.682694
809.201623	2548.968702
809.521590	2552.449618
809.841513	2551.237221
810.161390	2556.117058
810.481223	2553.220915
810.801011	2553.828374
811.120755	2550.607077
811.440453	2555.149156
811.760107	2551.043136
812.079716	2553.654454
812.399281	2551.257385
812.718801	2554.861810
813.038276	2554.113199
813.357707	2554.745864
813.677093	2552.671429
813.996434	2552.381563
814.315731	2552.245452
814.634983	2556.404403
814.954191	2552.973898
815.273354	2551.418702
815.592473	2553.881306
815.911547	2554.395504
816.230577	2554.087993
816.549562	2552.772252
816.868502	2556.777449
817.187399	2553.450287
817.506250	2552.966337
817.825058	2551.917777
818.143821	2552.588250
818.462539	2554.682849
818.781213	2553.014227
819.099843	2550.317210
819.418429	2551.358208
819.736970	2554.481203
820.055466	2551.433826
820.373919	2552.205122
820.692327	2550.624721
821.010691	2555.348282
821.329011	2554.201419
821.647286	2554.793755
821.965517	2553.457849
822.283704	2554.755946
822.601847	2554.965154
822.919945	2553.813250
823.237999	2552.449618
823.556010	2553.016748
823.873976	2552.842828
824.191897	2551.436346
824.509775	2548.028526
824.827609	2550.370142
825.145398	2549.331665
825.463144	2554.445915
825.780845	2552.525236
826.098502	2552.283260
826.416116	2552.323589
826.733685	2551.453990
827.051210	2553.951882
827.368692	2552.603373
827.686129	2553.309135
828.003522	2552.247972
828.320872	2553.898950
828.638177	2554.357695
828.955439	2553.485575
829.272656	2552.673950
829.589830	2551.726213
829.906960	2552.474824
830.224046	2553.568754
830.541088	2551.239741
830.858086	2549.974412
831.175041	2552.865513
831.491952	2554.279557
831.808819	2553.266285
832.125642	2549.727395
832.442421	2552.230328
832.759157	2550.806202
833.075849	2552.903322
833.392497	2552.986501
833.709101	2553.170503
834.025662	2555.991029
834.342179	2551.285112
834.658653	2552.890719
834.975083	2549.276212
835.291469	2555.471790
835.607811	2554.125802
835.924110	2551.582540
836.240366	2554.161090
836.556578	2553.072201
836.872746	2552.953734
837.188871	2554.687891
837.504952	2553.901471
837.820990	2553.268806
838.136984	2551.602704
838.452935	2551.539690
838.768842	2550.783517
839.084706	2552.983981
839.400526	2556.185113
839.716303	2552.063970
840.032037	2551.257385
840.347727	2546.135573
840.663373	2552.794937
840.978977	2548.557848
841.294537	2550.060111
841.610054	2553.543549
841.925527	2552.764690
842.240957	2552.550441
842.556344	2551.358208
842.871687	2552.540359
843.186987	2552.648744
843.502244	2550.874258
843.817458	2553.268806
844.132629	2551.431305
844.447756	2553.573796
844.762840	2552.278219
845.077881	2554.539177
845.392879	2553.674619
845.707833	2552.633620
846.022745	2554.559341
846.337613	2554.748384
846.652438	2551.857283
846.967221	2552.515153
847.281960	2552.817623
847.596656	2554.166131
847.911309	2554.975236
848.225919	2550.085317
848.540485	2553.009186
848.855009	2553.876265
849.169490	2551.479196
849.483928	2550.942313
849.798323	2554.531615
850.112675	2550.725544
850.426984	2552.053888
850.741251	2551.123795
851.055474	2551.587581
851.369654	2550.851572
851.683792	2551.975750
851.997887	2551.774104
852.311938	2552.643703
852.625947	2551.945503
852.939914	2549.019113
853.253837	2553.283929
853.567718	2553.137736
853.881555	2552.227808
854.195350	2552.628579
854.509103	2551.847200
854.822812	2551.524567
855.136479	2555.486913
855.450103	2552.545400
855.763685	2548.388969
856.077224	2546.511139
856.390720	2548.676315
856.704173	2548.414175
857.017584	2551.643034
857.330953	2549.364432
857.644278	2551.776624
857.957561	2556.318704
858.270802	2552.565565
858.584000	2551.418702
858.897155	2552.295863
859.210268	2553.099927
859.523339	2552.169834
859.836367	2548.593136
860.149352	2552.099258
860.462295	2550.246634
860.775195	2550.523898
861.088054	2551.549772
861.400869	2551.096068
861.713642	2549.364432
862.026373	2552.895760
862.339062	2552.076573
862.651708	2553.294012
862.964312	2552.414330
863.276873	2551.063301
863.589392	2549.765204
863.901869	2552.729402
864.214303	2549.530790
864.526696	2551.721172
864.839045	2553.306614
865.151353	2551.958106
865.463619	2550.460883
865.775842	2553.253682
866.088023	2549.180430
866.400162	2552.346275
866.712258	2550.171017
867.024313	2551.723692
867.336325	2551.022972
867.648296	2550.838970
867.960224	2550.662529
868.272110	2551.890050
868.583954	2551.282591
868.895755	2552.426933
869.207515	2547.927703
869.519233	2550.533980
869.830909	2551.254865
870.142542	2551.711089
870.454134	2552.351316
870.765684	2550.639844
871.077191	2550.496171
871.388657	2549.790410
871.700081	2546.480892
872.011463	2549.026675
872.322803	2547.491643
872.634101	2552.439536
872.945357	2551.091027
873.256571	2551.010369
873.567744	2548.446942
873.878874	2552.353836
874.189963	2550.065153
874.501010	2551.970709
874.812015	2551.698486
875.122979	2551.574978
875.433900	2549.240924
875.744780	2550.667570
876.055618	2551.348126
876.366415	2549.692107
876.677169	2552.056408
876.987882	2550.675132
877.298554	2551.108671
877.609183	2549.699669
877.919771	2550.385266
878.230317	2552.411810
878.540822	2551.948023
878.851285	2552.631100
879.161707	2552.910884
879.472087	2550.763352
879.782425	2549.984494
880.092722	2549.845862
880.402977	2551.035575
880.713191	2550.775955
881.023363	2551.078424
881.333494	2552.028682
881.643583	2550.768393
881.953631	2550.604556
882.263637	2549.550955
882.573602	2552.036244
882.883526	2549.946685
883.193408	2549.939124
883.503248	2549.384597
883.813048	2551.688404
884.122806	2550.400389
884.432522	2550.912066
884.742197	2553.125133
885.051831	2551.769062
885.361424	2551.529608
885.670975	2549.561037
885.980485	2553.420040
886.289954	2555.204609
886.599382	2549.719833
886.908768	2549.356870
887.218113	2546.024668
887.527417	2549.971891
887.836680	2547.247147
888.145901	2551.585060
888.455082	2553.659495
888.764221	2551.756460
889.073319	2551.476676
889.382376	2552.358878
889.691392	2551.703528
890.000366	2552.280740
890.309300	2549.593805
890.618193	2552.500030
890.927044	2551.511964
891.235855	2551.201933
891.544625	2551.993394
891.853353	2552.157231
892.162041	2551.547252
892.470687	2550.546583
892.779293	2550.312169
893.087858	2549.190512
893.396381	2551.733774
893.704864	2550.551624
894.013306	2551.564896
894.321707	2551.106151
894.630068	2550.811243
894.938387	2549.734957
895.246665	2550.685214
895.554903	2550.463404
895.863100	2551.229659
896.171256	2550.859134
896.479371	2550.352498
896.787446	2552.041285
897.095480	2548.552806
897.403473	2551.287632
897.711425	2550.624721
898.019336	2550.269319
898.327207	2550.256716
898.635038	2551.701007
898.942827	2550.498692
899.250576	2552.189999
899.558284	2552.799978
899.865952	2550.468445
900.173579	2551.149001
900.481165	2551.169165
900.788711	2552.361398
901.096216	2550.660009
901.403681	2552.958775
901.711105	2550.496171
902.018489	2548.663712
902.325832	2548.303269
902.633135	2545.850748
902.940397	2548.507436
903.247619	2544.275387
903.554800	2549.462735
903.861941	2549.067004
904.169041	2550.901984
904.476101	2550.042467
904.783121	2552.681511
905.090100	2549.540872
905.397039	2550.231511
905.703938	2550.155893
906.010796	2553.871224
906.317614	2549.094730
906.624391	2550.178578
906.931129	2551.900132
907.237826	2551.673281
907.544483	2549.682025
907.851099	2550.934752
908.157675	2549.689587
908.464211	2549.457693
908.770707	2548.641027
909.077163	2550.065152
909.383578	2552.802499
909.689954	2549.387117
909.996289	2549.573640
910.302584	2550.019782
910.608839	2552.452139
910.915054	2549.208156
911.221229	2550.748229
911.527363	2548.353681
911.833458	2550.027344
912.139513	2552.772252
912.445527	2548.313352
912.751502	2551.131357
913.057436	2553.740154
913.363331	2552.999104
913.669186	2551.877447
913.975000	2549.349309
914.280775	2550.660009
914.586510	2552.777293
914.892205	2549.934083
915.197859	2551.673281
915.503475	2549.850903
915.809050	2548.961140
916.114585	2550.801161
916.420081	2551.438867
916.725536	2552.797458
917.030952	2550.022303
917.336328	2550.108002
917.641665	2549.208156
917.946961	2544.424101
918.252218	2548.595656
918.557435	2544.625748
918.862612	2551.360729
919.167750	2551.206974
919.472848	2549.215718
919.777906	2548.641027
920.082925	2551.154042
920.387904	2552.240410
920.692843	2548.792261
920.997743	2550.899463
921.302603	2548.935934
921.607423	2549.765204
921.912204	2551.348126
922.216946	2551.380894
922.521647	2549.513146
922.826310	2549.432488
923.130932	2549.064483
923.435516	2547.572302
923.740059	2550.155893
924.044564	2547.431150
924.349028	2548.172199
924.653454	2550.060111
924.957840	2550.889381
925.262186	2551.469114
925.566493	2551.438867
925.870761	2548.419216
926.174989	2547.186654
926.479178	2551.088507
926.783328	2549.424926
927.087438	2548.096582
927.391509	2551.333003
927.695541	2548.754452
927.999533	2553.064639
928.303486	2550.717982
928.607400	2549.099772
928.911275	2551.806871
929.215110	2550.143290
929.518906	2550.163455
929.822663	2551.290153
930.126381	2549.951727
930.430060	2550.796120
930.733699	2550.062632
931.037299	2549.981973
931.340861	2548.716644
931.644383	2549.130018
931.947866	2549.815615
932.251309	2550.695297
932.554714	2548.782179
932.858080	2546.657333
933.161407	2546.667415
933.464694	2547.443752
933.767943	2544.086344
934.071153	2550.418033
934.374323	2551.716130
934.677455	2546.732950
934.980548	2551.423743
935.283602	2549.470296
935.586617	2548.441901
935.889593	2549.820657
936.192530	2549.119936
936.495428	2549.954247
936.798287	2549.089689
937.101108	2549.838301
937.403890	2549.944165
937.706632	2551.307797
938.009336	2548.951057
938.312002	2550.143290
938.614628	2549.235883
938.917216	2548.673794
939.219765	2549.135060
939.522275	2549.167827
939.824747	2549.674463
940.127179	2546.919473
940.429573	2548.827549
940.731929	2548.146993
941.034246	2548.497354
941.336524	2550.143290
941.638763	2549.792930
941.940964	2550.075235
942.243126	2549.034237
942.545250	2551.398538
942.847335	2547.363094
943.149381	2550.259237
943.451389	2548.958619
943.753359	2550.886861
944.055290	2549.966850
944.357182	2550.133208
944.659036	2545.838145
944.960851	2549.913918
945.262628	2548.328475
945.564367	2550.254196
945.866067	2548.767055
946.167729	2550.917108
946.469352	2550.483568
946.770937	2549.424926
947.072484	2550.412992
947.373992	2550.329813
947.675462	2548.580533
947.976893	2548.424257
948.278286	2544.681200
948.579641	2547.289997
948.880958	2545.460058
949.182236	2548.593136
949.483476	2548.469627
949.784678	2548.555327
950.085841	2550.198743
950.386967	2550.415513
950.688054	2547.481561
950.989103	2548.938455
951.290114	2549.525749
951.591087	2548.961140
951.892021	2550.697817
952.192917	2551.106151
952.493776	2550.145811
952.794596	2550.579350
953.095378	2551.285112
953.396122	2546.687579
953.696828	2550.284443
953.997496	2552.086655
954.298126	2544.832435
954.598718	2547.927703
954.899272	2548.653629
955.199788	2548.514998
955.500266	2546.937117
955.800706	2548.454504
956.101108	2551.176727
956.401472	2550.526418
956.701798	2547.433670
957.002087	2549.704710
957.302337	2546.175902
957.602550	2550.274360
957.902724	2549.011551
958.202861	2547.998279
958.502960	2547.607590
958.803022	2548.925852
959.103045	2546.982487
959.403031	2549.147662
959.702979	2550.912066
960.002889	2549.795451
960.302762	2549.525749
960.602596	2549.498023
960.902393	2548.530121
961.202153	2552.343754
961.501875	2549.054401
961.801559	2548.083979
962.101205	2547.811757
962.400814	2551.451470
962.700385	2547.642878
962.999918	2547.526932
963.299414	2545.150028
963.598873	2546.579195
963.898293	2542.137938
964.197677	2548.658671
964.497022	2549.490461
964.796331	2547.020296
965.095601	2549.951727
965.394835	2548.817467
965.694030	2549.193033
965.993189	2548.179761
966.292309	2548.499874
966.591393	2549.734957
966.890439	2550.702858
967.189447	2547.363094
967.488419	2548.106664
967.787353	2549.336706
968.086249	2550.052550
968.385108	2547.020296
968.683930	2547.088351
968.982714	2549.520708
969.281462	2546.778320
969.580172	2547.085831
969.878844	2548.998948
970.177480	2550.153373
970.476078	2550.914587
970.774639	2547.521890
971.073162	2549.848383
971.371649	2549.379556
971.670098	2547.710934
971.968510	2550.241593
972.266885	2548.898125
972.565223	2548.396531
972.863524	2548.958619
973.161788	2546.601880
973.460014	2550.100441
973.758204	2544.837476
974.056356	2549.245965
974.354471	2549.392158
974.652550	2545.013916
974.950591	2548.426777
975.248595	2549.734957
975.546563	2545.709596
975.844493	2548.096582
976.142386	2549.117416
976.440243	2548.245296
976.738062	2545.487785
977.035845	2549.954247
977.333590	2547.592467
977.631299	2547.620193
977.928971	2547.161448
978.226606	2547.700851
978.524204	2546.755635
978.821765	2546.314534
979.119290	2546.342260
979.416777	2549.238403
979.714228	2549.253527
980.011642	2545.137425
980.309020	2547.882333
980.606360	2549.838301
980.903664	2548.966181
981.200931	2550.319731
981.498162	2546.783361
981.795356	2546.806047
982.092513	2550.314690
982.389633	2545.941489
982.686717	2550.044988
982.983764	2548.267981
983.280775	2548.386448
983.577749	2547.441232
983.874686	2549.641696
984.171587	2548.676315
984.468451	2547.098433
984.765279	2547.569781
985.062070	2550.463404
985.358824	2548.550286
985.655543	2548.204967
985.952224	2547.569781
986.248869	2546.125491
986.545478	2547.128680
986.842050	2546.584236
987.138586	2546.927034
987.435086	2549.061963
987.731549	2547.670604
988.027975	2547.537014
988.324366	2546.047353
988.620719	2549.568599
988.917037	2548.318393
989.213318	2550.322251
989.509563	2546.135573
989.805772	2548.736808
990.101944	2551.310317
990.398080	2547.095913
990.694180	2546.601880
990.990244	2549.276212
991.286271	2550.405430
991.582262	2547.332847
991.878217	2545.802857
992.174136	2549.644216
992.470019	2547.980635
992.765865	2546.080120
993.061676	2543.395706
993.357450	2547.897456
993.653188	2542.435366
993.948890	2547.373176
994.244556	2545.880995
994.540186	2548.146993
994.835780	2548.222611
995.131337	2548.562889
995.426859	2547.325285
995.722345	2550.622200
996.017795	2548.530121
996.313208	2550.299566
996.608586	2547.960471
996.903928	2548.542724
997.199234	2547.741181
997.494504	2546.586756
997.789738	2547.897456
998.084936	2549.417364
998.380099	2545.434853
998.675225	2548.222611
998.970316	2548.099102
999.265371	2546.851417
999.560390	2550.266799
999.855373	2548.784699
1000.150320	2546.755635
1000.445232	2546.327137
1000.740108	2548.414175
1001.034948	2547.244627
1001.329752	2547.620193
1001.624521	2546.770758
1001.919254	2546.241437
1002.213951	2546.155738
1002.508613	2547.146324
1002.803239	2548.883002
1003.097829	2548.525080
1003.392384	2549.671943
1003.686903	2544.766900
1003.981386	2549.112374
1004.275834	2547.335368
1004.570246	2547.075748
1004.864623	2546.440563
1005.158964	2548.008362
1005.453270	2549.495502
1005.747540	2545.485264
1006.041775	2546.884184
1006.335974	2545.339071
1006.630138	2546.831252
1006.924266	2546.939637
1007.218359	2549.137580
1007.512416	2545.364277
1007.806438	2542.382434
1008.100425	2542.717671
1008.394376	2542.112732
1008.688292	2546.828732
1008.982172	2545.845707
1009.276017	2547.844524
1009.569827	2547.058104
1009.863602	2546.674977
1010.157341	2547.292518
1010.451045	2548.875440
1010.744714	2550.095399
1011.038347	2550.012220
1011.331945	2545.611293
1011.625508	2546.072559
1011.919036	2547.970553
1012.212528	2548.668753
1012.505986	2546.533824
1012.799408	2546.576674
1013.092795	2546.740512
1013.386147	2548.615821
1013.679464	2548.083979
1013.972745	2545.379400
1014.265992	2546.286808
1014.559204	2549.566078
1014.852380	2546.911911
1015.145521	2547.118598
1015.438628	2548.089020
1015.731699	2546.806047
1016.024736	2546.753114
1016.317737	2548.396531
1016.610703	2546.934596
1016.903635	2546.737991
1017.196531	2546.622044
1017.489393	2545.296221
1017.782219	2546.496016
1018.075011	2546.140614
1018.367768	2547.385779
1018.660490	2547.126160
1018.953177	2547.126160
1019.245829	2547.126160
