Dividing Wavelength (nm)	Counts (n)	Blue Motor Position (mm): 32.400000	Red Motor Position (mm): 0.000000	
326.493990	2219.609956
326.888308	2219.609956
327.282561	2219.609956
327.676750	2179.066476
328.070874	2179.517660
328.464933	2177.652433
328.858929	2180.515808
329.252859	2186.638289
329.646726	2193.829495
330.040528	2206.639067
330.434265	2217.653988
330.827938	2239.588049
331.221547	2252.475759
331.615091	2271.831269
332.008571	2291.378343
332.401986	2309.135807
332.795338	2328.130875
333.188625	2348.817250
333.581847	2364.102028
333.975006	2384.775800
334.368100	2406.258677
334.761129	2421.538415
335.154095	2439.033739
335.546996	2464.569704
335.939833	2504.200735
336.332606	2519.430061
336.725315	2531.614529
337.117960	2543.332692
337.510540	2554.455997
337.903056	2566.358162
338.295508	2575.676735
338.687896	2582.734350
339.080220	2592.194075
339.472480	2597.530137
339.864676	2604.670931
340.256807	2608.514811
340.648875	2615.096037
341.040879	2615.927827
341.432818	2618.682818
341.824694	2622.866976
342.216506	2622.909826
342.608253	2624.275978
342.999937	2624.139867
343.391557	2620.989146
343.783113	2625.337141
344.174605	2622.317490
344.566033	2619.401182
344.957397	2621.939403
345.348697	2619.703652
345.739934	2615.504371
346.131106	2616.943620
346.522215	2613.611417
346.913260	2612.028495
347.304241	2612.807353
347.695159	2608.600510
348.086012	2607.430963
348.476802	2609.772579
348.867528	2598.072061
349.258191	2597.441916
349.648789	2596.663058
350.039324	2595.402770
350.429796	2598.182966
350.820203	2596.098449
351.210548	2594.492841
351.600828	2590.868252
351.991045	2594.172728
352.381198	2594.089549
352.771288	2590.172572
353.161314	2588.884558
353.551276	2588.405648
353.941175	2590.011256
354.331010	2589.292891
354.720782	2588.819023
355.110490	2587.515884
355.500135	2587.440267
355.889717	2588.594691
356.279235	2589.383632
356.668689	2588.501430
357.058080	2589.605443
357.447408	2585.701069
357.836672	2590.202819
358.225873	2593.126689
358.615010	2589.481934
359.004084	2590.941348
359.393095	2590.921184
359.782043	2595.375043
360.170927	2594.641555
360.559748	2593.280444
360.948505	2594.631473
361.337199	2594.828078
361.725830	2594.268510
362.114398	2596.211875
362.502903	2594.384457
362.891344	2598.976948
363.279722	2595.165835
363.668037	2595.841350
364.056289	2595.818665
364.444478	2598.682040
364.832603	2599.705394
365.220665	2598.702205
365.608665	2600.330497
365.996601	2599.281937
366.384474	2601.207658
366.772284	2601.646239
367.160031	2600.978286
367.547715	2601.313522
367.935336	2602.049531
368.322893	2599.743203
368.710388	2600.181783
369.097820	2599.985178
369.485189	2599.019797
369.872495	2602.520879
370.259738	2605.918617
370.646918	2602.886362
371.034035	2604.915427
371.421090	2605.066662
371.808081	2604.978441
372.195010	2608.610593
372.581875	2604.756631
372.968678	2605.785026
373.355418	2606.596652
373.742096	2604.552464
374.128710	2608.333329
374.515262	2606.432814
374.901751	2607.047835
375.288177	2608.792074
375.674540	2607.841817
376.060841	2608.499687
376.447079	2608.277877
376.833254	2608.262753
377.219367	2609.913731
377.605417	2609.555809
377.991404	2610.034719
378.377329	2610.259050
378.763191	2612.512446
379.148991	2610.642178
379.534727	2611.952878
379.920402	2609.744852
380.306013	2612.436828
380.691563	2614.523866
381.077049	2609.782661
381.462474	2610.667383
381.847835	2614.748197
382.233134	2615.262395
382.618371	2612.943464
383.003545	2615.020420
383.388657	2611.927672
383.773706	2618.037550
384.158693	2617.606532
384.543618	2615.138887
384.928480	2615.915225
385.313280	2616.734412
385.698017	2615.832046
386.082692	2617.485544
386.467305	2617.813219
386.851856	2616.905811
387.236344	2617.520832
387.620770	2614.904473
388.005133	2615.824484
388.389435	2619.045781
388.773674	2615.562344
389.157851	2619.408744
389.541965	2619.315483
389.926018	2621.571399
390.310008	2620.288426
390.693936	2620.658950
391.077802	2621.543673
391.461606	2622.388066
391.845348	2624.180196
392.229027	2621.967130
392.612645	2625.211112
392.996200	2626.022738
393.379694	2625.306894
393.763125	2628.865949
394.146494	2629.821247
394.529801	2626.700773
394.913047	2625.997532
395.296230	2629.551546
395.679351	2625.967285
396.062410	2633.720580
396.445408	2630.905096
396.828343	2631.676392
397.211217	2631.988944
397.594028	2632.692185
397.976778	2631.600775
398.359466	2633.161012
398.742092	2633.143368
399.124656	2631.913326
399.507158	2633.687812
399.889598	2637.710653
400.271977	2636.767957
400.654294	2638.146713
401.036549	2637.304840
401.418742	2638.149234
401.800874	2640.720222
402.182944	2638.534882
402.564952	2641.047897
402.946898	2641.819194
403.328783	2639.911117
403.710606	2640.957156
404.092367	2642.035963
404.474067	2640.788278
404.855705	2644.425470
405.237282	2643.316416
405.618797	2644.173412
406.000250	2647.556027
406.381642	2646.273053
406.762972	2647.298928
407.144240	2645.156438
407.525447	2645.713485
407.906593	2645.116108
408.287677	2649.091058
408.668700	2650.810092
409.049661	2651.578867
409.430560	2652.773621
409.811399	2654.853097
410.192176	2655.223622
410.572891	2654.918632
410.953545	2658.553304
411.334138	2659.248983
411.714669	2660.509272
412.095139	2662.989519
412.475547	2665.333656
412.855894	2670.047135
413.236180	2677.997034
413.616405	2681.843435
413.996568	2690.345341
414.376670	2699.830272
414.756711	2709.995758
415.136691	2721.325752
415.516609	2738.097670
415.896466	2756.180289
416.276262	2775.528238
416.655997	2805.676858
417.035670	2837.282372
417.415283	2878.589587
417.794834	2916.612490
418.174324	2943.968311
418.553753	2986.480362
418.933121	3049.426729
419.312428	3105.814555
419.691674	3137.132724
420.070859	3249.840321
420.449983	3281.488685
420.829045	3389.313924
421.208047	3436.695729
421.586988	3556.826425
421.965867	3636.834578
422.344686	3739.384250
422.723444	3834.785566
423.102141	3789.463073
423.480777	4031.549362
423.859352	4016.125952
424.237866	4270.026186
424.616319	4332.317204
424.994712	4539.122979
425.373044	4527.409858
425.751314	4770.937918
426.129524	4834.688349
426.507673	4997.073997
426.885762	5163.124563
427.263789	5240.143312
427.641756	5315.140558
428.019662	5480.326566
428.397508	5695.972004
428.775292	5664.260626
429.153016	5978.972299
429.530679	6016.249111
429.908282	6144.828781
430.285824	6111.834429
430.663305	6586.486790
431.040726	6411.011787
431.418086	6510.259503
431.795385	6808.274874
432.172624	6968.265974
432.549802	7027.877618
432.926920	7199.702826
433.303977	7220.290899
433.680974	7456.902496
434.057910	7635.407233
434.434786	7778.618852
434.811601	7789.545553
435.188355	8284.657437
435.565050	8191.159156
435.941683	8238.298986
436.318257	8716.550731
436.694770	8897.850787
437.071222	9060.052433
437.447614	9037.276500
437.823946	9037.702477
438.200218	9256.123071
438.576429	9174.589969
438.952580	9448.435528
439.328670	9582.169778
439.704700	9457.373494
440.080670	9517.539665
440.456580	10097.098438
440.832429	9921.900697
441.208218	9624.134863
441.583947	9982.369338
441.959616	10159.737295
442.335224	10034.978819
442.710773	10223.747346
443.086261	10450.626995
443.461689	9823.686418
443.837057	10461.672163
444.212365	10778.929619
444.587612	10470.317742
444.962800	10731.762063
445.337927	10558.973994
445.712995	10143.746755
446.088002	11239.897768
446.462949	10913.115052
446.837837	10910.375185
447.212664	10949.371030
447.587431	11440.016452
447.962139	12139.562248
448.336786	14357.553993
448.711374	14953.887205
449.085901	12865.347249
449.460369	12482.774084
449.834776	11951.262549
450.209124	12792.482412
450.583412	13200.669680
450.957640	14165.659952
451.331808	13372.517573
451.705917	12335.096003
452.079965	11677.749706
452.453954	12571.047208
452.827883	12201.505426
453.201752	12485.521513
453.575562	12005.457473
453.949311	12423.243098
454.323001	12374.815254
454.696632	12596.200045
455.070202	12893.129048
455.443713	13153.645797
455.817164	13595.018980
456.190556	13605.365949
456.563888	13976.538545
456.937160	14150.327282
457.310373	13484.582423
457.683526	13558.067323
458.056619	13122.781332
458.429653	13255.648503
458.802628	12715.871997
459.175542	13070.421388
459.548398	14012.643288
459.921194	14334.820910
460.293930	14397.091763
460.666607	15300.136337
461.039224	16314.867674
461.411782	17010.655289
461.784280	16920.731187
462.156719	16960.919266
462.529099	16655.964746
462.901419	15570.833695
463.273680	15379.224479
463.645882	15237.792387
464.018024	14976.058200
464.390106	15190.143401
464.762130	15922.852427
465.134094	16661.815005
465.505999	18625.790570
465.877845	21880.851006
466.249631	24733.521500
466.621358	24447.635145
466.993026	22995.505574
467.364634	22446.012243
467.736184	20989.877475
468.107674	20182.730771
468.479105	20319.298149
468.850477	19775.506363
469.221790	19363.139979
469.593043	18690.655097
469.964238	18133.181619
470.335373	17792.896173
470.706449	18208.067960
471.077467	17766.929189
471.448425	19576.950437
471.819324	23567.878182
472.190164	25658.671533
472.560945	22151.951657
472.931667	19749.519215
473.302330	19103.472665
473.672934	18602.381972
474.043479	18960.843299
474.413965	18768.359442
474.784393	18405.845028
475.154761	19084.069263
475.525070	19086.398277
475.895321	18735.281911
476.265513	19318.485438
476.635645	19906.934285
477.005719	19694.157264
477.375734	19881.741119
477.745691	20354.568582
478.115588	20878.646936
478.485427	21390.341695
478.855207	22440.945883
479.224928	24192.530075
479.594591	26424.528667
479.964194	26484.573850
480.333739	26686.222525
480.703226	26246.974187
481.072653	25916.408086
481.442022	26485.047719
481.811333	27392.982212
482.180584	27325.450915
482.549777	26378.772634
482.918912	26014.513981
483.287988	26132.282896
483.657005	25823.308056
484.025964	25544.703648
484.394864	25474.238399
484.763706	25180.450036
485.132489	24594.108391
485.501213	24771.128508
485.869879	24689.968452
486.238487	24476.168076
486.607036	24640.847448
486.975527	24320.870290
487.343959	24660.008874
487.712333	24608.619352
488.080648	24271.277939
488.448905	24741.473920
488.817104	24486.114272
489.185244	25173.639437
489.553326	25126.968434
489.921350	26110.190039
490.289315	28381.418890
490.657222	30174.837098
491.025070	30690.957990
491.392861	30471.544289
491.760593	29619.082653
492.128267	28729.434946
492.495883	27686.679835
492.863440	26807.928582
493.230939	25937.669152
493.598380	25792.519209
493.965763	25377.100406
494.333088	24938.847696
494.700354	24866.431521
495.067563	24750.346351
495.434713	24493.706250
495.801805	24643.922552
496.168839	24455.713594
496.535815	24281.670278
496.902733	24495.107691
497.269593	24172.983001
497.636395	24373.305852
498.003139	24336.666746
498.369825	24091.207924
498.736453	24283.782522
499.103023	24165.413709
499.469535	24177.144474
499.835989	24391.822010
500.202385	24414.212295
500.568723	23914.739813
500.935003	24176.184134
501.301226	23777.544811
501.667390	24600.828249
502.033497	24852.603636
502.399546	24582.221350
502.765537	24150.688498
503.131470	24540.208374
503.497345	24666.953064
503.863163	23887.898189
504.228923	24490.517720
504.594625	24691.374933
504.960269	24210.499268
505.325856	24709.470155
505.691385	24116.010401
506.056856	24727.003288
506.422270	24691.180849
506.787625	24267.098823
507.152924	24669.380379
507.518164	24699.405492
507.883347	24516.681309
508.248472	24190.569066
508.613540	24967.521779
508.978550	24764.438897
509.343503	24750.452215
509.708398	25013.209757
510.073236	25172.671535
510.438016	25385.060388
510.802738	25060.372272
511.167403	25300.074096
511.532010	24997.574618
511.896561	25803.700488
512.261053	25756.106955
512.625488	25587.906336
512.989866	25476.058256
513.354186	25330.825134
513.718449	25426.463384
514.082655	25808.739122
514.446803	25551.819237
514.810894	26017.717634
515.174927	25495.058365
515.538904	25524.085329
515.902822	26028.011670
516.266684	25775.951457
516.630488	25677.054101
516.994235	25655.823282
517.357925	25951.393693
517.721558	26137.051828
518.085133	26231.462557
518.448651	26144.449721
518.812112	25880.605811
519.175516	26079.615441
519.538863	26250.787820
519.902152	26012.212694
520.265385	26300.773381
520.628560	26085.720279
520.991678	26099.376764
521.354739	26162.645766
521.717743	26233.781488
522.080690	26038.290583
522.443580	26366.671344
522.806413	26362.373761
523.169189	26453.449767
523.531908	26492.914439
523.894569	26108.045028
524.257174	26174.779823
524.619722	26356.624325
524.982213	26052.582254
525.344647	26120.960465
525.707025	26265.765088
526.069345	26249.600628
526.431608	26193.784973
526.793815	26387.650106
527.155964	25835.104356
527.518057	26011.159093
527.880093	25922.588540
528.242072	26164.458061
528.603995	25876.393927
528.965860	25674.447824
529.327669	25720.224022
529.689421	25712.034667
530.051117	25545.016199
530.412755	25706.471754
530.774337	25510.181826
531.135862	25385.526695
531.497331	25588.652427
531.858743	25153.051364
532.220098	25626.070392
532.581396	25313.707896
532.942638	25239.086217
533.303824	25333.365876
533.664953	25354.974782
534.026025	25012.274623
534.387040	25250.227167
534.747999	25320.268958
535.108902	25484.718958
535.469748	24968.633354
535.830537	25154.793083
536.191270	25271.551247
536.551947	25146.802854
536.912567	24790.766323
537.273131	25135.402285
537.633638	24849.785631
537.994089	25060.266407
538.354483	24598.748773
538.714821	25094.631953
539.075103	25135.901359
539.435328	24921.450674
539.795497	24483.326514
540.155609	24881.179417
540.515665	25177.619428
540.875665	24407.913373
541.235609	24711.922677
541.595496	24662.494163
541.955328	25020.496745
542.315102	24942.953716
542.674821	24494.328832
543.034483	24372.257292
543.394090	24541.521594
543.753640	24319.831813
544.113134	24956.285047
544.472571	24562.386930
544.831953	24847.963254
545.191278	24473.624814
545.550548	24386.513675
545.909761	24590.773667
546.268918	24835.993034
546.628019	24791.116683
546.987064	24491.042000
547.346053	24242.402210
547.704986	24369.104050
548.063863	24526.153637
548.422684	24528.250757
548.781449	24061.323964
549.140158	24469.327230
549.498811	24035.293966
549.857408	23794.228510
550.215949	24220.984868
550.574434	23894.124014
550.932864	24122.967193
551.291237	24276.019145
551.649555	24128.290652
552.007817	24180.343086
552.366022	24062.788419
552.724173	24099.765283
553.082267	24035.979563
553.440305	24520.749520
553.798288	23768.858903
554.156215	24279.547952
554.514086	24368.453742
554.871902	23764.969653
555.229661	24041.822260
555.587365	23907.377208
555.945014	23759.396657
556.302606	24018.451471
556.660143	23954.683396
557.017625	24219.359096
557.375050	23728.849786
557.732421	24145.302025
558.089735	23949.765750
558.446994	24008.986705
558.804197	24030.116701
559.161345	23977.633248
559.518437	23739.489141
559.875474	23928.887811
560.232455	24108.370532
560.589381	23930.974849
560.946251	23909.381067
561.303065	24233.439039
561.659825	24324.232740
562.016528	23931.461320
562.373177	23669.076824
562.729770	24020.026832
563.086307	23894.852461
563.442789	24056.096287
563.799216	23892.873808
564.155587	23892.185691
564.511904	23868.991342
564.868164	23809.498165
565.224370	23785.754330
565.580520	23695.492471
565.936615	23836.070087
566.292654	23514.593185
566.648638	23806.818792
567.004567	23636.281598
567.360441	23585.988527
567.716260	23317.048010
568.072023	23633.090548
568.427732	23408.998656
568.783385	23185.115973
569.138982	23417.311519
569.494525	23455.281490
569.850013	23203.735475
570.205445	23295.872643
570.560823	23109.170990
570.916145	22871.150391
571.271412	23041.642214
571.626625	22801.330410
571.981782	22910.824272
572.336884	22717.896793
572.691931	22859.086910
573.046923	22574.329773
573.401860	22457.238892
573.756743	22479.603972
574.111570	22378.259135
574.466342	22306.513434
574.821059	22401.645048
575.175722	22116.698868
575.530330	22090.172316
575.884882	22111.947580
576.239380	22025.789220
576.593823	21912.459040
576.948211	21882.386037
577.302544	21733.976988
577.656823	21596.532449
578.011047	21706.500179
578.365216	21554.804298
578.719330	21452.761262
579.073389	21346.140858
579.427394	21495.346409
579.781344	21260.481572
580.135239	21148.227679
580.489080	21109.680496
580.842866	20881.676669
581.196597	21080.633368
581.550273	21044.271525
581.903895	20943.413160
582.257463	21260.864700
582.610975	20782.199581
582.964434	21098.700863
583.317837	20798.817744
583.671186	20882.064838
584.024481	20860.307218
584.377721	20634.312291
584.730906	20696.333607
585.084037	20714.146524
585.437113	20619.587081
585.790135	20831.721355
586.143103	20293.568100
586.496016	20304.928340
586.848874	20551.103006
587.201679	20469.794236
587.554428	20147.777931
587.907124	20485.552883
588.259765	20253.357336
588.612352	20332.105201
588.964884	19905.714326
589.317362	20067.623585
589.669786	20129.269334
590.022155	20161.600775
590.374470	20357.033706
590.726731	20148.498816
591.078937	19919.257386
591.431090	20005.072948
591.783188	19761.013046
592.135232	19729.485670
592.487222	19832.383182
592.839157	19848.466983
593.191038	19728.469877
593.542866	19620.148084
593.894639	19338.289611
594.246358	19557.231963
594.598022	19458.921902
594.949633	19212.908553
595.301190	19167.659156
595.652692	19346.637762
596.004141	19584.055943
596.355535	18915.455270
596.706876	18919.526002
597.058162	18816.547832
597.409395	19043.906391
597.760573	19106.056256
598.111698	18891.983658
598.462768	18823.040838
598.813785	18797.338515
599.164748	18616.998798
599.515657	18657.297782
599.866511	18442.383311
600.217312	18798.825655
600.568060	18325.708326
600.918753	18633.478330
601.269392	18536.970481
601.619978	18321.183890
601.970510	18524.052524
602.320988	18474.770204
602.671412	18689.082257
603.021783	18579.361543
603.372100	18317.619794
603.722363	18452.495866
604.072572	18398.326147
604.422728	18544.176810
604.772830	18301.740160
605.122878	18248.656810
605.472872	18234.637361
605.822813	18229.669304
606.172701	18199.636630
606.522534	18395.046876
606.872314	18415.440864
607.222041	18246.804186
607.571714	18469.373649
607.921333	18295.887380
608.270899	18367.708699
608.620411	18548.199651
608.969870	18322.902924
609.319276	18309.558989
609.668627	18347.463425
610.017926	18481.356471
610.367171	18596.004913
610.716362	18646.600453
611.065500	18466.061611
611.414585	18603.223845
611.763616	18575.308456
612.112594	18526.671403
612.461518	18484.267738
612.810389	18684.968675
613.159207	18537.313279
613.507971	18452.742882
613.856682	18728.420901
614.205340	18666.581067
614.553945	18802.152817
614.902496	18542.868631
615.250994	18775.928735
615.599439	18726.598524
615.947830	18708.596563
616.296169	18752.378984
616.644454	18720.526454
616.992686	18684.164611
617.340864	18904.707530
617.688990	18663.556374
618.037063	18841.622531
618.385082	18682.410290
618.733048	18973.204208
619.080961	18834.431325
619.428821	18877.815495
619.776628	18764.601262
620.124382	18688.747020
620.472083	18734.329133
620.819731	18748.232635
621.167326	18444.067056
621.514868	18486.266555
621.862357	18256.420187
622.209793	18251.489938
622.557176	18089.250484
622.904506	17917.526099
623.251783	17837.142380
623.599007	17590.556860
623.946179	17533.533849
624.293297	17468.109754
624.640363	17236.125936
624.987376	17248.509531
625.334336	17036.498765
625.681243	16889.102988
626.028097	16903.495482
626.374899	16820.097153
626.721647	16686.877101
627.068343	16522.220414
627.414987	16457.406299
627.761577	16428.701969
628.108115	16470.755274
628.454600	16186.822366
628.801032	16289.926565
629.147412	16216.976028
629.493739	16233.092597
629.840014	16041.117897
630.186236	16142.838299
630.532405	15904.611012
630.878521	16102.559480
631.224585	16004.380488
631.570597	15823.493806
631.916556	15857.519073
632.262462	15834.665002
632.608316	15746.459934
632.954117	15690.508167
633.299866	15681.371076
633.645562	15606.996412
633.991206	15366.707294
634.336797	15237.416821
634.682336	15205.463467
635.027823	15090.719244
635.373257	14965.807014
635.718639	14866.221540
636.063968	14808.661645
636.409245	14575.480554
636.754470	14595.020066
637.099642	14443.261171
637.444762	14209.981776
637.789829	14253.204629
638.134845	14101.881794
638.479808	14129.013284
638.824719	14069.293255
639.169577	13922.663733
639.514383	13966.839365
639.859137	13788.851346
640.203839	13877.757135
640.548489	13711.325961
640.893086	13706.068038
641.237632	13570.443355
641.582125	13729.433786
641.926566	13551.654975
642.270955	13570.604672
642.615292	13525.864432
642.959576	13539.326833
643.303809	13565.278693
643.647990	13502.483560
643.992118	13556.111355
644.336195	13329.266994
644.680219	13540.163665
645.024192	13452.641672
645.368112	13702.390516
645.711981	13756.943362
646.055797	13936.020271
646.399562	13907.268050
646.743274	14180.513712
647.086935	14450.966574
647.430544	14414.496347
647.774101	14440.541468
648.117606	14600.313277
648.461059	14571.472836
648.804460	14558.585127
649.147810	14281.745122
649.491108	14186.157283
649.834354	14193.625753
650.177548	13890.876738
650.520690	13702.176267
650.863781	13621.376653
651.206820	13665.887521
651.549807	13499.234537
651.892742	13305.939054
652.235626	13238.647212
652.578458	13239.300042
652.921238	12924.724480
653.263967	13124.008853
653.606644	12957.597844
653.949269	12937.455914
654.291843	12735.560223
654.634365	12894.497721
654.976836	12743.368970
655.319255	12746.068508
655.661622	12701.144266
656.003938	12629.748924
656.346203	12554.671020
656.688416	12627.613996
657.030577	12588.058582
657.372687	12494.832524
657.714746	12481.329793
658.056753	12665.828462
658.398708	12480.986995
658.740612	12490.681134
659.082465	12590.160743
659.424266	12552.294116
659.766016	12577.686408
660.107715	12488.896565
660.449362	12568.183833
660.790958	12519.708098
661.132503	12468.323616
661.473996	12531.252340
661.815438	12548.205740
662.156829	12566.860530
662.498168	12543.840101
662.839456	12546.068291
663.180693	12563.966908
663.521879	12650.460505
663.863013	12630.782361
664.204097	12605.818567
664.545129	12727.204510
664.886110	12698.631250
665.227040	12786.503603
665.567918	12785.727265
665.908746	12821.446361
666.249522	12818.383860
666.590248	12859.539840
666.930922	12969.462200
667.271545	12946.903036
667.612118	13032.640460
667.952639	12929.546343
668.293109	12956.592134
668.633528	12909.311152
668.973896	12879.664126
669.314213	12960.771250
669.654480	12704.622662
669.994695	12777.197633
670.334859	12797.442907
670.674973	12742.917787
671.015035	12772.831994
671.355047	12709.583157
671.695008	12688.775795
672.034918	12695.775437
672.374777	12743.023651
672.714585	12655.045434
673.054342	12690.565404
673.394049	12641.154535
673.733705	12734.514183
674.073310	12648.481852
674.412864	12660.084068
674.752368	12523.506607
675.091820	12541.243907
675.431223	12528.038604
675.770574	12403.859862
676.109875	12317.930874
676.449125	12278.456118
676.788324	12223.830175
677.127473	12050.981613
677.466571	12042.681353
677.805619	11943.375663
678.144616	11864.569826
678.483562	11837.546721
678.822458	11706.131402
679.161303	11685.626508
679.500098	11673.908346
679.838842	11621.056889
680.177535	11646.708801
680.516179	11713.461239
680.854771	11656.884370
681.193314	11874.311856
681.531805	12033.808922
681.870247	12459.272225
682.208638	12867.096530
682.546978	13175.743694
682.885268	13224.587434
683.223508	12921.072164
683.561697	12760.879418
683.899836	12662.183708
684.237925	12461.071917
684.575963	12377.822302
684.913951	12303.682052
685.251889	12246.127199
685.589776	12347.877848
685.927614	12265.807863
686.265401	12236.228893
686.603137	12285.324691
686.940824	12433.756424
687.278460	12556.737893
687.616046	12600.691713
687.953582	12776.829629
688.291068	12702.427239
688.628504	12934.733691
688.965889	12947.087038
689.303224	12911.153694
689.640510	12806.673260
689.977745	12485.755926
690.314930	12266.097730
690.652065	12174.547855
690.989150	11884.089174
691.326185	11655.351859
691.663170	11454.776950
692.000105	11216.345497
692.336990	11093.295973
692.673825	10844.278096
693.010610	10724.056659
693.347345	10515.398260
693.684030	10311.702877
694.020665	10258.977449
694.357251	10061.762470
694.693786	9997.432306
695.030272	9841.373306
695.366707	9720.965346
695.703093	9650.477413
696.039429	9647.795519
696.375716	9569.574455
696.711952	9439.321122
697.048139	9479.632709
697.384276	9436.591337
697.720363	9453.701013
698.056400	9387.586281
698.392388	9341.414353
698.728326	9297.263927
699.064214	9242.098581
699.400053	9276.224672
699.735842	9091.794058
700.071581	9051.598418
700.407270	8976.641502
700.742910	8903.479236
701.078501	8804.110532
701.414042	8682.825411
701.749533	8616.771172
702.084974	8482.336202
702.420366	8597.960107
702.755709	8482.563054
703.091002	8346.121705
703.426246	8374.246302
703.761440	8326.499013
704.096584	8279.966643
704.431679	8209.529121
704.766725	8198.254580
705.101721	8154.023496
705.436668	8198.186525
705.771565	8087.644103
706.106413	8167.097729
706.441212	8215.472641
706.775961	8165.945825
707.110661	8200.870939
707.445311	8341.501487
707.779913	8246.301817
708.114465	8373.817804
708.448967	8408.697548
708.783421	8564.489366
709.117825	8737.733659
709.452180	8775.754041
709.786485	8864.155715
710.120742	9147.140886
710.454949	9149.122060
710.789107	9248.624354
711.123216	9460.970357
711.457275	9629.294484
711.791286	9791.884299
712.125247	9784.574626
712.459159	9772.306978
712.793023	10020.840903
713.126837	9589.819729
713.460602	9746.191280
713.794318	9574.592924
714.127985	9602.851112
714.461602	9282.188357
714.795171	9221.530673
715.128691	8978.259712
715.462162	8731.893482
715.795584	8673.106067
716.128957	8520.729630
716.462281	8362.346658
716.795556	8402.696054
717.128782	8200.056793
717.461960	7935.471833
717.795088	8000.714446
718.128167	7912.196826
718.461198	7745.735405
718.794180	7686.048144
719.127113	7679.431629
719.459997	7522.371961
719.792833	7292.654142
720.125619	7351.759150
720.458357	7216.784776
720.791046	7202.692231
721.123686	7196.786519
721.456278	7036.760131
721.788821	7057.852319
722.121315	6949.719569
722.453761	7019.355547
722.786158	6962.153575
723.118506	6974.726212
723.450805	6942.808147
723.783056	7006.800554
724.115259	6916.228663
724.447412	6913.448467
724.779518	6963.728935
725.111574	6962.519058
725.443582	7043.621142
725.775542	7022.959973
726.107453	7214.236473
726.439315	7124.647607
726.771129	7187.354520
727.102895	7358.423555
727.434612	7466.813404
727.766281	7504.521235
728.097901	7583.138029
728.429473	7575.293994
728.760996	7551.744243
729.092471	7524.186776
729.423897	7477.866134
729.755276	7482.128429
730.086606	7405.200422
730.417887	7511.533480
730.749120	7705.542286
731.080305	7902.792553
731.411442	8024.201182
731.742530	8015.379163
732.073570	8127.766647
732.404562	8211.492650
732.735506	8062.962614
733.066401	8196.530506
733.397249	8136.187894
733.728048	7894.567911
734.058798	7558.280099
734.389501	7326.959193
734.720156	7147.355485
735.050762	6921.325270
735.381320	6820.802142
735.711831	6771.459328
736.042293	6656.755434
736.372707	6680.784093
736.703073	6541.726385
737.033391	6579.570327
737.363661	6596.475837
737.693883	6626.579087
738.024056	6708.384411
738.354182	6746.596357
738.684260	6782.108765
739.014290	6905.364977
739.344272	7006.737539
739.674207	7038.274998
740.004093	7111.575895
740.333931	7124.897144
740.663722	7129.285469
740.993464	7210.871503
741.323159	7198.152672
741.652806	6947.156142
741.982405	6966.055428
742.311956	7022.397884
742.641460	6850.313056
742.970915	6655.585886
743.300323	6651.570607
743.629683	6601.239727
743.958996	6470.610828
744.288260	6378.627414
744.617477	6325.841492
744.946647	6327.323592
745.275768	6158.039125
745.604842	6109.928873
745.933869	6093.918168
746.262847	6053.904010
746.591778	6046.851436
746.920662	5998.857130
747.249498	5995.784547
747.578286	6042.145518
747.907027	6117.190655
748.235720	6176.719120
748.564365	6150.840357
748.892963	6183.159194
749.221514	6330.567574
749.550017	6155.717673
749.878473	6038.160486
750.206881	6092.194094
750.535242	6037.280805
750.863555	5964.471420
751.191821	5984.227702
751.520039	5984.943546
751.848210	5885.965531
752.176334	5916.940901
752.504411	5965.809846
752.832440	5887.891252
753.160421	5820.536395
753.488356	5863.305545
753.816243	5898.006327
754.144082	5746.980920
754.471875	5714.546136
754.799620	5762.308548
755.127318	5774.472852
755.454969	5731.607921
755.782572	5691.424884
756.110129	5740.482872
756.437638	5720.698864
756.765100	5658.889277
757.092515	5661.946737
757.419882	5716.630653
757.747203	5692.037384
758.074477	5757.080871
758.401703	5736.429785
758.728882	5694.189957
759.056014	5751.336477
759.383099	5880.160643
759.710138	5887.147682
760.037129	5877.894644
760.364073	5881.506631
760.690970	5960.627540
761.017820	5946.880314
761.344623	5902.792903
761.671379	6007.215363
761.998088	6124.281038
762.324751	6371.436208
762.651366	6979.792572
762.977935	8297.582955
763.304456	9943.602865
763.630931	10832.053298
763.957359	10432.153687
764.283740	9491.000511
764.610074	8639.766396
764.936362	7639.523335
765.262602	7043.442181
765.588796	6502.128122
765.914943	6172.353481
766.241044	6008.740313
766.567097	5804.810516
766.893104	5538.551893
767.219064	5366.288105
767.544978	5299.255882
767.870845	5221.980035
768.196665	5119.626968
768.522438	5050.669024
768.848165	5017.266339
769.173846	4945.913847
769.499479	4900.619080
769.825066	4851.840875
770.150607	4784.145741
770.476101	4766.289974
770.801548	4759.265126
771.126949	4684.194783
771.452303	4628.820229
771.777611	4590.731791
772.102872	4605.882979
772.428087	4571.214964
772.753256	4530.729458
773.078378	4483.014936
773.403453	4411.302002
773.728482	4399.677102
774.053465	4352.408722
774.378401	4341.066126
774.703291	4339.463039
775.028135	4267.495527
775.352932	4218.384606
775.677683	4205.474211
776.002388	4227.514136
776.327046	4236.545363
776.651658	4160.988549
776.976224	4100.298098
777.300743	4108.915951
777.625216	4125.087972
777.949643	4121.788537
778.274024	4078.313626
778.598359	4029.719424
778.922647	4056.301428
779.246889	4048.301117
779.571086	4043.635529
779.895236	4024.900081
780.219339	4014.235520
780.543397	4008.667565
780.867409	4060.888878
781.191374	4072.964962
781.515294	4012.105632
781.839167	4004.130527
782.162995	4021.222559
782.486776	4011.241074
782.810511	4023.148280
783.134201	4017.955891
783.457844	3968.474446
783.781441	3916.182557
784.104993	3919.756735
784.428498	3940.949746
784.751958	3937.375567
785.075372	3916.714398
785.398739	3879.230899
785.722061	3888.660377
786.045337	3933.604784
786.368568	3966.266420
786.691752	3876.286865
787.014891	3930.108744
787.337983	4055.893094
787.661030	4218.424936
787.984031	4380.979462
788.306987	4547.594638
788.629897	4628.696721
788.952760	4588.518725
789.275579	4520.584135
789.598351	4454.003096
789.921078	4308.540602
790.243759	4110.803863
790.566395	4092.748970
790.888984	4089.804936
791.211529	3980.331239
791.534027	3920.822939
791.856480	3908.104108
792.178888	3845.974407
792.501249	3798.494300
792.823566	3807.878407
793.145836	3839.199096
793.468062	3784.731950
793.790241	3739.953901
794.112375	3770.341976
794.434464	3838.934436
794.756507	3861.912015
795.078505	3841.923840
795.400457	3873.806617
795.722364	4012.655118
796.044226	4118.340388
796.366042	4190.716233
796.687812	4171.537164
797.009538	4175.232329
797.331218	4131.386894
797.652852	4107.753965
797.974442	4085.346036
798.295986	4087.017178
798.617484	4002.724045
798.938938	3916.792536
799.260346	3958.893733
799.581709	3954.215542
799.903026	3882.023698
800.224299	3841.863346
800.545526	3837.492666
800.866708	3799.835247
801.187845	3737.415680
801.508936	3772.411370
801.829983	3768.698560
802.150984	3690.646375
802.471940	3681.768903
802.792851	3692.335161
803.113717	3690.472455
803.434538	3692.733412
803.755314	3631.959782
804.076045	3609.791308
804.396731	3633.764515
804.717372	3656.774862
805.037967	3644.509735
805.358518	3634.724855
805.679024	3659.502126
805.999485	3673.057789
806.319901	3677.862009
806.640272	3692.234338
806.960598	3701.583158
807.280879	3678.066175
807.601115	3693.043443
807.921306	3709.142368
808.241453	3749.605190
808.561554	3723.492013
808.881611	3659.018176
809.201623	3697.945966
809.521590	3704.136503
809.841513	3678.807225
810.161390	3706.349569
810.481223	3684.357535
810.801011	3630.434833
811.120755	3622.908391
811.440453	3658.972805
811.760107	3663.701408
812.079716	3617.577370
812.399281	3586.067638
812.718801	3611.139817
813.038276	3584.119232
813.357707	3582.480857
813.677093	3600.220678
813.996434	3545.551885
814.315731	3554.373904
814.634983	3557.756518
814.954191	3575.864343
815.273354	3602.821913
815.592473	3596.807817
815.911547	3604.767798
816.230577	3645.749859
816.549562	3697.945966
816.868502	3736.304105
817.187399	3763.952313
817.506250	3758.999380
817.825058	3734.721183
818.143821	3830.011593
818.462539	3928.664454
818.781213	3973.301350
819.099843	4034.916853
819.418429	4282.187970
819.736970	4522.310731
820.055466	4768.795427
820.373919	5138.133043
820.692327	5545.622112
821.010691	6006.572616
821.329011	7405.477685
821.647286	10181.353763
821.965517	14768.982723
822.283704	18781.854611
822.601847	20915.593553
822.919945	19081.989788
823.237999	16482.181049
823.556010	13998.308768
823.873976	11897.750701
824.191897	9800.580289
824.509775	8449.130122
824.827609	7318.011145
825.145398	6779.424351
825.463144	6661.647873
825.780845	6774.849504
826.098502	6971.736808
826.416116	7861.071964
826.733685	9195.727527
827.051210	10305.159460
827.368692	10328.121916
827.686129	9060.584275
828.003522	7540.540279
828.320872	6527.129724
828.638177	5817.857022
828.955439	5258.087299
829.272656	4757.548613
829.589830	4479.589472
829.906960	4301.941731
830.224046	4115.976087
830.541088	3989.730471
830.858086	3941.234571
831.175041	3864.926625
831.491952	3850.924820
831.808819	3859.525029
832.125642	3931.805092
832.442421	4080.521652
832.759157	4360.721585
833.075849	4915.404784
833.392497	5791.527076
833.709101	6572.852990
834.025662	6902.942702
834.342179	6525.531678
834.658653	5858.657601
834.975083	5214.549374
835.291469	4633.145539
835.607811	4222.490626
835.924110	4078.757248
836.240366	3880.821383
836.556578	3676.757996
836.872746	3570.603899
837.188871	3525.853576
837.504952	3462.082980
837.820990	3377.757079
838.136984	3334.264524
838.452935	3358.575489
838.768842	3354.633306
839.084706	3378.266236
839.400526	3538.973179
839.716303	3881.491857
840.032037	4411.846447
840.347727	4669.325900
840.663373	4386.234865
840.978977	3999.850587
841.294537	3692.173844
841.610054	3467.834937
841.925527	3359.440047
842.240957	3290.041002
842.556344	3234.600913
842.871687	3173.749145
843.186987	3124.388687
843.502244	3084.770259
843.817458	3052.343037
844.132629	3025.100641
844.447756	3029.846888
844.762840	3014.622603
845.077881	2984.015237
845.392879	2965.768781
845.707833	2964.294243
846.022745	2960.692339
846.337613	2961.188893
846.652438	2950.489044
846.967221	2945.871347
847.281960	2932.408945
847.596656	2927.062802
847.911309	2930.173194
848.225919	2925.558017
848.540485	2918.276071
848.855009	2917.681214
849.169490	2909.668300
849.483928	2897.488873
849.798323	2898.739079
850.112675	2897.135992
850.426984	2907.230903
850.741251	2902.600603
851.055474	2890.282543
851.369654	2886.796585
851.683792	2893.468552
851.997887	2901.602454
852.311938	2902.262845
852.625947	2891.174828
852.939914	2895.031310
853.253837	2901.650345
853.567718	2884.676780
853.881555	2883.882798
854.195350	2900.589182
854.509103	2894.943090
854.822812	2884.684342
855.136479	2882.340205
855.450103	2885.798437
855.763685	2876.230327
856.077224	2871.910058
856.390720	2886.980588
856.704173	2896.271434
857.017584	2888.888664
857.330953	2888.785321
857.644278	2897.080539
857.957561	2906.353742
858.270802	2907.896335
858.584000	2907.820718
858.897155	2895.933677
859.210268	2892.195661
859.523339	2892.301525
859.836367	2891.638614
860.149352	2885.150649
860.462295	2879.673435
860.775195	2888.341699
861.088054	2888.634086
861.400869	2873.263608
861.713642	2869.984337
862.026373	2884.482696
862.339062	2889.186092
862.651708	2892.639283
862.964312	2896.682288
863.276873	2889.531411
863.589392	2899.659089
863.901869	2913.267684
864.214303	2932.711415
864.526696	2948.689352
864.839045	2945.095009
865.151353	2943.378496
865.463619	2943.048301
865.775842	2944.830348
866.088023	2962.330714
866.400162	2970.527630
866.712258	2938.665017
867.024313	2931.478853
867.336325	2937.944132
867.648296	2961.304839
867.960224	2955.094138
868.272110	2937.901283
868.583954	2945.457972
868.895755	2958.232256
869.207515	2943.658280
869.519233	2948.510391
869.830909	2959.081690
870.142542	2971.641725
870.454134	2971.929071
870.765684	2970.091570
871.077191	2970.845223
871.388657	2982.059270
871.700081	2991.992863
872.011463	3004.194976
872.322803	3004.447034
872.634101	3003.269924
872.945357	3020.661905
873.256571	3050.170299
873.567744	3040.022457
873.878874	3031.790252
874.189963	3057.885785
874.501010	3061.008780
874.812015	3048.095864
875.122979	3049.179713
875.433900	3044.602345
875.744780	3051.453273
876.055618	3058.745302
876.366415	3055.425702
876.677169	3066.612022
876.987882	3061.991805
877.298554	3055.556772
877.609183	3077.206007
877.919771	3103.989658
878.230317	3127.761219
878.540822	3181.036132
878.851285	3220.518449
879.161707	3263.159049
879.472087	3367.248794
879.782425	3601.105400
880.092722	4037.480280
880.402977	4571.008277
880.713191	5208.860432
881.023363	6369.601228
881.333494	7660.708784
881.643583	8203.164664
881.953631	7897.012870
882.263637	7262.818072
882.573602	6662.182236
882.883526	6089.071099
883.193408	5520.290313
883.503248	5059.407864
883.813048	4751.524434
884.122806	4442.935243
884.432522	4127.054022
884.742197	3891.932086
885.051831	3699.551573
885.361424	3563.049730
885.670975	3490.366374
885.980485	3403.088877
886.289954	3327.325376
886.599382	3280.707306
886.908768	3240.539392
887.218113	3198.791076
887.527417	3141.677324
887.836680	3093.985488
888.145901	3087.971391
888.455082	3074.700554
888.764221	3024.876310
889.073319	2994.977226
889.382376	2992.154180
889.691392	2996.076198
890.000366	2996.338338
890.309300	2982.649085
890.618193	2996.061074
890.927044	3012.437263
891.235855	3012.969104
891.544625	3001.029132
891.853353	3010.183867
892.162041	3028.367309
892.470687	3069.969431
892.779293	3119.307204
893.087858	3168.526509
893.396381	3242.457551
893.704864	3364.619832
894.013306	3607.278293
894.321707	3907.796597
894.630068	4115.146817
894.938387	4110.274542
895.246665	4068.795928
895.554903	3942.701547
895.863100	3738.933067
896.171256	3572.895103
896.479371	3433.439144
896.787446	3308.337870
897.095480	3206.579659
897.403473	3138.904689
897.711425	3104.410594
898.019336	3095.366764
898.327207	3065.356775
898.635038	3028.891589
898.942827	3014.481451
899.250576	3005.598938
899.558284	2971.475367
899.865952	2954.111113
900.173579	2931.002463
900.481165	2923.622214
900.788711	2910.852972
901.096216	2888.482851
901.403681	2875.569936
901.711105	2880.006151
902.018489	2880.096892
902.325832	2880.321223
902.633135	2890.214488
902.940397	2925.056423
903.247619	3010.325019
903.554800	3205.009340
903.861941	3553.045560
904.169041	3985.843741
904.476101	4283.168474
904.783121	4234.654930
905.090100	3986.410871
905.397039	3706.692367
905.703938	3459.360757
906.010796	3274.879732
906.317614	3160.044768
906.624391	3067.494224
906.931129	2993.041423
907.237826	2931.125972
907.544483	2883.403889
907.851099	2855.382635
908.157675	2834.600478
908.464211	2812.888229
908.770707	2799.123358
909.077163	2785.597942
909.383578	2770.542537
909.689954	2759.515012
909.996289	2761.229005
910.302584	2760.530805
910.608839	2761.496186
910.915054	2754.572161
911.221229	2748.429515
911.527363	2749.117633
911.833458	2757.105341
912.139513	2761.438213
912.445527	2765.002308
912.751502	2775.394647
913.057436	2783.155503
913.363331	2795.619756
913.669186	2818.037767
913.975000	2853.141842
914.280775	2914.021337
914.586510	2984.655464
914.892205	3064.827454
915.197859	3193.848225
915.503475	3390.296949
915.809050	3606.806945
916.114585	3751.964450
916.420081	3772.759209
916.725536	3711.756207
917.030952	3587.562340
917.336328	3459.239769
917.641665	3328.832681
917.946961	3225.604974
918.252218	3156.778100
918.557435	3079.340936
918.862612	3018.242151
919.167750	2967.807928
919.472848	2931.708225
919.777906	2903.749986
920.082925	2876.338712
920.387904	2844.970132
920.692843	2830.567555
920.997743	2818.519198
921.302603	2804.300623
921.607423	2792.590023
921.912204	2780.244237
922.216946	2771.086981
922.521647	2762.930394
922.826310	2751.668457
923.130932	2746.627303
923.435516	2736.749162
923.740059	2729.638614
924.044564	2722.182748
924.349028	2715.697303
924.653454	2709.446272
924.957840	2702.323122
925.262186	2701.372865
925.566493	2698.645600
925.870761	2691.212419
926.174989	2687.996163
926.479178	2682.077848
926.783328	2677.535769
927.087438	2675.405881
927.391509	2675.365552
927.695541	2669.837927
927.999533	2666.495642
928.303486	2666.561177
928.607400	2665.084119
928.911275	2665.235353
929.215110	2664.322904
929.518906	2662.240908
929.822663	2662.671927
930.126381	2661.948521
930.430060	2663.206289
930.733699	2662.767708
931.037299	2666.241063
931.340861	2665.527740
931.644383	2667.282062
931.947866	2666.253666
932.251309	2664.292657
932.554714	2662.087153
932.858080	2659.599343
933.161407	2658.868376
933.464694	2659.213695
933.767943	2652.985349
934.071153	2658.157573
934.374323	2660.458860
934.677455	2655.516009
934.980548	2654.578354
935.283602	2655.362253
935.586617	2654.797644
935.889593	2651.934269
936.192530	2652.156080
936.495428	2656.493993
936.798287	2657.736637
937.101108	2661.882986
937.403890	2664.012873
937.706632	2668.194511
938.009336	2674.833710
938.312002	2683.585153
938.614628	2692.417255
938.917216	2698.000333
939.219765	2700.049562
939.522275	2698.585107
939.824747	2694.773994
940.127179	2694.043027
940.429573	2689.949610
940.731929	2688.482634
941.034246	2683.133970
941.336524	2683.678415
941.638763	2678.047446
941.940964	2678.748166
942.243126	2676.381344
942.545250	2674.153154
942.847335	2671.161230
943.149381	2666.838440
943.451389	2664.501865
943.753359	2660.531957
944.055290	2660.516833
944.357182	2657.940804
944.659036	2661.855260
944.960851	2657.865186
945.262628	2654.656492
945.564367	2656.463746
945.866067	2658.850732
946.167729	2658.142450
946.469352	2659.198572
946.770937	2657.628252
947.072484	2652.554331
947.373992	2655.039620
947.675462	2651.062149
947.976893	2649.398568
948.278286	2646.378917
948.579641	2648.218938
948.880958	2645.574853
949.182236	2648.614669
949.483476	2646.121818
949.784678	2648.576860
950.085841	2649.043167
950.386967	2649.431336
950.688054	2647.064514
950.989103	2650.273209
951.290114	2650.676501
951.591087	2653.033240
951.892021	2655.853766
952.192917	2655.843684
952.493776	2657.870227
952.794596	2660.295022
953.095378	2660.300064
953.396122	2660.295022
953.696828	2657.255207
953.997496	2655.231183
954.298126	2654.099444
954.598718	2652.992911
954.899272	2646.973773
955.199788	2646.625934
955.500266	2646.507467
955.800706	2642.323309
956.101108	2639.719553
956.401472	2637.892135
956.701798	2636.452885
957.002087	2632.225878
957.302337	2633.125724
957.602550	2630.791670
957.902724	2631.210085
958.202861	2630.605147
958.502960	2625.407717
958.803022	2627.499796
959.103045	2626.776391
959.403031	2625.659775
959.702979	2626.602471
960.002889	2624.177676
960.302762	2625.337141
960.602596	2625.233797
960.902393	2623.386215
961.202153	2623.640793
961.501875	2622.937552
961.801559	2622.078035
962.101205	2620.046450
962.400814	2621.901595
962.700385	2621.092490
962.999918	2620.507716
963.299414	2615.358177
963.598873	2618.095524
963.898293	2614.924638
964.197677	2620.840432
964.497022	2620.485031
964.796331	2620.109465
965.095601	2620.048971
965.394835	2620.568210
965.694030	2621.110134
965.993189	2619.534773
966.292309	2618.047633
966.591393	2617.833384
966.890439	2618.203908
967.189447	2618.781121
967.488419	2619.030658
967.787353	2617.591408
968.086249	2620.127109
968.385108	2620.611059
968.683930	2619.489403
968.982714	2618.297170
969.281462	2616.326079
969.580172	2620.041409
969.878844	2619.837242
970.177480	2615.433794
970.476078	2616.981429
970.774639	2621.407562
971.073162	2620.331275
971.371649	2620.016203
971.670098	2619.212139
971.968510	2620.706841
972.266885	2620.288426
972.565223	2621.490741
972.863524	2621.919239
973.161788	2619.363374
973.460014	2618.219032
973.758204	2620.963940
974.056356	2618.574433
974.354471	2621.881430
974.652550	2618.944958
974.950591	2619.113837
975.248595	2619.612911
975.546563	2620.028806
975.844493	2618.239197
976.142386	2617.349433
976.440243	2616.799947
976.738062	2618.259361
977.035845	2618.072838
977.333590	2615.630399
977.631299	2618.594598
977.928971	2614.221397
978.226606	2610.851386
978.524204	2613.281222
978.821765	2613.757611
979.119290	2619.232304
979.416777	2618.710544
979.714228	2615.433794
980.011642	2616.762138
980.309020	2617.495626
980.606360	2618.060236
980.903664	2617.052005
981.200931	2616.714247
981.498162	2619.756584
981.795356	2617.609052
982.092513	2621.001749
982.389633	2625.838736
982.686717	2626.234467
982.983764	2629.720424
983.280775	2635.737042
983.577749	2634.212092
983.874686	2632.601444
984.171587	2632.109931
984.468451	2627.525002
984.765279	2628.669344
985.062070	2624.943931
985.358824	2623.149280
985.655543	2621.795731
985.952224	2619.292798
986.248869	2618.171141
986.545478	2616.767180
986.842050	2616.303393
987.138586	2615.658126
987.435086	2616.961264
987.731549	2616.620986
988.027975	2615.413630
988.324366	2612.005810
988.620719	2614.390276
988.917037	2614.319699
989.213318	2614.024792
989.509563	2614.707868
989.805772	2615.665687
990.101944	2615.025461
990.398080	2612.872888
990.694180	2612.610748
990.990244	2611.859616
991.286271	2615.002776
991.582262	2612.605707
991.878217	2614.851541
992.174136	2614.667539
992.470019	2613.742487
992.765865	2608.023298
993.061676	2609.102105
993.357450	2614.181068
993.653188	2609.782661
993.948890	2613.871037
994.244556	2612.709051
994.540186	2613.906325
994.835780	2613.742487
995.131337	2615.963116
995.426859	2613.026643
995.722345	2616.936058
996.017795	2616.822632
996.313208	2616.626027
996.608586	2620.263220
996.903928	2620.719444
997.199234	2617.644340
997.494504	2617.800616
997.789738	2618.861779
998.084936	2618.445884
998.380099	2612.071345
998.675225	2617.929166
998.970316	2615.459000
999.265371	2617.293980
999.560390	2615.209463
999.855373	2613.838269
1000.150320	2613.818105
1000.445232	2615.254833
1000.740108	2615.295163
1001.034948	2613.031685
1001.329752	2611.461365
1001.624521	2612.756942
1001.919254	2612.661160
1002.213951	2613.513115
1002.508613	2612.308279
1002.803239	2609.548247
1003.097829	2611.479009
1003.392384	2612.779627
1003.686903	2611.045470
1003.981386	2612.499843
1004.275834	2611.103443
1004.570246	2612.613269
1004.864623	2614.622169
1005.158964	2612.361211
1005.453270	2610.221241
1005.747540	2611.826849
1006.041775	2612.303238
1006.335974	2611.426077
1006.630138	2610.402723
1006.924266	2610.778289
1007.218359	2610.314503
1007.512416	2608.514811
1007.806438	2606.798298
1008.100425	2608.199739
1008.394376	2606.213524
1008.688292	2611.337857
1008.982172	2611.105964
1009.276017	2612.590584
1009.569827	2611.799122
1009.863602	2612.353649
1010.157341	2611.373145
1010.451045	2611.410954
1010.744714	2608.270315
1011.038347	2614.080245
1011.331945	2613.006479
1011.625508	2609.223093
1011.919036	2609.681838
1012.212528	2611.436159
1012.505986	2608.648401
1012.799408	2612.613269
1013.092795	2611.320213
1013.386147	2609.298710
1013.679464	2611.496653
1013.972745	2611.920110
1014.265992	2611.335336
1014.559204	2610.291817
1014.852380	2609.601179
1015.145521	2609.671756
1015.438628	2610.070007
1015.731699	2608.766868
1016.024736	2609.142434
1016.317737	2609.182764
1016.610703	2611.930192
1016.903635	2611.337857
1017.196531	2608.802157
1017.489393	2609.109667
1017.782219	2610.599328
1018.075011	2611.010182
1018.367768	2611.839452
1018.660490	2608.713936
1018.953177	2608.713936
1019.245829	2608.713936
