Dividing Wavelength (nm)	Counts (n)	Blue Motor Position (mm): 18.500000	Red Motor Position (mm): 0.000000	
326.493990	2181.594615
326.888308	2181.594615
327.282561	2181.594615
327.676750	2138.202883
328.070874	2137.802112
328.464933	2136.040228
328.858929	2139.284211
329.252859	2145.217649
329.646726	2154.916829
330.040528	2167.716318
330.434265	2177.622186
330.827938	2196.259332
331.221547	2214.205839
331.615091	2230.944991
332.008571	2249.660274
332.401986	2264.950094
332.795338	2288.855245
333.188625	2305.508697
333.581847	2322.661223
333.975006	2340.123780
334.368100	2361.520958
334.761129	2377.594677
335.154095	2395.997409
335.546996	2419.859710
335.939833	2447.767538
336.332606	2464.728500
336.725315	2477.364152
337.117960	2490.176245
337.510540	2501.029849
337.903056	2511.820439
338.295508	2522.958868
338.687896	2529.474560
339.080220	2538.790612
339.472480	2544.895449
339.864676	2550.833928
340.256807	2554.929866
340.648875	2559.585372
341.040879	2561.591751
341.432818	2563.162070
341.824694	2568.893862
342.216506	2572.273956
342.608253	2570.338153
342.999937	2570.111301
343.391557	2568.714901
343.783113	2570.481826
344.174605	2568.389747
344.566033	2567.197514
344.957397	2565.357493
345.348697	2565.670044
345.739934	2561.317008
346.131106	2560.492779
346.522215	2558.995557
346.913260	2556.303580
347.304241	2555.554969
347.695159	2553.359547
348.086012	2551.764021
348.476802	2549.568599
348.867528	2546.465769
349.258191	2543.156251
349.648789	2543.055428
350.039324	2540.570139
350.429796	2543.667928
350.820203	2540.655839
351.210548	2539.564429
351.600828	2540.572660
351.991045	2537.963863
352.381198	2534.508152
352.771288	2536.806918
353.161314	2536.542257
353.551276	2533.313398
353.941175	2533.615868
354.331010	2534.493028
354.720782	2532.726104
355.110490	2533.240302
355.500135	2533.404139
355.889717	2533.570497
356.279235	2535.569315
356.668689	2536.388502
357.058080	2533.484797
357.447408	2536.111239
357.836672	2534.114942
358.225873	2534.974458
358.615010	2533.257946
359.004084	2537.200128
359.393095	2538.291538
359.782043	2537.361445
360.170927	2537.888245
360.559748	2538.417567
360.948505	2537.248019
361.337199	2540.953267
361.725830	2541.124666
362.114398	2539.173740
362.502903	2540.877650
362.891344	2539.216589
363.279722	2539.725746
363.668037	2539.675334
364.056289	2541.558205
364.444478	2542.216076
364.832603	2541.215407
365.220665	2544.230017
365.608665	2542.959646
365.996601	2543.768751
366.384474	2548.978784
366.772284	2546.153217
367.160031	2544.971067
367.547715	2546.135573
367.935336	2549.165307
368.322893	2544.310675
368.710388	2544.857641
369.097820	2545.293700
369.485189	2542.710109
369.872495	2549.734957
370.259738	2547.658002
370.646918	2546.599359
371.034035	2548.762014
371.421090	2547.831921
371.808081	2550.251675
372.195010	2550.907025
372.581875	2550.826367
372.968678	2550.334854
373.355418	2550.977601
373.742096	2551.403579
374.128710	2550.226469
374.515262	2551.350647
374.901751	2553.682180
375.288177	2552.772252
375.674540	2552.142108
376.060841	2550.763352
376.447079	2552.888199
376.833254	2551.085986
377.219367	2552.363919
377.605417	2554.614794
377.991404	2552.192519
378.377329	2555.630586
378.763191	2552.300904
379.148991	2553.044474
379.534727	2551.796789
379.920402	2554.476162
380.306013	2550.801161
380.691563	2555.726368
381.077049	2553.117571
381.462474	2555.373487
381.847835	2554.140925
382.233134	2557.778118
382.618371	2555.156718
383.003545	2555.537325
383.388657	2552.124464
383.773706	2555.834753
384.158693	2557.337017
384.543618	2558.652758
384.928480	2556.832902
385.313280	2556.628735
385.698017	2558.423386
386.082692	2555.575134
386.467305	2556.729558
386.851856	2561.027142
387.236344	2559.136709
387.620770	2556.122099
388.005133	2556.532953
388.389435	2555.801986
388.773674	2555.139074
389.157851	2560.727193
389.541965	2558.977912
389.926018	2559.141750
390.310008	2558.841801
390.693936	2560.122254
391.077802	2560.175187
391.461606	2561.586710
391.845348	2561.120403
392.229027	2562.037893
392.612645	2561.032183
392.996200	2560.810372
393.379694	2561.692574
393.763125	2562.627708
394.146494	2563.015877
394.529801	2564.119889
394.913047	2562.892368
395.296230	2561.800959
395.679351	2561.291802
396.062410	2562.496638
396.445408	2565.390260
396.828343	2564.699622
397.211217	2562.499158
397.594028	2564.833213
397.976778	2562.110990
398.359466	2563.683830
398.742092	2566.829510
399.124656	2566.068295
399.507158	2564.560990
399.889598	2568.157854
400.271977	2564.727348
400.654294	2565.239026
401.036549	2567.449572
401.418742	2564.750034
401.800874	2565.934705
402.182944	2566.247256
402.564952	2565.556618
402.946898	2567.401681
403.328783	2566.458985
403.710606	2569.098029
404.092367	2566.653069
404.474067	2567.361351
404.855705	2567.232802
405.237282	2566.637946
405.618797	2566.897565
406.000250	2572.397464
406.381642	2569.483677
406.762972	2565.947308
407.144240	2562.216854
407.525447	2565.009653
407.906593	2568.518296
408.287677	2568.450241
408.668700	2569.929819
409.049661	2569.806311
409.430560	2571.454768
409.811399	2570.743966
410.192176	2570.912844
410.572891	2570.315468
410.953545	2571.744635
411.334138	2571.522824
411.714669	2570.096177
412.095139	2571.192628
412.475547	2573.199007
412.855894	2571.220355
413.236180	2571.805128
413.616405	2573.992989
413.996568	2570.635581
414.376670	2570.970817
414.756711	2572.195818
415.136691	2572.387382
415.516609	2571.858061
415.896466	2574.918041
416.276262	2575.404512
416.655997	2574.056004
417.035670	2572.581466
417.415283	2574.519790
417.794834	2571.497618
418.174324	2574.106415
418.553753	2575.825449
418.933121	2573.801425
419.312428	2574.096333
419.691674	2575.404512
420.070859	2573.042732
420.449983	2574.550037
420.829045	2572.765468
421.208047	2573.015005
421.586988	2575.780078
421.965867	2575.916189
422.344686	2577.471385
422.723444	2577.781416
423.102141	2574.071127
423.480777	2577.514235
423.859352	2578.772003
424.237866	2577.133628
424.616319	2576.717733
424.994712	2578.303176
425.373044	2576.747980
425.751314	2573.814028
426.129524	2574.716395
426.507673	2574.802094
426.885762	2573.267063
427.263789	2574.577763
427.641756	2575.485171
428.019662	2579.147569
428.397508	2578.769482
428.775292	2579.381983
429.153016	2577.060531
429.530679	2579.913824
429.908282	2577.410892
430.285824	2579.558423
430.663305	2580.365008
431.040726	2579.084555
431.418086	2578.686303
431.795385	2580.317117
432.172624	2579.999524
432.549802	2580.745615
432.926920	2580.415419
433.303977	2578.953485
433.680974	2578.623289
434.057910	2579.024061
434.434786	2579.414750
434.811601	2579.679411
435.188355	2577.020202
435.565050	2577.569688
435.941683	2578.703947
436.318257	2583.982036
436.694770	2581.920204
437.071222	2582.290728
437.447614	2582.386510
437.823946	2580.677559
438.200218	2579.210583
438.576429	2582.358784
438.952580	2580.599421
439.328670	2580.370049
439.704700	2581.146387
440.080670	2583.775348
440.456580	2582.656212
440.832429	2583.997159
441.208218	2584.218970
441.583947	2584.672674
441.959616	2583.777869
442.335224	2583.092272
442.710773	2582.580595
443.086261	2585.065884
443.461689	2584.380287
443.837057	2586.197623
444.212365	2585.181830
444.587612	2582.104206
444.962800	2579.860892
445.337927	2582.404154
445.712995	2580.039853
446.088002	2582.656212
446.462949	2585.814495
446.837837	2585.368353
447.212664	2592.425968
447.587431	2587.730133
447.962139	2585.801892
448.336786	2587.316759
448.711374	2590.626276
449.085901	2588.685432
449.460369	2586.711820
449.834776	2587.054619
450.209124	2589.073601
450.583412	2588.720720
450.957640	2588.052767
451.331808	2590.616194
451.705917	2586.134608
452.079965	2589.663416
452.453954	2587.825915
452.827883	2589.008066
453.201752	2588.143508
453.575562	2591.521081
453.949311	2588.166193
454.323001	2590.374219
454.696632	2589.754157
455.070202	2590.417068
455.443713	2592.383118
455.817164	2593.386308
456.190556	2591.853797
456.563888	2591.720207
456.937160	2593.993767
457.310373	2591.803386
457.683526	2590.099476
458.056619	2592.446133
458.429653	2589.650813
458.802628	2592.410845
459.175542	2593.608119
459.548398	2595.049889
459.921194	2593.925712
460.293930	2595.370002
460.666607	2591.795824
461.039224	2597.061309
461.411782	2599.881835
461.784280	2596.209354
462.156719	2595.922008
462.529099	2599.690271
462.901419	2596.660537
463.273680	2595.385126
463.645882	2592.642738
464.018024	2592.269692
464.390106	2590.638879
464.762130	2597.467122
465.134094	2598.167843
465.505999	2601.295878
465.877845	2602.301589
466.249631	2605.273349
466.621358	2606.573967
466.993026	2604.272680
467.364634	2607.438524
467.736184	2601.265632
468.107674	2600.995930
468.479105	2599.418049
468.850477	2604.277721
469.221790	2605.106991
469.593043	2602.278903
469.964238	2604.907865
470.335373	2603.655138
470.706449	2600.862339
471.077467	2603.370313
471.448425	2604.802001
471.819324	2605.873246
472.190164	2609.770058
472.560945	2609.581015
472.931667	2607.425922
473.302330	2603.347628
473.672934	2602.959459
474.043479	2605.868205
474.413965	2604.600355
474.784393	2603.781167
475.154761	2606.190839
475.525070	2609.606221
475.895321	2605.616147
476.265513	2605.626230
476.635645	2606.226127
477.005719	2608.189656
477.375734	2608.058586
477.745691	2608.209821
478.115588	2609.069338
478.485427	2609.306272
478.855207	2611.453803
479.224928	2613.475306
479.594591	2617.339351
479.964194	2615.879937
480.333739	2618.362705
480.703226	2617.664505
481.072653	2619.156687
481.442022	2620.593415
481.811333	2619.310442
482.180584	2619.691049
482.549777	2618.196347
482.918912	2617.639299
483.287988	2623.915536
483.657005	2620.517798
484.025964	2623.955865
484.394864	2624.485186
484.763706	2622.783797
485.132489	2622.410751
485.501213	2623.771863
485.869879	2623.272789
486.238487	2625.460649
486.607036	2626.695732
486.975527	2628.646659
487.343959	2627.232615
487.712333	2627.456946
488.080648	2630.484159
488.448905	2631.580610
488.817104	2630.632873
489.185244	2632.974489
489.553326	2633.713018
489.921350	2637.004892
490.289315	2642.547640
490.657222	2646.835142
491.025070	2646.966212
491.392861	2649.438898
491.760593	2650.661377
492.128267	2652.927376
492.495883	2647.987045
492.863440	2647.288846
493.230939	2647.127529
493.598380	2650.555513
493.965763	2650.961326
494.333088	2650.442087
494.700354	2654.112047
495.067563	2654.822850
495.434713	2656.947696
495.801805	2660.095897
496.168839	2660.753767
496.535815	2662.044303
496.902733	2668.938081
497.269593	2671.504028
497.636395	2676.504853
498.003139	2681.107426
498.369825	2682.181192
498.736453	2686.193950
499.103023	2691.426668
499.469535	2696.462781
499.835989	2702.446630
500.202385	2704.107691
500.568723	2706.782023
500.935003	2717.378528
501.301226	2720.773745
501.667390	2738.498442
502.033497	2746.448342
502.399546	2753.606780
502.765537	2759.988881
503.131470	2770.643360
503.497345	2779.588887
503.863163	2786.593570
504.228923	2800.192083
504.594625	2817.853765
504.960269	2824.649241
505.325856	2839.634071
505.691385	2852.680577
506.056856	2871.768906
506.422270	2888.717265
506.787625	2900.508524
507.152924	2922.825712
507.518164	2942.355142
507.883347	2956.752677
508.248472	2976.839155
508.613540	3011.020698
508.978550	3031.502907
509.343503	3062.808472
509.708398	3089.589602
510.073236	3119.891978
510.438016	3156.417658
510.802738	3177.333405
511.167403	3220.170610
511.532010	3239.450503
511.896561	3304.004998
512.261053	3339.761903
512.625488	3376.864795
512.989866	3406.151378
513.354186	3440.088426
513.718449	3490.300839
514.082655	3548.594221
514.446803	3592.520315
514.810894	3659.103875
515.174927	3684.544058
515.538904	3739.795104
515.902822	3823.069925
516.266684	3868.483159
516.630488	3918.559461
516.994235	3973.170280
517.357925	4051.456879
517.721558	4134.777070
518.085133	4203.220816
518.448651	4268.244138
518.812112	4317.629802
519.175516	4397.317842
519.538863	4494.944827
519.902152	4545.333680
520.265385	4653.353004
520.628560	4708.263772
520.991678	4798.137463
521.354739	4887.093664
521.717743	4982.242922
522.080690	5037.025141
522.443580	5176.148384
522.806413	5246.117079
523.169189	5370.910843
523.531908	5441.429023
523.894569	5517.444582
524.257174	5616.110045
524.619722	5743.628552
524.982213	5792.053876
525.344647	5918.768319
525.707025	6029.177150
526.069345	6145.184182
526.431608	6251.910451
526.793815	6397.365383
527.155964	6396.102574
527.518057	6542.238062
527.880093	6647.104145
528.242072	6755.922492
528.603995	6830.276990
528.965860	6911.951244
529.327669	7075.367808
529.689421	7154.781104
530.051117	7239.356542
530.412755	7422.297495
530.774337	7469.180226
531.135862	7577.680980
531.497331	7741.069817
531.858743	7765.658045
532.220098	8031.982203
532.581396	8033.918006
532.942638	8207.857978
533.303824	8322.856780
533.664953	8470.365983
534.026025	8537.151189
534.387040	8688.370681
534.747999	8883.332264
535.108902	9028.207464
535.469748	9032.565542
535.830537	9230.387980
536.191270	9369.480977
536.551947	9525.570223
536.912567	9513.242082
537.273131	9748.903421
537.633638	9790.893712
537.994089	10035.452688
538.354483	10005.236012
538.714821	10313.991561
539.075103	10503.337300
539.435328	10562.079345
539.795497	10538.549759
540.155609	10830.543473
540.515665	11063.258257
540.875665	10929.287073
541.235609	11153.104222
541.595496	11318.045735
541.955328	11579.016187
542.315102	11687.511900
542.674821	11680.494614
543.034483	11752.197466
543.394090	11938.803337
543.753640	12000.398675
544.113134	12395.872153
544.472571	12398.980025
544.831953	12709.106768
545.191278	12640.617652
545.550548	12801.175881
545.909761	12973.558137
546.268918	13265.952622
546.628019	13383.605591
546.987064	13449.319552
547.346053	13470.585659
547.704986	13642.698213
548.063863	13884.401376
548.422684	13962.123365
548.781449	13938.525724
549.140158	14260.514303
549.498811	14237.506476
549.857408	14190.444785
550.215949	14575.689762
550.574434	14525.787380
550.932864	14794.175890
551.291237	14981.795033
551.649555	15083.154993
552.007817	15239.685340
552.366022	15321.583926
552.724173	15446.954901
553.082267	15555.889195
553.440305	15961.318952
553.798288	15669.920095
554.156215	16124.438087
554.514086	16296.079293
554.871902	16037.692432
555.229661	16340.781725
555.587365	16395.700055
555.945014	16395.521094
556.302606	16731.624903
556.660143	16762.010458
557.017625	17086.363338
557.375050	16912.788849
557.732421	17266.957633
558.089735	17295.672046
558.446994	17433.219928
558.804197	17595.030884
559.161345	17699.435701
559.518437	17576.040858
559.875474	17903.569664
560.232455	18117.957335
560.589381	18146.127302
560.946251	18198.391465
561.303065	18590.845292
561.659825	18746.780783
562.016528	18571.341068
562.373177	18499.353391
562.729770	18844.453139
563.086307	18913.065763
563.442789	19126.024266
563.799216	19096.326829
564.155587	19193.878197
564.511904	19303.460279
564.868164	19317.129367
565.224370	19459.710842
565.580520	19420.853628
565.936615	19655.075718
566.292654	19459.743610
566.648638	19850.309525
567.004567	19757.353168
567.360441	19822.830195
567.716260	19677.085396
568.072023	20052.560617
568.427732	19920.187479
568.783385	19817.295008
569.138982	20083.359546
569.494525	20219.054805
569.850013	20085.862479
570.205445	20247.098744
570.560823	20119.920515
570.916145	20027.919457
571.271412	20215.631862
571.626625	20106.286714
571.981782	20244.719319
572.336884	20129.949890
572.691931	20317.185906
573.046923	20129.995261
573.401860	20125.107862
573.756743	20190.867193
574.111570	20169.487660
574.466342	20157.315794
574.821059	20304.146961
575.175722	20078.489792
575.530330	20149.249948
575.884882	20220.630166
576.239380	20192.576144
576.593823	20140.422887
576.948211	20157.777059
577.302544	20062.842050
577.656823	19999.139510
578.011047	20131.094232
578.365216	20057.753005
578.719330	19985.104937
579.073389	19927.933212
579.427394	20118.753488
579.781344	19935.832700
580.135239	19886.416789
580.489080	19882.837570
580.842866	19689.544608
581.196597	19908.718854
581.550273	19900.390867
581.903895	19855.290185
582.257463	20173.427322
582.610975	19757.940463
582.964434	20065.193748
583.317837	19827.145423
583.671186	19936.735066
584.024481	19922.992881
584.377721	19746.870089
584.730906	19809.592125
585.084037	19873.387927
585.437113	19799.061155
585.790135	20016.556696
586.143103	19535.562564
586.496016	19547.880623
586.848874	19817.589916
587.201679	19781.223032
587.554428	19467.932964
587.907124	19802.905034
588.259765	19608.384552
588.612352	19713.474965
588.964884	19303.545978
589.317362	19495.079578
589.669786	19553.655265
590.022155	19625.537078
590.374470	19795.943201
590.726731	19642.981990
591.078937	19398.314630
591.431090	19518.848618
591.783188	19266.427963
592.135232	19254.183000
592.487222	19378.734788
592.839157	19424.115255
593.191038	19298.666142
593.542866	19203.312717
593.894639	18942.687583
594.246358	19169.209311
594.598022	19091.845243
594.949633	18855.115179
595.301190	18809.089445
595.652692	18986.643924
596.004141	19239.147759
596.355535	18573.171006
596.706876	18596.718236
597.058162	18481.495103
597.409395	18715.762563
597.760573	18825.470674
598.111698	18601.678731
598.462768	18541.925935
598.813785	18508.850924
599.164748	18338.500254
599.515657	18379.608343
599.866511	18171.176796
600.217312	18537.739257
600.568060	18066.729129
600.918753	18384.029435
601.269392	18288.348335
601.619978	18060.803253
601.970510	18290.969735
602.320988	18224.948263
602.671412	18453.055434
603.021783	18349.658848
603.372100	18093.318695
603.722363	18222.064723
604.072572	18161.606165
604.422728	18297.651784
604.772830	18061.619920
605.122878	18009.454060
605.472872	18010.696704
605.822813	18003.384511
606.172701	17951.984906
606.522534	18167.416095
606.872314	18191.013736
607.222041	18026.170526
607.571714	18242.486437
607.921333	18069.474038
608.270899	18136.639851
608.620411	18339.914297
608.969870	18099.189119
609.319276	18109.883927
609.668627	18143.168145
610.017926	18268.206404
610.367171	18384.644455
610.716362	18427.544675
611.065500	18255.172501
611.414585	18390.376247
611.763616	18359.673100
612.112594	18313.957396
612.461518	18280.826933
612.810389	18480.189444
613.159207	18327.071958
613.507971	18226.558912
613.856682	18522.540178
614.205340	18468.226786
614.553945	18604.658053
614.902496	18346.104834
615.250994	18592.922247
615.599439	18529.086116
615.947830	18512.621707
616.296169	18537.928300
616.644454	18526.847844
616.992686	18482.314291
617.340864	18700.225727
617.688990	18471.783320
618.037063	18635.318351
618.385082	18482.226070
618.733048	18771.081665
619.080961	18626.241753
619.428821	18691.718780
619.776628	18567.905521
620.124382	18492.515065
620.472083	18522.336011
620.819731	18552.104024
621.167326	18249.077746
621.514868	18298.970046
621.862357	18041.445222
622.209793	18058.368376
622.557176	17894.044404
622.904506	17727.104074
623.251783	17618.121890
623.599007	17403.023417
623.946179	17343.565528
624.293297	17290.683824
624.640363	17055.317392
624.987376	17066.758291
625.334336	16858.667022
625.681243	16712.418107
626.028097	16706.010801
626.374899	16647.109959
626.721647	16512.659866
627.068343	16334.918863
627.414987	16267.775735
627.761577	16252.342243
628.108115	16299.043492
628.454600	16004.209089
628.801032	16107.409070
629.147412	16037.400046
629.493739	16068.209057
629.840014	15872.272010
630.186236	15975.930736
630.532405	15733.975516
630.878521	15933.582523
631.224585	15823.468600
631.570597	15649.705068
631.916556	15682.762434
632.262462	15661.788714
632.608316	15581.624285
632.954117	15519.615572
633.299866	15517.074831
633.645562	15444.388954
633.991206	15198.771336
634.336797	15068.444906
634.682336	15032.531726
635.027823	14922.921918
635.373257	14811.426718
635.718639	14703.914030
636.063968	14656.716227
636.409245	14414.045163
636.754470	14430.375981
637.099642	14282.821408
637.444762	14058.802614
637.789829	14107.878246
638.134845	13947.249441
638.479808	13971.018481
638.824719	13920.039813
639.169577	13771.623203
639.514383	13823.259741
639.859137	13635.680927
640.203839	13715.668915
640.548489	13557.900965
640.893086	13541.736505
641.237632	13417.136826
641.582125	13565.180391
641.926566	13400.301892
642.270955	13404.760793
642.615292	13376.900856
642.959576	13389.617167
643.303809	13415.659768
643.647990	13352.128626
643.992118	13413.701279
644.336195	13181.357019
644.680219	13385.133061
645.024192	13299.332622
645.368112	13540.282132
645.711981	13612.675622
646.055797	13779.371456
646.399562	13742.951640
646.743274	14014.763094
647.086935	14286.496409
647.430544	14254.061626
647.774101	14285.997335
648.117606	14433.985447
648.461059	14400.497062
648.804460	14392.852153
649.147810	14128.131082
649.491108	14026.965207
649.834354	14044.770562
650.177548	13753.964041
650.520690	13558.130337
650.863781	13474.343840
651.206820	13516.422351
651.549807	13348.599819
651.892742	13165.981500
652.235626	13101.822735
652.578458	13101.837858
652.921238	12776.128908
653.263967	12972.925472
653.606644	12806.577478
653.949269	12777.923559
654.291843	12594.052514
654.634365	12738.421078
654.976836	12592.366248
655.319255	12608.087086
655.661622	12559.263511
656.003938	12483.847850
656.346203	12405.944379
656.688416	12474.942651
657.030577	12424.556319
657.372687	12358.237419
657.714746	12329.853202
658.056753	12518.679702
658.398708	12337.362001
658.740612	12343.474400
659.082465	12435.619131
659.424266	12398.541444
659.766016	12418.867377
660.107715	12332.852689
660.449362	12406.012434
660.790958	12369.121270
661.132503	12307.251189
661.473996	12372.236703
661.815438	12396.212431
662.156829	12393.545661
662.498168	12385.562994
662.839456	12387.647511
663.180693	12398.753173
663.521879	12489.430928
663.863013	12471.257568
664.204097	12449.666306
664.545129	12560.208727
664.886110	12538.541848
665.227040	12616.016821
665.567918	12627.233388
665.908746	12656.451916
666.249522	12645.038744
666.590248	12682.905371
666.930922	12798.430973
667.271545	12786.753140
667.612118	12868.137528
667.952639	12772.988270
668.293109	12774.626645
668.633528	12742.527097
668.973896	12716.275289
669.314213	12805.418012
669.654480	12541.342209
669.994695	12594.518821
670.334859	12616.576389
670.674973	12567.964543
671.015035	12602.360335
671.355047	12556.654714
671.695008	12522.163139
672.034918	12520.083663
672.374777	12568.967732
672.714585	12482.040596
673.054342	12516.713652
673.394049	12463.947895
673.733705	12558.144375
674.073310	12470.798823
674.412864	12493.027791
674.752368	12362.106505
675.091820	12367.765200
675.431223	12362.441742
675.770574	12238.169738
676.109875	12157.312150
676.449125	12123.546502
676.788324	12060.330433
677.127473	11898.849672
677.466571	11888.222920
677.805619	11788.960080
678.144616	11707.616022
678.483562	11676.146619
678.822458	11546.054602
679.161303	11522.598114
679.500098	11521.491580
679.838842	11467.125257
680.177535	11486.500932
680.516179	11542.586289
680.854771	11490.249029
681.193314	11704.548479
681.531805	11851.465347
681.870247	12245.292888
682.208638	12651.725834
682.546978	12983.504334
682.885268	13051.265003
683.223508	12730.819018
683.561697	12567.082341
683.899836	12472.737147
684.237925	12276.598453
684.575963	12196.096267
684.913951	12133.217956
685.251889	12069.283522
685.589776	12162.058397
685.927614	12090.113570
686.265401	12055.306923
686.603137	12098.650764
686.940824	12246.759864
687.278460	12363.495343
687.616046	12407.139132
687.953582	12587.854415
688.291068	12503.871313
688.628504	12734.950243
688.965889	12742.930390
689.303224	12720.540105
689.640510	12613.586985
689.977745	12317.462046
690.314930	12089.082654
690.652065	12004.547545
690.989150	11710.975951
691.326185	11496.341264
691.663170	11284.544747
692.000105	11044.323684
692.336990	10937.733527
692.673825	10691.785713
693.010610	10572.711138
693.347345	10371.349810
693.684030	10164.879272
694.020665	10103.445250
694.357251	9908.642463
694.693786	9870.692657
695.030272	9693.659937
695.366707	9577.804139
695.703093	9509.199076
696.039429	9499.394032
696.375716	9430.325183
696.711952	9296.003639
697.048139	9334.702056
697.384276	9288.951065
697.720363	9303.406573
698.056400	9243.336184
698.392388	9201.492087
698.728326	9156.209922
699.064214	9095.451415
699.400053	9144.637953
699.735842	8961.681877
700.071581	8916.818129
700.407270	8841.132766
700.742910	8760.764170
701.078501	8671.560953
701.414042	8551.062253
701.749533	8482.482396
702.084974	8349.980708
702.420366	8459.943397
702.755709	8340.561312
703.091002	8205.387813
703.426246	8238.626661
703.761440	8195.711318
704.096584	8143.812639
704.431679	8079.454749
704.766725	8064.016215
705.101721	8014.529728
705.436668	8053.465080
705.771565	7950.242414
706.106413	8033.607975
706.441212	8079.525325
706.775961	8024.790997
707.110661	8051.277219
707.445311	8213.577167
707.779913	8107.589428
708.114465	8232.509221
708.448967	8275.941282
708.783421	8405.163699
709.117825	8589.616997
709.452180	8623.710321
709.786485	8711.063435
710.120742	8990.058533
710.454949	8988.994849
710.789107	9093.056867
711.123216	9300.991861
711.457275	9460.448598
711.791286	9628.167786
712.125247	9618.234193
712.459159	9608.270352
712.793023	9863.922387
713.126837	9437.055123
713.460602	9592.063042
713.794318	9411.423377
714.127985	9444.107698
714.461602	9136.128486
714.795171	9085.054036
715.128691	8836.953649
715.462162	8584.568282
715.795584	8525.478397
716.128957	8393.279178
716.462281	8217.365594
716.795556	8269.695292
717.128782	8071.489726
717.461960	7801.062069
717.795088	7864.661266
718.128167	7775.198429
718.461198	7612.469983
718.794180	7551.093935
719.127113	7552.981847
719.459997	7405.477685
719.792833	7170.935482
720.125619	7232.805563
720.458357	7088.038748
720.791046	7080.451812
721.123686	7080.910557
721.456278	6920.576658
721.788821	6933.983607
722.121315	6831.267577
722.453761	6894.264356
722.786158	6842.698393
723.118506	6853.471339
723.450805	6812.184289
723.783056	6888.585496
724.115259	6793.146372
724.447412	6791.061854
724.779518	6839.101530
725.111574	6831.416291
725.443582	6915.633807
725.775542	6894.818883
726.107453	7083.403407
726.439315	7003.415419
726.771129	7050.575413
727.102895	7213.971812
727.434612	7333.303486
727.766281	7363.121911
728.097901	7446.948737
728.429473	7432.944412
728.760996	7407.663025
729.092471	7384.244345
729.423897	7336.219793
729.755276	7350.130857
730.086606	7275.756194
730.417887	7371.167592
730.749120	7550.131074
731.080305	7742.866989
731.411442	7875.671146
731.742530	7872.699385
732.073570	7974.692010
732.404562	8061.840957
732.735506	7909.293121
733.066401	8056.446922
733.397249	7988.565265
733.728048	7752.336796
734.058798	7424.475273
734.389501	7213.394600
734.720156	7027.025663
735.050762	6791.765095
735.381320	6689.016298
735.711831	6645.977447
736.042293	6536.720519
736.372707	6560.328243
736.703073	6425.711791
737.033391	6460.417615
737.363661	6468.997659
737.693883	6487.100442
738.024056	6570.914666
738.354182	6623.443489
738.684260	6662.293141
739.014290	6763.907679
739.344272	6876.590071
739.674207	6902.105871
740.004093	6968.548278
740.333931	6987.631566
740.663722	6994.139696
740.993464	7077.074238
741.323159	7066.787764
741.652806	6818.213509
741.982405	6816.355844
742.311956	6880.625514
742.641460	6730.441979
742.970915	6533.589963
743.300323	6531.644077
743.629683	6473.302804
743.958996	6344.718093
744.288260	6251.418938
744.617477	6201.324992
744.946647	6210.598195
745.275768	6044.610643
745.604842	5996.427294
745.933869	5981.936498
746.262847	5939.752122
746.591778	5925.568836
746.920662	5887.190532
747.249498	5871.704107
747.578286	5921.470378
747.907027	6000.533314
748.235720	6057.626902
748.564365	6024.168764
748.892963	6040.935642
749.221514	6204.364808
749.550017	6057.589093
749.878473	5924.540440
750.206881	5971.662626
750.535242	5919.819400
750.863555	5848.711404
751.191821	5868.951637
751.520039	5872.961875
751.848210	5784.136744
752.176334	5792.295852
752.504411	5845.147308
752.832440	5775.604591
753.160421	5706.283685
753.488356	5751.207927
753.816243	5783.131034
754.144082	5639.077542
754.471875	5605.886585
754.799620	5654.788298
755.127318	5658.556561
755.454969	5612.437565
755.782572	5577.426751
756.110129	5621.630109
756.437638	5613.859170
756.765100	5552.757865
757.092515	5541.594230
757.419882	5590.939564
757.747203	5573.212347
758.074477	5641.489734
758.401703	5632.271984
758.728882	5579.266772
759.056014	5627.392147
759.383099	5763.127735
759.710138	5773.787255
760.037129	5752.558956
760.364073	5759.503146
760.690970	5843.486248
761.017820	5827.926727
761.344623	5784.736641
761.671379	5875.399273
761.998088	5985.719883
762.324751	6220.874587
762.651366	6793.562267
762.977935	8056.943476
763.304456	9663.009721
763.630931	10585.939126
763.957359	10236.846784
764.283740	9316.589191
764.610074	8511.244699
764.936362	7526.233484
765.262602	6931.722650
765.588796	6388.719804
765.914943	6048.905706
766.241044	5887.374534
766.567097	5698.527869
766.893104	5442.175114
767.219064	5259.617289
767.544978	5198.226118
767.870845	5124.620230
768.196665	5018.183829
768.522438	4945.404691
768.848165	4911.366820
769.173846	4846.797201
769.499479	4807.665244
769.825066	4757.838479
770.150607	4687.990772
770.476101	4665.235004
770.801548	4663.402544
771.126949	4592.836473
771.452303	4539.128020
771.777611	4494.861648
772.102872	4511.888145
772.428087	4478.755161
772.753256	4438.466260
773.078378	4395.102254
773.403453	4326.537521
773.728482	4312.397084
774.053465	4268.196248
774.378401	4251.862909
774.703291	4255.326182
775.028135	4186.242209
775.352932	4138.457112
775.677683	4123.832725
776.002388	4144.698061
776.327046	4157.381604
776.651658	4084.988114
776.976224	4017.335829
777.300743	4024.282539
777.625216	4043.532185
777.949643	4044.023698
778.274024	3997.632479
778.598359	3950.200263
778.922647	3971.451247
779.246889	3964.350782
779.571086	3962.740133
779.895236	3948.468627
780.219339	3932.752829
780.543397	3924.855862
780.867409	3974.233964
781.191374	3994.040657
781.515294	3935.291050
781.839167	3925.465842
782.162995	3940.433027
782.486776	3927.991460
782.810511	3936.143005
783.134201	3937.488993
783.457844	3896.741347
783.781441	3834.651976
784.104993	3842.425435
784.428498	3860.674412
784.751958	3860.311449
785.075372	3842.271680
785.398739	3801.390442
785.722061	3813.728667
786.045337	3850.881970
786.368568	3888.373032
786.691752	3801.879434
787.014891	3845.432483
787.337983	3965.185093
787.661030	4121.561685
787.984031	4281.265439
788.306987	4454.779434
788.629897	4533.459242
788.952760	4493.659333
789.275579	4429.026699
789.598351	4366.924725
789.921078	4234.695260
790.243759	4034.243859
790.566395	4009.073378
790.888984	4009.262421
791.211529	3904.567738
791.534027	3843.337884
791.856480	3835.788756
792.178888	3775.907410
792.501249	3720.588308
792.823566	3730.027869
793.145836	3763.685132
793.468062	3716.053790
793.790241	3664.996984
794.112375	3693.088814
794.434464	3756.209101
794.756507	3781.326650
795.078505	3762.908795
795.400457	3791.348464
795.722364	3923.414092
796.044226	4032.998694
796.366042	4098.274075
796.687812	4086.233279
797.009538	4096.093776
797.331218	4048.273390
797.652852	4021.948485
797.974442	4004.402749
798.295986	4009.499356
798.617484	3928.704783
798.938938	3839.279755
799.260346	3877.716032
799.581709	3880.677710
799.903026	3807.853202
800.224299	3769.051441
800.545526	3760.894854
800.866708	3725.720203
801.187845	3661.616890
801.508936	3696.559648
801.829983	3702.278837
802.150984	3620.828915
802.471940	3607.260649
802.792851	3619.369501
803.113717	3617.058132
803.434538	3624.302270
803.755314	3568.884865
804.076045	3537.317160
804.396731	3557.953123
804.717372	3586.544027
805.037967	3569.925864
805.358518	3560.483783
805.679024	3584.640992
805.999485	3595.855038
806.319901	3601.750668
806.640272	3618.651136
806.960598	3633.512458
807.280879	3605.602109
807.601115	3617.053090
807.921306	3632.249649
808.241453	3673.748427
808.561554	3652.744460
808.881611	3587.451435
809.201623	3619.906383
809.521590	3633.517499
809.841513	3606.176801
810.161390	3635.811224
810.481223	3616.405302
810.801011	3559.047054
811.120755	3550.640930
811.440453	3585.956733
811.760107	3592.195161
812.079716	3552.458266
812.399281	3517.162627
812.718801	3539.719270
813.038276	3514.437883
813.357707	3509.812625
813.677093	3527.620501
813.996434	3480.427739
814.315731	3483.452431
814.634983	3487.233297
814.954191	3498.517919
815.273354	3530.693084
815.592473	3527.446581
815.911547	3529.692415
816.230577	3568.025349
816.549562	3617.214407
816.868502	3662.017662
817.187399	3686.474820
817.506250	3682.807381
817.825058	3653.177999
818.143821	3737.738313
818.462539	3841.656659
818.781213	3887.009399
819.099843	3943.223306
819.418429	4170.196217
819.736970	4409.494749
820.055466	4649.219258
820.373919	5001.293443
820.692327	5409.989867
821.010691	5816.334594
821.329011	7113.914991
821.647286	9735.166277
821.965517	14137.847906
822.283704	18135.717320
822.601847	20397.410828
822.919945	18666.606272
823.237999	16170.894841
823.556010	13736.640115
823.873976	11698.577233
824.191897	9635.502665
824.509775	8276.105119
824.827609	7167.167219
825.145398	6610.525532
825.463144	6489.918447
825.780845	6612.322704
826.098502	6776.467714
826.416116	7594.364679
826.733685	8879.538796
827.051210	9995.113375
827.368692	10102.384088
827.686129	8904.893279
828.003522	7405.452479
828.320872	6396.604169
828.638177	5707.929621
828.955439	5160.009130
829.272656	4672.826982
829.589830	4383.815111
829.906960	4210.475036
830.224046	4026.881254
830.541088	3902.689908
830.858086	3858.791541
831.175041	3785.478040
831.491952	3767.876852
831.808819	3776.850106
832.125642	3841.220599
832.442421	3981.846106
832.759157	4243.673555
833.075849	4763.973564
833.392497	5604.331389
833.709101	6365.275918
834.025662	6717.750875
834.342179	6394.592748
834.658653	5750.270273
834.975083	5115.934322
835.291469	4553.213004
835.607811	4135.147595
835.924110	4001.090711
836.240366	3809.121052
836.556578	3601.974999
836.872746	3496.173783
837.188871	3459.489306
837.504952	3396.762229
837.820990	3314.399858
838.136984	3264.961262
838.452935	3288.321969
838.768842	3283.588325
839.084706	3309.706543
839.400526	3453.944037
839.716303	3774.631998
840.032037	4273.416362
840.347727	4557.772727
840.663373	4304.311074
840.978977	3929.516409
841.294537	3627.064822
841.610054	3401.962179
841.925527	3294.242804
842.240957	3225.967937
842.556344	3174.149916
842.871687	3117.326030
843.186987	3070.690316
843.502244	3029.753626
843.817458	2997.752382
844.132629	2964.145529
844.447756	2972.513845
844.762840	2962.645786
845.077881	2933.160077
845.392879	2911.190729
845.707833	2909.754000
846.022745	2905.020357
846.337613	2907.056983
846.652438	2895.603481
846.967221	2892.112482
847.281960	2880.321223
847.596656	2877.425080
847.911309	2875.547251
848.225919	2865.235570
848.540485	2862.278934
848.855009	2865.202803
849.169490	2855.175948
849.483928	2844.932323
849.798323	2844.992817
850.112675	2838.673731
850.426984	2853.492202
850.741251	2850.170082
851.055474	2842.832683
851.369654	2834.507217
851.683792	2838.280521
851.997887	2846.873167
852.311938	2849.665967
852.625947	2838.411591
852.939914	2844.082889
853.253837	2847.213445
853.567718	2830.355827
853.881555	2829.002277
854.195350	2844.362673
854.509103	2842.656242
854.822812	2833.032680
855.136479	2830.287771
855.450103	2830.323059
855.763685	2829.403049
856.077224	2821.097748
856.390720	2834.504697
856.704173	2846.512725
857.017584	2839.296313
857.330953	2834.681137
857.644278	2842.494925
857.957561	2853.645958
858.270802	2856.857173
858.584000	2857.943541
858.897155	2844.276973
859.210268	2843.830831
859.523339	2839.530727
859.836367	2839.548371
860.149352	2832.152998
860.462295	2828.949345
860.775195	2838.565346
861.088054	2835.954028
861.400869	2820.197902
861.713642	2816.999290
862.026373	2830.063440
862.339062	2834.547546
862.651708	2840.604493
862.964312	2843.109946
863.276873	2839.296313
863.589392	2844.284535
863.901869	2854.260978
864.214303	2879.149155
864.526696	2897.085580
864.839045	2891.250445
865.151353	2888.560989
865.463619	2888.447563
865.775842	2888.750033
866.088023	2909.007909
866.400162	2913.073600
866.712258	2886.368087
867.024313	2874.095398
867.336325	2879.985987
867.648296	2904.727970
867.960224	2894.837226
868.272110	2881.604197
868.583954	2887.532594
868.895755	2903.298803
869.207515	2888.533263
869.519233	2893.695404
869.830909	2900.916857
870.142542	2910.474885
870.454134	2911.528486
870.765684	2918.172727
871.077191	2914.762386
871.388657	2920.279929
871.700081	2934.075047
872.011463	2941.977055
872.322803	2948.578446
872.634101	2946.171295
872.945357	2963.714511
873.256571	2986.147645
873.567744	2984.158910
873.878874	2975.956953
874.189963	2997.850684
874.501010	2998.634583
874.812015	2984.945330
875.122979	2989.298367
875.433900	2983.264105
875.744780	2990.566217
876.055618	2996.474449
876.366415	2993.671568
876.677169	3002.896879
876.987882	3003.310254
877.298554	2995.380519
877.609183	3012.563292
877.919771	3037.040614
878.230317	3063.352917
878.540822	3112.728498
878.851285	3151.439518
879.161707	3189.071732
879.472087	3282.791823
879.782425	3494.704287
880.092722	3906.236360
880.402977	4419.627468
880.713191	5019.882698
881.023363	6120.512776
881.333494	7366.181891
881.643583	7937.054755
881.953631	7659.945049
882.263637	7064.294913
882.573602	6507.867475
882.883526	5941.813954
883.193408	5378.863263
883.503248	4920.498870
883.813048	4624.583139
884.122806	4343.422866
884.432522	4033.817882
884.742197	3806.222388
885.051831	3615.331536
885.361424	3477.284579
885.670975	3409.886873
885.980485	3330.213957
886.289954	3257.785179
886.599382	3214.302707
886.908768	3177.348528
887.218113	3133.021663
887.527417	3075.882704
887.836680	3026.118954
888.145901	3023.800023
888.455082	3015.459434
888.764221	2965.746096
889.073319	2936.787188
889.382376	2934.571600
889.691392	2935.055551
890.000366	2937.926488
890.309300	2925.653799
890.618193	2937.286262
890.927044	2955.429374
891.235855	2951.472069
891.544625	2940.484874
891.853353	2946.738425
892.162041	2966.068730
892.470687	3002.279338
892.779293	3053.351267
893.087858	3100.412959
893.396381	3165.862259
893.704864	3275.910648
894.013306	3503.072602
894.321707	3795.671253
894.630068	4004.712780
894.938387	4002.963500
895.246665	3958.117395
895.554903	3845.775282
895.863100	3653.563647
896.171256	3491.601456
896.479371	3357.332844
896.787446	3239.011922
897.095480	3138.491315
897.403473	3076.588466
897.711425	3036.770912
898.019336	3031.243287
898.327207	3004.762106
898.635038	2970.636015
898.942827	2955.192440
899.250576	2947.139197
899.558284	2913.708785
899.865952	2890.615259
900.173579	2876.994062
900.481165	2869.805376
900.788711	2854.354240
901.096216	2832.510920
901.403681	2818.375525
901.711105	2828.551094
902.018489	2824.316525
902.325832	2824.871052
902.633135	2835.349090
902.940397	2861.875641
903.247619	2939.884977
903.554800	3120.184364
903.861941	3442.702264
904.169041	3853.954554
904.476101	4151.349863
904.783121	4128.026965
905.090100	3891.947210
905.397039	3629.187148
905.703938	3383.869478
906.010796	3203.534802
906.317614	3096.354830
906.624391	3007.139010
906.931129	2936.968669
907.237826	2877.959443
907.544483	2830.305415
907.851099	2803.662917
908.157675	2780.060235
908.464211	2761.470980
908.770707	2748.222828
909.077163	2737.016343
909.383578	2721.035885
909.689954	2710.600697
909.996289	2709.257229
910.302584	2709.973073
910.608839	2710.628423
910.915054	2704.919316
911.221229	2698.718697
911.527363	2702.799511
911.833458	2708.367466
912.139513	2710.940975
912.445527	2713.645554
912.751502	2722.986812
913.057436	2732.358317
913.363331	2744.978845
913.669186	2762.864859
913.975000	2795.564304
914.280775	2853.333406
914.586510	2919.803540
914.892205	2993.230467
915.197859	3113.988786
915.503475	3297.491828
915.809050	3496.284688
916.114585	3644.219868
916.420081	3667.439423
916.725536	3615.034108
917.030952	3503.816172
917.336328	3378.074672
917.641665	3253.941299
917.946961	3153.269457
918.252218	3087.172368
918.557435	3014.020185
918.862612	2960.218471
919.167750	2912.004875
919.472848	2872.696478
919.777906	2846.832838
920.082925	2822.433654
920.387904	2791.405352
920.692843	2773.305089
920.997743	2765.425765
921.302603	2751.439084
921.607423	2739.632702
921.912204	2730.356979
922.216946	2722.903633
922.521647	2713.292673
922.826310	2703.966538
923.130932	2699.449664
923.435516	2689.818540
923.740059	2684.870647
924.044564	2674.868998
924.349028	2669.341373
924.653454	2664.169149
924.957840	2658.313849
925.262186	2653.625576
925.566493	2651.551141
925.870761	2645.332878
926.174989	2642.391365
926.479178	2636.578914
926.783328	2634.411218
927.087438	2630.416104
927.391509	2629.513737
927.695541	2629.533902
927.999533	2622.095679
928.303486	2622.284722
928.607400	2620.429578
928.911275	2620.847994
929.215110	2619.065946
929.518906	2616.363887
929.822663	2616.976388
930.126381	2614.551592
930.430060	2616.787344
930.733699	2619.045781
931.037299	2620.805144
931.340861	2618.176182
931.644383	2622.826647
931.947866	2622.884620
932.251309	2620.366563
932.554714	2616.938579
932.858080	2616.769700
933.161407	2614.468413
933.464694	2614.596963
933.767943	2610.422887
934.071153	2610.881632
934.374323	2610.543875
934.677455	2612.998917
934.980548	2609.795264
935.283602	2610.067486
935.586617	2607.176384
935.889593	2610.024636
936.192530	2609.752414
936.495428	2612.290635
936.798287	2613.427415
937.101108	2613.838269
937.403890	2619.693569
937.706632	2622.632562
938.009336	2629.175980
938.312002	2639.462454
938.614628	2647.077117
938.917216	2651.478044
939.219765	2653.280257
939.522275	2654.081800
939.824747	2650.084165
940.127179	2646.331026
940.429573	2643.303813
940.731929	2642.827424
941.034246	2640.263998
941.336524	2638.570170
941.638763	2635.371558
941.940964	2632.397277
942.243126	2629.798562
942.545250	2630.859725
942.847335	2627.920732
943.149381	2621.004269
943.451389	2618.415637
943.753359	2616.663836
944.055290	2618.211470
944.357182	2614.236520
944.659036	2612.469596
944.960851	2612.913217
945.262628	2611.710902
945.564367	2612.930862
945.866067	2612.678804
946.167729	2613.008999
946.469352	2613.800461
946.770937	2611.441201
947.072484	2612.739298
947.373992	2614.501181
947.675462	2607.080602
947.976893	2604.920468
948.278286	2602.041969
948.579641	2605.628750
948.880958	2600.963162
949.182236	2605.873246
949.483476	2602.788060
949.784678	2604.292844
950.085841	2605.507762
950.386967	2603.211517
950.688054	2604.723863
950.989103	2605.681682
951.290114	2606.029522
951.591087	2608.565222
951.892021	2611.751232
952.192917	2613.109823
952.493776	2614.168465
952.794596	2617.863631
953.095378	2614.924638
953.396122	2617.339351
953.696828	2614.581839
953.997496	2613.752570
954.298126	2610.117898
954.598718	2606.730242
954.899272	2604.025663
955.199788	2601.426948
955.500266	2600.973245
955.800706	2600.595158
956.101108	2597.134406
956.401472	2594.502924
956.701798	2591.115268
957.002087	2588.904722
957.302337	2591.211050
957.602550	2588.534197
957.902724	2585.668302
958.202861	2585.819536
958.502960	2585.476738
958.803022	2586.679053
959.103045	2582.903229
959.403031	2582.212591
959.702979	2579.941551
960.002889	2583.762745
960.302762	2580.133115
960.602596	2580.594380
960.902393	2576.611869
961.202153	2577.851993
961.501875	2580.226376
961.801559	2578.797209
962.101205	2582.618403
962.400814	2579.621437
962.700385	2577.176478
962.999918	2576.132959
963.299414	2576.052301
963.598873	2573.506518
963.898293	2572.697413
964.197677	2580.213773
964.497022	2577.219328
964.796331	2576.087589
965.095601	2577.010120
965.394835	2577.010120
965.694030	2578.114132
965.993189	2578.184709
966.292309	2575.094481
966.591393	2576.939544
966.890439	2575.270922
967.189447	2575.664132
967.488419	2575.906107
967.787353	2574.539954
968.086249	2575.570870
968.385108	2574.424008
968.683930	2580.251582
968.982714	2577.627661
969.281462	2576.264029
969.580172	2575.275963
969.878844	2577.673032
970.177480	2576.130438
970.476078	2576.344687
970.774639	2575.291086
971.073162	2574.706312
971.371649	2576.758062
971.670098	2580.296952
971.968510	2577.937692
972.266885	2577.602455
972.565223	2576.886612
972.863524	2574.875191
973.161788	2576.069945
973.460014	2574.562640
973.758204	2575.202866
974.056356	2575.938875
974.354471	2575.772517
974.652550	2577.630182
974.950591	2577.088258
975.248595	2576.846282
975.546563	2576.589183
975.844493	2575.485171
976.142386	2576.352249
976.440243	2574.229923
976.738062	2575.754872
977.035845	2577.017682
977.333590	2576.576581
977.631299	2576.294276
977.928971	2574.245047
978.226606	2570.494428
978.524204	2573.493915
978.821765	2572.357135
979.119290	2574.212279
979.416777	2574.897876
979.714228	2574.154306
980.011642	2575.041549
980.309020	2574.870150
980.606360	2574.955850
980.903664	2576.004410
981.200931	2572.231106
981.498162	2573.614903
981.795356	2577.194122
982.092513	2576.929461
982.389633	2579.941551
982.686717	2580.753177
982.983764	2585.597725
983.280775	2588.519074
983.577749	2591.722727
983.874686	2589.915474
984.171587	2589.166862
984.468451	2585.416244
984.765279	2584.980184
985.062070	2581.547158
985.358824	2582.333578
985.655543	2582.343661
985.952224	2574.686148
986.248869	2576.107753
986.545478	2578.003227
986.842050	2574.630695
987.138586	2574.814697
987.435086	2574.033318
987.731549	2568.798080
988.027975	2572.495767
988.324366	2572.228585
988.620719	2572.894018
988.917037	2570.040725
989.213318	2570.706157
989.509563	2573.380489
989.805772	2572.851168
990.101944	2570.575087
990.398080	2572.906621
990.694180	2570.325550
990.990244	2571.346383
991.286271	2570.791857
991.582262	2571.913513
991.878217	2568.505693
992.174136	2572.248750
992.470019	2570.529717
992.765865	2571.976528
993.061676	2569.309757
993.357450	2569.592062
993.653188	2568.218347
993.948890	2575.401992
994.244556	2570.912844
994.540186	2572.662125
994.835780	2570.832186
995.131337	2573.284707
995.426859	2571.764799
995.722345	2576.175809
996.017795	2575.003741
996.313208	2575.119687
996.608586	2576.306879
996.903928	2576.448031
997.199234	2577.365521
997.494504	2576.039698
997.789738	2575.558267
998.084936	2576.034657
998.380099	2573.183884
998.675225	2571.613565
998.970316	2572.034501
999.265371	2573.103226
999.560390	2572.158009
999.855373	2572.697413
1000.150320	2571.858061
1000.445232	2568.520817
1000.740108	2569.879408
1001.034948	2570.431414
1001.329752	2569.791187
1001.624521	2570.300344
1001.919254	2568.251115
1002.213951	2571.719429
1002.508613	2568.462843
1002.803239	2568.762792
1003.097829	2569.894531
1003.392384	2568.934191
1003.686903	2571.661456
1003.981386	2569.193811
1004.275834	2567.971331
1004.570246	2572.178174
1004.864623	2569.781105
1005.158964	2569.372772
1005.453270	2569.670200
1005.747540	2568.830848
1006.041775	2569.682803
1006.335974	2568.772874
1006.630138	2567.273131
1006.924266	2569.024932
1007.218359	2569.909655
1007.512416	2564.011505
1007.806438	2564.566032
1008.100425	2566.020404
1008.394376	2562.617626
1008.688292	2567.704150
1008.982172	2570.335632
1009.276017	2569.861764
1009.569827	2569.592062
1009.863602	2567.799932
1010.157341	2570.111301
1010.451045	2570.317988
1010.744714	2568.422514
1011.038347	2567.820096
1011.331945	2567.240364
1011.625508	2567.666341
1011.919036	2567.174829
1012.212528	2566.030487
1012.505986	2569.236661
1012.799408	2568.321691
1013.092795	2568.200703
1013.386147	2565.899417
1013.679464	2569.478636
1013.972745	2568.155333
1014.265992	2566.393450
1014.559204	2566.942936
1014.852380	2569.236661
1015.145521	2568.389747
1015.438628	2567.595765
1015.731699	2566.748851
1016.024736	2568.888821
1016.317737	2568.593913
1016.610703	2565.990158
1016.903635	2571.114490
1017.196531	2566.882442
1017.489393	2566.337997
1017.782219	2566.499314
1018.075011	2570.509552
1018.367768	2567.515107
1018.660490	2567.807493
1018.953177	2567.807493
1019.245829	2567.807493
