Dividing Wavelength (nm)	Counts (n)	Blue Motor Position (mm): 25.600000	Red Motor Position (mm): 0.000000	
326.493990	2200.211596
326.888308	2200.211596
327.282561	2200.211596
327.676750	2160.197438
328.070874	2157.616367
328.464933	2161.445123
328.858929	2162.491163
329.252859	2165.639363
329.646726	2171.875270
330.040528	2186.227435
330.434265	2198.525330
330.827938	2220.126674
331.221547	2233.911710
331.615091	2252.697569
332.008571	2270.079468
332.401986	2288.134360
332.795338	2307.119346
333.188625	2326.253045
333.581847	2344.738956
333.975006	2364.817872
334.368100	2383.132384
334.761129	2401.764489
335.154095	2418.974988
335.546996	2445.206632
335.939833	2477.459934
336.332606	2496.129848
336.725315	2506.186949
337.117960	2518.731861
337.510540	2530.729807
337.903056	2543.960315
338.295508	2551.005328
338.687896	2561.705177
339.080220	2567.925961
339.472480	2574.797053
339.864676	2579.518094
340.256807	2583.500605
340.648875	2589.116451
341.040879	2590.981678
341.432818	2593.827409
341.824694	2596.733634
342.216506	2598.349324
342.608253	2598.056937
342.999937	2600.393512
343.391557	2598.810590
343.783113	2597.515013
344.174605	2598.762699
344.566033	2595.934611
344.957397	2597.661207
345.348697	2595.243973
345.739934	2594.712132
346.131106	2590.943869
346.522215	2589.555031
346.913260	2589.287850
347.304241	2585.806933
347.695159	2583.772828
348.086012	2580.685121
348.476802	2582.978846
348.867528	2577.670511
349.258191	2574.585325
349.648789	2571.507700
350.039324	2570.517114
350.429796	2572.616754
350.820203	2571.243040
351.210548	2569.208934
351.600828	2568.029304
351.991045	2568.379664
352.381198	2568.263718
352.771288	2568.167936
353.161314	2564.286248
353.551276	2566.582493
353.941175	2563.542677
354.331010	2564.941598
354.720782	2561.437996
355.110490	2564.059396
355.500135	2562.231977
355.889717	2565.327246
356.279235	2566.330435
356.668689	2564.094684
357.058080	2566.668193
357.447408	2564.281206
357.836672	2567.061403
358.225873	2567.467216
358.615010	2565.140723
359.004084	2564.780281
359.393095	2567.300857
359.782043	2566.509396
360.170927	2566.466547
360.559748	2566.950497
360.948505	2566.393450
361.337199	2571.933678
361.725830	2568.861095
362.114398	2570.189439
362.502903	2570.955694
362.891344	2573.125911
363.279722	2568.853533
363.668037	2568.702298
364.056289	2574.131621
364.444478	2573.012485
364.832603	2573.319995
365.220665	2573.279666
365.608665	2572.460478
365.996601	2575.633885
366.384474	2576.299317
366.772284	2578.280491
367.160031	2575.553226
367.547715	2581.249730
367.935336	2573.589697
368.322893	2575.417115
368.710388	2574.529872
369.097820	2574.736559
369.485189	2572.939388
369.872495	2578.093968
370.259738	2577.662949
370.646918	2580.581777
371.034035	2583.389700
371.421090	2580.143197
371.808081	2579.956674
372.195010	2583.540935
372.581875	2578.008268
372.968678	2581.978177
373.355418	2581.670667
373.742096	2578.913155
374.128710	2580.785944
374.515262	2583.157807
374.901751	2583.949268
375.288177	2581.814339
375.674540	2584.024885
376.060841	2582.215111
376.447079	2583.624114
376.833254	2581.206880
377.219367	2581.065728
377.605417	2587.102510
377.991404	2585.156624
378.377329	2585.375915
378.763191	2584.123188
379.148991	2586.913467
379.534727	2588.599732
379.920402	2585.809454
380.306013	2585.149063
380.691563	2586.898343
381.077049	2583.407344
381.462474	2585.915318
381.847835	2587.785586
382.233134	2586.114444
382.618371	2586.684094
383.003545	2589.005545
383.388657	2587.125195
383.773706	2590.285998
384.158693	2588.652665
384.543618	2588.188878
384.928480	2591.485793
385.313280	2589.121492
385.698017	2588.304825
386.082692	2589.595360
386.467305	2589.466811
386.851856	2589.701225
387.236344	2588.718200
387.620770	2586.674012
388.005133	2584.839032
388.389435	2587.420102
388.773674	2587.099989
389.157851	2591.261462
389.541965	2591.054774
389.926018	2591.621904
390.310008	2592.494024
390.693936	2595.569128
391.077802	2592.259610
391.461606	2593.552666
391.845348	2593.424117
392.229027	2593.333376
392.612645	2594.213057
392.996200	2595.760692
393.379694	2596.068202
393.763125	2595.629622
394.146494	2595.377564
394.529801	2596.481577
394.913047	2597.159612
395.296230	2595.906885
395.679351	2596.587441
396.062410	2598.407297
396.445408	2593.010742
396.828343	2598.737493
397.211217	2598.863522
397.594028	2597.595672
397.976778	2597.262955
398.359466	2599.798656
398.742092	2598.535847
399.124656	2596.882348
399.507158	2599.569283
399.889598	2600.605240
400.271977	2599.029880
400.654294	2602.435179
401.036549	2601.210179
401.418742	2601.545416
401.800874	2600.658173
402.182944	2603.130858
402.564952	2600.786722
402.946898	2601.709253
403.328783	2603.067844
403.710606	2603.342587
404.092367	2603.846702
404.474067	2603.254367
404.855705	2603.798811
405.237282	2603.319902
405.618797	2601.731938
406.000250	2603.612289
406.381642	2604.484408
406.762972	2598.818151
407.144240	2600.501897
407.525447	2602.780498
407.906593	2600.199427
408.287677	2603.486260
408.668700	2606.115222
409.049661	2606.037084
409.430560	2608.040942
409.811399	2607.612444
410.192176	2607.786364
410.572891	2607.481374
410.953545	2606.727722
411.334138	2607.307454
411.714669	2607.740994
412.095139	2606.916765
412.475547	2607.617485
412.855894	2608.383741
413.236180	2608.552619
413.616405	2610.190994
413.996568	2610.874071
414.376670	2607.204111
414.756711	2610.259050
415.136691	2609.911210
415.516609	2612.295676
415.896466	2612.018413
416.276262	2612.220059
416.655997	2612.920779
417.035670	2611.854575
417.415283	2612.300717
417.794834	2612.615789
418.174324	2612.643516
418.553753	2611.857096
418.933121	2614.039915
419.312428	2614.334823
419.691674	2616.021089
420.070859	2613.770214
420.449983	2614.954885
420.829045	2615.242231
421.208047	2614.738115
421.586988	2618.544186
421.965867	2619.461676
422.344686	2617.457818
422.723444	2617.147787
423.102141	2616.124432
423.480777	2618.864300
423.859352	2618.244238
424.237866	2618.597118
424.616319	2618.329937
424.994712	2620.835391
425.373044	2619.713734
425.751314	2617.356995
426.129524	2614.743156
426.507673	2617.813219
426.885762	2616.641151
427.263789	2619.754063
427.641756	2621.135339
428.019662	2620.885802
428.397508	2621.115175
428.775292	2622.272120
429.153016	2621.730196
429.530679	2625.836215
429.908282	2622.720782
430.285824	2623.103910
430.663305	2624.608694
431.040726	2624.964096
431.418086	2622.383025
431.795385	2626.355454
432.172624	2625.218674
432.549802	2628.021556
432.926920	2626.093314
433.303977	2626.930146
433.680974	2629.070116
434.057910	2630.554735
434.434786	2631.358799
434.811601	2630.509365
435.188355	2631.164715
435.565050	2632.339304
435.941683	2629.763274
436.318257	2634.572535
436.694770	2634.975827
437.071222	2634.756537
437.447614	2634.217134
437.823946	2636.309212
438.200218	2637.093112
438.576429	2636.112607
438.952580	2637.856847
439.328670	2638.529841
439.704700	2639.033956
440.080670	2639.953967
440.456580	2638.703761
440.832429	2643.649132
441.208218	2642.779533
441.583947	2643.926396
441.959616	2643.540748
442.335224	2644.695172
442.710773	2647.303969
443.086261	2647.162817
443.461689	2650.079124
443.837057	2653.766728
444.212365	2657.252686
444.587612	2654.979126
444.962800	2659.737975
445.337927	2661.681340
445.712995	2663.123110
446.088002	2671.551919
446.462949	2676.744307
446.837837	2680.482323
447.212664	2687.368539
447.587431	2696.946732
447.962139	2710.293186
448.336786	2742.276787
448.711374	2757.352357
449.085901	2748.137128
449.460369	2754.176431
449.834776	2762.784201
450.209124	2788.420989
450.583412	2817.087510
450.957640	2859.544108
451.331808	2860.786752
451.705917	2863.541743
452.079965	2874.622199
452.453954	2921.497368
452.827883	2938.836417
453.201752	2976.783702
453.575562	2997.407063
453.949311	3046.830535
454.323001	3082.854620
454.696632	3137.125162
455.070202	3195.176569
455.443713	3265.737599
455.817164	3344.722398
456.190556	3404.858322
456.563888	3498.585975
456.937160	3582.206114
457.310373	3589.079728
457.683526	3651.819408
458.056619	3682.762010
458.429653	3765.918363
458.802628	3790.914925
459.175542	3910.034870
459.548398	4102.677523
459.921194	4251.048763
460.293930	4361.550855
460.666607	4603.460705
461.039224	4892.520466
461.411782	5148.074199
461.784280	5244.387963
462.156719	5372.919743
462.529099	5400.693980
462.901419	5315.324560
463.273680	5388.993462
463.645882	5469.132684
464.018024	5527.572260
464.390106	5704.897367
464.762130	6032.337954
465.134094	6345.733885
465.505999	7035.134359
465.877845	8170.739962
466.249631	9226.486127
466.621358	9333.580400
466.993026	9097.911498
467.364634	9098.261859
467.736184	8852.624076
468.107674	8753.547759
468.479105	8978.733580
468.850477	9002.300975
469.221790	9015.952419
469.593043	8926.126619
469.964238	8927.782638
470.335373	8952.960681
470.706449	9295.723855
471.077467	9254.799768
471.448425	10204.381753
471.819324	12192.443952
472.190164	13436.933437
472.560945	12078.468504
472.931667	11117.642225
473.302330	10988.447534
473.672934	10881.741431
474.043479	11294.992538
474.413965	11372.706966
474.784393	11359.541992
475.154761	11896.888663
475.525070	12093.418046
475.895321	12058.082078
476.265513	12582.233529
476.635645	13111.675670
477.005719	13198.401160
477.375734	13496.340914
477.745691	13998.424714
478.115588	14477.220903
478.485427	15029.501992
478.855207	15889.374125
479.224928	17198.871809
479.594591	18957.455643
479.964194	19245.963399
480.333739	19750.391335
480.703226	19636.778851
481.072653	19649.482558
481.442022	20262.658265
481.811333	21106.643201
482.180584	21316.329995
482.549777	20797.640635
482.918912	20754.480796
483.287988	21020.938544
483.657005	20981.143676
484.025964	20922.812485
484.394864	21094.607446
484.763706	21045.481402
485.132489	20764.053947
485.501213	21047.286135
485.869879	21178.114160
486.238487	21092.051581
486.607036	21433.861977
486.975527	21275.385744
487.343959	21699.825692
487.712333	21840.443637
488.080648	21645.718988
488.448905	22199.214995
488.817104	22079.389288
489.185244	22786.282566
489.553326	22908.727152
489.921350	23839.833308
490.289315	25951.723889
490.657222	27738.575993
491.025070	28339.912550
491.392861	28263.198792
491.760593	27592.942100
492.128267	26930.622704
492.495883	26068.625726
492.863440	25335.919220
493.230939	24579.514250
493.598380	24510.740309
493.965763	24184.421379
494.333088	23823.625998
494.700354	23805.331651
495.067563	23764.949488
495.434713	23565.954981
495.801805	23746.529112
496.168839	23643.399707
496.535815	23513.350541
496.902733	23749.727724
497.269593	23450.210089
497.636395	23694.582542
498.003139	23720.915009
498.369825	23505.377956
498.736453	23706.449418
499.103023	23625.173416
499.469535	23676.278113
499.835989	23883.030955
500.202385	23932.968625
500.568723	23463.226348
500.935003	23761.219034
501.301226	23356.437066
501.667390	24185.023797
502.033497	24452.835095
502.399546	24192.706516
502.765537	23805.513133
503.131470	24199.280180
503.497345	24347.948848
503.863163	23558.947777
504.228923	24211.842736
504.594625	24386.909406
504.960269	23899.986876
505.325856	24410.005452
505.691385	23846.333876
506.056856	24440.822026
506.422270	24415.833026
506.787625	24024.465568
507.152924	24426.769809
507.518164	24457.142761
507.883347	24266.264512
508.248472	23958.746566
508.613540	24748.382822
508.978550	24518.047461
509.343503	24513.921277
509.708398	24800.198322
510.073236	24936.390134
510.438016	25150.772763
510.802738	24844.759601
511.167403	25090.004174
511.532010	24781.954386
511.896561	25573.493677
512.261053	25546.374790
512.625488	25385.297322
512.989866	25282.011642
513.354186	25137.340608
513.718449	25227.841923
514.082655	25614.163186
514.446803	25349.512692
514.810894	25800.632946
515.174927	25284.766632
515.538904	25329.204403
515.902822	25812.245244
516.266684	25575.237917
516.630488	25479.309800
516.994235	25470.921320
517.357925	25753.901450
517.721558	25946.100482
518.085133	26024.687029
518.448651	25954.962830
518.812112	25677.643916
519.175516	25857.736617
519.538863	26031.416969
519.902152	25808.287938
520.265385	26120.511802
520.628560	25904.510963
520.991678	25913.015389
521.354739	25988.877193
521.717743	26042.469699
522.080690	25845.799164
522.443580	26172.128176
522.806413	26173.988362
523.169189	26254.482986
523.531908	26326.919326
523.894569	25924.761277
524.257174	25986.976678
524.619722	26199.168925
524.982213	25876.159513
525.344647	25950.851769
525.707025	26058.248511
526.069345	26063.062813
526.431608	26000.794480
526.793815	26203.277466
527.155964	25656.783621
527.518057	25826.184035
527.880093	25739.619861
528.242072	25982.162376
528.603995	25670.649315
528.965860	25491.645504
529.327669	25534.825507
529.689421	25536.531937
530.051117	25362.783529
530.412755	25536.337853
530.774337	25342.238307
531.135862	25207.571443
531.497331	25409.696507
531.858743	24951.904285
532.220098	25455.107221
532.581396	25122.340655
532.942638	25063.049124
533.303824	25149.262937
533.664953	25180.381980
534.026025	24843.932852
534.387040	25075.606638
534.747999	25142.185157
535.108902	25302.819004
535.469748	24791.280520
535.830537	24977.856145
536.191270	25093.767395
536.551947	24984.618853
536.912567	24660.139944
537.273131	24967.045390
537.633638	24692.229409
537.994089	24898.047118
538.354483	24465.652229
538.714821	24942.623521
539.075103	24986.146322
539.435328	24777.308962
539.795497	24311.849146
540.155609	24731.053855
540.515665	25020.259810
540.875665	24248.900258
541.235609	24543.641399
541.595496	24521.329253
541.955328	24865.811459
542.315102	24783.290292
542.674821	24354.262893
543.034483	24225.819335
543.394090	24389.697164
543.753640	24180.703528
544.113134	24812.438243
544.472571	24417.725979
544.831953	24701.923548
545.191278	24306.697086
545.550548	24246.152829
545.909761	24462.975376
546.268918	24690.931312
546.628019	24647.395907
546.987064	24342.572458
547.346053	24117.462253
547.704986	24242.001438
548.063863	24388.194900
548.422684	24398.088164
548.781449	23954.343118
549.140158	24344.026831
549.498811	23919.375154
549.857408	23654.172653
550.215949	24086.665844
550.574434	23768.377473
550.932864	23989.361493
551.291237	24131.272494
551.649555	24005.140304
552.007817	24056.880187
552.366022	23924.917903
552.724173	23982.825637
553.082267	23910.240583
553.440305	24387.915116
553.798288	23653.807169
554.156215	24175.027189
554.514086	24261.563636
554.871902	23634.043326
555.229661	23913.159411
555.587365	23796.565085
555.945014	23635.202791
556.302606	23897.877153
556.660143	23826.096164
557.017625	24097.842083
557.375050	23627.736842
557.732421	24011.383773
558.089735	23817.324556
558.446994	23888.147727
558.804197	23899.709613
559.161345	23855.261759
559.518437	23603.035188
559.875474	23818.027797
560.232455	23978.122240
560.589381	23813.556294
560.946251	23775.601446
561.303065	24113.157108
561.659825	24191.380692
562.016528	23795.501401
562.373177	23535.992883
562.729770	23883.567838
563.086307	23756.901286
563.442789	23939.897691
563.799216	23752.974227
564.155587	23782.568321
564.511904	23757.375155
564.868164	23678.680223
565.224370	23669.890971
565.580520	23570.605446
565.936615	23710.782290
566.292654	23381.763823
566.648638	23694.307799
567.004567	23513.839533
567.360441	23465.986380
567.716260	23192.801212
568.072023	23517.433876
568.427732	23280.892855
568.783385	23067.463004
569.138982	23289.533392
569.494525	23327.127797
569.850013	23086.087547
570.205445	23177.065250
570.560823	22978.345486
570.916145	22742.767326
571.271412	22922.925561
571.626625	22678.535464
571.981782	22788.730046
572.336884	22591.812494
572.691931	22731.548238
573.046923	22466.282723
573.401860	22350.348787
573.756743	22341.047858
574.111570	22264.366867
574.466342	22201.788504
574.821059	22280.014608
575.175722	21981.467395
575.530330	21968.181434
575.884882	21997.170590
576.239380	21909.925861
576.593823	21790.286677
576.948211	21778.389554
577.302544	21621.566819
577.656823	21494.585195
578.011047	21585.202456
578.365216	21465.762398
578.719330	21337.588541
579.073389	21243.175291
579.427394	21383.584029
579.781344	21162.574803
580.135239	21058.694266
580.489080	21020.552896
580.842866	20784.354674
581.196597	20968.535750
581.550273	20954.491096
581.903895	20845.738284
582.257463	21158.919966
582.610975	20683.526556
582.964434	20988.919656
583.317837	20703.363496
583.671186	20796.478649
584.024481	20747.985269
584.377721	20528.190962
584.730906	20585.198850
585.084037	20622.200919
585.437113	20518.990856
585.790135	20715.910928
586.143103	20194.335507
586.496016	20198.144099
586.848874	20450.010227
587.201679	20385.884230
587.554428	20055.262675
587.907124	20386.985722
588.259765	20159.586834
588.612352	20241.475337
588.964884	19810.779317
589.317362	19980.388938
589.669786	20027.559014
590.022155	20086.769887
590.374470	20261.327401
590.726731	20060.911288
591.078937	19807.190015
591.431090	19918.657488
591.783188	19666.143572
592.135232	19644.118771
592.487222	19736.334077
592.839157	19766.351628
593.191038	19636.867071
593.542866	19533.750269
593.894639	19246.275950
594.246358	19472.512852
594.598022	19385.227794
594.949633	19132.424011
595.301190	19093.183670
595.652692	19257.091746
596.004141	19492.921964
596.355535	18821.553698
596.706876	18839.101954
597.058162	18722.336228
597.409395	18953.765519
597.760573	19037.390699
598.111698	18822.100663
598.462768	18752.346217
598.813785	18714.041009
599.164748	18531.112660
599.515657	18560.903358
599.866511	18356.479529
600.217312	18722.573162
600.568060	18248.135050
600.918753	18562.282114
601.269392	18459.228327
601.619978	18240.291015
601.970510	18455.626422
602.320988	18394.842710
602.671412	18606.871120
603.021783	18502.534359
603.372100	18241.999966
603.722363	18381.836533
604.072572	18310.405903
604.422728	18454.799673
604.772830	18212.010142
605.122878	18157.321184
605.472872	18155.186256
605.822813	18148.375657
606.172701	18100.212473
606.522534	18309.329617
606.872314	18327.061876
607.222041	18151.475967
607.571714	18374.428557
607.921333	18205.297846
608.270899	18281.618394
608.620411	18472.514287
608.969870	18229.134942
609.319276	18233.435046
609.668627	18257.889683
610.017926	18397.166682
610.367171	18516.936935
610.716362	18553.235763
611.065500	18380.309063
611.414585	18510.312859
611.763616	18493.125045
612.112594	18451.956462
612.461518	18416.423889
612.810389	18605.724257
613.159207	18453.927553
613.507971	18365.876240
613.856682	18641.397983
614.205340	18563.333195
614.553945	18717.468994
614.902496	18463.402402
615.250994	18699.119194
615.599439	18640.155338
615.947830	18627.219737
616.296169	18667.140635
616.644454	18633.483371
616.992686	18605.759545
617.340864	18820.132092
617.688990	18587.772708
618.037063	18759.481970
618.385082	18600.945243
618.733048	18878.440598
619.080961	18729.509790
619.428821	18789.786867
619.776628	18674.447787
620.124382	18603.503629
620.472083	18638.194329
620.819731	18666.717178
621.167326	18348.080967
621.514868	18403.218587
621.862357	18151.549063
622.209793	18170.730654
622.557176	18012.806427
622.904506	17828.426225
623.251783	17732.488026
623.599007	17503.465887
623.946179	17454.554091
624.293297	17381.023821
624.640363	17148.916495
624.987376	17161.511818
625.334336	16963.943958
625.681243	16803.776418
626.028097	16814.357800
626.374899	16740.139412
626.721647	16605.583454
627.068343	16440.931808
627.414987	16368.694594
627.761577	16350.163313
628.108115	16394.613687
628.454600	16110.350583
628.801032	16206.979420
629.147412	16133.907895
629.493739	16162.450908
629.840014	15965.503109
630.186236	16067.170580
630.532405	15826.697459
630.878521	16027.940320
631.224585	15920.228507
631.570597	15746.336425
631.916556	15771.466577
632.262462	15755.561737
632.608316	15668.758109
632.954117	15614.656446
633.299866	15615.067300
633.645562	15531.099321
633.991206	15295.029648
634.336797	15152.261650
634.682336	15131.519823
635.027823	15018.618141
635.373257	14895.581220
635.718639	14797.263597
636.063968	14747.628396
636.409245	14499.079347
636.754470	14530.054716
637.099642	14365.145971
637.444762	14141.631292
637.789829	14192.367985
638.134845	14027.481925
638.479808	14044.863823
638.824719	13996.267100
639.169577	13844.762783
639.514383	13888.691398
639.859137	13712.918966
640.203839	13800.340135
640.548489	13642.345333
640.893086	13634.705464
641.237632	13504.479857
641.582125	13655.091890
641.926566	13480.753667
642.270955	13487.947393
642.615292	13455.948669
642.959576	13470.552892
643.303809	13499.058096
643.647990	13433.860854
643.992118	13491.856808
644.336195	13256.664296
644.680219	13463.737252
645.024192	13392.914082
645.368112	13632.399136
645.711981	13693.394577
646.055797	13866.306154
646.399562	13831.247450
646.743274	14102.217031
647.086935	14375.256005
647.430544	14341.034132
647.774101	14372.374986
648.117606	14527.919788
648.461059	14490.469056
648.804460	14479.403723
649.147810	14208.766858
649.491108	14105.692906
649.834354	14126.858191
650.177548	13833.231144
650.520690	13633.873674
650.863781	13563.158888
651.206820	13594.724073
651.549807	13428.605451
651.892742	13234.329464
652.235626	13180.220239
652.578458	13179.209488
652.921238	12865.959749
653.263967	13057.982341
653.606644	12888.155950
653.949269	12862.115870
654.291843	12659.879901
654.634365	12817.647852
654.976836	12666.080520
655.319255	12680.369671
655.661622	12632.140952
656.003938	12556.057337
656.346203	12490.013181
656.688416	12553.035166
657.030577	12516.186852
657.372687	12430.267946
657.714746	12408.180130
658.056753	12601.888988
658.398708	12415.855287
658.740612	12415.469639
659.082465	12519.395546
659.424266	12476.543218
659.766016	12507.390038
660.107715	12423.878283
660.449362	12493.282369
660.790958	12445.247735
661.132503	12395.282338
661.473996	12457.167543
661.815438	12476.379380
662.156829	12490.731545
662.498168	12464.020992
662.839456	12468.545427
663.180693	12483.774753
663.521879	12578.823188
663.863013	12549.667675
664.204097	12521.303623
664.545129	12648.633087
664.886110	12615.127058
665.227040	12711.982746
665.567918	12712.607849
665.908746	12748.125299
666.249522	12729.427659
666.590248	12778.155452
666.930922	12894.739697
667.271545	12872.540976
667.612118	12957.870066
667.952639	12862.546888
668.293109	12870.292621
668.633528	12823.573728
668.973896	12800.870892
669.314213	12884.717883
669.654480	12622.590486
669.994695	12686.308150
670.334859	12718.533726
670.674973	12665.662104
671.015035	12698.782485
671.355047	12635.697486
671.695008	12605.952158
672.034918	12618.552522
672.374777	12655.574755
672.714585	12571.606776
673.054342	12603.350922
673.394049	12560.773337
673.733705	12656.933346
674.073310	12563.868605
674.412864	12576.683218
674.752368	12446.976850
675.091820	12459.788943
675.431223	12451.045062
675.770574	12319.470946
676.109875	12243.561252
676.449125	12199.972915
676.788324	12139.413534
677.127473	11987.458033
677.466571	11967.318624
677.805619	11865.981349
678.144616	11784.488577
678.483562	11757.500759
678.822458	11627.920420
679.161303	11611.166146
679.500098	11595.349525
679.838842	11547.695498
680.177535	11572.432440
680.516179	11629.702468
680.854771	11575.152142
681.193314	11795.967284
681.531805	11941.127309
681.870247	12357.093077
682.208638	12762.888318
682.546978	13083.750198
682.885268	13136.422694
683.223508	12830.220489
683.561697	12668.255778
683.899836	12563.626630
684.237925	12377.381201
684.575963	12287.386522
684.913951	12216.727190
685.251889	12160.331802
685.589776	12257.527768
685.927614	12176.287053
686.265401	12137.260961
686.603137	12198.183305
686.940824	12340.026251
687.278460	12463.244654
687.616046	12511.042354
687.953582	12685.839323
688.291068	12605.563989
688.628504	12836.098475
688.965889	12850.387625
689.303224	12824.173625
689.640510	12710.803116
689.977745	12410.347827
690.314930	12182.283506
690.652065	12088.699526
690.989150	11804.751494
691.326185	11573.884292
691.663170	11372.114630
692.000105	11123.568102
692.336990	11026.160406
692.673825	10760.108471
693.010610	10647.723508
693.347345	10438.601323
693.684030	10246.238454
694.020665	10179.123052
694.357251	9989.936110
694.693786	9933.918808
695.030272	9769.075598
695.366707	9645.723605
695.703093	9577.695754
696.039429	9573.930012
696.375716	9501.773457
696.711952	9371.182366
697.048139	9411.156196
697.384276	9365.579124
697.720363	9382.000682
698.056400	9323.069594
698.392388	9273.699054
698.728326	9231.776818
699.064214	9164.479935
699.400053	9217.354077
699.735842	9029.923977
700.071581	8986.189447
700.407270	8906.750945
700.742910	8838.118156
701.078501	8743.205832
701.414042	8621.870300
701.749533	8551.664671
702.084974	8415.878671
702.420366	8525.836319
702.755709	8411.021519
703.091002	8286.336141
703.426246	8302.944222
703.761440	8261.221112
704.096584	8213.413330
704.431679	8149.932600
704.766725	8131.368551
705.101721	8086.933300
705.436668	8131.565156
705.771565	8020.178341
706.106413	8097.376051
706.441212	8145.864389
706.775961	8101.134231
707.110661	8133.690002
707.445311	8283.750029
707.779913	8181.452414
708.114465	8308.970922
708.448967	8347.752518
708.783421	8478.106674
709.117825	8665.627515
709.452180	8701.152526
709.786485	8786.227038
710.120742	9068.793794
710.454949	9073.371162
710.789107	9168.343979
711.123216	9383.913800
711.457275	9540.698726
711.791286	9711.261125
712.125247	9701.400628
712.459159	9690.168937
712.793023	9947.721488
713.126837	9519.046970
713.460602	9669.263272
713.794318	9499.346141
714.127985	9531.208754
714.461602	9212.161689
714.795171	9156.741764
715.128691	8916.739991
715.462162	8655.600660
715.795584	8606.761962
716.128957	8460.485321
716.462281	8287.324207
716.795556	8335.129469
717.128782	8134.546998
717.461960	7861.059361
717.795088	7939.081299
718.128167	7850.631734
718.461198	7677.861310
718.794180	7621.980119
719.127113	7612.268337
719.459997	7464.219730
719.792833	7232.513176
720.125619	7300.528424
720.458357	7148.184755
720.791046	7143.551934
721.123686	7140.123950
721.456278	6982.343396
721.788821	7001.915676
722.121315	6893.114973
722.453761	6960.197607
722.786158	6907.492344
723.118506	6915.278406
723.450805	6879.491255
723.783056	6949.780063
724.115259	6861.670776
724.447412	6856.173398
724.779518	6899.297948
725.111574	6903.179637
725.443582	6981.995556
725.775542	6955.685774
726.107453	7147.410937
726.439315	7067.952271
726.771129	7123.349510
727.102895	7292.379399
727.434612	7398.629278
727.766281	7432.515914
728.097901	7518.714603
728.429473	7509.958119
728.760996	7488.737382
729.092471	7457.877959
729.423897	7411.905156
729.755276	7419.005622
730.086606	7347.716144
730.417887	7438.532531
730.749120	7631.296172
731.080305	7825.869587
731.411442	7947.313503
731.742530	7943.509953
732.073570	8052.608084
732.404562	8141.256774
732.735506	7990.455698
733.066401	8127.925443
733.397249	8061.316677
733.728048	7828.468302
734.058798	7492.581262
734.389501	7267.680265
734.720156	7091.181908
735.050762	6860.276897
735.381320	6757.991885
735.711831	6711.036058
736.042293	6605.239882
736.372707	6623.143540
736.703073	6484.781511
737.033391	6519.414238
737.363661	6532.632144
737.693883	6558.243726
738.024056	6648.578682
738.354182	6688.970927
738.684260	6724.311936
739.014290	6835.678587
739.344272	6946.389887
739.674207	6977.022458
740.004093	7038.950512
740.333931	7063.178298
740.663722	7064.867084
740.993464	7141.192674
741.323159	7138.351984
741.652806	6888.804786
741.982405	6896.074130
742.311956	6956.023532
742.641460	6795.200642
742.970915	6599.104798
743.300323	6589.750937
743.629683	6541.358381
743.958996	6407.999697
744.288260	6315.814637
744.617477	6265.103150
744.946647	6274.152021
745.275768	6109.031548
745.604842	6063.088992
745.933869	6043.554521
746.262847	5996.233210
746.591778	5986.372713
746.920662	5948.548936
747.249498	5936.172903
747.578286	5988.195090
747.907027	6058.723353
748.235720	6119.423886
748.564365	6091.185863
748.892963	6115.711077
749.221514	6273.380725
749.550017	6110.044820
749.878473	5981.389532
750.206881	6039.665271
750.535242	5982.329708
750.863555	5909.079222
751.191821	5925.462972
751.520039	5930.156286
751.848210	5833.698848
752.176334	5857.306572
752.504411	5909.658954
752.832440	5832.786399
753.160421	5761.549854
753.488356	5810.481814
753.816243	5843.019942
754.144082	5695.919072
754.471875	5665.883878
754.799620	5713.459767
755.127318	5717.918668
755.454969	5673.576678
755.782572	5638.545700
756.110129	5681.317370
756.437638	5666.685421
756.765100	5605.314414
757.092515	5607.179641
757.419882	5655.511704
757.747203	5638.608715
758.074477	5700.506522
758.401703	5689.607548
758.728882	5640.448736
759.056014	5691.936561
759.383099	5825.945553
759.710138	5832.332695
760.037129	5820.052445
760.364073	5822.452034
760.690970	5909.333800
761.017820	5889.237240
761.344623	5838.734961
761.671379	5945.075581
761.998088	6057.609258
762.324751	6297.570702
762.651366	6890.002060
762.977935	8182.672374
763.304456	9803.952821
763.630931	10723.658408
763.957359	10343.111787
764.283740	9405.747038
764.610074	8583.060977
764.936362	7587.947290
765.262602	6989.106104
765.588796	6453.097859
765.914943	6112.867866
766.241044	5950.451971
766.567097	5751.084419
766.893104	5496.649822
767.219064	5317.136855
767.544978	5254.187967
767.870845	5175.770298
768.196665	5069.621242
768.522438	4999.367722
768.848165	4963.197443
769.173846	4897.780910
769.499479	4856.083006
769.825066	4805.018638
770.150607	4745.636367
770.476101	4715.810380
770.801548	4710.479360
771.126949	4642.743896
771.452303	4586.895473
771.777611	4544.567425
772.102872	4565.478131
772.428087	4523.717213
772.753256	4483.123321
773.078378	4438.708235
773.403453	4372.777505
773.728482	4358.548848
774.053465	4311.787105
774.378401	4299.413593
774.703291	4300.562976
775.028135	4226.513467
775.352932	4177.679810
775.677683	4166.059950
776.002388	4185.854041
776.327046	4198.915670
776.651658	4124.949340
776.976224	4063.963982
777.300743	4067.749888
777.625216	4087.622117
777.949643	4084.214297
778.274024	4037.780229
778.598359	3996.014269
778.922647	4017.958412
779.246889	4012.536651
779.571086	4002.940814
779.895236	3986.945233
780.219339	3975.912668
780.543397	3966.266420
780.867409	4017.671066
781.191374	4036.890465
781.515294	3971.027790
781.839167	3965.444712
782.162995	3983.245026
782.486776	3973.916371
782.810511	3983.343329
783.134201	3980.699244
783.457844	3935.742234
783.781441	3876.304509
784.104993	3884.350191
784.428498	3902.654620
784.751958	3903.388108
785.075372	3875.583624
785.398739	3841.107173
785.722061	3852.999255
786.045337	3893.938465
786.368568	3929.017334
786.691752	3842.927030
787.014891	3891.135584
787.337983	4012.637474
787.661030	4172.815096
787.984031	4333.577492
788.306987	4506.519316
788.629897	4583.964042
788.952760	4543.375192
789.275579	4476.824399
789.598351	4415.082868
789.921078	4277.003143
790.243759	4074.729366
790.566395	4051.507291
790.888984	4050.708268
791.211529	3944.024849
791.534027	3879.079664
791.856480	3875.112276
792.178888	3814.086588
792.501249	3763.549021
792.823566	3774.016977
793.145836	3802.910350
793.468062	3750.026126
793.790241	3705.505176
794.112375	3734.083477
794.434464	3797.957417
794.756507	3824.970440
795.078505	3802.552428
795.400457	3835.365299
795.722364	3974.095332
796.044226	4077.900252
796.366042	4151.952281
796.687812	4136.576762
797.009538	4136.969972
797.331218	4096.570165
797.652852	4068.672419
797.974442	4047.262639
798.295986	4048.926220
798.617484	3968.855053
798.938938	3880.087895
799.260346	3919.030809
799.581709	3917.972166
799.903026	3845.739993
800.224299	3807.638953
800.545526	3801.027479
800.866708	3766.082201
801.187845	3704.764126
801.508936	3739.487594
801.829983	3737.501379
802.150984	3658.884585
802.471940	3649.182884
802.792851	3657.747805
803.113717	3659.187054
803.434538	3661.735357
803.755314	3606.869960
804.076045	3579.761155
804.396731	3597.619442
804.717372	3626.258237
805.037967	3609.854323
805.358518	3599.998867
805.679024	3627.198413
805.999485	3636.955566
806.319901	3645.827997
806.640272	3652.772186
806.960598	3672.825896
807.280879	3644.706340
807.601115	3656.656395
807.921306	3672.422604
808.241453	3713.444993
808.561554	3691.115202
808.881611	3627.092548
809.201623	3658.541787
809.521590	3673.062830
809.841513	3645.074344
810.161390	3672.994775
810.481223	3652.517608
810.801011	3598.100872
811.120755	3587.680807
811.440453	3626.900984
811.760107	3626.948875
812.079716	3585.956733
812.399281	3555.545972
812.718801	3576.166812
813.038276	3550.741753
813.357707	3549.441135
813.677093	3569.157088
813.996434	3511.110722
814.315731	3521.555992
814.634983	3522.967516
814.954191	3538.723642
815.273354	3569.144485
815.592473	3566.654155
815.911547	3567.962334
816.230577	3609.929940
816.549562	3659.988598
816.868502	3699.380174
817.187399	3724.691807
817.506250	3722.269533
817.825058	3694.752395
818.143821	3782.949902
818.462539	3888.582239
818.781213	3934.118982
819.099843	3991.600739
819.418429	4229.596133
819.736970	4469.620591
820.055466	4714.287951
820.373919	5074.309515
820.692327	5484.546012
821.010691	5913.578451
821.329011	7260.625171
821.647286	9964.735382
821.965517	14474.017250
822.283704	18483.516606
822.601847	20686.601660
822.919945	18913.254807
823.237999	16348.802201
823.556010	13883.234349
823.873976	11805.858028
824.191897	9727.541532
824.509775	8377.765028
824.827609	7258.596106
825.145398	6699.020468
825.463144	6588.974600
825.780845	6696.323450
826.098502	6881.646348
826.416116	7741.331957
826.733685	9050.872492
827.051210	10165.922791
827.368692	10223.028981
827.686129	8990.071135
828.003522	7477.866134
828.320872	6471.487989
828.638177	5767.700062
828.955439	5214.055341
829.272656	4716.460689
829.589830	4436.303605
829.906960	4261.204167
830.224046	4077.423862
830.541088	3950.774954
830.858086	3902.856267
831.175041	3829.010924
831.491952	3809.529385
831.808819	3824.552024
832.125642	3894.631624
832.442421	4036.101524
832.759157	4308.621260
833.075849	4847.452551
833.392497	5706.747471
833.709101	6476.539225
834.025662	6820.217368
834.342179	6468.871630
834.658653	5806.552235
834.975083	5168.823588
835.291469	4594.452163
835.607811	4185.236499
835.924110	4044.351373
836.240366	3850.448431
836.556578	3645.860764
836.872746	3535.882952
837.188871	3497.078670
837.504952	3433.121551
837.820990	3346.401102
838.136984	3300.090542
838.452935	3328.706652
838.768842	3322.644665
839.084706	3342.431193
839.400526	3498.427179
839.716303	3832.091069
840.032037	4348.990820
840.347727	4618.390082
840.663373	4346.230788
840.978977	3969.323880
841.294537	3664.543280
841.610054	3436.471398
841.925527	3327.683298
842.240957	3258.448091
842.556344	3207.605534
842.871687	3149.826349
843.186987	3098.938422
843.502244	3061.873338
843.817458	3028.924356
844.132629	2995.100735
844.447756	3006.360152
844.762840	2989.918428
845.077881	2959.484983
845.392879	2942.070317
845.707833	2937.724842
846.022745	2935.080757
846.337613	2936.784667
846.652438	2925.983995
846.967221	2923.060126
847.281960	2908.458423
847.596656	2905.743762
847.911309	2903.550860
848.225919	2898.502145
848.540485	2893.972668
848.855009	2893.307236
849.169490	2883.287942
849.483928	2873.450131
849.798323	2874.612117
850.112675	2870.248998
850.426984	2883.250134
850.741251	2879.577653
851.055474	2867.257073
851.369654	2861.560569
851.683792	2866.503421
851.997887	2874.944833
852.311938	2878.705533
852.625947	2868.514841
852.939914	2869.994420
853.253837	2873.636653
853.567718	2859.493696
853.881555	2860.776670
854.195350	2874.284442
854.509103	2869.737321
854.822812	2862.825899
855.136479	2860.199458
855.450103	2860.280116
855.763685	2854.548324
856.077224	2848.584639
856.390720	2864.600385
856.704173	2874.851571
857.017584	2867.163812
857.330953	2864.066023
857.644278	2870.735469
857.957561	2883.900443
858.270802	2883.804661
858.584000	2882.493961
858.897155	2869.959132
859.210268	2869.918802
859.523339	2866.384953
859.836367	2863.541743
860.149352	2863.599716
860.462295	2860.726258
860.775195	2867.642721
861.088054	2867.168853
861.400869	2849.849969
861.713642	2847.069772
862.026373	2861.298429
862.339062	2863.617360
862.651708	2870.322095
862.964312	2872.862836
863.276873	2865.250694
863.589392	2874.145810
863.901869	2886.380690
864.214303	2908.105543
864.526696	2924.703542
864.839045	2922.230856
865.151353	2919.465783
865.463619	2916.859506
865.775842	2920.065680
866.088023	2938.334822
866.400162	2947.056018
866.712258	2916.095772
867.024313	2905.461458
867.336325	2913.658374
867.648296	2935.723504
867.960224	2927.145981
868.272110	2914.641399
868.583954	2917.991245
868.895755	2929.618667
869.207515	2918.611307
869.519233	2923.685229
869.830909	2937.434976
870.142542	2941.835903
870.454134	2944.001079
870.765684	2946.909824
871.077191	2945.974690
871.388657	2952.513067
871.700081	2964.447999
872.011463	2977.655822
872.322803	2979.513487
872.634101	2979.798312
872.945357	2994.097545
873.256571	3020.064528
873.567744	3013.422808
873.878874	3001.326560
874.189963	3028.160622
874.501010	3032.271682
874.812015	3022.164169
875.122979	3021.753315
875.433900	3014.950278
875.744780	3022.209539
876.055618	3030.507279
876.366415	3028.521064
876.677169	3038.850388
876.987882	3033.176570
877.298554	3029.037782
877.609183	3050.434960
877.919771	3072.573187
878.230317	3099.157712
878.540822	3149.677635
878.851285	3191.032741
879.161707	3229.469018
879.472087	3329.077177
879.782425	3551.933986
880.092722	3982.904748
880.402977	4505.803472
880.713191	5123.879181
881.023363	6258.809270
881.333494	7535.068107
881.643583	8099.614323
881.953631	7805.284035
882.263637	7185.282606
882.573602	6605.151662
882.883526	6030.381986
883.193408	5466.551613
883.503248	5002.528525
883.813048	4700.691959
884.122806	4401.938059
884.432522	4087.433073
884.742197	3855.499667
885.051831	3660.167559
885.361424	3526.728216
885.670975	3454.952268
885.980485	3368.783825
886.289954	3297.191879
886.599382	3250.636823
886.908768	3214.103581
887.218113	3172.322498
887.527417	3113.938375
887.836680	3065.036662
888.145901	3059.440981
888.455082	3049.462017
888.764221	2998.543843
889.073319	2968.685088
889.382376	2966.923205
889.691392	2972.670121
890.000366	2969.461426
890.309300	2956.122533
890.618193	2969.496714
890.927044	2986.563541
891.235855	2986.838283
891.544625	2972.029894
891.853353	2981.721512
892.162041	2998.773215
892.470687	3041.270142
892.779293	3090.595312
893.087858	3138.806387
893.396381	3207.698795
893.704864	3326.337310
894.013306	3559.715007
894.321707	3859.530070
894.630068	4064.168148
894.938387	4064.011873
895.246665	4020.426057
895.554903	3902.518509
895.863100	3704.597768
896.171256	3537.775905
896.479371	3403.179618
896.787446	3280.682100
897.095480	3176.352901
897.403473	3112.693210
897.711425	3075.076120
898.019336	3066.664955
898.327207	3038.880635
898.635038	3000.804800
898.942827	2990.384735
899.250576	2976.347642
899.558284	2945.631892
899.865952	2926.278902
900.173579	2904.455747
900.481165	2899.265879
900.788711	2886.864641
901.096216	2865.931250
901.403681	2850.850638
901.711105	2856.559745
902.018489	2857.847759
902.325832	2857.063860
902.633135	2865.855632
902.940397	2898.436610
903.247619	2976.617344
903.554800	3166.585665
903.861941	3503.135616
904.169041	3928.793003
904.476101	4227.045309
904.783121	4188.898898
905.090100	3946.946198
905.397039	3674.043335
905.703938	3427.684667
906.010796	3244.640371
906.317614	3134.229019
906.624391	3039.717467
906.931129	2971.896303
907.237826	2906.247878
907.544483	2861.633666
907.851099	2830.260045
908.157675	2808.371355
908.464211	2790.805454
908.770707	2778.101747
909.077163	2762.403594
909.383578	2748.784917
909.689954	2738.498442
909.996289	2735.821589
910.302584	2740.149420
910.608839	2734.142885
910.915054	2729.968810
911.221229	2723.047306
911.527363	2726.180383
911.833458	2734.523492
912.139513	2738.896693
912.445527	2740.401478
912.751502	2747.259967
913.057436	2758.446288
913.363331	2772.417846
913.669186	2791.521298
913.975000	2828.026814
914.280775	2889.307080
914.586510	2957.478603
914.892205	3034.010881
915.197859	3157.007473
915.503475	3350.726412
915.809050	3562.192734
916.114585	3706.591544
916.420081	3725.891602
916.725536	3667.484793
917.030952	3554.023544
917.336328	3428.312290
917.641665	3297.816982
917.946961	3198.307126
918.252218	3129.621404
918.557435	3050.954199
918.862612	2992.635610
919.167750	2942.844134
919.472848	2902.557753
919.777906	2879.980945
920.082925	2851.221163
920.387904	2821.211174
920.692843	2803.741055
920.997743	2793.384005
921.302603	2780.864299
921.607423	2772.833741
921.912204	2757.879158
922.216946	2746.196284
922.521647	2738.253946
922.826310	2731.365209
923.130932	2725.346072
923.435516	2715.762838
923.740059	2708.790922
924.044564	2699.159798
924.349028	2694.254755
924.653454	2689.130422
924.957840	2681.987107
925.262186	2678.276818
925.566493	2675.892352
925.870761	2670.452947
926.174989	2665.958759
926.479178	2661.300733
926.783328	2655.720175
927.087438	2656.035247
927.391509	2653.565082
927.695541	2650.447128
927.999533	2645.584936
928.303486	2645.844555
928.607400	2645.723567
928.911275	2644.594349
929.215110	2643.170223
929.518906	2641.511683
929.822663	2642.320788
930.126381	2641.768782
930.430060	2641.836838
930.733699	2643.291211
931.037299	2643.744914
931.340861	2645.325316
931.644383	2646.517549
931.947866	2642.242651
932.251309	2645.375728
932.554714	2642.472023
932.858080	2638.623102
933.161407	2639.414563
933.464694	2637.055303
933.767943	2633.128244
934.071153	2638.537402
934.374323	2635.439613
934.677455	2637.561939
934.980548	2634.559932
935.283602	2636.709984
935.586617	2635.245529
935.889593	2632.573717
936.192530	2630.713532
936.495428	2635.439613
936.798287	2635.076650
937.101108	2637.917341
937.403890	2643.381951
937.706632	2645.002682
938.009336	2655.674805
938.312002	2663.065137
938.614628	2670.722649
938.917216	2679.131294
939.219765	2677.152641
939.522275	2676.923268
939.824747	2675.191632
940.127179	2674.138031
940.429573	2669.008657
940.731929	2666.180570
941.034246	2664.484221
941.336524	2660.300064
941.638763	2655.679846
941.940964	2656.199085
942.243126	2653.867551
942.545250	2652.206491
942.847335	2650.535349
943.149381	2647.399751
943.451389	2643.734832
943.753359	2641.151241
944.055290	2640.800881
944.357182	2636.493215
944.659036	2635.795015
944.960851	2638.315592
945.262628	2633.801238
945.564367	2634.607823
945.866067	2635.250570
946.167729	2635.757206
946.469352	2636.299130
946.770937	2636.442803
947.072484	2633.982720
947.373992	2635.704274
947.675462	2630.640435
947.976893	2625.929477
948.278286	2625.654734
948.579641	2627.981226
948.880958	2626.698253
949.182236	2629.697739
949.483476	2625.309415
949.784678	2626.763788
950.085841	2627.235136
950.386967	2628.470218
950.688054	2628.366875
950.989103	2628.046761
951.290114	2627.018366
951.591087	2632.490538
951.892021	2634.970786
952.192917	2637.166209
952.493776	2638.665952
952.794596	2639.880870
953.095378	2639.449851
953.396122	2636.465488
953.696828	2636.583955
953.997496	2631.804942
954.298126	2632.848460
954.598718	2633.617236
954.899272	2630.027935
955.199788	2622.829167
955.500266	2624.719600
955.800706	2621.959568
956.101108	2620.396810
956.401472	2616.494957
956.701798	2617.969495
957.002087	2613.500512
957.302337	2610.758124
957.602550	2614.917076
957.902724	2608.918103
958.202861	2607.945160
958.502960	2609.379369
958.803022	2608.666045
959.103045	2605.444748
959.403031	2603.050200
959.702979	2603.549274
960.002889	2604.736466
960.302762	2601.482401
960.602596	2605.492639
960.902393	2601.016094
961.202153	2605.144799
961.501875	2602.982144
961.801559	2602.336877
962.101205	2601.734459
962.400814	2601.459716
962.700385	2599.952411
962.999918	2601.999119
963.299414	2596.932760
963.598873	2599.581886
963.898293	2597.010898
964.197677	2598.586258
964.497022	2598.145157
964.796331	2600.988368
965.095601	2597.784715
965.394835	2600.771598
965.694030	2597.888058
965.993189	2599.292020
966.292309	2596.804210
966.591393	2596.297574
966.890439	2597.731783
967.189447	2598.485435
967.488419	2596.970568
967.787353	2600.315374
968.086249	2597.701536
968.385108	2598.790425
968.683930	2599.463419
968.982714	2595.478387
969.281462	2597.998964
969.580172	2598.495517
969.878844	2598.074581
970.177480	2596.801690
970.476078	2599.483584
970.774639	2602.420056
971.073162	2599.173553
971.371649	2600.872422
971.670098	2600.958121
971.968510	2597.046186
972.266885	2598.770260
972.565223	2600.423759
972.863524	2597.701536
973.161788	2595.662389
973.460014	2599.544077
973.758204	2598.767740
974.056356	2597.855291
974.354471	2600.471650
974.652550	2599.357555
974.950591	2597.509972
975.248595	2600.912751
975.546563	2597.716659
975.844493	2600.932915
976.142386	2600.504417
976.440243	2598.447627
976.738062	2599.357555
977.035845	2597.837647
977.333590	2598.225816
977.631299	2597.905702
977.928971	2594.608788
978.226606	2591.309353
978.524204	2593.416555
978.821765	2592.438571
979.119290	2595.674992
979.416777	2596.400918
979.714228	2594.719693
980.011642	2592.793972
980.309020	2595.864035
980.606360	2594.787749
980.903664	2597.152050
981.200931	2595.508634
981.498162	2598.127513
981.795356	2598.253542
982.092513	2600.890066
982.389633	2602.435179
982.686717	2605.207814
982.983764	2607.672938
983.280775	2614.203753
983.577749	2613.954216
983.874686	2614.992693
984.171587	2610.768207
984.468451	2609.878443
984.765279	2604.960797
985.062070	2604.454161
985.358824	2602.714963
985.655543	2601.784870
985.952224	2600.721187
986.248869	2597.825044
986.545478	2596.221957
986.842050	2594.608788
987.138586	2595.828747
987.435086	2595.198603
987.731549	2594.286154
988.027975	2593.897985
988.324366	2595.082656
988.620719	2592.536874
988.917037	2592.143664
989.213318	2595.183479
989.509563	2594.215578
989.805772	2595.985023
990.101944	2592.141143
990.398080	2593.129209
990.694180	2591.770618
990.990244	2592.970413
991.286271	2591.208530
991.582262	2592.657861
991.878217	2591.873962
992.174136	2594.228181
992.470019	2591.659713
992.765865	2589.640731
993.061676	2588.534197
993.357450	2593.086359
993.653188	2588.955134
993.948890	2593.477049
994.244556	2595.740527
994.540186	2592.897316
994.835780	2592.488983
995.131337	2593.582913
995.426859	2595.680033
995.722345	2594.369333
996.017795	2595.957297
996.313208	2597.494848
996.608586	2598.374530
996.903928	2597.421752
997.199234	2599.445775
997.494504	2596.937801
997.789738	2600.756475
998.084936	2597.358737
998.380099	2596.912595
998.675225	2594.747420
998.970316	2595.059971
999.265371	2594.097111
999.560390	2594.613829
999.855373	2594.434868
1000.150320	2593.517378
1000.445232	2593.676174
1000.740108	2592.531832
1001.034948	2591.637028
1001.329752	2594.223140
1001.624521	2592.342789
1001.919254	2589.121492
1002.213951	2592.398242
1002.508613	2591.546287
1002.803239	2593.018304
1003.097829	2590.812799
1003.392384	2588.937490
1003.686903	2588.365319
1003.981386	2591.465628
1004.275834	2591.942017
1004.570246	2592.458736
1004.864623	2591.581575
1005.158964	2589.444126
1005.453270	2592.932604
1005.747540	2592.955289
1006.041775	2590.323807
1006.335974	2589.484455
1006.630138	2591.329517
1006.924266	2592.640217
1007.218359	2591.695001
1007.512416	2589.111410
1007.806438	2587.944382
1008.100425	2585.978332
1008.394376	2586.893302
1008.688292	2589.484455
1008.982172	2590.104517
1009.276017	2590.628797
1009.569827	2590.192737
1009.863602	2589.285329
1010.157341	2590.296081
1010.451045	2588.796337
1010.744714	2591.616863
1011.038347	2588.839187
1011.331945	2592.257090
1011.625508	2588.685432
1011.919036	2588.335072
1012.212528	2587.329362
1012.505986	2592.088211
1012.799408	2590.240628
1013.092795	2591.261462
1013.386147	2589.461770
1013.679464	2591.871441
1013.972745	2592.090732
1014.265992	2592.315063
1014.559204	2587.901533
1014.852380	2592.105855
1015.145521	2590.817840
1015.438628	2590.732141
1015.731699	2590.442274
1016.024736	2590.147367
1016.317737	2588.695514
1016.610703	2589.444126
1016.903635	2589.126533
1017.196531	2586.658888
1017.489393	2588.950093
1017.782219	2591.936976
1018.075011	2588.670309
1018.367768	2588.370360
1018.660490	2590.359095
1018.953177	2590.359095
1019.245829	2590.359095
