Dividing Wavelength (nm)	Counts (n)	Blue Motor Position (mm): 46.400000	Red Motor Position (mm): 0.000000	
326.493990	2271.203645
326.888308	2271.203645
327.282561	2271.203645
327.676750	2233.314333
328.070874	2228.762171
328.464933	2228.890720
328.858929	2234.030177
329.252859	2236.651577
329.646726	2246.675911
330.040528	2257.647983
330.434265	2272.549633
330.827938	2291.494289
331.221547	2308.195632
331.615091	2327.682212
332.008571	2342.654439
332.401986	2362.546832
332.795338	2381.945192
333.188625	2401.575445
333.581847	2422.438261
333.975006	2442.716302
334.368100	2460.037707
334.761129	2479.746098
335.154095	2495.287975
335.546996	2518.129443
335.939833	2562.904971
336.332606	2577.748649
336.725315	2592.269693
337.117960	2601.545416
337.510540	2616.096706
337.903056	2624.318828
338.295508	2631.542802
338.687896	2641.539410
339.080220	2649.327992
339.472480	2654.190185
339.864676	2661.940959
340.256807	2666.924140
340.648875	2669.343894
341.040879	2668.960766
341.432818	2675.274811
341.824694	2678.163392
342.216506	2678.528876
342.608253	2678.375121
342.999937	2678.501150
343.391557	2680.497447
343.783113	2679.728671
344.174605	2678.362518
344.566033	2678.894360
344.957397	2674.329595
345.348697	2672.174502
345.739934	2671.841785
346.131106	2674.170798
346.522215	2671.234326
346.913260	2667.030004
347.304241	2668.595282
347.695159	2665.847853
348.086012	2665.356341
348.476802	2662.505568
348.867528	2659.478356
349.258191	2656.390649
349.648789	2654.104486
350.039324	2652.481234
350.429796	2654.260761
350.820203	2651.430153
351.210548	2653.920483
351.600828	2650.568116
351.991045	2652.854279
352.381198	2653.560041
352.771288	2650.152221
353.161314	2649.030564
353.551276	2648.102992
353.941175	2648.125677
354.331010	2647.296407
354.720782	2648.705410
355.110490	2649.017961
355.500135	2648.705410
355.889717	2648.319762
356.279235	2649.179278
356.668689	2645.411016
357.058080	2649.973260
357.447408	2649.532159
357.836672	2649.396048
358.225873	2649.461583
358.615010	2648.032416
359.004084	2649.874957
359.393095	2652.279588
359.782043	2651.160452
360.170927	2653.600370
360.559748	2652.934938
360.948505	2655.581544
361.337199	2656.604898
361.725830	2658.984322
362.114398	2657.139260
362.502903	2657.973571
362.891344	2658.326452
363.279722	2656.458704
363.668037	2658.583551
364.056289	2657.663540
364.444478	2662.074550
364.832603	2662.636638
365.220665	2660.042965
365.608665	2661.033552
365.996601	2661.814930
366.384474	2663.375168
366.772284	2663.254180
367.160031	2662.487924
367.547715	2665.096722
367.935336	2666.609068
368.322893	2664.312822
368.710388	2662.878614
369.097820	2664.239725
369.485189	2661.779642
369.872495	2668.005467
370.259738	2668.343225
370.646918	2671.761127
371.034035	2671.793894
371.421090	2670.200890
371.808081	2673.243226
372.195010	2674.538803
372.581875	2675.988134
372.968678	2680.169772
373.355418	2683.083558
373.742096	2691.688808
374.128710	2697.776001
374.515262	2707.639019
374.901751	2716.667725
375.288177	2727.821278
375.674540	2744.779720
376.060841	2760.089704
376.447079	2778.631068
376.833254	2805.674338
377.219367	2820.903663
377.605417	2852.420957
377.991404	2872.875439
378.377329	2910.726943
378.763191	2931.430962
379.148991	2972.586942
379.534727	3010.715709
379.920402	3047.395144
380.306013	3075.587797
380.691563	3138.882004
381.077049	3163.818072
381.462474	3208.225596
381.847835	3265.019235
382.233134	3307.422901
382.618371	3341.753158
383.003545	3406.695823
383.388657	3439.060030
383.773706	3503.914475
384.158693	3538.821944
384.543618	3574.104980
384.928480	3635.367602
385.313280	3699.337324
385.698017	3724.235583
386.082692	3815.515756
386.467305	3821.524811
386.851856	3860.646685
387.236344	3946.719346
387.620770	3971.700784
388.005133	4026.568702
388.389435	4074.878080
388.773674	4086.581118
389.157851	4163.519208
389.541965	4232.514961
389.926018	4193.302345
390.310008	4300.222698
390.693936	4349.888146
391.077802	4389.350298
391.461606	4385.012385
391.845348	4454.870174
392.229027	4515.429556
392.612645	4515.883259
392.996200	4615.783805
393.379694	4676.617929
393.763125	4781.912510
394.146494	4807.677847
394.529801	4867.060119
394.913047	4949.102377
395.296230	4896.863420
395.679351	5007.294936
396.062410	5061.121857
396.445408	5030.963154
396.828343	5089.677473
397.211217	5144.227798
397.594028	5030.257392
397.976778	5147.123941
398.359466	5189.343605
398.742092	5218.473912
399.124656	5138.664885
399.507158	5253.242750
399.889598	5316.700795
400.271977	5439.556235
400.654294	5435.946768
401.036549	5478.864632
401.418742	5401.394700
401.800874	5605.321976
402.182944	5666.098127
402.564952	5769.351040
402.946898	5830.349001
403.328783	5664.386655
403.710606	5688.501014
404.092367	6010.229973
404.474067	6030.727305
404.855705	5933.206184
405.237282	5871.038675
405.618797	6120.205265
406.000250	6096.655515
406.381642	6302.206042
406.762972	6325.380227
407.144240	6384.908692
407.525447	6367.078131
407.906593	6383.056068
408.287677	6543.417692
408.668700	6462.033305
409.049661	6575.068577
409.430560	6595.704540
409.811399	6461.100691
410.192176	6730.008440
410.572891	6744.035451
410.953545	6936.947806
411.334138	6670.086765
411.714669	6842.325348
412.095139	6636.673997
412.475547	6879.231635
412.855894	6947.526667
413.236180	7137.570605
413.616405	6793.620240
413.996568	7017.258428
414.376670	7067.279277
414.756711	6962.854295
415.136691	7054.026083
415.516609	7264.242198
415.896466	7243.671770
416.276262	7451.500899
416.655997	7434.013137
417.035670	7612.716999
417.415283	7952.536139
417.794834	8021.020214
418.174324	7878.189202
418.553753	7796.850185
418.933121	8103.317050
419.312428	8200.250877
419.691674	7976.222000
420.070859	8460.238304
420.449983	8137.211248
420.829045	8504.212289
421.208047	8266.194211
421.586988	8581.800688
421.965867	8603.477650
422.344686	8700.192186
422.723444	8768.474615
423.102141	8109.958771
423.480777	8872.796253
423.859352	8392.981750
424.237866	9010.376903
424.616319	8880.179023
424.994712	9309.125762
425.373044	8854.325465
425.751314	9333.383795
426.129524	9216.348367
426.507673	9296.210326
426.885762	9454.799985
427.263789	9370.234629
427.641756	9312.097523
428.019662	9397.494669
428.397508	9668.829733
428.775292	9320.841404
429.153016	9710.129386
429.530679	9545.586125
429.908282	9557.957116
430.285824	9290.624728
430.663305	9974.905910
431.040726	9426.801417
431.418086	9397.648424
431.795385	9735.254497
432.172624	9834.164456
432.549802	9741.261032
432.926920	9814.261981
433.303977	9688.230614
433.680974	9886.607579
434.057910	9987.155913
434.434786	10065.616432
434.811601	9878.587104
435.188355	10444.806983
435.565050	10195.204333
435.941683	10110.873391
436.318257	10586.128169
436.694770	10759.795919
437.071222	10813.700977
437.447614	10639.705553
437.823946	10567.536394
438.200218	10653.586370
438.576429	10503.985088
438.952580	10755.105126
439.328670	10770.132805
439.704700	10569.081508
440.080670	10559.901567
440.456580	11081.769374
440.832429	10876.735565
441.208218	10466.128543
441.583947	10764.529563
441.959616	10952.133583
442.335224	10763.344892
442.710773	10866.736437
443.086261	11097.434760
443.461689	10366.195230
443.837057	11053.264170
444.212365	11285.459716
444.587612	10922.549571
444.962800	11136.460852
445.337927	10881.063396
445.712995	10551.301358
446.088002	11587.717218
446.462949	11286.989706
446.837837	11251.419325
447.212664	11175.711276
447.587431	11769.385280
447.962139	12534.329964
448.336786	14822.212267
448.711374	15308.650846
449.085901	13124.122279
449.460369	12764.032660
449.834776	12213.873897
450.209124	13147.246052
450.583412	13572.600969
450.957640	14496.833512
451.331808	13534.671328
451.705917	12611.482303
452.079965	11857.418949
452.453954	12771.662446
452.827883	12431.593769
453.201752	12715.456101
453.575562	12268.459510
453.949311	12688.697657
454.323001	12669.531190
454.696632	12903.667580
455.070202	13180.376515
455.443713	13369.767624
455.817164	13865.494528
456.190556	13829.354496
456.563888	14204.522207
456.937160	14336.746631
457.310373	13701.803222
457.683526	13813.787413
458.056619	13334.741687
458.429653	13542.349005
458.802628	12897.154409
459.175542	13311.602791
459.548398	14262.308953
459.921194	14633.468946
460.293930	14703.314133
460.666607	15537.264652
461.039224	16608.051099
461.411782	17336.812902
461.784280	17108.032738
462.156719	17221.589769
462.529099	16879.124024
462.901419	15845.891652
463.273680	15603.258397
463.645882	15507.683161
464.018024	15222.091713
464.390106	15459.817405
464.762130	16162.382852
465.134094	16978.207903
465.505999	19036.838693
465.877845	22310.316984
466.249631	25094.838640
466.621358	24710.680032
466.993026	23295.272746
467.364634	22706.954969
467.736184	21227.772046
468.107674	20446.063004
468.479105	20577.198539
468.850477	20031.047493
469.221790	19634.923706
469.593043	18945.855948
469.964238	18370.690542
470.335373	18016.821706
470.706449	18515.288478
471.077467	18104.036188
471.448425	19984.187447
471.819324	24123.574652
472.190164	25950.970236
472.560945	22261.604315
472.931667	19961.749272
473.302330	19370.195073
473.672934	19006.188478
474.043479	19219.731755
474.413965	19038.507315
474.784393	18627.323081
475.154761	19403.164220
475.525070	19302.966246
475.895321	19034.912972
476.265513	19645.477362
476.635645	20229.832792
477.005719	19982.488578
477.375734	20168.625622
477.745691	20655.850621
478.115588	21203.549301
478.485427	21771.178183
478.855207	22871.289023
479.224928	24662.103474
479.594591	26882.693934
479.964194	26781.853213
480.333739	27033.918467
480.703226	26610.582532
481.072653	26308.733363
481.442022	26959.896685
481.811333	27887.143838
482.180584	27753.759948
482.549777	26801.112942
482.918912	26482.514539
483.287988	26630.096838
483.657005	26231.467598
484.025964	26035.102053
484.394864	25898.827062
484.763706	25543.541662
485.132489	25024.882548
485.501213	25190.567631
485.869879	25103.907676
486.238487	24964.814680
486.607036	25086.283802
486.975527	24838.201060
487.343959	25124.783094
487.712333	25041.475506
488.080648	24696.859709
488.448905	25204.829056
488.817104	24975.121319
489.185244	25685.593816
489.553326	25624.036286
489.921350	26694.361468
490.289315	29039.385249
490.657222	30744.210219
491.025070	31261.407397
491.392861	31011.650992
491.760593	30133.240017
492.128267	29224.577077
492.495883	28171.681685
492.863440	27286.571016
493.230939	26421.481289
493.598380	26256.892657
493.965763	25878.596911
494.333088	25377.624686
494.700354	25345.502454
495.067563	25193.667941
495.434713	24944.705517
495.801805	25127.563291
496.168839	24899.914865
496.535815	24779.098572
496.902733	24981.223636
497.269593	24694.034142
497.636395	24859.759554
498.003139	24774.075062
498.369825	24519.685836
498.736453	24727.056220
499.103023	24604.780513
499.469535	24603.714309
499.835989	24819.841177
500.202385	24848.485014
500.568723	24396.321240
500.935003	24569.222735
501.301226	24257.117338
501.667390	25107.121412
502.033497	25308.941485
502.399546	25049.432968
502.765537	24570.452776
503.131470	24950.991836
503.497345	25098.886687
503.863163	24342.658157
504.228923	24874.031061
504.594625	25150.739995
504.960269	24698.543454
505.325856	25181.314593
505.691385	24568.252313
506.056856	25168.189949
506.422270	25172.301010
506.787625	24684.639952
507.152924	25114.239521
507.518164	25158.500852
507.883347	24976.152235
508.248472	24653.833461
508.613540	25412.007876
508.978550	25220.068464
509.343503	25242.201650
509.708398	25430.662666
510.073236	25600.506700
510.438016	25816.648692
510.802738	25471.798481
511.167403	25729.013274
511.532010	25488.371274
511.896561	26212.507818
512.261053	26195.309922
512.625488	26026.620312
512.989866	25910.719143
513.354186	25755.350782
513.718449	25880.126901
514.082655	26252.143891
514.446803	25983.175648
514.810894	26457.510416
515.174927	25962.839633
515.538904	25980.708003
515.902822	26483.331206
516.266684	26235.029173
516.630488	26142.115667
516.994235	26075.176705
517.357925	26431.404801
517.721558	26578.271256
518.085133	26718.566568
518.448651	26576.300165
518.812112	26356.518460
519.175516	26583.987925
519.538863	26732.485194
519.902152	26521.790169
520.265385	26776.013037
520.628560	26582.437770
520.991678	26563.891365
521.354739	26616.160569
521.717743	26712.542389
522.080690	26492.188513
522.443580	26809.037635
522.806413	26784.214994
523.169189	26892.274647
523.531908	26952.304707
523.894569	26578.561123
524.257174	26680.394951
524.619722	26812.173233
524.982213	26516.789344
525.344647	26535.481943
525.707025	26704.030401
526.069345	26650.833625
526.431608	26634.510369
526.793815	26810.330691
527.155964	26308.309906
527.518057	26481.881874
527.880093	26382.104837
528.242072	26623.908822
528.603995	26337.324267
528.965860	26124.774097
529.327669	26157.924725
529.689421	26157.753326
530.051117	25994.974468
530.412755	26173.380903
530.774337	25928.138851
531.135862	25847.266140
531.497331	26023.330959
531.858743	25620.494875
532.220098	26075.756438
532.581396	25765.491063
532.942638	25660.887121
533.303824	25792.544415
533.664953	25769.415601
534.026025	25447.074142
534.387040	25688.923498
534.747999	25727.435393
535.108902	25900.825879
535.469748	25395.374589
535.830537	25546.894029
536.191270	25697.677461
536.551947	25510.605283
536.912567	25139.755321
537.273131	25585.720996
537.633638	25252.253710
537.994089	25471.256557
538.354483	24956.247239
538.714821	25469.436700
539.075103	25521.589957
539.435328	25276.426043
539.795497	24881.751588
540.155609	25223.256993
540.515665	25544.907815
540.875665	24741.814198
541.235609	25104.915907
541.595496	25022.167887
541.955328	25389.758743
542.315102	25317.551776
542.674821	24812.037471
543.034483	24703.410688
543.394090	24879.881320
543.753640	24687.006774
544.113134	25318.978423
544.472571	24895.082919
544.831953	25202.447110
545.191278	24861.718043
545.550548	24740.629527
545.909761	24952.567197
546.268918	25188.513361
546.628019	25161.472612
546.987064	24839.864641
547.346053	24574.460493
547.704986	24667.552961
548.063863	24834.647046
548.422684	24862.764082
548.781449	24356.178532
549.140158	24769.321254
549.498811	24349.128478
549.857408	24119.703046
550.215949	24498.933927
550.574434	24199.529717
550.932864	24390.549119
551.291237	24584.257976
551.649555	24415.275978
552.007817	24496.965356
552.366022	24334.579708
552.724173	24342.701007
553.082267	24334.625079
553.440305	24811.745084
553.798288	24046.863414
554.156215	24530.604976
554.514086	24663.701519
554.871902	24066.072731
555.229661	24326.511342
555.587365	24170.843031
555.945014	24080.986985
556.302606	24288.445589
556.660143	24286.502224
557.017625	24516.429251
557.375050	24034.036198
557.732421	24418.774539
558.089735	24243.418003
558.446994	24288.029694
558.804197	24333.700027
559.161345	24220.740372
559.518437	24038.066601
559.875474	24186.243756
560.232455	24359.067113
560.589381	24182.115051
560.946251	24194.705333
561.303065	24472.946778
561.659825	24573.883281
562.016528	24189.089488
562.373177	23909.895264
562.729770	24278.930411
563.086307	24117.643735
563.442789	24289.811742
563.799216	24155.628829
564.155587	24126.317040
564.511904	24104.196457
564.868164	24076.462549
565.224370	24038.694224
565.580520	23979.455626
565.936615	24086.736421
566.292654	23798.636999
566.648638	24026.729046
567.004567	23861.558161
567.360441	23811.907836
567.716260	23536.645713
568.072023	23830.842410
568.427732	23622.541933
568.783385	23383.596282
569.138982	23631.653819
569.494525	23662.243540
569.850013	23416.502414
570.205445	23530.442573
570.560823	23351.184183
570.916145	23122.373772
571.271412	23307.361433
571.626625	23057.451272
571.981782	23153.926354
572.336884	22972.467501
572.691931	23104.575978
573.046923	22854.194470
573.401860	22716.137431
573.756743	22761.767435
574.111570	22648.853150
574.466342	22562.346950
574.821059	22640.603302
575.175722	22348.385258
575.530330	22308.313126
575.884882	22314.627171
576.239380	22223.306669
576.593823	22132.197895
576.948211	22102.840736
577.302544	21954.892953
577.656823	21824.276657
578.011047	21926.362543
578.365216	21790.876492
578.719330	21677.105211
579.073389	21558.076007
579.427394	21709.189635
579.781344	21455.886778
580.135239	21348.585818
580.489080	21295.925925
580.842866	21078.264025
581.196597	21288.633896
581.550273	21246.996486
581.903895	21126.230604
582.257463	21441.751382
582.610975	20974.411215
582.964434	21299.681585
583.317837	20957.639296
583.671186	21059.470604
584.024481	21050.242772
584.377721	20809.694034
584.730906	20909.024929
585.084037	20867.067406
585.437113	20813.384158
585.790135	21018.690190
586.143103	20459.545570
586.496016	20491.977833
586.848874	20720.301773
587.201679	20636.129627
587.554428	20340.377734
587.907124	20677.078920
588.259765	20426.342010
588.612352	20496.237608
588.964884	20064.102339
589.317362	20235.378061
589.669786	20292.086001
590.022155	20291.276896
590.374470	20546.225690
590.726731	20295.332504
591.078937	20095.496124
591.431090	20173.049235
591.783188	19940.861251
592.135232	19895.667306
592.487222	20002.721249
592.839157	20003.721918
593.191038	19889.096162
593.542866	19777.162382
593.894639	19473.750456
594.246358	19696.198931
594.598022	19577.741898
594.949633	19335.161575
595.301190	19322.185645
595.652692	19501.013016
596.004141	19710.931703
596.355535	19036.584115
596.706876	19064.693589
597.058162	18963.671386
597.409395	19206.312203
597.760573	19232.027129
598.111698	19017.964613
598.462768	18968.248754
598.813785	18937.535524
599.164748	18736.844669
599.515657	18789.416342
599.866511	18597.247557
600.217312	18947.063305
600.568060	18458.252863
600.918753	18766.897508
601.269392	18665.928237
601.619978	18463.730077
601.970510	18639.477303
602.320988	18600.680583
602.671412	18796.085788
603.021783	18723.178101
603.372100	18432.769831
603.722363	18587.220702
604.072572	18534.533083
604.422728	18688.603347
604.772830	18436.008772
605.122878	18394.164674
605.472872	18364.779789
605.822813	18352.723869
606.172701	18355.315022
606.522534	18509.072735
606.872314	18552.938335
607.222041	18393.348008
607.571714	18596.882073
607.921333	18419.168797
608.270899	18507.915790
608.620411	18654.648655
608.969870	18462.454665
609.319276	18445.720555
609.668627	18470.762487
610.017926	18605.764587
610.367171	18718.966217
610.716362	18785.247308
611.065500	18589.290096
611.414585	18746.564013
611.763616	18719.679540
612.112594	18650.585485
612.461518	18631.582856
612.810389	18821.871290
613.159207	18675.448456
613.507971	18593.464171
613.856682	18836.813270
614.205340	18750.823788
614.553945	18916.617256
614.902496	18653.229571
615.250994	18861.111632
615.599439	18817.525816
615.947830	18804.917890
616.296169	18884.242966
616.644454	18833.763372
616.992686	18811.743612
617.340864	19032.548671
617.688990	18782.048695
618.037063	18948.184962
618.385082	18821.503286
618.733048	19089.458257
619.080961	18971.770000
619.428821	19001.028857
619.776628	18869.144710
620.124382	18811.017686
620.472083	18867.750831
620.819731	18864.678248
621.167326	18555.244663
621.514868	18606.399772
621.862357	18393.048059
622.209793	18387.159991
622.557176	18218.372078
622.904506	18054.597592
623.251783	17987.000761
623.599007	17725.150627
623.946179	17674.958379
624.293297	17593.279083
624.640363	17328.573136
624.987376	17353.768823
625.334336	17156.379924
625.681243	17004.913415
626.028097	17023.979059
626.374899	16938.513857
626.721647	16805.001418
627.068343	16645.612737
627.414987	16579.049341
627.761577	16544.577931
628.108115	16559.590487
628.454600	16300.858307
628.801032	16403.511323
629.147412	16339.526478
629.493739	16341.096797
629.840014	16167.184551
630.186236	16249.877118
630.532405	16014.533372
630.878521	16215.720781
631.224585	16115.303517
631.570597	15943.410253
631.916556	15972.515354
632.262462	15941.862618
632.608316	15869.096083
632.954117	15807.699871
633.299866	15785.614576
633.645562	15709.699840
633.991206	15480.695344
634.336797	15351.528380
634.682336	15318.889429
635.027823	15183.647874
635.373257	15048.507143
635.718639	14972.292458
636.063968	14907.624537
636.409245	14659.262010
636.754470	14701.726169
637.099642	14543.648188
637.444762	14330.606506
637.789829	14363.121948
638.134845	14195.927039
638.479808	14226.352923
638.824719	14132.088388
639.169577	13999.206093
639.514383	14043.474985
639.859137	13868.244478
640.203839	13972.699706
640.548489	13821.704545
640.893086	13805.061176
641.237632	13682.876210
641.582125	13846.461652
641.926566	13653.922342
642.270955	13671.468078
642.615292	13621.089308
642.959576	13631.408549
643.303809	13660.561542
643.647990	13592.821037
643.992118	13655.303619
644.336195	13423.188731
644.680219	13654.030727
645.024192	13557.096901
645.368112	13808.325323
645.711981	13847.981560
646.055797	14032.034087
646.399562	14007.019881
646.743274	14276.225058
647.086935	14539.393454
647.430544	14501.413401
647.774101	14549.405185
648.117606	14690.587740
648.461059	14670.385316
648.804460	14639.926664
649.147810	14375.097209
649.491108	14284.275781
649.834354	14297.937308
650.177548	13977.261950
650.520690	13783.406900
650.863781	13712.097258
651.206820	13762.831430
651.549807	13597.847068
651.892742	13378.965209
652.235626	13318.153770
652.578458	13320.850787
652.921238	13023.112679
653.263967	13221.734141
653.606644	13050.584447
653.949269	13023.273996
654.291843	12823.069612
654.634365	12995.073782
654.976836	12833.948423
655.319255	12828.415756
655.661622	12790.859160
656.003938	12719.161349
656.346203	12644.975729
656.688416	12723.877349
657.030577	12673.100327
657.372687	12582.309146
657.714746	12574.419740
658.056753	12763.117690
658.398708	12567.866240
658.740612	12569.648288
659.082465	12686.391329
659.424266	12655.531906
659.766016	12687.255887
660.107715	12602.748504
660.449362	12675.076459
660.790958	12619.764919
661.132503	12560.695199
661.473996	12639.291828
661.815438	12647.518992
662.156829	12676.109896
662.498168	12642.210657
662.839456	12654.125424
663.180693	12657.997030
663.521879	12770.311417
663.863013	12730.957649
664.204097	12707.060060
664.545129	12841.774814
664.886110	12814.144250
665.227040	12909.354002
665.567918	12901.222621
665.908746	12915.668047
666.249522	12910.649578
666.590248	12970.833393
666.930922	13084.627359
667.271545	13051.383470
667.612118	13139.429743
667.952639	13030.591231
668.293109	13074.771903
668.633528	13001.629802
668.973896	12988.913492
669.314213	13045.676884
669.654480	12791.930405
669.994695	12884.967420
670.334859	12907.786203
670.674973	12851.423582
671.015035	12874.612890
671.355047	12819.387050
671.695008	12800.868371
672.034918	12811.517808
672.374777	12844.802027
672.714585	12757.464036
673.054342	12794.501394
673.394049	12756.675096
673.733705	12850.460722
674.073310	12747.104465
674.412864	12765.819749
674.752368	12600.056528
675.091820	12663.247392
675.431223	12633.544913
675.770574	12508.662929
676.109875	12418.549784
676.449125	12370.086651
676.788324	12327.166267
677.127473	12156.714774
677.466571	12149.037096
677.805619	12037.892257
678.144616	11972.939510
678.483562	11949.183073
678.822458	11817.061992
679.161303	11793.131635
679.500098	11777.889706
679.838842	11735.662481
680.177535	11775.328800
680.516179	11833.581853
680.854771	11779.601178
681.193314	11995.730567
681.531805	12167.424705
681.870247	12611.121861
682.208638	13015.785362
682.546978	13309.102378
682.885268	13330.726408
683.223508	13039.370401
683.561697	12889.212072
683.899836	12796.971559
684.237925	12589.142430
684.575963	12502.850479
684.913951	12421.483735
685.251889	12376.473793
685.589776	12483.202582
685.927614	12391.410732
686.265401	12366.492309
686.603137	12424.765527
686.940824	12576.494175
687.278460	12708.209443
687.616046	12737.990059
687.953582	12891.276424
688.291068	12838.543434
688.628504	13068.276377
688.965889	13069.733270
689.303224	13021.408769
689.640510	12903.128177
689.977745	12588.645876
690.314930	12377.378680
690.652065	12286.080864
690.989150	11981.968217
691.326185	11756.593352
691.663170	11552.799666
692.000105	11314.151443
692.336990	11191.903462
692.673825	10932.082393
693.010610	10825.557771
693.347345	10615.281162
693.684030	10423.130022
694.020665	10362.948727
694.357251	10166.744499
694.693786	10088.833466
695.030272	9941.520868
695.366707	9828.992232
695.703093	9761.014793
696.039429	9754.652857
696.375716	9656.088217
696.711952	9532.481645
697.048139	9590.225542
697.384276	9539.919868
697.720363	9562.763856
698.056400	9492.860697
698.392388	9439.469836
698.728326	9403.851564
699.064214	9344.237399
699.400053	9376.228561
699.735842	9198.447230
700.071581	9163.537239
700.407270	9084.643182
700.742910	9003.188218
701.078501	8912.278570
701.414042	8774.680276
701.749533	8722.113644
702.084974	8582.400586
702.420366	8711.217190
702.755709	8576.630985
703.091002	8441.414636
703.426246	8472.125345
703.761440	8428.302595
704.096584	8389.223570
704.431679	8324.850556
704.766725	8299.201165
705.101721	8259.255062
705.436668	8314.027199
705.771565	8199.845064
706.106413	8285.665667
706.441212	8312.968557
706.775961	8282.958568
707.110661	8334.607709
707.445311	8451.534752
707.779913	8356.836677
708.114465	8475.817990
708.448967	8517.732664
708.783421	8687.785907
709.117825	8852.538376
709.452180	8886.561123
709.786485	8973.450451
710.120742	9266.613712
710.454949	9266.059185
710.789107	9382.948419
711.123216	9608.381257
711.457275	9774.353686
711.791286	9912.655221
712.125247	9922.183002
712.459159	9905.436289
712.793023	10129.351740
713.126837	9708.748110
713.460602	9869.747440
713.794318	9699.215288
714.127985	9729.225277
714.461602	9381.665446
714.795171	9336.065688
715.128691	9081.487419
715.462162	8850.529476
715.795584	8782.176471
716.128957	8618.409547
716.462281	8446.367570
716.795556	8497.134509
717.128782	8284.730533
717.461960	8033.623098
717.795088	8100.856967
718.128167	8012.414964
718.461198	7849.184923
718.794180	7792.605533
719.127113	7788.852394
719.459997	7614.930066
719.792833	7391.211220
720.125619	7465.361552
720.458357	7311.863458
720.791046	7307.825494
721.123686	7291.872763
721.456278	7133.399050
721.788821	7152.179869
722.121315	7060.075468
722.453761	7129.517362
722.786158	7063.437917
723.118506	7075.887047
723.450805	7035.366252
723.783056	7093.823472
724.115259	7018.904364
724.447412	7015.158787
724.779518	7072.305307
725.111574	7071.062662
725.443582	7142.616800
725.775542	7118.610826
726.107453	7312.793551
726.439315	7227.414049
726.771129	7303.888353
727.102895	7483.756722
727.434612	7588.781601
727.766281	7626.643187
728.097901	7701.884928
728.429473	7711.682411
728.760996	7699.568518
729.092471	7671.975763
729.423897	7607.595187
729.755276	7599.967921
730.086606	7515.369798
730.417887	7629.133517
730.749120	7847.183585
731.080305	8036.186525
731.411442	8136.586145
731.742530	8124.562993
732.073570	8225.809527
732.404562	8318.576840
732.735506	8186.216305
733.066401	8311.645254
733.397249	8224.549239
733.728048	7983.750963
734.058798	7653.313411
734.389501	7415.348264
734.720156	7246.348623
735.050762	7023.133892
735.381320	6941.953671
735.711831	6873.318362
736.042293	6767.910355
736.372707	6781.576923
736.703073	6652.470453
737.033391	6692.083840
737.363661	6700.215221
737.693883	6736.259471
738.024056	6821.364230
738.354182	6850.736513
738.684260	6890.571711
739.014290	7015.854466
739.344272	7127.460571
739.674207	7160.076837
740.004093	7232.881180
740.333931	7247.641679
740.663722	7253.197030
740.993464	7327.712846
741.323159	7297.561705
741.652806	7053.980713
741.982405	7102.171623
742.311956	7131.942157
742.641460	6949.139836
742.970915	6760.701505
743.300323	6751.788745
743.629683	6708.497837
743.958996	6569.873668
744.288260	6476.740871
744.617477	6428.325629
744.946647	6420.363127
745.275768	6262.479230
745.604842	6217.242436
745.933869	6197.753335
746.262847	6155.069885
746.591778	6143.104707
746.920662	6100.224652
747.249498	6099.281956
747.578286	6146.220140
747.907027	6222.654114
748.235720	6282.555625
748.564365	6259.008395
748.892963	6305.228214
749.221514	6435.753770
749.550017	6246.188741
749.878473	6142.761908
750.206881	6202.209715
750.535242	6152.239277
750.863555	6086.500111
751.191821	6093.550164
751.520039	6083.893834
751.848210	5996.170195
752.176334	6026.235637
752.504411	6065.922121
752.832440	5989.460420
753.160421	5924.805101
753.488356	5972.186906
753.816243	5997.241441
754.144082	5848.240056
754.471875	5826.235420
754.799620	5865.271595
755.127318	5879.714500
755.454969	5839.458366
755.782572	5803.283046
756.110129	5845.364078
756.437638	5820.518751
756.765100	5765.915493
757.092515	5774.470332
757.419882	5833.030895
757.747203	5803.318334
758.074477	5861.831007
758.401703	5842.074725
758.728882	5801.901770
759.056014	5879.868256
759.383099	5985.034287
759.710138	6002.895095
760.037129	5987.534699
760.364073	5988.696685
760.690970	6070.386062
761.017820	6046.881682
761.344623	6011.843143
761.671379	6123.141737
761.998088	6250.272076
762.324751	6519.424321
762.651366	7164.502970
762.977935	8541.879791
763.304456	10205.689933
763.630931	11063.301107
763.957359	10590.760990
764.283740	9623.683680
764.610074	8742.540399
764.936362	7741.062256
765.262602	7147.632748
765.588796	6617.210102
765.914943	6292.237161
766.241044	6113.941632
766.567097	5901.857769
766.893104	5643.438140
767.219064	5471.882634
767.544978	5402.501233
767.870845	5321.946115
768.196665	5217.067430
768.522438	5149.838603
768.848165	5108.654896
769.173846	5036.460532
769.499479	4987.952029
769.825066	4944.525009
770.150607	4883.390937
770.476101	4863.294377
770.801548	4856.083006
771.126949	4765.095220
771.452303	4716.659814
771.777611	4682.576573
772.102872	4697.347154
772.428087	4659.334333
772.753256	4617.863281
773.078378	4566.128440
773.403453	4499.590250
773.728482	4487.219259
774.053465	4442.479018
774.378401	4429.256072
774.703291	4421.510339
775.028135	4343.127958
775.352932	4299.771515
775.677683	4288.761635
776.002388	4303.804438
776.327046	4309.947084
776.651658	4239.317998
776.976224	4177.528575
777.300743	4184.576108
777.625216	4206.046382
777.949643	4194.582798
778.274024	4149.091426
778.598359	4117.092702
778.922647	4143.097494
779.246889	4131.079383
779.571086	4120.515646
779.895236	4105.218264
780.219339	4098.783231
780.543397	4093.910956
780.867409	4146.049090
781.191374	4152.882374
781.515294	4089.353753
781.839167	4085.514914
782.162995	4110.536682
782.486776	4097.578396
782.810511	4111.459213
783.134201	4093.384156
783.457844	4047.146692
783.781441	3996.848580
784.104993	4002.020804
784.428498	4020.967981
784.751958	4009.945498
785.075372	3990.839525
785.398739	3957.265440
785.722061	3972.008294
786.045337	4014.311137
786.368568	4038.866597
786.691752	3951.221097
787.014891	4015.778113
787.337983	4149.189729
787.661030	4311.524965
787.984031	4471.601764
788.306987	4639.245335
788.629897	4727.089962
788.952760	4680.252601
789.275579	4617.228096
789.598351	4540.705901
789.921078	4384.067169
790.243759	4190.759083
790.566395	4183.341025
790.888984	4174.846681
791.211529	4062.612952
791.534027	4002.761853
791.856480	3984.482630
792.178888	3926.635389
792.501249	3882.749624
792.823566	3895.382756
793.145836	3916.023760
793.468062	3861.302035
793.790241	3820.960202
794.112375	3854.501519
794.434464	3920.432249
794.756507	3941.116104
795.078505	3913.641815
795.400457	3962.064618
795.722364	4108.003502
796.044226	4214.205490
796.366042	4286.203249
796.687812	4253.768465
797.009538	4255.542951
797.331218	4225.054053
797.652852	4195.991801
797.974442	4175.030683
798.295986	4171.050692
798.617484	4082.296138
798.938938	4002.983664
799.260346	4044.616033
799.581709	4035.617574
799.903026	3956.471458
800.224299	3923.121705
800.545526	3916.464861
800.866708	3880.362638
801.187845	3825.242662
801.508936	3859.399000
801.829983	3846.349973
802.150984	3770.614198
802.471940	3764.716048
802.792851	3769.437089
803.113717	3769.558077
803.434538	3768.673354
803.755314	3708.358469
804.076045	3690.669060
804.396731	3708.882749
804.717372	3735.878128
805.037967	3715.784088
805.358518	3708.018191
805.679024	3738.013056
805.999485	3752.455962
806.319901	3759.276643
806.640272	3766.787963
806.960598	3780.147020
807.280879	3754.921086
807.601115	3774.967235
807.921306	3787.890233
808.241453	3826.714679
808.561554	3794.930204
808.881611	3732.011563
809.201623	3776.713994
809.521590	3784.167340
809.841513	3755.221035
810.161390	3786.332516
810.481223	3757.907970
810.801011	3709.618757
811.120755	3706.493242
811.440453	3739.142275
811.760107	3735.711770
812.079716	3692.171324
812.399281	3665.612005
812.718801	3690.222918
813.038276	3663.766942
813.357707	3658.844256
813.677093	3675.167512
813.996434	3615.510497
814.315731	3636.214516
814.634983	3639.826503
814.954191	3653.656908
815.273354	3677.725898
815.592473	3674.068540
815.911547	3688.030016
816.230577	3732.291347
816.549562	3783.678348
816.868502	3821.073628
817.187399	3844.454499
817.506250	3842.448120
817.825058	3824.209225
818.143821	3919.081220
818.462539	4022.762631
818.781213	4063.522881
819.099843	4132.884117
819.418429	4402.031320
819.736970	4642.945542
820.055466	4901.269389
820.373919	5275.065905
820.692327	5695.553589
821.010691	6198.428849
821.329011	7707.893984
821.647286	10638.525922
821.965517	15416.644964
822.283704	19437.249981
822.601847	21398.551214
822.919945	19453.532908
823.237999	16774.026048
823.556010	14242.721550
823.873976	12067.929972
824.191897	9947.555129
824.509775	8602.945808
824.827609	7473.313972
825.145398	6948.678571
825.463144	6831.007958
825.780845	6935.236334
826.098502	7170.106212
826.416116	8136.293758
826.733685	9515.069500
827.051210	10610.018198
827.368692	10535.953565
827.686129	9191.384573
828.003522	7679.487082
828.320872	6646.501727
828.638177	5920.315953
828.955439	5351.091546
829.272656	4843.240667
829.589830	4576.051951
829.906960	4394.300711
830.224046	4197.972974
830.541088	4076.219027
830.858086	4026.863610
831.175041	3948.950057
831.491952	3938.824899
831.808819	3948.193884
832.125642	4032.978530
832.442421	4190.375956
832.759157	4491.073221
833.075849	5078.392850
833.392497	5985.432538
833.709101	6776.351768
834.025662	7076.907880
834.342179	6646.206819
834.658653	5965.391431
834.975083	5298.653464
835.291469	4712.173187
835.607811	4312.737362
835.924110	4168.603212
836.240366	3959.896922
836.556578	3756.874533
836.872746	3651.519459
837.188871	3604.954321
837.504952	3535.837581
837.820990	3446.543623
838.136984	3410.955598
838.452935	3436.541974
838.768842	3427.780449
839.084706	3453.369346
839.400526	3627.833598
839.716303	3999.250690
840.032037	4560.056370
840.347727	4784.208755
840.663373	4463.767811
840.978977	4073.131320
841.294537	3758.528032
841.610054	3533.470760
841.925527	3429.741458
842.240957	3355.008872
842.556344	3299.387301
842.871687	3236.824062
843.186987	3185.610980
843.502244	3152.273829
843.817458	3116.005248
844.132629	3088.372163
844.447756	3097.584872
844.762840	3078.186512
845.077881	3045.880277
845.392879	3028.034593
845.707833	3025.892102
846.022745	3026.393697
846.337613	3024.465456
846.652438	3010.546830
846.967221	3009.097498
847.281960	2995.206599
847.596656	2991.113182
847.911309	2991.047647
848.225919	2985.610763
848.540485	2981.814774
848.855009	2982.369301
849.169490	2966.991261
849.483928	2960.636886
849.798323	2963.026393
850.112675	2958.401135
850.426984	2970.194914
850.741251	2963.454891
851.055474	2951.293108
851.369654	2945.014351
851.683792	2954.620269
851.997887	2964.526137
852.311938	2966.424131
852.625947	2951.532563
852.939914	2954.693366
853.253837	2960.059674
853.567718	2944.759772
853.881555	2946.146090
854.195350	2960.563790
854.509103	2955.875517
854.822812	2948.553241
855.136479	2945.029474
855.450103	2947.575257
855.763685	2938.682661
856.077224	2936.303237
856.390720	2950.950309
856.704173	2960.044551
857.017584	2952.220680
857.330953	2950.778910
857.644278	2959.797534
857.957561	2969.426138
858.270802	2972.990234
858.584000	2969.680716
858.897155	2953.889302
859.210268	2956.293932
859.523339	2954.032975
859.836367	2955.111782
860.149352	2948.376800
860.462295	2944.822787
860.775195	2952.928962
861.088054	2950.834363
861.400869	2935.599996
861.713642	2932.603030
862.026373	2946.098199
862.339062	2950.035340
862.651708	2954.781586
862.964312	2959.051443
863.276873	2950.504167
863.589392	2965.713328
863.901869	2975.820842
864.214303	2999.047958
864.526696	3010.748476
864.839045	3007.305368
865.151353	3008.051459
865.463619	3007.509535
865.775842	3011.212262
866.088023	3028.992412
866.400162	3031.951569
866.712258	3000.003257
867.024313	2994.891527
867.336325	3001.089625
867.648296	3026.159283
867.960224	3018.584950
868.272110	3004.565501
868.583954	3006.438290
868.895755	3022.179293
869.207515	3006.667662
869.519233	3016.558406
869.830909	3028.450488
870.142542	3035.157743
870.454134	3033.864687
870.765684	3036.032383
871.077191	3039.142775
871.388657	3047.364897
871.700081	3063.370561
872.011463	3074.251891
872.322803	3070.448341
872.634101	3067.113617
872.945357	3089.435847
873.256571	3116.005248
873.567744	3106.316150
873.878874	3105.408742
874.189963	3126.478245
874.501010	3126.702576
874.812015	3112.771348
875.122979	3113.545165
875.433900	3112.423508
875.744780	3122.954478
876.055618	3130.344810
876.366415	3123.854324
876.677169	3134.362610
876.987882	3131.622742
877.298554	3127.385653
877.609183	3154.033192
877.919771	3175.087571
878.230317	3207.071172
878.540822	3257.724685
878.851285	3296.660037
879.161707	3345.884384
879.472087	3459.569965
879.782425	3717.498081
880.092722	4180.830531
880.402977	4731.871496
880.713191	5396.532507
881.023363	6634.266846
881.333494	7959.351779
881.643583	8472.130386
881.953631	8138.254767
882.263637	7449.693646
882.573602	6815.519012
882.883526	6226.830710
883.193408	5656.630840
883.503248	5202.405234
883.813048	4878.448085
884.122806	4548.469278
884.432522	4221.437025
884.742197	3973.825630
885.051831	3781.838327
885.361424	3654.337464
885.670975	3579.022626
885.980485	3481.093171
886.289954	3404.908734
886.599382	3355.873430
886.908768	3320.683656
887.218113	3279.457100
887.527417	3216.591391
887.836680	3163.311436
888.145901	3158.895385
888.455082	3144.092037
888.764221	3093.020107
889.073319	3065.780232
889.382376	3061.565827
889.691392	3066.876683
890.000366	3065.525654
890.309300	3051.697769
890.618193	3064.976168
890.927044	3080.074424
891.235855	3078.299938
891.544625	3069.702250
891.853353	3079.451841
892.162041	3100.037393
892.470687	3143.814773
892.779293	3194.765715
893.087858	3242.144999
893.396381	3321.764983
893.704864	3458.498720
894.013306	3715.015313
894.321707	4028.244886
894.630068	4225.633786
894.938387	4209.597875
895.246665	4173.916588
895.554903	4034.614384
895.863100	3828.398424
896.171256	3656.401817
896.479371	3510.709950
896.787446	3381.421998
897.095480	3277.407871
897.403473	3212.994527
897.711425	3180.781554
898.019336	3166.973834
898.327207	3134.042496
898.635038	3096.838781
898.942827	3082.584918
899.250576	3073.362127
899.558284	3039.697302
899.865952	3022.249869
900.173579	2994.659634
900.481165	2987.811226
900.788711	2976.403095
901.096216	2953.100361
901.403681	2941.374638
901.711105	2949.392593
902.018489	2945.578960
902.325832	2943.660801
902.633135	2957.571865
902.940397	2994.319356
903.247619	3087.457194
903.554800	3296.896971
903.861941	3676.689940
904.169041	4127.111995
904.476101	4421.563271
904.783121	4342.034028
905.090100	4077.731373
905.397039	3786.211528
905.703938	3532.417158
906.010796	3348.868747
906.317614	3231.248545
906.624391	3133.372023
906.931129	3058.120199
907.237826	2994.528564
907.544483	2946.289763
907.851099	2915.843714
908.157675	2896.387381
908.464211	2874.889380
908.770707	2861.187524
909.077163	2846.424505
909.383578	2831.437154
909.689954	2820.084476
909.996289	2817.599187
910.302584	2822.017758
910.608839	2819.109013
910.915054	2812.089206
911.221229	2803.325160
911.527363	2807.315233
911.833458	2814.932417
912.139513	2819.955927
912.445527	2823.870382
912.751502	2831.724500
913.057436	2843.414936
913.363331	2857.036134
913.669186	2880.117057
913.975000	2923.357554
914.280775	2984.201760
914.586510	3056.280178
914.892205	3142.403250
915.197859	3285.730816
915.503475	3497.643279
915.809050	3723.476889
916.114585	3869.617419
916.420081	3874.366186
916.725536	3807.104590
917.030952	3679.334026
917.336328	3545.662790
917.641665	3412.417532
917.946961	3307.299392
918.252218	3233.322980
918.557435	3150.388438
918.862612	3086.285125
919.167750	3034.870397
919.472848	2995.806496
919.777906	2968.420428
920.082925	2941.805656
920.387904	2908.995306
920.692843	2892.306567
920.997743	2879.968343
921.302603	2864.126517
921.607423	2856.138808
921.912204	2841.731191
922.216946	2826.776608
922.521647	2818.267140
922.826310	2813.699855
923.130932	2804.310706
923.435516	2794.407359
923.740059	2788.408386
924.044564	2778.573095
924.349028	2771.646549
924.653454	2769.244439
924.957840	2761.407966
925.262186	2754.678025
925.566493	2751.018148
925.870761	2746.634864
926.174989	2741.273597
926.479178	2737.908627
926.783328	2733.873183
927.087438	2730.966958
927.391509	2730.311608
927.695541	2724.887327
927.999533	2722.840618
928.303486	2719.387428
928.607400	2722.152501
928.911275	2718.875751
929.215110	2716.231666
929.518906	2717.038250
929.822663	2717.275184
930.126381	2714.731922
930.430060	2718.764845
930.733699	2718.701831
931.037299	2717.378528
931.340861	2720.859445
931.644383	2719.541183
931.947866	2720.499002
932.251309	2718.974053
932.554714	2721.126626
932.858080	2714.933568
933.161407	2712.712940
933.464694	2710.610779
933.767943	2709.093392
934.071153	2710.154555
934.374323	2709.274873
934.677455	2711.999617
934.980548	2711.016592
935.283602	2708.185984
935.586617	2708.312013
935.889593	2706.928216
936.192530	2709.184132
936.495428	2710.162116
936.798287	2711.689586
937.101108	2715.046994
937.403890	2719.994887
937.706632	2721.764332
938.009336	2730.472925
938.312002	2741.341653
938.614628	2750.937489
938.917216	2757.551483
939.219765	2753.682397
939.522275	2753.392531
939.824747	2752.515370
940.127179	2748.870616
940.429573	2747.224679
940.731929	2742.980028
941.034246	2740.184708
941.336524	2737.313771
941.638763	2732.295302
941.940964	2731.977710
942.243126	2730.432596
942.545250	2728.438820
942.847335	2726.860938
943.149381	2722.470093
943.451389	2719.861296
943.753359	2714.162272
944.055290	2711.835779
944.357182	2712.571788
944.659036	2713.073383
944.960851	2710.842672
945.262628	2711.616489
945.564367	2709.713454
945.866067	2712.266798
946.167729	2711.772765
946.469352	2711.485419
946.770937	2711.104812
947.072484	2709.300079
947.373992	2709.279914
947.675462	2709.731098
947.976893	2704.301775
948.278286	2702.802032
948.579641	2702.260108
948.880958	2701.261959
949.182236	2705.425952
949.483476	2701.337577
949.784678	2700.452854
950.085841	2701.375385
950.386967	2705.612475
950.688054	2702.660879
950.989103	2704.891590
951.290114	2705.738504
951.591087	2706.817311
951.892021	2711.906356
952.192917	2713.640512
952.493776	2714.643702
952.794596	2712.544062
953.095378	2714.326109
953.396122	2712.859134
953.696828	2709.673124
953.997496	2709.884853
954.298126	2707.747404
954.598718	2705.766230
954.899272	2702.522248
955.199788	2699.951259
955.500266	2697.344983
955.800706	2695.431865
956.101108	2691.819878
956.401472	2693.521267
956.701798	2691.530012
957.002087	2687.625638
957.302337	2687.877696
957.602550	2686.251924
957.902724	2685.341995
958.202861	2682.324865
958.502960	2681.598939
958.803022	2680.026099
959.103045	2680.373938
959.403031	2678.226407
959.702979	2677.800429
960.002889	2678.889318
960.302762	2677.566016
960.602596	2675.047959
960.902393	2679.111129
961.202153	2676.338495
961.501875	2676.804801
961.801559	2674.248936
962.101205	2673.553257
962.400814	2676.134328
962.700385	2676.857733
962.999918	2672.676096
963.299414	2668.675941
963.598873	2670.768020
963.898293	2668.607885
964.197677	2675.239523
964.497022	2675.113494
964.796331	2675.862106
965.095601	2674.684996
965.394835	2672.272804
965.694030	2672.401353
965.993189	2672.305572
966.292309	2674.863957
966.591393	2673.185253
966.890439	2673.001251
967.189447	2672.381189
967.488419	2672.234995
967.787353	2671.229285
968.086249	2672.338339
968.385108	2673.074347
968.683930	2673.578463
968.982714	2671.690551
969.281462	2669.227947
969.580172	2670.238698
969.878844	2671.435972
970.177480	2673.076868
970.476078	2674.206087
970.774639	2676.283042
971.073162	2674.125428
971.371649	2675.864626
971.670098	2673.701971
971.968510	2674.183401
972.266885	2674.621982
972.565223	2673.979235
972.863524	2674.276663
973.161788	2672.534944
973.460014	2672.844975
973.758204	2675.448731
974.056356	2674.072496
974.354471	2672.550067
974.652550	2674.223731
974.950591	2673.235664
975.248595	2674.322033
975.546563	2672.555109
975.844493	2671.826662
976.142386	2675.322702
976.440243	2670.301713
976.738062	2673.568381
977.035845	2671.589728
977.333590	2672.781961
977.631299	2669.674089
977.928971	2667.854233
978.226606	2668.146620
978.524204	2667.150992
978.821765	2668.456651
979.119290	2669.845488
979.416777	2670.654594
979.714228	2669.694254
980.011642	2668.958245
980.309020	2671.546878
980.606360	2671.186435
980.903664	2669.485046
981.200931	2670.778102
981.498162	2670.430262
981.795356	2672.958401
982.092513	2673.959070
982.389633	2677.137517
982.686717	2680.499967
982.983764	2683.996007
983.280775	2688.258303
983.577749	2690.501616
983.874686	2688.457428
984.171587	2686.241841
984.468451	2682.523990
984.765279	2680.484844
985.062070	2677.187929
985.358824	2676.714061
985.655543	2672.572753
985.952224	2674.468227
986.248869	2671.355314
986.545478	2670.339522
986.842050	2666.926660
987.138586	2670.188287
987.435086	2667.866836
987.731549	2667.231650
988.027975	2669.437155
988.324366	2669.346414
988.620719	2667.597134
988.917037	2667.483708
989.213318	2665.232833
989.509563	2669.104439
989.805772	2668.287772
990.101944	2665.908347
990.398080	2666.311640
990.694180	2667.476146
990.990244	2667.796259
991.286271	2667.766012
991.582262	2665.691578
991.878217	2668.794408
992.174136	2669.913544
992.470019	2667.433296
992.765865	2665.449602
993.061676	2664.461536
993.357450	2663.281906
993.653188	2664.716114
993.948890	2670.463030
994.244556	2665.996567
994.540186	2670.526044
994.835780	2668.743996
995.131337	2666.132679
995.426859	2668.365910
995.722345	2669.573266
996.017795	2670.480674
996.313208	2673.225582
996.608586	2670.914213
996.903928	2670.289110
997.199234	2672.234995
997.494504	2671.582166
997.789738	2669.858091
998.084936	2670.747855
998.380099	2670.899090
998.675225	2670.510921
998.970316	2670.387413
999.265371	2669.197700
999.560390	2666.450271
999.855373	2666.465395
1000.150320	2667.251815
1000.445232	2666.510765
1000.740108	2667.856753
1001.034948	2666.687206
1001.329752	2665.787360
1001.624521	2665.540343
1001.919254	2666.132679
1002.213951	2665.658810
1002.508613	2665.598316
1002.803239	2663.826351
1003.097829	2666.417504
1003.392384	2665.056392
1003.686903	2665.578152
1003.981386	2667.680313
1004.275834	2664.801814
1004.570246	2664.985816
1004.864623	2664.121258
1005.158964	2665.084119
1005.453270	2665.200065
1005.747540	2663.793583
1006.041775	2665.134530
1006.335974	2665.726866
1006.630138	2665.741989
1006.924266	2664.859787
1007.218359	2664.275013
1007.512416	2662.656803
1007.806438	2660.259734
1008.100425	2663.602019
1008.394376	2662.031700
1008.688292	2663.007163
1008.982172	2665.532781
1009.276017	2664.942966
1009.569827	2663.919612
1009.863602	2665.250477
1010.157341	2664.731238
1010.451045	2662.009015
1010.744714	2662.840805
1011.038347	2662.024138
1011.331945	2665.011022
1011.625508	2663.589417
1011.919036	2665.910868
1012.212528	2662.470280
1012.505986	2665.222750
1012.799408	2665.109324
1013.092795	2664.630415
1013.386147	2663.728048
1013.679464	2663.407935
1013.972745	2665.515137
1014.265992	2663.218892
1014.559204	2665.915909
1014.852380	2662.061947
1015.145521	2665.757113
1015.438628	2663.070178
1015.731699	2661.872904
1016.024736	2663.604540
1016.317737	2663.191165
1016.610703	2664.007832
1016.903635	2663.357523
1017.196531	2665.005981
1017.489393	2663.438182
1017.782219	2665.094201
1018.075011	2660.889879
1018.367768	2661.174704
1018.660490	2664.562359
1018.953177	2664.562359
1019.245829	2664.562359
