Dividing Wavelength (nm)	Counts (n)	Blue Motor Position (mm): 33.400000	Red Motor Position (mm): 0.000000	
326.493990	2224.799824
326.888308	2224.799824
327.282561	2224.799824
327.676750	2184.019410
328.070874	2180.228462
328.464933	2179.643688
328.858929	2183.656447
329.252859	2187.429751
329.646726	2195.649352
330.040528	2209.643595
330.434265	2222.395194
330.827938	2240.500498
331.221547	2259.583786
331.615091	2276.136414
332.008571	2294.592078
332.401986	2313.249389
332.795338	2328.294713
333.188625	2347.299863
333.581847	2367.842564
333.975006	2392.808879
334.368100	2405.396640
334.761129	2424.545463
335.154095	2442.486929
335.546996	2471.077833
335.939833	2508.374810
336.332606	2520.332427
336.725315	2535.067720
337.117960	2548.943496
337.510540	2558.370453
337.903056	2569.776064
338.295508	2580.390213
338.687896	2588.083014
339.080220	2594.868407
339.472480	2602.036928
339.864676	2608.905500
340.256807	2614.319699
340.648875	2617.508229
341.040879	2617.828342
341.432818	2623.015690
341.824694	2625.359826
342.216506	2626.675567
342.608253	2626.650362
342.999937	2627.093983
343.391557	2627.202368
343.783113	2626.897378
344.174605	2625.629528
344.566033	2625.231277
344.957397	2624.122223
345.348697	2621.952006
345.739934	2620.918570
346.131106	2619.310442
346.522215	2618.829012
346.913260	2615.375821
347.304241	2614.760800
347.695159	2611.345419
348.086012	2611.736108
348.476802	2607.640171
348.867528	2604.791919
349.258191	2602.556167
349.648789	2599.370158
350.039324	2596.894951
350.429796	2602.614140
350.820203	2598.266145
351.210548	2600.610282
351.600828	2596.753799
351.991045	2599.070209
352.381198	2598.750096
352.771288	2595.712801
353.161314	2594.893613
353.551276	2594.477718
353.941175	2594.336566
354.331010	2591.417737
354.720782	2592.244487
355.110490	2590.248190
355.500135	2592.017635
355.889717	2596.156422
356.279235	2594.114755
356.668689	2593.729107
357.058080	2593.908067
357.447408	2593.920670
357.836672	2592.715835
358.225873	2594.875969
358.615010	2593.892944
359.004084	2595.082656
359.393095	2596.506782
359.782043	2595.785897
360.170927	2599.488625
360.559748	2597.588110
360.948505	2600.680858
361.337199	2598.510641
361.725830	2599.045003
362.114398	2598.540888
362.502903	2597.227667
362.891344	2599.997781
363.279722	2601.941146
363.668037	2603.408122
364.056289	2604.310488
364.444478	2599.849067
364.832603	2602.737648
365.220665	2602.629264
365.608665	2606.639502
365.996601	2603.813935
366.384474	2604.759151
366.772284	2604.134048
367.160031	2605.296034
367.547715	2608.134204
367.935336	2605.749738
368.322893	2604.711260
368.710388	2602.692278
369.097820	2603.335025
369.485189	2604.910386
369.872495	2609.381889
370.259738	2608.207300
370.646918	2608.693772
371.034035	2610.821139
371.421090	2609.845675
371.808081	2612.313320
372.195010	2608.867692
372.581875	2610.216200
372.968678	2608.444235
373.355418	2611.584873
373.742096	2611.582353
374.128710	2611.418515
374.515262	2612.893053
374.901751	2612.464555
375.288177	2614.115533
375.674540	2609.598659
376.060841	2612.257867
376.447079	2613.916407
376.833254	2617.674587
377.219367	2612.187291
377.605417	2615.728702
377.991404	2614.803650
378.377329	2611.685697
378.763191	2615.090996
379.148991	2616.719289
379.534727	2615.559823
379.920402	2615.471603
380.306013	2615.401027
380.691563	2615.453959
381.077049	2619.441512
381.462474	2617.692231
381.847835	2616.605863
382.233134	2617.604011
382.618371	2619.464197
383.003545	2618.130812
383.388657	2616.933538
383.773706	2619.257510
384.158693	2618.065277
384.543618	2618.309773
384.928480	2623.131636
385.313280	2620.588374
385.698017	2621.878910
386.082692	2623.620628
386.467305	2624.845629
386.851856	2623.857562
387.236344	2622.269599
387.620770	2621.314300
388.005133	2621.120216
388.389435	2623.776904
388.773674	2620.727006
389.157851	2624.621297
389.541965	2628.863428
389.926018	2626.569703
390.310008	2625.107769
390.693936	2626.655403
391.077802	2629.175980
391.461606	2631.394087
391.845348	2630.302678
392.229027	2629.047430
392.612645	2632.203193
392.996200	2630.640435
393.379694	2632.835857
393.763125	2631.545322
394.146494	2633.115642
394.529801	2632.545991
394.913047	2635.230406
395.296230	2633.460961
395.679351	2635.172432
396.062410	2636.122690
396.445408	2638.071096
396.828343	2636.679737
397.211217	2640.059831
397.594028	2640.755510
397.976778	2637.461116
398.359466	2639.628812
398.742092	2638.981024
399.124656	2642.603093
399.507158	2643.782723
399.889598	2643.071920
400.271977	2644.818680
400.654294	2646.507467
401.036549	2645.287507
401.418742	2643.248361
401.800874	2645.484112
402.182944	2645.927734
402.564952	2648.783548
402.946898	2650.711789
403.328783	2647.755152
403.710606	2648.407982
404.092367	2649.605256
404.474067	2650.784886
404.855705	2649.844711
405.237282	2651.561223
405.618797	2653.497027
406.000250	2655.258910
406.381642	2656.430978
406.762972	2654.916111
407.144240	2654.621204
407.525447	2658.704538
407.906593	2661.023469
408.287677	2666.601506
408.668700	2670.841116
409.049661	2676.159534
409.430560	2679.864782
409.811399	2682.506346
410.192176	2695.373892
410.572891	2706.313195
410.953545	2719.505895
411.334138	2726.392111
411.714669	2744.880543
412.095139	2755.361102
412.475547	2782.381686
412.855894	2807.847075
413.236180	2839.888649
413.616405	2858.626618
413.996568	2904.591858
414.376670	2941.845985
414.756711	2977.809577
415.136691	3027.875796
415.516609	3095.931373
415.896466	3150.373314
416.276262	3233.504462
416.655997	3299.251190
417.035670	3388.580436
417.415283	3519.438708
417.794834	3605.735700
418.174324	3660.381808
418.553753	3731.232704
418.933121	3886.132239
419.312428	3990.433712
419.691674	4025.220194
420.070859	4247.300665
420.449983	4262.489661
420.829045	4465.048264
421.208047	4503.038399
421.586988	4709.887024
421.965867	4819.280062
422.344686	4964.598884
422.723444	5097.251806
423.102141	4937.502682
423.480777	5354.272514
423.859352	5254.114870
424.237866	5658.755686
424.616319	5703.208581
424.994712	6009.549418
425.373044	5916.214975
425.751314	6271.099603
426.129524	6310.528987
426.507673	6510.153639
426.885762	6708.959102
427.263789	6760.794767
427.641756	6817.306101
428.019662	7002.013978
428.397508	7263.712877
428.775292	7156.502658
429.153016	7536.058693
429.530679	7524.985799
429.908282	7657.553022
430.285824	7529.033845
430.663305	8145.060325
431.040726	7818.333062
431.418086	7899.198211
431.795385	8230.739776
432.172624	8385.926656
432.549802	8398.763954
432.926920	8550.459835
433.303977	8522.148715
433.680974	8761.512782
434.057910	8906.836644
434.434786	9019.145990
434.811601	8957.444788
435.188355	9522.235500
435.565050	9327.808278
435.941683	9321.048091
436.318257	9834.678654
436.694770	9981.950922
437.071222	10106.376681
437.447614	10016.082054
437.823946	9944.522875
438.200218	10138.713163
438.576429	9986.477878
438.952580	10234.270754
439.328670	10331.423871
439.704700	10148.671962
440.080670	10162.880454
440.456580	10740.173228
440.832429	10513.863229
441.208218	10146.531992
441.583947	10494.240538
441.959616	10636.418720
442.335224	10457.039343
442.710773	10623.747780
443.086261	10828.768986
443.461689	10141.747937
443.837057	10770.422672
444.212365	11074.114382
444.587612	10732.467824
444.962800	10976.978909
445.337927	10765.134501
445.712995	10324.456997
446.088002	11428.449524
446.462949	11076.329969
446.837837	11050.267204
447.212664	11065.400748
447.587431	11557.492981
447.962139	12254.056934
448.336786	14503.215613
448.711374	15078.542337
449.085901	12949.589971
449.460369	12555.855691
449.834776	12004.907987
450.209124	12859.262577
450.583412	13263.313578
450.957640	14221.024424
451.331808	13404.493612
451.705917	12373.882640
452.079965	11707.179962
452.453954	12584.088673
452.827883	12219.099053
453.201752	12504.209070
453.575562	12010.894357
453.949311	12435.765324
454.323001	12393.288562
454.696632	12615.805093
455.070202	12902.475347
455.443713	13161.182322
455.817164	13603.689765
456.190556	13606.117081
456.563888	13976.901508
456.937160	14155.176872
457.310373	13479.737874
457.683526	13564.623343
458.056619	13115.073408
458.429653	13250.047782
458.802628	12708.025441
459.175542	13068.460379
459.548398	14013.011293
459.921194	14348.903373
460.293930	14406.591818
460.666607	15292.972857
461.039224	16313.395657
461.411782	17019.633584
461.784280	16916.952842
462.156719	16957.481199
462.529099	16642.598127
462.901419	15567.362861
463.273680	15368.643097
463.645882	15226.467435
464.018024	14959.871055
464.390106	15173.789898
464.762130	15904.164870
465.134094	16659.647309
465.505999	18633.846334
465.877845	21891.661760
466.249631	24724.160077
466.621358	24427.863740
466.993026	22974.942707
467.364634	22418.699271
467.736184	20955.395983
468.107674	20157.151956
468.479105	20293.006011
468.850477	19749.725903
469.221790	19340.054015
469.593043	18666.076951
469.964238	18108.250593
470.335373	17774.193492
470.706449	18197.352987
471.077467	17752.355214
471.448425	19565.123890
471.819324	23572.465632
472.190164	25630.110876
472.560945	22118.508642
472.931667	19719.300018
473.302330	19085.052288
473.672934	18584.576617
474.043479	18938.821018
474.413965	18750.791021
474.784393	18377.024751
475.154761	19058.437517
475.525070	19053.928205
475.895321	18714.426658
476.265513	19303.498087
476.635645	19873.776096
477.005719	19665.256329
477.375734	19855.126347
477.745691	20336.823721
478.115588	20846.728870
478.485427	21363.041327
478.855207	22424.904932
479.224928	24173.068701
479.594591	26398.092856
479.964194	26453.926156
480.333739	26646.909087
480.703226	26210.647633
481.072653	25882.332406
481.442022	26453.971526
481.811333	27353.832611
482.180584	27286.502960
482.549777	26345.904311
482.918912	25982.185061
483.287988	26104.334739
483.657005	25772.699913
484.025964	25527.321749
484.394864	25449.221673
484.763706	25136.604600
485.132489	24559.642022
485.501213	24724.525561
485.869879	24639.705627
486.238487	24452.194869
486.607036	24609.768735
486.975527	24294.842813
487.343959	24627.387568
487.712333	24579.433592
488.080648	24239.425409
488.448905	24712.789755
488.817104	24464.008813
489.185244	25137.650639
489.553326	25120.712363
489.921350	26089.052481
490.289315	28360.913997
490.657222	30163.875108
491.025070	30647.442750
491.392861	30433.791088
491.760593	29594.154148
492.128267	28690.542444
492.495883	27650.638105
492.863440	26777.537986
493.230939	25907.336529
493.598380	25747.904998
493.965763	25344.630334
494.333088	24904.182202
494.700354	24833.883312
495.067563	24725.652259
495.434713	24471.552899
495.801805	24617.852225
496.168839	24437.734319
496.535815	24258.153295
496.902733	24472.974505
497.269593	24152.130268
497.636395	24332.971580
498.003139	24313.311080
498.369825	24054.929260
498.736453	24256.078861
499.103023	24127.650425
499.469535	24147.484845
499.835989	24359.470405
500.202385	24389.117431
500.568723	23900.768255
500.935003	24134.768534
501.301226	23749.586572
501.667390	24584.154632
502.033497	24819.556352
502.399546	24546.840012
502.765537	24115.231543
503.131470	24498.006354
503.497345	24647.116123
503.863163	23850.220606
504.228923	24456.641166
504.594625	24655.786908
504.960269	24189.573438
505.325856	24682.520147
505.691385	24086.746503
506.056856	24691.747979
506.422270	24642.821060
506.787625	24238.573454
507.152924	24646.644775
507.518164	24667.348794
507.883347	24482.184693
508.248472	24155.739734
508.613540	24952.075684
508.978550	24735.633744
509.343503	24725.216199
509.708398	24986.042979
510.073236	25141.179447
510.438016	25352.648289
510.802738	25029.898497
511.167403	25279.183554
511.532010	24970.773324
511.896561	25760.984271
512.261053	25717.247221
512.625488	25564.412039
512.989866	25437.972339
513.354186	25287.078001
513.718449	25401.245012
514.082655	25777.385665
514.446803	25518.285481
514.810894	25977.063249
515.174927	25456.370030
515.538904	25502.746124
515.902822	25994.671999
516.266684	25742.558854
516.630488	25647.704503
516.994235	25617.959175
517.357925	25926.571052
517.721558	26105.736180
518.085133	26208.903393
518.448651	26113.282787
518.812112	25837.957649
519.175516	26061.396711
519.538863	26201.051796
519.902152	25994.485476
520.265385	26271.290193
520.628560	26079.524701
520.991678	26067.569604
521.354739	26144.888301
521.717743	26209.599073
522.080690	26006.317064
522.443580	26325.394377
522.806413	26326.344634
523.169189	26415.399137
523.531908	26464.124410
523.894569	26070.206128
524.257174	26162.184500
524.619722	26341.384917
524.982213	26029.067792
525.344647	26091.918377
525.707025	26221.710445
526.069345	26203.579935
526.431608	26165.859501
526.793815	26345.117891
527.155964	25820.187582
527.518057	25977.501829
527.880093	25906.373669
528.242072	26138.034853
528.603995	25857.156884
528.965860	25637.546578
529.327669	25699.651073
529.689421	25674.357084
530.051117	25502.342832
530.412755	25690.413159
530.774337	25489.704659
531.135862	25356.613157
531.497331	25555.426182
531.858743	25121.236642
532.220098	25600.746155
532.581396	25269.189467
532.942638	25208.620003
533.303824	25311.686394
533.664953	25319.122096
534.026025	24990.075902
534.387040	25218.944286
534.747999	25278.714727
535.108902	25431.388592
535.469748	24934.051038
535.830537	25114.189109
536.191270	25235.650670
536.551947	25114.415961
536.912567	24751.215950
537.273131	25108.782472
537.633638	24816.987884
537.994089	25024.433886
538.354483	24568.065790
538.714821	25073.670835
539.075103	25108.490085
539.435328	24884.133533
539.795497	24448.895433
540.155609	24846.748336
540.515665	25142.543079
540.875665	24374.165369
541.235609	24676.533777
541.595496	24623.037052
541.955328	25001.163920
542.315102	24920.092083
542.674821	24466.854544
543.034483	24333.846220
543.394090	24513.858262
543.753640	24302.235665
544.113134	24921.760705
544.472571	24529.435428
544.831953	24838.042263
545.191278	24437.726757
545.550548	24367.949626
545.909761	24564.698299
546.268918	24788.470077
546.628019	24762.740028
546.987064	24469.186078
547.346053	24225.715991
547.704986	24346.464228
548.063863	24489.174253
548.422684	24504.711089
548.781449	24036.634913
549.140158	24432.199132
549.498811	24008.056612
549.857408	23761.549230
550.215949	24183.246790
550.574434	23861.437173
550.932864	24071.358381
551.291237	24232.335026
551.649555	24098.384007
552.007817	24151.830320
552.366022	24021.410628
552.724173	24061.046701
553.082267	24005.079811
553.440305	24484.221319
553.798288	23740.792279
554.156215	24249.568210
554.514086	24359.659449
554.871902	23726.762748
555.229661	24006.171220
555.587365	23867.466393
555.945014	23743.108689
556.302606	23979.904288
556.660143	23923.783643
557.017625	24184.068498
557.375050	23706.136867
557.732421	24099.926600
558.089735	23924.076030
558.446994	23973.784327
558.804197	24009.034596
559.161345	23944.873310
559.518437	23705.942782
559.875474	23888.944229
560.232455	24078.761315
560.589381	23902.199943
560.946251	23886.910123
561.303065	24203.736560
561.659825	24287.699498
562.016528	23895.354056
562.373177	23635.303614
562.729770	23991.173788
563.086307	23856.141441
563.442789	24020.135217
563.799216	23851.581717
564.155587	23853.633467
564.511904	23848.849412
564.868164	23773.779069
565.224370	23764.374797
565.580520	23682.614843
565.936615	23793.883191
566.292654	23475.425941
566.648638	23768.067442
567.004567	23591.604372
567.360441	23536.391135
567.716260	23270.329117
568.072023	23607.612556
568.427732	23364.709599
568.783385	23149.893431
569.138982	23387.243557
569.494525	23417.911416
569.850013	23168.321369
570.205445	23262.497684
570.560823	23070.154980
570.916145	22837.856090
571.271412	23024.759390
571.626625	22763.191561
571.981782	22883.090364
572.336884	22678.807686
572.691931	22815.695178
573.046923	22552.045352
573.401860	22429.880551
573.756743	22446.765895
574.111570	22349.874918
574.466342	22281.642901
574.821059	22374.448023
575.175722	22077.080440
575.530330	22059.116288
575.884882	22078.053382
576.239380	21987.547027
576.593823	21881.155996
576.948211	21862.158407
577.302544	21699.498017
577.656823	21564.662275
578.011047	21672.653873
578.365216	21540.973893
578.719330	21417.939492
579.073389	21306.560239
579.427394	21458.621604
579.781344	21234.015515
580.135239	21117.128801
580.489080	21082.307031
580.842866	20857.872341
581.196597	21047.568440
581.550273	21028.585975
581.903895	20910.943088
582.257463	21229.385215
582.610975	20758.627145
582.964434	21063.223743
583.317837	20764.452198
583.671186	20852.748008
584.024481	20831.265131
584.377721	20594.804769
584.730906	20676.048004
585.084037	20674.520534
585.437113	20587.457287
585.790135	20804.330246
586.143103	20262.595251
586.496016	20278.691655
586.848874	20513.251502
587.201679	20444.696851
587.554428	20123.361102
587.907124	20457.995415
588.259765	20224.481607
588.612352	20296.827206
588.964884	19875.623679
589.317362	20034.087309
589.669786	20101.437124
590.022155	20130.166660
590.374470	20331.724593
590.726731	20119.555031
591.078937	19892.597244
591.431090	19978.241406
591.783188	19736.374407
592.135232	19701.073727
592.487222	19793.604106
592.839157	19819.921449
593.191038	19698.734631
593.542866	19599.839796
593.894639	19293.466191
594.246358	19524.151912
594.598022	19424.400080
594.949633	19174.542852
595.301190	19134.886615
595.652692	19310.175096
596.004141	19549.909688
596.355535	18879.766422
596.706876	18891.489625
597.058162	18777.642727
597.409395	19016.381691
597.760573	19090.713504
598.111698	18859.306899
598.462768	18801.411767
598.813785	18765.296941
599.164748	18577.823991
599.515657	18619.554663
599.866511	18411.881810
600.217312	18775.469990
600.568060	18291.660373
600.918753	18594.764789
601.269392	18502.993104
601.619978	18285.164846
601.970510	18490.037338
602.320988	18432.910983
602.671412	18642.456625
603.021783	18559.943019
603.372100	18277.366181
603.722363	18429.921579
604.072572	18361.200569
604.422728	18517.214199
604.772830	18256.924302
605.122878	18216.098518
605.472872	18207.107620
605.822813	18189.675310
606.172701	18166.594387
606.522534	18355.869549
606.872314	18387.180156
607.222041	18213.666161
607.571714	18430.609696
607.921333	18268.085417
608.270899	18333.373400
608.620411	18509.448301
608.969870	18277.769473
609.319276	18282.901368
609.668627	18318.622984
610.017926	18445.970092
610.367171	18566.241940
610.716362	18616.487121
611.065500	18416.610412
611.414585	18562.798832
611.763616	18547.191420
612.112594	18487.610023
612.461518	18458.290672
612.810389	18647.069281
613.159207	18507.562910
613.507971	18411.801151
613.856682	18691.030663
614.205340	18629.420201
614.553945	18762.274769
614.902496	18501.818515
615.250994	18743.554445
615.599439	18679.735958
615.947830	18664.584770
616.296169	18721.736331
616.644454	18693.576445
616.992686	18661.434048
617.340864	18880.807420
617.688990	18624.076578
618.037063	18803.829001
618.385082	18646.388725
618.733048	18938.692469
619.080961	18808.469383
619.428821	18843.999435
619.776628	18724.161126
620.124382	18653.600095
620.472083	18697.359831
620.819731	18711.981698
621.167326	18403.715140
621.514868	18442.771480
621.862357	18215.087766
622.209793	18222.624291
622.557176	18063.671669
622.904506	17889.237664
623.251783	17804.463100
623.599007	17558.109474
623.946179	17506.213315
624.293297	17431.299249
624.640363	17191.781427
624.987376	17217.801342
625.334336	17007.933066
625.681243	16861.663988
626.028097	16870.327210
626.374899	16785.441741
626.721647	16650.162378
627.068343	16488.003582
627.414987	16423.741473
627.761577	16386.986421
628.108115	16428.447391
628.454600	16160.058880
628.801032	16251.838127
629.147412	16176.321643
629.493739	16209.641149
629.840014	16016.171747
630.186236	16105.221209
630.532405	15875.883997
630.878521	16076.378247
631.224585	15971.807072
631.570597	15794.053467
631.916556	15835.642986
632.262462	15804.105528
632.608316	15722.867334
632.954117	15667.099569
633.299866	15657.665050
633.645562	15564.161728
633.991206	15333.203785
634.336797	15194.309915
634.682336	15174.203272
635.027823	15059.128854
635.373257	14936.487663
635.718639	14838.233054
636.063968	14786.969560
636.409245	14525.515157
636.754470	14565.231888
637.099642	14408.179781
637.444762	14182.346171
637.789829	14225.178335
638.134845	14070.840889
638.479808	14090.473663
638.824719	14038.554819
639.169577	13895.706163
639.514383	13935.685034
639.859137	13758.077622
640.203839	13840.724819
640.548489	13681.255479
640.893086	13666.563036
641.237632	13548.015262
641.582125	13692.373743
641.926566	13522.116334
642.270955	13533.990772
642.615292	13494.979803
642.959576	13506.589580
643.303809	13528.952139
643.647990	13469.007778
643.992118	13523.028783
644.336195	13298.571408
644.680219	13506.806350
645.024192	13432.726594
645.368112	13671.949509
645.711981	13727.737438
646.055797	13913.970264
646.399562	13878.851065
646.743274	14143.471313
647.086935	14418.254527
647.430544	14384.032654
647.774101	14421.367439
648.117606	14574.880656
648.461059	14547.401327
648.804460	14518.296225
649.147810	14247.659360
649.491108	14149.855934
649.834354	14168.808152
650.177548	13856.601933
650.520690	13665.695957
650.863781	13591.220471
651.206820	13629.767654
651.549807	13465.794043
651.892742	13265.146037
652.235626	13202.050956
652.578458	13212.319786
652.921238	12894.893452
653.263967	13101.472375
653.606644	12921.535950
653.949269	12902.583732
654.291843	12707.725492
654.634365	12856.754602
654.976836	12714.367212
655.319255	12726.400446
655.661622	12672.611335
656.003938	12593.911362
656.346203	12527.814273
656.688416	12588.058582
657.030577	12557.615054
657.372687	12462.604427
657.714746	12455.708129
658.056753	12644.234680
658.398708	12447.407869
658.740612	12451.627315
659.082465	12562.474726
659.424266	12525.359231
659.766016	12549.397973
660.107715	12456.550002
660.449362	12537.445397
660.790958	12488.422697
661.132503	12431.354315
661.473996	12502.583298
661.815438	12514.364474
662.156829	12533.909028
662.498168	12521.651462
662.839456	12515.589475
663.180693	12533.326775
663.521879	12629.811939
663.863013	12599.643153
664.204097	12571.818505
664.545129	12705.114174
664.886110	12667.938185
665.227040	12760.919747
665.567918	12762.006116
665.908746	12795.418884
666.249522	12783.955300
666.590248	12832.920027
666.930922	12943.091924
667.271545	12922.445878
667.612118	13002.012930
667.952639	12913.301225
668.293109	12920.368923
668.633528	12875.706820
668.973896	12849.434847
669.314213	12931.472064
669.654480	12667.555057
669.994695	12744.014238
670.334859	12768.577260
670.674973	12713.051471
671.015035	12742.169176
671.355047	12692.034901
671.695008	12656.454437
672.034918	12671.598063
672.374777	12710.299001
672.714585	12623.903706
673.054342	12661.082216
673.394049	12605.258999
673.733705	12703.624513
674.073310	12610.728651
674.412864	12619.467491
674.752368	12493.224396
675.091820	12507.453053
675.431223	12496.629695
675.770574	12373.864996
676.109875	12288.321657
676.449125	12252.252201
676.788324	12196.237420
677.127473	12024.480267
677.466571	12017.949452
677.805619	11912.715366
678.144616	11833.574292
678.483562	11802.394755
678.822458	11677.593430
679.161303	11658.515183
679.500098	11639.706638
679.838842	11600.738519
680.177535	11628.041408
680.516179	11687.406036
680.854771	11630.846810
681.193314	11852.256808
681.531805	12015.234791
681.870247	12426.648398
682.208638	12843.551821
682.546978	13147.598933
682.885268	13203.961553
683.223508	12895.165674
683.561697	12729.667114
683.899836	12634.152372
684.237925	12439.619286
684.575963	12350.940349
684.913951	12269.684511
685.251889	12224.009136
685.589776	12313.499699
685.927614	12246.913619
686.265401	12209.984646
686.603137	12260.877615
686.940824	12410.171386
687.278460	12532.008513
687.616046	12581.953745
687.953582	12753.403387
688.291068	12681.181296
688.628504	12914.337182
688.965889	12927.295468
689.303224	12885.547153
689.640510	12773.570523
689.977745	12464.963687
690.314930	12232.684962
690.652065	12148.820327
690.989150	11856.708147
691.326185	11635.393931
691.663170	11420.938205
692.000105	11187.434480
692.336990	11065.577188
692.673825	10817.625516
693.010610	10696.501712
693.347345	10494.679118
693.684030	10293.491709
694.020665	10232.047606
694.357251	10038.646259
694.693786	9974.527823
695.030272	9815.353390
695.366707	9695.772180
695.703093	9630.958065
696.039429	9637.894693
696.375716	9545.669304
696.711952	9415.693234
697.048139	9468.539650
697.384276	9415.708357
697.720363	9434.526985
698.056400	9368.777736
698.392388	9315.235641
698.728326	9285.296228
699.064214	9218.223676
699.400053	9260.821426
699.735842	9075.564063
700.071581	9037.394967
700.407270	8958.362278
700.742910	8883.206236
701.078501	8793.007390
701.414042	8665.670365
701.749533	8600.717618
702.084974	8460.341648
702.420366	8578.382786
702.755709	8459.782080
703.091002	8323.943148
703.426246	8356.997994
703.761440	8303.826424
704.096584	8265.241433
704.431679	8194.972789
704.766725	8184.640944
705.101721	8136.709653
705.436668	8181.764966
705.771565	8075.003410
706.106413	8148.120305
706.441212	8193.911626
706.775961	8151.102148
707.110661	8193.019342
707.445311	8331.194848
707.779913	8227.425217
708.114465	8359.652162
708.448967	8395.091473
708.783421	8541.002630
709.117825	8730.454233
709.452180	8763.451105
709.786485	8848.192902
710.120742	9136.178897
710.454949	9133.985995
710.789107	9234.519206
711.123216	9457.867527
711.457275	9620.021282
711.791286	9769.083160
712.125247	9775.556001
712.459159	9762.131409
712.793023	10006.624850
713.126837	9574.429086
713.460602	9730.634279
713.794318	9559.245131
714.127985	9589.633206
714.461602	9256.695242
714.795171	9209.136996
715.128691	8963.015263
715.462162	8710.486223
715.795584	8649.863827
716.128957	8502.483174
716.462281	8340.069800
716.795556	8386.057726
717.128782	8179.975356
717.461960	7924.030934
717.795088	7991.912592
718.128167	7898.583190
718.461198	7729.583548
718.794180	7677.014396
719.127113	7667.080802
719.459997	7503.182808
719.792833	7282.859180
720.125619	7348.527770
720.458357	7204.076027
720.791046	7191.533637
721.123686	7184.730599
721.456278	7029.188318
721.788821	7045.713220
722.121315	6940.191788
722.453761	7010.624269
722.786158	6950.258972
723.118506	6962.950077
723.450805	6930.827845
723.783056	6995.510890
724.115259	6910.723723
724.447412	6904.253402
724.779518	6950.195958
725.111574	6952.434230
725.443582	7033.271653
725.775542	7013.701893
726.107453	7213.082049
726.439315	7115.293746
726.771129	7178.464445
727.102895	7351.481886
727.434612	7460.028011
727.766281	7493.413052
728.097901	7570.875422
728.429473	7563.802683
728.760996	7548.044037
729.092471	7516.204109
729.423897	7466.309289
729.755276	7471.451266
730.086606	7394.162815
730.417887	7500.316912
730.749120	7702.434414
731.080305	7893.325266
731.411442	8007.983790
731.742530	8002.950198
732.073570	8112.985983
732.404562	8197.495887
732.735506	8048.161786
733.066401	8183.776386
733.397249	8111.604707
733.728048	7875.172071
734.058798	7542.314765
734.389501	7317.023079
734.720156	7144.227449
735.050762	6905.743063
735.381320	6816.328118
735.711831	6762.246619
736.042293	6652.493138
736.372707	6670.893350
736.703073	6532.954777
737.033391	6573.253761
737.363661	6587.391677
737.693883	6618.752695
738.024056	6702.196394
738.354182	6742.202991
738.684260	6779.593229
739.014290	6895.761579
739.344272	7003.969946
739.674207	7033.135542
740.004093	7103.366376
740.333931	7118.978830
740.663722	7125.776826
740.993464	7200.348094
741.323159	7185.000301
741.652806	6935.261540
741.982405	6958.987730
742.311956	7012.744074
742.641460	6841.962385
742.970915	6646.547097
743.300323	6639.902856
743.629683	6590.161791
743.958996	6460.284024
744.288260	6369.107195
744.617477	6312.391694
744.946647	6318.791439
745.275768	6148.367671
745.604842	6106.090034
745.933869	6093.129228
746.262847	6052.479884
746.591778	6040.683584
746.920662	5991.368496
747.249498	5983.834492
747.578286	6036.156628
747.907027	6115.993381
748.235720	6172.040930
748.564365	6142.235107
748.892963	6174.949675
749.221514	6325.029867
749.550017	6153.035780
749.878473	6032.847110
750.206881	6089.829793
750.535242	6031.919538
750.863555	5958.290965
751.191821	5979.914995
751.520039	5978.354758
751.848210	5886.285644
752.176334	5910.205919
752.504411	5958.550585
752.832440	5883.240788
753.160421	5816.241332
753.488356	5864.263364
753.816243	5892.027519
754.144082	5743.028655
754.471875	5720.106528
754.799620	5763.334423
755.127318	5772.683243
755.454969	5728.545420
755.782572	5690.744328
756.110129	5735.860134
756.437638	5721.018977
756.765100	5657.387013
757.092515	5657.553371
757.419882	5712.106217
757.747203	5686.045972
758.074477	5753.068113
758.401703	5734.481379
758.728882	5691.011509
759.056014	5746.554942
759.383099	5877.350199
759.710138	5886.502414
760.037129	5874.270054
760.364073	5878.406321
760.690970	5961.585359
761.017820	5939.179951
761.344623	5892.075410
761.671379	6002.118757
761.998088	6119.388598
762.324751	6367.720878
762.651366	6983.414641
762.977935	8311.856982
763.304456	9948.023957
763.630931	10837.956489
763.957359	10418.935782
764.283740	9478.924427
764.610074	8630.838512
764.936362	7633.602500
765.262602	7036.155193
765.588796	6498.236351
765.914943	6160.345453
766.241044	5998.030381
766.567097	5796.437159
766.893104	5536.396800
767.219064	5360.941961
767.544978	5296.642044
767.870845	5220.054314
768.196665	5114.860557
768.522438	5039.739803
768.848165	5012.381461
769.173846	4944.285554
769.499479	4898.975664
769.825066	4846.832489
770.150607	4785.955515
770.476101	4760.507770
770.801548	4757.583901
771.126949	4676.595244
771.452303	4627.774190
771.777611	4585.932613
772.102872	4603.183441
772.428087	4567.071136
772.753256	4526.202501
773.078378	4482.266325
773.403453	4412.698402
773.728482	4398.230290
774.053465	4349.810008
774.378401	4341.590406
774.703291	4339.989840
775.028135	4263.439919
775.352932	4218.596335
775.677683	4204.937328
776.002388	4226.853745
776.327046	4230.266606
776.651658	4161.936286
776.976224	4101.671813
777.300743	4104.943521
777.625216	4124.699803
777.949643	4118.249647
778.274024	4075.926640
778.598359	4031.758570
778.922647	4059.721851
779.246889	4048.270870
779.571086	4042.876835
779.895236	4025.787324
780.219339	4011.735107
780.543397	4008.959952
780.867409	4060.364598
781.191374	4071.528233
781.515294	4009.101104
781.839167	4002.877800
782.162995	4023.672560
782.486776	4009.627905
782.810511	4021.908156
783.134201	4018.376827
783.457844	3971.390753
783.781441	3916.462341
784.104993	3921.473248
784.428498	3942.913275
784.751958	3935.616205
785.075372	3913.818256
785.398739	3883.372207
785.722061	3889.262795
786.045337	3934.287861
786.368568	3967.700628
786.691752	3878.157133
787.014891	3928.850976
787.337983	4061.196388
787.661030	4219.828897
787.984031	4381.382754
788.306987	4548.880132
788.629897	4635.305673
788.952760	4583.459927
789.275579	4521.133621
789.598351	4454.103919
789.921078	4313.916992
790.243759	4107.791773
790.566395	4092.322993
790.888984	4089.373918
791.211529	3981.309223
791.534027	3919.038370
791.856480	3910.375147
792.178888	3848.253009
792.501249	3800.924136
792.823566	3811.233295
793.145836	3841.931402
793.468062	3785.704892
793.790241	3742.945825
794.112375	3771.042696
794.434464	3833.215247
794.756507	3860.129967
795.078505	3840.797142
795.400457	3875.344169
795.722364	4018.243237
796.044226	4123.036223
796.366042	4193.181358
796.687812	4171.799304
797.009538	4177.097556
797.331218	4134.600629
797.652852	4109.742700
797.974442	4088.537086
798.295986	4086.419802
798.617484	4005.448788
798.938938	3917.251281
799.260346	3960.123774
799.581709	3955.032209
799.903026	3879.558574
800.224299	3844.399047
800.545526	3840.960980
800.866708	3800.687202
801.187845	3738.902820
801.508936	3774.485804
801.829983	3770.004219
802.150984	3692.498999
802.471940	3682.336033
802.792851	3690.399358
803.113717	3691.198381
803.434538	3696.040409
803.755314	3637.668889
804.076045	3612.989920
804.396731	3633.898106
804.717372	3663.124195
805.037967	3647.705826
805.358518	3633.872900
805.679024	3660.772497
805.999485	3675.114580
806.319901	3684.246630
806.640272	3691.803320
806.960598	3706.644477
807.280879	3681.171526
807.601115	3691.218546
807.921306	3711.294941
808.241453	3749.837083
808.561554	3724.608628
808.881611	3659.537414
809.201623	3697.847663
809.521590	3707.251936
809.841513	3678.701361
810.161390	3709.139848
810.481223	3687.228472
810.801011	3633.840133
811.120755	3627.211015
811.440453	3662.292405
811.760107	3661.412724
812.079716	3620.579377
812.399281	3588.247937
812.718801	3612.478243
813.038276	3586.362546
813.357707	3583.441197
813.677093	3600.197992
813.996434	3546.146741
814.315731	3555.878688
814.634983	3560.682908
814.954191	3578.420208
815.273354	3604.793004
815.592473	3597.904268
815.911547	3604.636728
816.230577	3648.812360
816.549562	3699.304557
816.868502	3741.365424
817.187399	3764.642952
817.506250	3762.203033
817.825058	3738.050865
818.143821	3828.267354
818.462539	3927.096655
818.781213	3975.274962
819.099843	4032.552552
819.418429	4284.058238
819.736970	4527.621586
820.055466	4778.446716
820.373919	5145.911544
820.692327	5554.449172
821.010691	6006.063460
821.329011	7410.160917
821.647286	10200.550476
821.965517	14803.686027
822.283704	18835.600873
822.601847	20945.653953
822.919945	19095.172405
823.237999	16488.469889
823.556010	13987.369464
823.873976	11879.617670
824.191897	9785.328278
824.509775	8437.832896
824.827609	7305.809032
825.145398	6777.125585
825.463144	6656.926833
825.780845	6777.566686
826.098502	6968.727239
826.416116	7865.815690
826.733685	9206.752531
827.051210	10309.552825
827.368692	10335.991157
827.686129	9057.622597
828.003522	7535.587345
828.320872	6518.458940
828.638177	5817.660417
828.955439	5253.787195
829.272656	4755.721195
829.589830	4475.738031
829.906960	4298.791010
830.224046	4111.403760
830.541088	3990.582426
830.858086	3940.695167
831.175041	3864.548538
831.491952	3850.808874
831.808819	3861.423023
832.125642	3936.117800
832.442421	4089.079010
832.759157	4366.339951
833.075849	4925.265281
833.392497	5797.523528
833.709101	6575.716365
834.025662	6907.058804
834.342179	6528.037132
834.658653	5861.352098
834.975083	5209.881265
835.291469	4631.648316
835.607811	4225.326275
835.924110	4083.382506
836.240366	3883.042011
836.556578	3676.566432
836.872746	3570.387129
837.188871	3528.653937
837.504952	3463.681026
837.820990	3378.165413
838.136984	3333.977178
838.452935	3363.273844
838.768842	3355.754963
839.084706	3379.942419
839.400526	3543.220351
839.716303	3886.412023
840.032037	4418.079834
840.347727	4675.662631
840.663373	4387.774937
840.978977	4001.970392
841.294537	3691.979760
841.610054	3464.958958
841.925527	3355.802854
842.240957	3291.351702
842.556344	3236.133423
842.871687	3173.771830
843.186987	3126.321969
843.502244	3090.373501
843.817458	3052.259858
844.132629	3027.096938
844.447756	3034.918288
844.762840	3016.558406
845.077881	2985.136894
845.392879	2969.358083
845.707833	2965.773822
846.022745	2963.165025
846.337613	2966.640901
846.652438	2954.045578
846.967221	2949.516101
847.281960	2936.388936
847.596656	2934.485901
847.911309	2933.076898
848.225919	2927.360230
848.540485	2919.904363
848.855009	2921.598191
849.169490	2911.173085
849.483928	2900.596744
849.798323	2900.190931
850.112675	2897.521640
850.426984	2909.486819
850.741251	2907.500604
851.055474	2893.496279
851.369654	2890.423696
851.683792	2895.376629
851.997887	2904.301992
852.311938	2905.932805
852.625947	2893.682802
852.939914	2899.099521
853.253837	2901.698236
853.567718	2886.531925
853.881555	2888.528222
854.195350	2903.250912
854.509103	2894.983419
854.822812	2889.286915
855.136479	2885.082593
855.450103	2888.029148
855.763685	2882.854403
856.077224	2876.316027
856.390720	2890.184241
856.704173	2900.833678
857.017584	2893.138357
857.330953	2889.859086
857.644278	2900.715211
857.957561	2908.239133
858.270802	2912.055287
858.584000	2912.985380
858.897155	2896.946949
859.210268	2899.548184
859.523339	2896.324366
859.836367	2895.800086
860.149352	2887.658623
860.462295	2884.888509
860.775195	2894.131464
861.088054	2892.382184
861.400869	2874.105481
861.713642	2874.387785
862.026373	2891.116854
862.339062	2891.391597
862.651708	2897.176321
862.964312	2898.350910
863.276873	2893.029972
863.589392	2901.307547
863.901869	2917.209867
864.214303	2937.321550
864.526696	2953.705300
864.839045	2948.442335
865.151353	2947.421502
865.463619	2945.586522
865.775842	2947.965946
866.088023	2968.105356
866.400162	2972.864205
866.712258	2943.890173
867.024313	2932.567742
867.336325	2944.999227
867.648296	2965.287351
867.960224	2956.324179
868.272110	2941.598969
868.583954	2948.200360
868.895755	2961.914819
869.207515	2950.874692
869.519233	2952.218159
869.830909	2963.270889
870.142542	2972.869246
870.454134	2971.969400
870.765684	2979.921820
871.077191	2974.558033
871.388657	2983.364928
871.700081	2997.991836
872.011463	3008.981552
872.322803	3010.272087
872.634101	3008.961387
872.945357	3026.865045
873.256571	3053.003428
873.567744	3046.230638
873.878874	3036.390305
874.189963	3061.046589
874.501010	3062.382494
874.812015	3052.179199
875.122979	3050.132491
875.433900	3049.341029
875.744780	3057.117009
876.055618	3060.797052
876.366415	3058.200857
876.677169	3071.010429
876.987882	3063.352917
877.298554	3061.023903
877.609183	3082.353025
877.919771	3106.132148
878.230317	3132.509986
878.540822	3184.559899
878.851285	3225.630179
879.161707	3266.992847
879.472087	3374.200545
879.782425	3602.763940
880.092722	4048.346487
880.402977	4581.551850
880.713191	5223.504984
881.023363	6396.344549
881.333494	7675.968357
881.643583	8219.515647
881.953631	7914.974502
882.263637	7269.651357
882.573602	6677.393918
882.883526	6094.298776
883.193408	5522.631929
883.503248	5064.514553
883.813048	4756.621041
884.122806	4446.302733
884.432522	4131.523005
884.742197	3897.310997
885.051831	3698.172818
885.361424	3567.228846
885.670975	3496.904750
885.980485	3405.702715
886.289954	3330.707990
886.599382	3285.309879
886.908768	3248.050711
887.218113	3201.989688
887.527417	3145.478354
887.836680	3091.548090
888.145901	3091.074222
888.455082	3076.462437
888.764221	3025.571989
889.073319	2999.199193
889.382376	2998.823627
889.691392	3002.654904
890.000366	2999.010149
890.309300	2988.519508
890.618193	3001.182887
890.927044	3016.553365
891.235855	3018.738705
891.544625	3004.447034
891.853353	3014.899866
892.162041	3031.238246
892.470687	3072.807601
892.779293	3125.694346
893.087858	3171.818383
893.396381	3245.013416
893.704864	3369.915564
894.013306	3614.777009
894.321707	3920.066766
894.630068	4124.500678
894.938387	4120.669401
895.246665	4071.102256
895.554903	3949.675983
895.863100	3747.145107
896.171256	3577.485074
896.479371	3437.890483
896.787446	3314.223417
897.095480	3210.161399
897.403473	3144.888539
897.711425	3108.602313
898.019336	3099.303905
898.327207	3067.670665
898.635038	3033.292516
898.942827	3017.702748
899.250576	3008.532889
899.558284	2976.367807
899.865952	2956.830815
900.173579	2937.434976
900.481165	2928.186979
900.788711	2915.962181
901.096216	2891.285733
901.403681	2877.273846
901.711105	2886.294991
902.018489	2884.177706
902.325832	2884.051677
902.633135	2895.220353
902.940397	2928.529778
903.247619	3012.459948
903.554800	3210.184084
903.861941	3562.275913
904.169041	3994.267509
904.476101	4290.548724
904.783121	4238.982761
905.090100	3991.351202
905.397039	3710.203531
905.703938	3459.567444
906.010796	3273.251439
906.317614	3165.038031
906.624391	3069.321643
906.931129	2998.243894
907.237826	2935.950356
907.544483	2890.022924
907.851099	2855.831298
908.157675	2838.202383
908.464211	2815.731440
908.770707	2802.004378
909.077163	2787.170782
909.383578	2775.293824
909.689954	2763.802514
909.996289	2762.083480
910.302584	2765.357710
910.608839	2766.255035
910.915054	2758.315218
911.221229	2751.038312
911.527363	2752.099475
911.833458	2759.550301
912.139513	2765.619850
912.445527	2769.783843
912.751502	2778.389092
913.057436	2784.017541
913.363331	2800.113945
913.669186	2823.714107
913.975000	2857.726772
914.280775	2918.853283
914.586510	2989.454642
914.892205	3071.892631
915.197859	3200.694112
915.503475	3399.222312
915.809050	3613.736011
916.114585	3760.163886
916.420081	3779.549643
916.725536	3718.584449
917.030952	3596.928804
917.336328	3465.357209
917.641665	3332.608505
917.946961	3233.358268
918.252218	3161.403359
918.557435	3082.529466
918.862612	3024.800692
919.167750	2970.661221
919.472848	2934.359872
919.777906	2909.721233
920.082925	2881.319372
920.387904	2846.971470
920.692843	2834.723987
920.997743	2820.928869
921.302603	2807.779019
921.607423	2796.446506
921.912204	2785.111471
922.216946	2774.628392
922.521647	2762.300250
922.826310	2754.796492
923.130932	2750.299783
923.435516	2741.795357
923.740059	2731.138357
924.044564	2724.781462
924.349028	2720.735937
924.653454	2711.613969
924.957840	2708.715305
925.262186	2703.502752
925.566493	2701.423276
925.870761	2693.982533
926.174989	2691.824919
926.479178	2684.953827
926.783328	2678.977539
927.087438	2681.319155
927.391509	2680.013496
927.695541	2674.758093
927.999533	2672.454286
928.303486	2669.154850
928.607400	2668.207113
928.911275	2667.269459
929.215110	2667.428255
929.518906	2663.934736
929.822663	2667.733245
930.126381	2667.090498
930.430060	2665.258038
930.733699	2668.358348
931.037299	2669.984120
931.340861	2667.158553
931.644383	2670.894048
931.947866	2666.470436
932.251309	2666.883811
932.554714	2669.056548
932.858080	2665.694098
933.161407	2662.132523
933.464694	2660.370640
933.767943	2660.564724
934.071153	2662.616474
934.374323	2659.223777
934.677455	2659.851401
934.980548	2658.054230
935.283602	2659.185969
935.586617	2658.823006
935.889593	2655.994918
936.192530	2656.312511
936.495428	2661.845177
936.798287	2660.035403
937.101108	2664.196876
937.403890	2666.064623
937.706632	2670.762978
938.009336	2676.368742
938.312002	2689.490865
938.614628	2697.455888
938.917216	2704.873946
939.219765	2703.361600
939.522275	2702.260108
939.824747	2698.315405
940.127179	2700.289017
940.429573	2695.739375
940.731929	2692.308870
941.034246	2689.432892
941.336524	2686.977850
941.638763	2682.624813
941.940964	2682.647499
942.243126	2679.650533
942.545250	2677.298834
942.847335	2675.078206
943.149381	2671.390602
943.451389	2667.544202
943.753359	2663.418017
944.055290	2663.559170
944.357182	2662.555980
944.659036	2659.569096
944.960851	2660.176555
945.262628	2658.583551
945.564367	2661.605722
945.866067	2661.096566
946.167729	2662.072029
946.469352	2661.799807
946.770937	2661.651093
947.072484	2656.897285
947.373992	2659.695125
947.675462	2658.439878
947.976893	2654.863179
948.278286	2650.946203
948.579641	2652.599701
948.880958	2650.071562
949.182236	2650.091727
949.483476	2651.452839
949.784678	2649.199443
950.085841	2651.374701
950.386967	2652.181285
950.688054	2651.281439
950.989103	2653.938127
951.290114	2653.015596
951.591087	2654.091883
951.892021	2660.216885
952.192917	2660.468942
952.493776	2660.552121
952.794596	2660.700835
953.095378	2662.366937
953.396122	2661.270486
953.696828	2660.884837
953.997496	2659.463232
954.298126	2656.496513
954.598718	2655.430309
954.899272	2650.827736
955.199788	2648.024854
955.500266	2647.198105
955.800706	2646.532672
956.101108	2641.854482
956.401472	2643.076962
956.701798	2640.911786
957.002087	2635.129582
957.302337	2634.471712
957.602550	2635.749644
957.902724	2632.810652
958.202861	2631.847791
958.502960	2631.328552
958.803022	2631.540281
959.103045	2630.456433
959.403031	2629.929632
959.702979	2628.218161
960.002889	2629.604478
960.302762	2627.371247
960.602596	2628.855867
960.902393	2628.865949
961.202153	2628.230763
961.501875	2625.967285
961.801559	2626.433592
962.101205	2626.426030
962.400814	2624.384363
962.700385	2624.560803
962.999918	2623.131636
963.299414	2622.509054
963.598873	2621.112654
963.898293	2619.973353
964.197677	2624.278499
964.497022	2622.418313
964.796331	2622.486369
965.095601	2624.712038
965.394835	2623.779425
965.694030	2621.470576
965.993189	2624.517954
966.292309	2621.208436
966.591393	2624.152470
966.890439	2622.849332
967.189447	2621.735237
967.488419	2623.126595
967.787353	2618.302211
968.086249	2621.314300
968.385108	2626.373098
968.683930	2622.987963
968.982714	2621.268930
969.281462	2621.886471
969.580172	2622.224229
969.878844	2621.853704
970.177480	2622.065432
970.476078	2623.802110
970.774639	2623.799589
971.073162	2622.428395
971.371649	2623.761781
971.670098	2620.986625
971.968510	2625.206071
972.266885	2622.753550
972.565223	2625.506020
972.863524	2621.999897
973.161788	2622.196502
973.460014	2622.771194
973.758204	2622.773714
974.056356	2620.379166
974.354471	2619.983436
974.652550	2623.509723
974.950591	2624.878396
975.248595	2622.486369
975.546563	2623.406379
975.844493	2621.591564
976.142386	2623.373612
976.440243	2621.238683
976.738062	2622.143570
977.035845	2622.937552
977.333590	2623.204733
977.631299	2620.432098
977.928971	2618.284567
978.226606	2616.525204
978.524204	2617.185595
978.821765	2618.133332
979.119290	2622.193982
979.416777	2621.838580
979.714228	2619.875051
980.011642	2621.483179
980.309020	2621.548714
980.606360	2621.241204
980.903664	2622.539301
981.200931	2620.023765
981.498162	2622.753550
981.795356	2623.257665
982.092513	2623.857563
982.389633	2624.943931
982.686717	2629.929632
982.983764	2634.375930
983.280775	2635.875673
983.577749	2639.646456
983.874686	2637.360293
984.171587	2635.215282
984.468451	2632.687143
984.765279	2630.030455
985.062070	2630.000208
985.358824	2626.214302
985.655543	2624.588530
985.952224	2623.350927
986.248869	2623.393776
986.545478	2620.316152
986.842050	2619.007972
987.138586	2620.951337
987.435086	2619.587705
987.731549	2618.266923
988.027975	2621.742798
988.324366	2620.384207
988.620719	2617.016717
988.917037	2617.636779
989.213318	2618.130812
989.509563	2619.219701
989.805772	2616.487396
990.101944	2616.134515
990.398080	2615.582508
990.694180	2617.972015
990.990244	2616.583178
991.286271	2615.874895
991.582262	2617.808178
991.878217	2616.439505
992.174136	2618.886985
992.470019	2616.424381
992.765865	2613.286263
993.061676	2613.855913
993.357450	2613.860954
993.653188	2613.699637
993.948890	2619.335647
994.244556	2617.049484
994.540186	2614.720471
994.835780	2618.944958
995.131337	2619.207098
995.426859	2620.172479
995.722345	2619.433950
996.017795	2621.571399
996.313208	2623.527367
996.608586	2622.065432
996.903928	2621.916718
997.199234	2622.940072
997.494504	2622.569548
997.789738	2621.848663
998.084936	2620.318672
998.380099	2618.040071
998.675225	2621.125257
998.970316	2618.559310
999.265371	2618.317334
999.560390	2618.400513
999.855373	2618.397993
1000.150320	2621.606687
1000.445232	2618.415637
1000.740108	2617.344392
1001.034948	2618.529063
1001.329752	2615.106119
1001.624521	2614.150821
1001.919254	2616.063939
1002.213951	2614.912035
1002.508613	2615.471603
1002.803239	2618.392952
1003.097829	2616.444546
1003.392384	2616.351284
1003.686903	2615.252313
1003.981386	2614.816253
1004.275834	2615.332971
1004.570246	2617.241048
1004.864623	2613.951695
1005.158964	2616.038733
1005.453270	2614.100409
1005.747540	2615.854731
1006.041775	2613.008999
1006.335974	2613.389607
1006.630138	2614.360029
1006.924266	2614.806171
1007.218359	2614.680142
1007.512416	2614.904473
1007.806438	2611.884822
1008.100425	2613.825666
1008.394376	2609.633947
1008.688292	2612.998917
1008.982172	2615.038064
1009.276017	2614.579319
1009.569827	2612.910697
1009.863602	2615.524535
1010.157341	2615.481685
1010.451045	2613.193002
1010.744714	2614.609566
1011.038347	2612.938423
1011.331945	2614.279370
1011.625508	2612.754421
1011.919036	2614.715430
1012.212528	2614.082765
1012.505986	2613.712240
1012.799408	2612.945985
1013.092795	2613.170316
1013.386147	2616.079062
1013.679464	2615.627879
1013.972745	2612.215018
1014.265992	2612.772065
1014.559204	2615.307766
1014.852380	2614.072683
1015.145521	2613.858434
1015.438628	2614.395317
1015.731699	2613.944133
1016.024736	2614.939761
1016.317737	2611.506736
1016.610703	2613.399689
1016.903635	2613.833228
1017.196531	2612.484719
1017.489393	2614.576798
1017.782219	2612.504884
1018.075011	2614.347426
1018.367768	2615.635441
1018.660490	2613.651747
1018.953177	2613.651747
1019.245829	2613.651747
