Dividing Wavelength (nm)	Counts (n)	Blue Motor Position (mm): 7.600000	Red Motor Position (mm): 0.000000	
326.493990	2160.063847
326.888308	2160.063847
327.282561	2160.063847
327.676750	2117.372836
328.070874	2115.545417
328.464933	2116.780500
328.858929	2117.612290
329.252859	2123.555811
329.646726	2130.618467
330.040528	2143.629685
330.434265	2156.895482
330.827938	2174.494150
331.221547	2194.467201
331.615091	2208.630323
332.008571	2228.300905
332.401986	2246.706158
332.795338	2264.526637
333.188625	2282.203443
333.581847	2304.298820
333.975006	2322.676347
334.368100	2341.005982
334.761129	2357.125071
335.154095	2373.952443
335.546996	2390.810061
335.939833	2410.029460
336.332606	2424.767274
336.725315	2438.373348
337.117960	2448.927003
337.510540	2461.734055
337.903056	2474.576394
338.295508	2480.494709
338.687896	2490.985350
339.080220	2499.487256
339.472480	2508.173164
339.864676	2511.525531
340.256807	2517.741274
340.648875	2518.058867
341.040879	2523.982223
341.432818	2526.792666
341.824694	2528.262162
342.216506	2531.997657
342.608253	2529.726617
342.999937	2528.897348
343.391557	2530.467667
343.783113	2531.125538
344.174605	2528.625125
344.566033	2529.320804
344.957397	2527.644621
345.348697	2524.907274
345.739934	2525.179497
346.131106	2523.289064
346.522215	2522.192613
346.913260	2518.091634
347.304241	2518.376459
347.695159	2513.456293
348.086012	2512.906808
348.476802	2511.142404
348.867528	2506.466733
349.258191	2503.507576
349.648789	2502.156547
350.039324	2499.169663
350.429796	2501.385250
350.820203	2502.625374
351.210548	2498.763850
351.600828	2500.901300
351.991045	2496.991885
352.381198	2497.546412
352.771288	2494.378047
353.161314	2493.226143
353.551276	2495.681185
353.941175	2493.957110
354.331010	2493.684888
354.720782	2494.075577
355.110490	2495.565238
355.500135	2494.272182
355.889717	2494.940135
356.279235	2493.274034
356.668689	2495.519868
357.058080	2493.027017
357.447408	2494.279744
357.836672	2495.373674
358.225873	2493.639517
358.615010	2496.084477
359.004084	2499.635970
359.393095	2494.730927
359.782043	2500.243429
360.170927	2498.622698
360.559748	2499.068840
360.948505	2501.155878
361.337199	2498.688233
361.725830	2499.691423
362.114398	2499.872904
362.502903	2502.461537
362.891344	2500.881135
363.279722	2500.828203
363.668037	2502.131341
364.056289	2503.162257
364.444478	2504.417504
364.832603	2504.598986
365.220665	2505.718122
365.608665	2504.664521
365.996601	2506.691065
366.384474	2505.261898
366.772284	2506.459172
367.160031	2504.994717
367.547715	2508.833555
367.935336	2507.427073
368.322893	2505.095540
368.710388	2505.836589
369.097820	2505.808863
369.485189	2505.821466
369.872495	2508.936899
370.259738	2507.396826
370.646918	2509.478823
371.034035	2505.400529
371.421090	2513.998217
371.808081	2512.518639
372.195010	2512.085099
372.581875	2508.284069
372.968678	2512.707682
373.355418	2508.979749
373.742096	2507.565705
374.128710	2508.195849
374.515262	2509.320027
374.901751	2510.280366
375.288177	2511.195336
375.674540	2511.772548
376.060841	2510.144255
376.447079	2510.187105
376.833254	2512.077538
377.219367	2514.398989
377.605417	2512.430418
377.991404	2513.761283
378.377329	2513.146262
378.763191	2514.613238
379.148991	2513.173989
379.534727	2511.863289
379.920402	2513.849503
380.306013	2514.769514
380.691563	2515.434946
381.077049	2513.410923
381.462474	2515.916376
381.847835	2513.892353
382.233134	2516.980060
382.618371	2518.348733
383.003545	2518.104237
383.388657	2519.268744
383.773706	2518.505009
384.158693	2516.874196
384.543618	2517.864782
384.928480	2516.236490
385.313280	2518.497447
385.698017	2515.117353
386.082692	2517.280008
386.467305	2518.832684
386.851856	2518.820081
387.236344	2518.051305
387.620770	2515.830677
388.005133	2516.506191
388.389435	2516.470903
388.773674	2515.739936
389.157851	2520.786131
389.541965	2519.896367
389.926018	2518.043743
390.310008	2517.748836
390.693936	2520.874351
391.077802	2522.414424
391.461606	2518.981398
391.845348	2520.944927
392.229027	2523.606657
392.612645	2518.913342
392.996200	2521.829650
393.379694	2521.867458
393.763125	2521.474248
394.146494	2521.151615
394.529801	2522.331245
394.913047	2522.479959
395.296230	2520.196316
395.679351	2520.546676
396.062410	2522.908457
396.445408	2521.771677
396.828343	2523.024403
397.211217	2523.107582
397.594028	2523.546163
397.976778	2523.286543
398.359466	2524.272089
398.742092	2523.664630
399.124656	2522.900895
399.507158	2525.537418
399.889598	2525.539939
400.271977	2521.262520
400.654294	2525.736544
401.036549	2525.086235
401.418742	2524.284692
401.800874	2526.999353
402.182944	2523.122706
402.564952	2525.192099
402.946898	2528.355423
403.328783	2527.183355
403.710606	2524.561955
404.092367	2527.155629
404.474067	2524.937521
404.855705	2525.928108
405.237282	2528.549508
405.618797	2527.994981
406.000250	2529.928263
406.381642	2525.255114
406.762972	2526.172604
407.144240	2522.021214
407.525447	2524.733354
407.906593	2522.139681
408.287677	2528.602440
408.668700	2530.326515
409.049661	2528.287368
409.430560	2527.508510
409.811399	2528.317615
410.192176	2529.693850
410.572891	2530.187883
410.953545	2528.804086
411.334138	2528.920033
411.714669	2527.677388
412.095139	2530.598737
412.475547	2532.826927
412.855894	2530.409694
413.236180	2530.351720
413.616405	2529.406504
413.996568	2529.986237
414.376670	2531.891793
414.756711	2530.591175
415.136691	2529.411545
415.516609	2529.885414
415.896466	2532.360620
416.276262	2529.923222
416.655997	2529.330887
417.035670	2529.814837
417.415283	2532.158974
417.794834	2531.622091
418.174324	2530.883562
418.553753	2531.425486
418.933121	2534.266176
419.312428	2529.643438
419.691674	2531.301978
420.070859	2530.835671
420.449983	2530.845753
420.829045	2530.447502
421.208047	2535.075282
421.586988	2534.591331
421.965867	2531.110414
422.344686	2532.010260
422.723444	2533.066382
423.102141	2533.396577
423.480777	2533.487318
423.859352	2532.368182
424.237866	2534.571166
424.616319	2532.214427
424.994712	2535.130734
425.373044	2530.195445
425.751314	2532.390867
426.129524	2529.446833
426.507673	2532.181659
426.885762	2529.850126
427.263789	2534.644263
427.641756	2534.092257
428.019662	2536.222144
428.397508	2533.978831
428.775292	2536.126362
429.153016	2532.516896
429.530679	2532.317770
429.908282	2535.942360
430.285824	2534.906403
430.663305	2536.542257
431.040726	2534.356917
431.418086	2536.237268
431.795385	2535.589479
432.172624	2534.180477
432.549802	2534.777853
432.926920	2536.171733
433.303977	2536.597710
433.680974	2537.560570
434.057910	2536.456558
434.434786	2535.965045
434.811601	2537.691640
435.188355	2535.972607
435.565050	2535.765920
435.941683	2537.822710
436.318257	2535.932278
436.694770	2536.431352
437.071222	2538.258770
437.447614	2537.636188
437.823946	2537.633667
438.200218	2535.954963
438.576429	2539.708102
438.952580	2536.350693
439.328670	2538.843544
439.704700	2537.066537
440.080670	2539.148534
440.456580	2537.973945
440.832429	2539.267001
441.208218	2537.784902
441.583947	2539.398071
441.959616	2539.486291
442.335224	2537.492515
442.710773	2539.493853
443.086261	2538.866229
443.461689	2540.272711
443.837057	2539.670293
444.212365	2542.455531
444.587612	2536.874973
444.962800	2535.352545
445.337927	2536.660724
445.712995	2533.527647
446.088002	2539.448483
446.462949	2538.815818
446.837837	2538.135262
447.212664	2539.887063
447.587431	2540.277752
447.962139	2538.568801
448.336786	2542.420243
448.711374	2540.476878
449.085901	2539.342618
449.460369	2537.623585
449.834776	2537.467309
450.209124	2539.246836
450.583412	2541.326312
450.957640	2539.541744
451.331808	2540.721374
451.705917	2541.086857
452.079965	2544.749256
452.453954	2540.575180
452.827883	2540.091230
453.201752	2540.572660
453.575562	2540.703730
453.949311	2541.588452
454.323001	2538.344470
454.696632	2540.194573
455.070202	2542.521066
455.443713	2541.522917
455.817164	2542.047197
456.190556	2542.566436
456.563888	2541.611138
456.937160	2540.285314
457.310373	2542.468134
457.683526	2545.200439
458.056619	2542.289173
458.429653	2541.230530
458.802628	2540.829759
459.175542	2543.390665
459.548398	2541.192722
459.921194	2544.605583
460.293930	2542.999975
460.666607	2541.563247
461.039224	2544.434184
461.411782	2545.185316
461.784280	2542.180788
462.156719	2544.345963
462.529099	2542.677342
462.901419	2542.369831
463.273680	2541.336395
463.645882	2537.190046
464.018024	2540.718853
464.390106	2540.388658
464.762130	2542.150541
465.134094	2541.006199
465.505999	2544.015768
465.877845	2543.221786
466.249631	2544.136756
466.621358	2541.404450
466.993026	2545.142466
467.364634	2549.082127
467.736184	2543.672969
468.107674	2545.651622
468.479105	2543.738504
468.850477	2542.503422
469.221790	2545.308824
469.593043	2544.519883
469.964238	2545.376879
470.335373	2545.911242
470.706449	2544.802188
471.077467	2544.782023
471.448425	2545.066848
471.819324	2546.858979
472.190164	2545.628937
472.560945	2543.690613
472.931667	2545.565923
473.302330	2544.845038
473.672934	2545.512991
474.043479	2546.314534
474.413965	2545.591128
474.784393	2545.263453
475.154761	2545.071890
475.525070	2543.660367
475.895321	2546.705223
476.265513	2542.793288
476.635645	2544.628268
477.005719	2545.868392
477.375734	2544.542568
477.745691	2544.487116
478.115588	2546.513660
478.485427	2547.413506
478.855207	2546.780841
479.224928	2547.542055
479.594591	2546.143135
479.964194	2545.238248
480.333739	2547.012734
480.703226	2543.045346
481.072653	2548.083979
481.442022	2547.620193
481.811333	2544.988711
482.180584	2540.733977
482.549777	2545.056766
482.918912	2540.829759
483.287988	2549.031716
483.657005	2546.548948
484.025964	2546.483413
484.394864	2548.267981
484.763706	2546.574153
485.132489	2544.930737
485.501213	2548.888043
485.869879	2546.342260
486.238487	2547.118598
486.607036	2549.036757
486.975527	2549.024154
487.343959	2547.763866
487.712333	2546.594318
488.080648	2549.487940
488.448905	2548.762014
488.817104	2546.329658
489.185244	2547.095913
489.553326	2548.346119
489.921350	2550.211346
490.289315	2546.715306
490.657222	2549.929041
491.025070	2550.108002
491.392861	2550.188661
491.760593	2549.911397
492.128267	2547.221942
492.495883	2548.204967
492.863440	2544.492157
493.230939	2549.820657
493.598380	2548.988866
493.965763	2549.674463
494.333088	2545.455017
494.700354	2548.532642
495.067563	2548.792261
495.434713	2548.262940
495.801805	2545.775131
496.168839	2549.946685
496.535815	2549.256047
496.902733	2550.060111
497.269593	2547.085831
497.636395	2548.900646
498.003139	2550.844011
498.369825	2547.045501
498.736453	2549.719833
499.103023	2549.238403
499.469535	2548.575492
499.835989	2548.406613
500.202385	2549.455173
500.568723	2544.328319
500.935003	2550.087838
501.301226	2544.681200
501.667390	2549.586243
502.033497	2551.907694
502.399546	2551.963147
502.765537	2549.404761
503.131470	2548.570450
503.497345	2551.615307
503.863163	2548.530121
504.228923	2550.385266
504.594625	2551.484237
504.960269	2549.619010
505.325856	2551.693445
505.691385	2551.466593
506.056856	2553.946841
506.422270	2549.538352
506.787625	2549.056922
507.152924	2549.611449
507.518164	2551.794268
507.883347	2549.737477
508.248472	2550.234031
508.613540	2552.434495
508.978550	2551.300235
509.343503	2548.988866
509.708398	2550.390307
510.073236	2547.138763
510.438016	2552.036244
510.802738	2548.399051
511.167403	2551.282591
511.532010	2550.072714
511.896561	2550.982643
512.261053	2550.445760
512.625488	2552.825184
512.989866	2552.184958
513.354186	2550.720503
513.718449	2551.426264
514.082655	2552.298384
514.446803	2552.525236
514.810894	2552.603373
515.174927	2552.225287
515.538904	2550.171017
515.902822	2551.605225
516.266684	2549.787889
516.630488	2550.113043
516.994235	2550.032385
517.357925	2552.961295
517.721558	2550.150852
518.085133	2553.246121
518.448651	2547.373176
518.812112	2546.836293
519.175516	2549.190512
519.538863	2545.407126
519.902152	2554.329969
520.265385	2548.152035
520.628560	2552.013558
520.991678	2551.794268
521.354739	2551.925338
521.717743	2551.703528
522.080690	2553.493137
522.443580	2553.838456
522.806413	2552.167314
523.169189	2553.180586
523.531908	2552.915925
523.894569	2551.852242
524.257174	2551.113712
524.619722	2551.244782
524.982213	2552.411810
525.344647	2552.989022
525.707025	2553.412479
526.069345	2550.246634
526.431608	2552.000956
526.793815	2553.478014
527.155964	2551.804351
527.518057	2552.593291
527.880093	2551.305276
528.242072	2550.284443
528.603995	2552.424413
528.965860	2552.255534
529.327669	2554.813919
529.689421	2551.743857
530.051117	2552.149670
530.412755	2551.229659
530.774337	2554.372818
531.135862	2552.164793
531.497331	2554.685370
531.858743	2549.974412
532.220098	2553.803168
532.581396	2553.951882
532.942638	2554.009855
533.303824	2553.752757
533.664953	2553.914073
534.026025	2554.612273
534.387040	2556.364074
534.747999	2552.265616
535.108902	2556.096893
535.469748	2552.767211
535.830537	2555.416337
536.191270	2555.237376
536.551947	2553.205791
536.912567	2552.111861
537.273131	2553.110009
537.633638	2552.709238
537.994089	2558.970351
538.354483	2558.304918
538.714821	2556.633776
539.075103	2556.646379
539.435328	2557.828529
539.795497	2560.777604
540.155609	2557.417675
540.515665	2558.221739
540.875665	2561.085115
541.235609	2560.407080
541.595496	2560.530588
541.955328	2558.569579
542.315102	2558.723334
542.674821	2559.282902
543.034483	2561.448078
543.394090	2565.218861
543.753640	2558.279713
544.113134	2561.231308
544.472571	2564.283727
544.831953	2563.288099
545.191278	2562.534447
545.550548	2565.420507
545.909761	2564.820610
546.268918	2565.012174
546.628019	2567.608368
546.987064	2565.922102
547.346053	2568.717422
547.704986	2566.965621
548.063863	2569.687844
548.422684	2564.198027
548.781449	2568.145251
549.140158	2570.499470
549.498811	2569.017370
549.857408	2567.716753
550.215949	2570.484346
550.574434	2567.134499
550.932864	2568.956877
551.291237	2569.821434
551.649555	2570.101218
552.007817	2571.210272
552.366022	2569.720611
552.724173	2570.844789
553.082267	2572.649522
553.440305	2569.035014
553.798288	2572.878894
554.156215	2570.970817
554.514086	2569.854202
554.871902	2570.083574
555.229661	2570.489387
555.587365	2568.208265
555.945014	2570.317988
556.302606	2568.394788
556.660143	2573.292269
557.017625	2573.826631
557.375050	2574.512228
557.732421	2573.609862
558.089735	2574.305541
558.446994	2573.375448
558.804197	2577.794019
559.161345	2575.351580
559.518437	2572.251271
559.875474	2572.677248
560.232455	2573.554409
560.589381	2576.294276
560.946251	2572.755386
561.303065	2573.796384
561.659825	2574.731518
562.016528	2579.543300
562.373177	2575.306210
562.729770	2573.440983
563.086307	2576.082547
563.442789	2573.819069
563.799216	2574.061045
564.155587	2573.234296
564.511904	2575.820407
564.868164	2576.387537
565.224370	2575.613720
565.580520	2574.265212
565.936615	2574.124059
566.292654	2573.980386
566.648638	2574.940726
567.004567	2575.210428
567.360441	2575.727146
567.716260	2576.180850
568.072023	2574.131621
568.427732	2574.204718
568.783385	2574.726477
569.138982	2575.228072
569.494525	2576.574060
569.850013	2576.959708
570.205445	2574.121539
570.560823	2573.262022
570.916145	2575.008782
571.271412	2572.062227
571.626625	2577.597414
571.981782	2576.790830
572.336884	2574.179512
572.691931	2571.898390
573.046923	2567.696588
573.401860	2568.752710
573.756743	2576.039698
574.111570	2575.485171
574.466342	2572.737742
574.821059	2571.197669
575.175722	2573.007444
575.530330	2573.801425
575.884882	2570.076013
576.239380	2575.263360
576.593823	2573.062896
576.948211	2574.358473
577.302544	2573.080540
577.656823	2572.732701
578.011047	2574.187074
578.365216	2571.235478
578.719330	2570.191959
579.073389	2573.808987
579.427394	2571.013667
579.781344	2570.421332
580.135239	2569.813873
580.489080	2570.668348
580.842866	2569.183728
581.196597	2576.143041
581.550273	2569.876887
581.903895	2571.749676
582.257463	2570.718760
582.610975	2569.675241
582.964434	2571.207752
583.317837	2567.318502
583.671186	2569.886969
584.024481	2572.094995
584.377721	2568.661969
584.730906	2567.315981
585.084037	2571.406877
585.437113	2566.731207
585.790135	2569.637432
586.143103	2569.723132
586.496016	2567.384037
586.848874	2570.600293
587.201679	2569.788667
587.554428	2565.319684
587.907124	2568.707339
588.259765	2568.273800
588.612352	2566.035528
588.964884	2567.487380
589.317362	2565.906978
589.669786	2566.426217
590.022155	2564.364385
590.374470	2560.719631
590.726731	2564.129972
591.078937	2565.445713
591.431090	2569.284552
591.783188	2566.869839
592.135232	2563.046124
592.487222	2567.515107
592.839157	2564.457647
593.191038	2568.215827
593.542866	2564.855898
593.894639	2562.942780
594.246358	2568.455282
594.598022	2563.255332
594.949633	2564.440003
595.301190	2563.126782
595.652692	2563.353634
596.004141	2563.333469
596.355535	2564.908830
596.706876	2567.852864
597.058162	2565.768347
597.409395	2564.992009
597.760573	2564.639128
598.111698	2566.108625
598.462768	2564.845816
598.813785	2566.090981
599.164748	2561.501010
599.515657	2562.163922
599.866511	2563.159550
600.217312	2563.245249
600.568060	2562.153839
600.918753	2566.585014
601.269392	2564.437482
601.619978	2565.183573
601.970510	2563.827502
602.320988	2561.952193
602.671412	2563.734241
603.021783	2562.670558
603.372100	2566.297668
603.722363	2563.046124
604.072572	2563.318346
604.422728	2561.296843
604.772830	2563.714077
605.122878	2563.494786
605.472872	2564.810527
605.822813	2565.299519
606.172701	2563.623336
606.522534	2564.172822
606.872314	2566.254818
607.222041	2564.651731
607.571714	2561.306926
607.921333	2562.433623
608.270899	2562.816751
608.620411	2560.243242
608.969870	2565.864129
609.319276	2567.620971
609.668627	2574.144224
610.017926	2577.350398
610.367171	2578.966087
610.716362	2580.160841
611.065500	2576.841241
611.414585	2573.763617
611.763616	2570.955694
612.112594	2574.234965
612.461518	2571.424521
612.810389	2572.773030
613.159207	2572.399985
613.507971	2569.720611
613.856682	2572.977197
614.205340	2570.864953
614.553945	2572.039542
614.902496	2567.535271
615.250994	2567.845302
615.599439	2569.556774
615.947830	2567.152143
616.296169	2570.509552
616.644454	2569.977710
616.992686	2567.681465
617.340864	2568.747669
617.688990	2566.852195
618.037063	2570.370920
618.385082	2572.261353
618.733048	2568.306568
619.080961	2569.576938
619.428821	2572.011816
619.776628	2569.869325
620.124382	2569.647515
620.472083	2569.977710
620.819731	2574.093812
621.167326	2569.476115
621.514868	2568.273800
621.862357	2573.133472
622.209793	2570.892680
622.557176	2571.737073
622.904506	2571.311095
623.251783	2569.161043
623.599007	2570.212124
623.946179	2570.275138
624.293297	2572.190777
624.640363	2569.138358
624.987376	2567.442010
625.334336	2567.328584
625.681243	2570.522155
626.028097	2565.105435
626.374899	2572.800756
626.721647	2572.997361
627.068343	2571.041394
627.414987	2572.122721
627.761577	2570.610375
628.108115	2571.389233
628.454600	2573.756055
628.801032	2570.948132
629.147412	2572.420149
629.493739	2572.452917
629.840014	2573.957701
630.186236	2572.747824
630.532405	2572.533575
630.878521	2573.839234
631.224585	2572.720098
631.570597	2573.113308
631.916556	2575.001220
632.262462	2573.166240
632.608316	2574.371076
632.954117	2574.469378
633.299866	2573.718246
633.645562	2578.613207
633.991206	2574.207238
634.336797	2574.512228
634.682336	2578.189750
635.027823	2576.173288
635.373257	2574.378637
635.718639	2572.551219
636.063968	2576.977352
636.409245	2573.221693
636.754470	2573.708164
637.099642	2576.763103
637.444762	2573.004923
637.789829	2577.521797
638.134845	2576.669842
638.479808	2573.219172
638.824719	2574.424008
639.169577	2573.665314
639.514383	2574.973494
639.859137	2577.483988
640.203839	2578.003227
640.548489	2569.665159
640.893086	2576.173288
641.237632	2575.401992
641.582125	2576.523648
641.926566	2580.760738
642.270955	2574.340829
642.615292	2573.498956
642.959576	2575.810325
643.303809	2572.054666
643.647990	2577.922569
643.992118	2580.937179
644.336195	2577.579770
644.680219	2578.567836
645.024192	2581.206880
645.368112	2581.537076
645.711981	2579.384503
646.055797	2581.285018
646.399562	2582.908270
646.743274	2582.356263
647.086935	2584.418095
647.430544	2586.484968
647.774101	2587.838518
648.117606	2588.274578
648.461059	2588.103179
648.804460	2592.993098
649.147810	2589.592840
649.491108	2591.445464
649.834354	2591.765577
650.177548	2590.170052
650.520690	2589.060998
650.863781	2590.338931
651.206820	2590.480083
651.549807	2591.783221
651.892742	2593.411514
652.235626	2590.623756
652.578458	2591.498396
652.921238	2590.648962
653.263967	2593.658530
653.606644	2594.578541
653.949269	2592.146184
654.291843	2593.303129
654.634365	2596.090887
654.976836	2595.672471
655.319255	2594.684405
655.661622	2595.841350
656.003938	2600.438882
656.346203	2598.182966
656.688416	2598.152719
657.030577	2598.669437
657.372687	2603.839141
657.714746	2603.173708
658.056753	2600.327977
658.398708	2602.546085
658.740612	2603.088009
659.082465	2605.969028
659.424266	2601.626074
659.766016	2601.873091
660.107715	2608.965994
660.449362	2601.784870
660.790958	2609.880963
661.132503	2609.593618
661.473996	2611.821808
661.815438	2612.207456
662.156829	2615.446397
662.498168	2614.118053
662.839456	2617.049484
663.180693	2616.462190
663.521879	2620.963940
663.863013	2621.026955
664.204097	2624.447377
664.545129	2623.335803
664.886110	2622.509054
665.227040	2626.824282
665.567918	2629.990126
665.908746	2633.713018
666.249522	2632.616567
666.590248	2634.154119
666.930922	2637.806435
667.271545	2642.477064
667.612118	2645.836993
667.952639	2642.807260
668.293109	2648.271871
668.633528	2648.236582
668.973896	2647.896305
669.314213	2652.481234
669.654480	2648.894453
669.994695	2649.159114
670.334859	2653.575164
670.674973	2656.045330
671.015035	2658.361740
671.355047	2661.905671
671.695008	2660.302584
672.034918	2663.420538
672.374777	2667.667710
672.714585	2667.619819
673.054342	2671.791374
673.394049	2671.859429
673.733705	2677.447548
674.073310	2680.436953
674.412864	2684.394258
674.752368	2680.507529
675.091820	2678.508711
675.431223	2688.734692
675.770574	2684.719413
676.109875	2688.437264
676.449125	2686.488858
676.788324	2684.595905
677.127473	2686.055319
677.466571	2685.445339
677.805619	2693.992615
678.144616	2692.961699
678.483562	2696.243491
678.822458	2691.943386
679.161303	2693.894313
679.500098	2704.662217
679.838842	2704.483257
680.177535	2704.122814
680.516179	2707.041642
680.854771	2712.017261
681.193314	2722.815412
681.531805	2721.466904
681.870247	2740.777044
682.208638	2748.608476
682.546978	2765.398039
682.885268	2774.141920
683.223508	2763.482401
683.561697	2759.454519
683.899836	2766.713780
684.237925	2764.294026
684.575963	2767.641352
684.913951	2782.495112
685.251889	2777.136366
685.589776	2784.935031
685.927614	2791.720424
686.265401	2784.564506
686.603137	2799.584624
686.940824	2810.302117
687.278460	2821.390135
687.616046	2836.753051
687.953582	2849.628158
688.291068	2840.365038
688.628504	2854.986905
688.965889	2867.642721
689.303224	2880.328785
689.640510	2877.755276
689.977745	2864.043337
690.314930	2863.256917
690.652065	2864.900334
690.989150	2847.183198
691.326185	2846.535410
691.663170	2839.681962
692.000105	2832.432782
692.336990	2839.271107
692.673825	2829.037565
693.010610	2826.849704
693.347345	2818.695638
693.684030	2808.832621
694.020665	2811.804381
694.357251	2813.785554
694.693786	2825.657472
695.030272	2806.889256
695.366707	2810.619710
695.703093	2811.431335
696.039429	2816.527942
696.375716	2822.589929
696.711952	2812.018630
697.048139	2822.337872
697.384276	2831.540498
697.720363	2828.765343
698.056400	2831.212823
698.392388	2836.553926
698.728326	2834.429079
699.064214	2836.029646
699.400053	2852.400793
699.735842	2842.278156
700.071581	2838.706498
700.407270	2836.155674
700.742910	2833.584686
701.078501	2841.249760
701.414042	2831.921105
701.749533	2832.599140
702.084974	2826.219560
702.420366	2833.617453
702.755709	2833.864470
703.091002	2827.205106
703.426246	2832.110148
703.761440	2836.584172
704.096584	2837.738597
704.431679	2834.734069
704.766725	2838.661128
705.101721	2839.510562
705.436668	2841.453927
705.771565	2844.070286
706.106413	2856.138808
706.441212	2863.947556
706.775961	2857.625949
707.110661	2858.087214
707.445311	2881.589073
707.779913	2875.123794
708.114465	2891.119375
708.448967	2895.374109
708.783421	2898.905437
709.117825	2927.057761
709.452180	2934.009512
709.786485	2934.700150
710.120742	2967.555870
710.454949	2969.499235
710.789107	2986.072028
711.123216	3002.579286
711.457275	3031.485263
711.791286	3052.290104
712.125247	3048.456307
712.459159	3073.024370
712.793023	3092.263934
713.126837	3062.647155
713.460602	3076.033939
713.794318	3044.206614
714.127985	3070.450861
714.461602	3059.428378
714.795171	3039.430121
715.128691	3033.131199
715.462162	3005.614061
715.795584	3023.263141
716.128957	3008.694206
716.462281	2976.251860
716.795556	3009.836027
717.128782	2984.587408
717.461960	2954.300156
717.795088	2977.255050
718.128167	2975.225986
718.461198	2956.533387
718.794180	2952.850824
719.127113	2971.021663
719.459997	2962.280303
719.792833	2931.320056
720.125619	2942.019905
720.458357	2925.754622
720.791046	2930.684871
721.123686	2951.192285
721.456278	2931.345262
721.788821	2932.232505
722.121315	2919.243972
722.453761	2936.804832
722.786158	2945.838579
723.118506	2946.851851
723.450805	2948.376800
723.783056	2951.411575
724.115259	2937.820624
724.447412	2951.978705
724.779518	2952.288736
725.111574	2956.359467
725.443582	2975.178095
725.775542	2972.748258
726.107453	3000.998885
726.439315	2991.289622
726.771129	2999.289933
727.102895	3017.619569
727.434612	3037.577497
727.766281	3041.945657
728.097901	3057.782442
728.429473	3050.061914
728.760996	3054.661967
729.092471	3058.079870
729.423897	3060.683626
729.755276	3074.604772
730.086606	3064.346024
730.417887	3066.138154
730.749120	3078.977973
731.080305	3134.355048
731.411442	3151.353819
731.742530	3135.448978
732.073570	3175.478260
732.404562	3194.133050
732.735506	3153.740805
733.066401	3190.629448
733.397249	3186.437729
733.728048	3158.545025
734.058798	3117.429374
734.389501	3110.054166
734.720156	3091.109510
735.050762	3043.473126
735.381320	3035.072043
735.711831	3045.671069
736.042293	3035.558515
736.372707	3052.050650
736.703073	3029.748585
737.033391	3027.253214
737.363661	3027.434695
737.693883	3042.109494
738.024056	3072.631160
738.354182	3075.454206
738.684260	3076.626275
739.014290	3100.415480
739.344272	3119.917183
739.674207	3116.839559
740.004093	3132.449492
740.333931	3140.167498
740.663722	3140.550626
740.993464	3167.730007
741.323159	3189.268337
741.652806	3118.059518
741.982405	3116.300155
742.311956	3173.010616
742.641460	3143.174547
742.970915	3097.574789
743.300323	3112.998200
743.629683	3104.055193
743.958996	3082.748756
744.288260	3074.546799
744.617477	3083.804878
744.946647	3095.384408
745.275768	3051.135680
745.604842	3059.554407
745.933869	3058.765467
746.262847	3045.171995
746.591778	3057.485013
746.920662	3054.480486
747.249498	3052.642985
747.578286	3064.915674
747.907027	3086.721185
748.235720	3096.949686
748.564365	3075.991089
748.892963	3079.477047
749.221514	3142.816625
749.550017	3109.721450
749.878473	3071.590162
750.206881	3100.493617
750.535242	3090.204622
750.863555	3073.067220
751.191821	3087.212698
751.520039	3102.752054
751.848210	3076.454875
752.176334	3072.122004
752.504411	3108.118363
752.832440	3089.166145
753.160421	3057.822771
753.488356	3085.861668
753.816243	3116.847121
754.144082	3071.948084
754.471875	3058.649520
754.799620	3079.887901
755.127318	3089.634972
755.454969	3072.613516
755.782572	3068.399112
756.110129	3091.361567
756.437638	3101.632918
756.765100	3073.258784
757.092515	3069.661921
757.419882	3090.008017
757.747203	3082.531986
758.074477	3111.601800
758.401703	3121.656381
758.728882	3080.150041
759.056014	3088.397369
759.383099	3150.143942
759.710138	3148.777789
760.037129	3123.204016
760.364073	3127.196609
760.690970	3168.208917
761.017820	3176.143693
761.344623	3143.144300
761.671379	3167.180521
761.998088	3196.467104
762.324751	3242.341604
762.651366	3361.874924
762.977935	3593.142898
763.304456	3875.858367
763.630931	4034.321997
763.957359	3973.271103
764.283740	3865.604660
764.610074	3767.370216
764.936362	3557.746436
765.262602	3433.713887
765.588796	3314.210814
765.914943	3236.458578
766.241044	3237.570152
766.567097	3210.756255
766.893104	3141.442910
767.219064	3091.585899
767.544978	3098.308277
767.870845	3092.382401
768.196665	3060.870148
768.522438	3042.636295
768.848165	3044.912376
769.173846	3041.572611
769.499479	3031.989378
769.825066	3010.587159
770.150607	3002.503669
770.476101	2997.117196
770.801548	3009.067251
771.126949	3001.427383
771.452303	2983.974908
771.777611	2974.343784
772.102872	2977.892756
772.428087	2971.119966
772.753256	2976.614823
773.078378	2970.620892
773.403453	2947.227417
773.728482	2950.370577
774.053465	2940.399174
774.378401	2937.674431
774.703291	2952.286215
775.028135	2933.265942
775.352932	2915.863878
775.677683	2911.364649
776.002388	2928.665889
776.327046	2936.043617
776.651658	2907.177970
776.976224	2879.043291
777.300743	2889.034858
777.625216	2907.447672
777.949643	2915.251378
778.274024	2891.003428
778.598359	2876.351315
778.922647	2885.445556
779.246889	2892.011659
779.571086	2896.470560
779.895236	2891.678943
780.219339	2878.375338
780.543397	2874.841489
780.867409	2895.553070
781.191374	2908.256777
781.515294	2888.802965
781.839167	2883.303066
782.162995	2891.822616
782.486776	2887.908160
782.810511	2897.350241
783.134201	2907.150244
783.457844	2890.244735
783.781441	2871.645398
784.104993	2874.372662
784.428498	2884.144938
784.751958	2893.680281
785.075372	2884.520504
785.398739	2867.168853
785.722061	2867.864532
786.045337	2894.431413
786.368568	2911.094947
786.691752	2872.116745
787.014891	2878.808877
787.337983	2919.896802
787.661030	2956.654375
787.984031	2992.542349
788.306987	3040.705533
788.629897	3054.649364
788.952760	3045.850030
789.275579	3038.923485
789.598351	3045.045966
789.921078	3016.634023
790.243759	2943.285235
790.566395	2945.604166
790.888984	2957.927266
791.211529	2922.664395
791.534027	2911.044535
791.856480	2918.898653
792.178888	2890.244735
792.501249	2867.320088
792.823566	2874.360059
793.145836	2899.132289
793.468062	2879.721326
793.790241	2854.883561
794.112375	2868.845037
794.434464	2888.278685
794.756507	2908.022364
795.078505	2892.578789
795.400457	2888.795403
795.722364	2928.466763
796.044226	2960.147894
796.366042	2977.227324
796.687812	2981.882829
797.009538	2982.006338
797.331218	2966.282979
797.652852	2963.099490
797.974442	2968.738021
798.295986	2982.021461
798.617484	2951.124229
798.938938	2917.053591
799.260346	2941.125100
799.581709	2952.223201
799.903026	2928.038265
800.224299	2910.752148
800.545526	2914.165010
800.866708	2902.860222
801.187845	2874.506252
801.508936	2899.437279
801.829983	2907.707292
802.150984	2868.290510
802.471940	2865.308667
802.792851	2875.451469
803.113717	2875.511962
803.434538	2884.583519
803.755314	2858.142667
804.076045	2842.510049
804.396731	2848.559433
804.717372	2868.204810
805.037967	2867.977958
805.358518	2858.828264
805.679024	2862.460415
805.999485	2864.340766
806.319901	2867.315046
806.640272	2876.820142
806.960598	2885.894219
807.280879	2865.744727
807.601115	2871.282434
807.921306	2881.944475
808.241453	2901.693195
808.561554	2899.855694
808.881611	2863.413193
809.201623	2879.940616
809.521590	2892.987122
809.841513	2883.456821
810.161390	2897.193965
810.481223	2897.682957
810.801011	2869.059286
811.120755	2865.878317
811.440453	2887.971174
811.760107	2896.878893
812.079716	2882.138559
812.399281	2862.437730
812.718801	2874.488608
813.038276	2864.733976
813.357707	2870.622043
813.677093	2884.470093
813.996434	2860.055785
814.315731	2858.936649
814.634983	2864.532329
814.954191	2871.005171
815.273354	2890.501833
815.592473	2886.857079
815.911547	2880.081768
816.230577	2894.872514
816.549562	2916.163827
816.868502	2943.675924
817.187399	2950.242027
817.506250	2941.334308
817.825058	2930.644542
818.143821	2970.217599
818.462539	3021.039992
818.781213	3037.206972
819.099843	3043.775596
819.418429	3123.398100
819.736970	3205.329453
820.055466	3280.740073
820.373919	3429.126437
820.692327	3580.524890
821.010691	3695.750543
821.329011	4105.056947
821.647286	4835.888144
821.965517	5846.720148
822.283704	6643.759339
822.601847	7124.040148
822.919945	6961.548636
823.237999	6616.705987
823.556010	6158.134907
823.873976	5711.077822
824.191897	5039.820461
824.509775	4589.224486
824.827609	4217.555337
825.145398	4024.562323
825.463144	4014.230478
825.780845	4045.432700
826.098502	4044.737021
826.416116	4257.302314
826.733685	4642.529647
827.051210	5025.697668
827.368692	5147.035721
827.686129	4809.520389
828.003522	4303.862411
828.320872	3985.886591
828.638177	3765.510030
828.955439	3579.471288
829.272656	3378.639281
829.589830	3258.866507
829.906960	3205.536140
830.224046	3131.300109
830.541088	3080.931420
830.858086	3071.098649
831.175041	3042.051521
831.491952	3033.627753
831.808819	3044.927499
832.125642	3068.560428
832.442421	3126.029582
832.759157	3225.458780
833.075849	3409.453334
833.392497	3680.296886
833.709101	3895.266809
834.025662	4042.922206
834.342179	3988.389524
834.658653	3796.364412
834.975083	3581.943974
835.291469	3367.339535
835.607811	3191.148687
835.924110	3155.442194
836.240366	3073.767940
836.556578	2979.112715
836.872746	2933.288627
837.188871	2929.016249
837.504952	2906.131931
837.820990	2865.033924
838.136984	2838.230109
838.452935	2854.616380
838.768842	2858.306504
839.084706	2868.020808
839.400526	2921.850249
839.716303	3018.403468
840.032037	3191.609953
840.347727	3320.429078
840.663373	3257.714603
840.978977	3128.971096
841.294537	3010.640091
841.610054	2909.547313
841.925527	2864.307998
842.240957	2837.811693
842.556344	2819.618169
842.871687	2794.114972
843.186987	2769.191507
843.502244	2753.276585
843.817458	2736.434090
844.132629	2718.406923
844.447756	2729.522668
844.762840	2722.452449
845.077881	2707.573484
845.392879	2699.784901
845.707833	2699.923533
846.022745	2698.864891
846.337613	2700.036959
846.652438	2696.382122
846.967221	2695.956145
847.281960	2684.943744
847.596656	2686.816533
847.911309	2687.734023
848.225919	2682.443332
848.540485	2679.176664
848.855009	2682.254289
849.169490	2679.925276
849.483928	2671.902279
849.798323	2671.196518
850.112675	2669.739624
850.426984	2675.915038
850.741251	2680.058866
851.055474	2671.599810
851.369654	2670.183246
851.683792	2671.314985
851.997887	2672.718946
852.311938	2673.752383
852.625947	2671.932526
852.939914	2674.047290
853.253837	2677.049297
853.567718	2668.426404
853.881555	2664.622853
854.195350	2674.543844
854.509103	2673.598627
854.822812	2673.434790
855.136479	2669.845488
855.450103	2670.326919
855.763685	2663.014725
856.077224	2661.575476
856.390720	2670.510921
856.704173	2678.624658
857.017584	2674.929492
857.330953	2668.544871
857.644278	2675.461334
857.957561	2676.625840
858.270802	2681.162879
858.584000	2682.652540
858.897155	2677.296314
859.210268	2677.008968
859.523339	2678.387724
859.836367	2676.724143
860.149352	2673.586025
860.462295	2672.449244
860.775195	2678.206242
861.088054	2680.068948
861.400869	2668.559994
861.713642	2666.281393
862.026373	2674.987465
862.339062	2677.674400
862.651708	2680.885615
862.964312	2683.902746
863.276873	2678.387724
863.589392	2677.626509
863.901869	2682.776048
864.214303	2691.381298
864.526696	2703.976621
864.839045	2701.929912
865.151353	2698.690971
865.463619	2696.888758
865.775842	2698.237267
866.088023	2710.840152
866.400162	2720.090669
866.712258	2702.000488
867.024313	2696.946732
867.336325	2702.623071
867.648296	2711.369473
867.960224	2711.036757
868.272110	2701.481249
868.583954	2707.631457
868.895755	2717.983467
869.207515	2707.155068
869.519233	2709.968032
869.830909	2714.598332
870.142542	2721.035885
870.454134	2719.584033
870.765684	2719.911708
871.077191	2721.262737
871.388657	2724.017728
871.700081	2729.051320
872.011463	2737.921230
872.322803	2735.370406
872.634101	2735.297309
872.945357	2741.419791
873.256571	2756.016452
873.567744	2751.328179
873.878874	2743.532034
874.189963	2760.177924
874.501010	2762.025507
874.812015	2758.474014
875.122979	2760.432502
875.433900	2759.041144
875.744780	2757.213726
876.055618	2765.604726
876.366415	2767.727052
876.677169	2775.313989
876.987882	2775.858433
877.298554	2767.152361
877.609183	2783.528549
877.919771	2793.792338
878.230317	2813.672128
878.540822	2845.040708
878.851285	2867.597351
879.161707	2883.338354
879.472087	2926.324273
879.782425	3037.103628
880.092722	3257.359202
880.402977	3478.310454
880.713191	3641.553098
881.023363	3921.188422
881.333494	4251.048763
881.643583	4398.401690
881.953631	4396.896905
882.263637	4329.211853
882.573602	4237.548553
882.883526	4078.636260
883.193408	3851.204604
883.503248	3656.447187
883.813048	3554.058832
884.122806	3447.151082
884.432522	3307.075061
884.742197	3196.194882
885.051831	3095.681836
885.361424	3023.285826
885.670975	2991.488748
885.980485	2948.512911
886.289954	2907.803073
886.599382	2889.228942
886.908768	2866.064840
887.218113	2844.823938
887.527417	2817.601708
887.836680	2788.912501
888.145901	2790.566000
888.455082	2789.703962
888.764221	2763.384098
889.073319	2747.096130
889.382376	2746.299628
889.691392	2750.960174
890.000366	2750.609814
890.309300	2739.541961
890.618193	2747.559916
890.927044	2759.895620
891.235855	2756.558376
891.544625	2743.257291
891.853353	2749.914135
892.162041	2759.378901
892.470687	2780.549227
892.779293	2806.528813
893.087858	2826.660661
893.396381	2859.276927
893.704864	2914.810277
894.013306	3021.012265
894.321707	3156.455466
894.630068	3253.926176
894.938387	3259.705859
895.246665	3251.493819
895.554903	3214.854713
895.863100	3125.585961
896.171256	3047.644681
896.479371	2984.284939
896.787446	2923.506268
897.095480	2866.276569
897.403473	2825.201247
897.711425	2804.041004
898.019336	2800.292906
898.327207	2789.575413
898.635038	2765.450971
898.942827	2759.479724
899.250576	2752.094434
899.558284	2733.159860
899.865952	2722.538149
900.173579	2716.854248
900.481165	2713.403578
900.788711	2706.141796
901.096216	2692.366843
901.403681	2683.519618
901.711105	2689.294260
902.018489	2693.153263
902.325832	2691.277954
902.633135	2694.053109
902.940397	2711.480378
903.247619	2746.781058
903.554800	2835.810355
903.861941	2981.396358
904.169041	3168.259328
904.476101	3308.998261
904.783121	3323.844459
905.090100	3236.592168
905.397039	3118.472893
905.703938	2993.815240
906.010796	2896.243708
906.317614	2841.035511
906.624391	2791.397790
906.931129	2757.382604
907.237826	2721.265258
907.544483	2692.931452
907.851099	2675.100891
908.157675	2665.782318
908.464211	2656.254538
908.770707	2650.260606
909.077163	2643.399595
909.383578	2633.050107
909.689954	2622.829167
909.996289	2622.377984
910.302584	2624.757408
910.608839	2627.008284
910.915054	2621.372274
911.221229	2616.520163
911.527363	2619.849845
911.833458	2619.302880
912.139513	2624.202882
912.445527	2626.128602
912.751502	2633.468522
913.057436	2639.530510
913.363331	2643.208032
913.669186	2654.709424
913.975000	2669.908503
914.280775	2704.843699
914.586510	2741.031622
914.892205	2777.897580
915.197859	2834.734069
915.503475	2916.330185
915.809050	3014.655370
916.114585	3081.324630
916.420081	3105.302878
916.725536	3093.559510
917.030952	3045.058569
917.336328	2986.152687
917.641665	2918.618869
917.946961	2866.606764
918.252218	2834.918071
918.557435	2794.445167
918.862612	2767.820313
919.167750	2737.434759
919.472848	2715.795606
919.777906	2703.810262
920.082925	2687.383663
920.387904	2674.369924
920.692843	2663.302071
920.997743	2655.384939
921.302603	2648.881850
921.607423	2644.037301
921.912204	2638.388688
922.216946	2630.884931
922.521647	2625.690022
922.826310	2620.948817
923.130932	2621.142901
923.435516	2612.643516
923.740059	2610.329626
924.044564	2603.834099
924.349028	2601.177411
924.653454	2596.748758
924.957840	2591.425299
925.262186	2589.807089
925.566493	2589.197109
925.870761	2587.006728
926.174989	2581.461459
926.479178	2578.295614
926.783328	2576.606828
927.087438	2577.252095
927.391509	2577.952816
927.695541	2574.620613
927.999533	2572.052145
928.303486	2569.881928
928.607400	2568.848492
928.911275	2567.651218
929.215110	2567.442010
929.518906	2567.931002
929.822663	2568.611557
930.126381	2568.760272
930.430060	2566.700960
930.733699	2566.141392
931.037299	2567.986454
931.340861	2569.672720
931.644383	2567.386557
931.947866	2569.700447
932.251309	2568.321691
932.554714	2567.431928
932.858080	2567.003429
933.161407	2566.882442
933.464694	2563.048644
933.767943	2561.097718
934.071153	2565.730538
934.374323	2562.836916
934.677455	2565.778429
934.980548	2565.317163
935.283602	2565.725497
935.586617	2564.359344
935.889593	2562.368088
936.192530	2561.843808
936.495428	2566.085939
936.798287	2566.262380
937.101108	2569.531568
937.403890	2570.141548
937.706632	2570.229768
938.009336	2575.220510
938.312002	2581.075810
938.614628	2586.232911
938.917216	2592.045361
939.219765	2589.862542
939.522275	2591.732810
939.824747	2589.935638
940.127179	2590.480083
940.429573	2585.655699
940.731929	2589.265165
941.034246	2585.612849
941.336524	2580.942220
941.638763	2580.485995
941.940964	2579.266036
942.243126	2579.172775
942.545250	2576.513566
942.847335	2574.260170
943.149381	2572.372258
943.451389	2570.360838
943.753359	2568.941753
944.055290	2567.976372
944.357182	2568.467885
944.659036	2566.968141
944.960851	2566.743810
945.262628	2566.055692
945.564367	2564.281206
945.866067	2564.213151
946.167729	2564.112328
946.469352	2564.185424
946.770937	2562.668037
947.072484	2566.176680
947.373992	2564.152657
947.675462	2564.457647
947.976893	2560.699467
948.278286	2559.355999
948.579641	2559.837429
948.880958	2558.723334
949.182236	2563.668706
949.483476	2559.751730
949.784678	2561.264076
950.085841	2560.288612
950.386967	2560.517985
950.688054	2561.929508
950.989103	2562.053016
951.290114	2562.985630
951.591087	2564.639128
951.892021	2563.978737
952.192917	2565.826320
952.493776	2568.397308
952.794596	2566.458985
953.095378	2568.120045
953.396122	2565.783470
953.696828	2567.109294
953.997496	2567.048800
954.298126	2565.085270
954.598718	2565.405384
954.899272	2560.666699
955.199788	2563.449416
955.500266	2557.634445
955.800706	2557.899106
956.101108	2552.608415
956.401472	2556.459856
956.701798	2553.049516
957.002087	2550.042467
957.302337	2550.491130
957.602550	2552.482386
957.902724	2549.853424
958.202861	2550.055070
958.502960	2548.792261
958.803022	2547.584905
959.103045	2544.071221
959.403031	2546.574153
959.702979	2546.160779
960.002889	2545.840666
960.302762	2544.340922
960.602596	2544.852599
960.902393	2545.669266
961.202153	2541.790098
961.501875	2541.996786
961.801559	2544.782023
962.101205	2544.030891
962.400814	2544.083823
962.700385	2543.869574
962.999918	2541.588452
963.299414	2539.435880
963.598873	2544.073741
963.898293	2537.288348
964.197677	2543.693134
964.497022	2543.446117
964.796331	2545.538196
965.095601	2540.570139
965.394835	2542.637012
965.694030	2543.635161
965.993189	2540.993596
966.292309	2542.624409
966.591393	2545.409647
966.890439	2544.204811
967.189447	2541.691796
967.488419	2543.040305
967.787353	2543.882177
968.086249	2545.492826
968.385108	2544.482075
968.683930	2543.627599
968.982714	2545.092054
969.281462	2542.647095
969.580172	2539.801363
969.878844	2542.969728
970.177480	2542.815973
970.476078	2545.127342
970.774639	2543.693134
971.073162	2543.456200
971.371649	2544.903011
971.670098	2542.362269
971.968510	2546.148176
972.266885	2544.872764
972.565223	2545.071890
972.863524	2540.996117
973.161788	2543.937630
973.460014	2542.405119
973.758204	2542.878988
974.056356	2543.105840
974.354471	2545.747404
974.652550	2542.979811
974.950591	2542.173226
975.248595	2543.446118
975.546563	2543.345294
975.844493	2545.560882
976.142386	2545.399565
976.440243	2544.093906
976.738062	2544.550130
977.035845	2543.804039
977.333590	2544.091385
977.631299	2540.000489
977.928971	2539.957639
978.226606	2540.176929
978.524204	2539.889583
978.821765	2536.023018
979.119290	2542.866385
979.416777	2542.430325
979.714228	2540.179450
980.011642	2541.018802
980.309020	2542.332022
980.606360	2538.629295
980.903664	2542.596683
981.200931	2543.030222
981.498162	2544.910573
981.795356	2543.189019
982.092513	2545.260933
982.389633	2544.532486
982.686717	2550.186140
982.983764	2552.374001
983.280775	2553.518343
983.577749	2553.614125
983.874686	2551.809392
984.171587	2552.610935
984.468451	2549.971891
984.765279	2547.721016
985.062070	2545.485264
985.358824	2546.001982
985.655543	2545.502908
985.952224	2542.193391
986.248869	2545.623896
986.545478	2543.234389
986.842050	2545.659184
987.138586	2541.293545
987.435086	2541.033925
987.731549	2542.901673
988.027975	2541.835469
988.324366	2544.787064
988.620719	2540.078627
988.917037	2541.442259
989.213318	2540.388658
989.509563	2541.638864
989.805772	2541.081816
990.101944	2539.632485
990.398080	2539.052752
990.694180	2543.413350
990.990244	2541.328833
991.286271	2539.355221
991.582262	2541.812784
991.878217	2539.478729
992.174136	2543.917465
992.470019	2541.931251
992.765865	2537.232895
993.061676	2538.341949
993.357450	2538.752803
993.653188	2537.747093
993.948890	2540.814635
994.244556	2538.956970
994.540186	2540.587783
994.835780	2540.809594
995.131337	2543.660367
995.426859	2540.938143
995.722345	2542.694986
996.017795	2540.552495
996.313208	2545.578526
996.608586	2542.868905
996.903928	2545.097095
997.199234	2544.837476
997.494504	2543.163813
997.789738	2543.126004
998.084936	2545.462579
998.380099	2543.257074
998.675225	2543.080634
998.970316	2544.827394
999.265371	2544.650953
999.560390	2540.938143
999.855373	2541.283463
1000.150320	2539.627443
1000.445232	2541.051569
1000.740108	2540.300438
1001.034948	2541.812784
1001.329752	2542.420243
1001.624521	2541.406971
1001.919254	2539.060314
1002.213951	2542.561395
1002.508613	2542.014430
1002.803239	2540.572660
1003.097829	2537.921013
1003.392384	2538.319264
1003.686903	2541.175078
1003.981386	2537.547967
1004.275834	2540.529810
1004.570246	2538.246167
1004.864623	2541.343956
1005.158964	2539.808925
1005.453270	2538.316743
1005.747540	2539.377906
1006.041775	2539.007382
1006.335974	2540.474357
1006.630138	2540.108874
1006.924266	2537.391692
1007.218359	2542.828576
1007.512416	2537.406815
1007.806438	2535.077802
1008.100425	2539.473688
1008.394376	2534.455220
1008.688292	2539.919830
1008.982172	2536.978317
1009.276017	2537.752134
1009.569827	2538.959491
1009.863602	2538.402443
1010.157341	2541.238092
1010.451045	2539.708102
1010.744714	2539.035108
1011.038347	2540.187012
1011.331945	2539.148534
1011.625508	2540.953267
1011.919036	2537.414377
1012.212528	2540.111394
1012.505986	2537.459747
1012.799408	2538.704912
1013.092795	2540.509645
1013.386147	2540.602907
1013.679464	2539.582073
1013.972745	2540.529810
1014.265992	2540.212217
1014.559204	2540.940664
1014.852380	2538.460416
1015.145521	2542.246323
1015.438628	2538.462937
1015.731699	2540.484440
1016.024736	2539.256919
1016.317737	2538.586445
1016.610703	2539.645088
1016.903635	2540.774306
1017.196531	2538.314223
1017.489393	2537.865560
1017.782219	2538.392361
1018.075011	2539.297248
1018.367768	2540.257588
1018.660490	2540.676003
1018.953177	2540.676003
1019.245829	2540.676003
