Dividing Wavelength (nm)	Counts (n)	Blue Motor Position (mm): 38.200000	Red Motor Position (mm): 0.000000	
326.493990	2240.881105
326.888308	2240.881105
327.282561	2240.881105
327.676750	2201.116483
328.070874	2197.154136
328.464933	2200.191432
328.858929	2201.136648
329.252859	2208.554706
329.646726	2217.482589
330.040528	2228.184959
330.434265	2242.615262
330.827938	2257.831985
331.221547	2278.309152
331.615091	2293.399846
332.008571	2313.269553
332.401986	2332.743531
332.795338	2349.008814
333.188625	2369.417925
333.581847	2390.948693
333.975006	2410.669687
334.368100	2428.535536
334.761129	2444.662187
335.154095	2462.558283
335.546996	2488.056440
335.939833	2531.065044
336.332606	2542.969728
336.725315	2554.609753
337.117960	2571.522824
337.510540	2580.627148
337.903056	2592.365474
338.295508	2600.534664
338.687896	2611.446242
339.080220	2616.774741
339.472480	2621.183230
339.864676	2628.583644
340.256807	2634.098667
340.648875	2638.086219
341.040879	2640.969759
341.432818	2641.488998
341.824694	2645.204328
342.216506	2648.496202
342.608253	2644.117960
342.999937	2646.605769
343.391557	2649.454021
343.783113	2648.975112
344.174605	2647.301448
344.566033	2645.605100
344.957397	2646.751963
345.348697	2643.676859
345.739934	2644.818680
346.131106	2640.692496
346.522215	2637.236785
346.913260	2635.605972
347.304241	2636.016826
347.695159	2634.411218
348.086012	2633.433234
348.476802	2629.886782
348.867528	2625.506020
349.258191	2621.546193
349.648789	2623.184568
350.039324	2620.074177
350.429796	2624.535598
350.820203	2621.228601
351.210548	2620.812706
351.600828	2616.298352
351.991045	2617.049484
352.381198	2615.206942
352.771288	2616.842797
353.161314	2616.613424
353.551276	2616.696603
353.941175	2614.196191
354.331010	2615.496809
354.720782	2614.700307
355.110490	2614.218876
355.500135	2616.658795
355.889717	2614.501181
356.279235	2613.664349
356.668689	2613.545882
357.058080	2614.806171
357.447408	2613.941613
357.836672	2613.813063
358.225873	2616.144597
358.615010	2614.970008
359.004084	2614.826335
359.393095	2618.748353
359.782043	2617.984618
360.170927	2619.297839
360.559748	2620.548045
360.948505	2619.373456
361.337199	2621.092490
361.725830	2620.812706
362.114398	2618.277005
362.502903	2621.999897
362.891344	2620.656430
363.279722	2621.682305
363.668037	2625.984929
364.056289	2625.576596
364.444478	2622.597274
364.832603	2625.160701
365.220665	2625.984929
365.608665	2625.405197
365.996601	2625.831174
366.384474	2625.170783
366.772284	2629.468367
367.160031	2627.756895
367.547715	2626.778911
367.935336	2627.114148
368.322893	2624.535598
368.710388	2626.118520
369.097820	2627.222533
369.485189	2626.902419
369.872495	2629.959879
370.259738	2630.355610
370.646918	2631.777215
371.034035	2632.077164
371.421090	2631.739407
371.808081	2632.054479
372.195010	2633.516413
372.581875	2633.478605
372.968678	2633.919706
373.355418	2633.334932
373.742096	2636.750313
374.128710	2634.138996
374.515262	2637.133441
374.901751	2636.082361
375.288177	2637.975314
375.674540	2635.792494
376.060841	2638.050931
376.447079	2639.462454
376.833254	2640.763072
377.219367	2641.136117
377.605417	2640.453041
377.991404	2638.078657
378.377329	2642.729122
378.763191	2641.859523
379.148991	2640.974800
379.534727	2642.794657
379.920402	2643.094606
380.306013	2646.323465
380.691563	2643.901190
381.077049	2645.244658
381.462474	2645.486633
381.847835	2645.043012
382.233134	2647.956798
382.618371	2648.387817
383.003545	2647.339257
383.388657	2647.535862
383.773706	2647.896305
384.158693	2651.112561
384.543618	2652.385452
384.928480	2648.909577
385.313280	2653.214722
385.698017	2649.827067
386.082692	2652.587098
386.467305	2652.577016
386.851856	2652.831594
387.236344	2655.195895
387.620770	2654.623724
388.005133	2654.490134
388.389435	2652.745895
388.773674	2652.544248
389.157851	2659.301915
389.541965	2662.069509
389.926018	2659.042296
390.310008	2661.126813
390.693936	2663.463388
391.077802	2662.921464
391.461606	2665.563028
391.845348	2665.104283
392.229027	2668.633091
392.612645	2667.534119
392.996200	2675.733556
393.379694	2680.996521
393.763125	2688.412058
394.146494	2694.433716
394.529801	2705.710777
394.913047	2721.051009
395.296230	2735.859398
395.679351	2755.214908
396.062410	2778.048815
396.445408	2802.558905
396.828343	2835.034018
397.211217	2869.376878
397.594028	2901.483987
397.976778	2952.409723
398.359466	3008.757220
398.742092	3062.122875
399.124656	3099.429934
399.507158	3176.816687
399.889598	3250.354518
400.271977	3343.976307
400.654294	3403.267838
401.036549	3483.759942
401.418742	3527.459184
401.800874	3659.023217
402.182944	3753.872526
402.564952	3871.386864
402.946898	3972.895537
403.328783	3983.154286
403.710606	4062.854928
404.092367	4294.372439
404.474067	4385.458527
404.855705	4412.421138
405.237282	4451.669042
405.618797	4675.496273
406.000250	4745.583434
406.381642	4938.498310
406.762972	5031.094224
407.144240	5138.748064
407.525447	5206.039906
407.906593	5309.406245
408.287677	5488.480633
408.668700	5489.519110
409.049661	5651.957690
409.430560	5734.887192
409.811399	5682.877607
410.192176	5955.304082
410.572891	6018.535274
410.953545	6256.908755
411.334138	6076.410241
411.714669	6277.678308
412.095139	6137.408203
412.475547	6397.549385
412.855894	6499.710888
413.236180	6693.863367
413.616405	6451.570390
413.996568	6681.651172
414.376670	6732.352577
414.756711	6665.045611
415.136691	6778.592560
415.516609	6994.379151
415.896466	7016.774477
416.276262	7215.630352
416.655997	7216.903243
417.035670	7416.701814
417.415283	7760.669823
417.794834	7815.295767
418.174324	7695.583486
418.553753	7625.491283
418.933121	7953.188968
419.312428	8054.639669
419.691674	7853.984102
420.070859	8321.208323
420.449983	8011.598297
420.829045	8374.775623
421.208047	8162.923653
421.586988	8455.691184
421.965867	8472.959656
422.344686	8595.000950
422.723444	8624.763922
423.102141	8007.719129
423.480777	8755.022296
423.859352	8277.788864
424.237866	8895.552021
424.616319	8765.170139
424.994712	9175.497377
425.373044	8743.536027
425.751314	9200.524185
426.129524	9067.636849
426.507673	9198.487559
426.885762	9355.837094
427.263789	9265.093804
427.641756	9180.122635
428.019662	9279.839179
428.397508	9527.054843
428.775292	9213.737049
429.153016	9591.626983
429.530679	9429.011963
429.908282	9475.693047
430.285824	9191.129995
430.663305	9867.055464
431.040726	9313.826638
431.418086	9311.452255
431.795385	9629.501172
432.172624	9715.677176
432.549802	9629.475966
432.926920	9715.079799
433.303977	9588.244368
433.680974	9794.230956
434.057910	9882.315037
434.434786	9946.735942
434.811601	9791.415471
435.188355	10362.938645
435.565050	10087.278270
435.941683	10014.176498
436.318257	10508.222178
436.694770	10637.542897
437.071222	10705.913547
437.447614	10545.335153
437.823946	10445.081726
438.200218	10589.183109
438.576429	10397.921732
438.952580	10639.166149
439.328670	10692.499036
439.704700	10471.807403
440.080670	10472.926539
440.456580	11022.165292
440.832429	10781.150247
441.208218	10379.881963
441.583947	10708.708866
441.959616	10854.320075
442.335224	10663.860241
442.710773	10799.981477
443.086261	11003.379432
443.461689	10285.466192
443.837057	10938.451891
444.212365	11215.612009
444.587612	10854.378048
444.962800	11091.377814
445.337927	10854.874602
445.712995	10447.821593
446.088002	11530.832838
446.462949	11188.253667
446.837837	11163.589822
447.212664	11146.797738
447.587431	11668.998262
447.962139	12383.430586
448.336786	14656.355785
448.711374	15196.664133
449.085901	13048.913305
449.460369	12662.738235
449.834776	12116.995522
450.209124	12997.014626
450.583412	13403.218200
450.957640	14351.340771
451.331808	13477.280312
451.705917	12484.624187
452.079965	11780.828699
452.453954	12681.743385
452.827883	12316.408445
453.201752	12609.828805
453.575562	12130.036987
453.949311	12540.825491
454.323001	12506.016324
454.696632	12741.619690
455.070202	13018.401721
455.443713	13259.192435
455.817164	13717.503895
456.190556	13707.550137
456.563888	14075.524121
456.937160	14246.913269
457.310373	13585.768463
457.683526	13671.158047
458.056619	13222.339079
458.429653	13367.642777
458.802628	12786.357410
459.175542	13173.492819
459.548398	14121.265030
459.921194	14462.016783
460.293930	14526.309139
460.666607	15397.339865
461.039224	16444.347190
461.411782	17146.912637
461.784280	16999.751274
462.156719	17072.391780
462.529099	16762.214625
462.901419	15689.951120
463.273680	15478.199973
463.645882	15346.993862
464.018024	15079.444704
464.390106	15295.790862
464.762130	16027.549631
465.134094	16787.059952
465.505999	18795.682496
465.877845	22066.546949
466.249631	24887.964810
466.621358	24563.485902
466.993026	23119.157516
467.364634	22562.881313
467.736184	21092.686767
468.107674	20294.147833
468.479105	20415.208622
468.850477	19877.206601
469.221790	19463.403487
469.593043	18786.046330
469.964238	18226.629488
470.335373	17876.907002
470.706449	18341.338423
471.077467	17896.754024
471.448425	19743.444625
471.819324	23794.162975
472.190164	25758.766164
472.560945	22195.126619
472.931667	19840.459110
473.302330	19206.871771
473.672934	18772.485627
474.043479	19060.363237
474.413965	18869.142190
474.784393	18487.436103
475.154761	19197.941367
475.525070	19167.296193
475.895321	18845.794086
476.265513	19453.754719
476.635645	20025.792090
477.005719	19803.651125
477.375734	19992.044086
477.745691	20481.378807
478.115588	21004.660659
478.485427	21539.912730
478.855207	22612.324949
479.224928	24380.151739
479.594591	26616.142925
479.964194	26600.071726
480.333739	26830.628897
480.703226	26395.968010
481.072653	26094.935508
481.442022	26659.756467
481.811333	27588.889012
482.180584	27499.083377
482.549777	26541.732973
482.918912	26202.690171
483.287988	26330.133061
483.657005	25983.604146
484.025964	25739.513997
484.394864	25648.190975
484.763706	25324.637118
485.132489	24759.841364
485.501213	24941.259888
485.869879	24852.260838
486.238487	24679.618963
486.607036	24813.575023
486.975527	24537.367683
487.343959	24853.014490
487.712333	24773.550782
488.080648	24443.297232
488.448905	24934.013230
488.817104	24693.156981
489.185244	25371.449273
489.553326	25332.450906
489.921350	26344.759969
490.289315	28639.339445
490.657222	30408.083724
491.025070	30910.054098
491.392861	30681.866269
491.760593	29836.898308
492.128267	28922.727908
492.495883	27874.082208
492.863440	26998.905133
493.230939	26120.416020
493.598380	25972.216179
493.965763	25575.396713
494.333088	25111.950837
494.700354	25063.162550
495.067563	24929.158599
495.434713	24673.977912
495.801805	24843.045609
496.168839	24636.403671
496.535815	24488.571835
496.902733	24701.852972
497.269593	24370.021540
497.636395	24548.992584
498.003139	24500.229503
498.369825	24262.733184
498.736453	24457.362051
499.103023	24329.460417
499.469535	24337.513660
499.835989	24556.990375
500.202385	24583.975671
500.568723	24099.364511
500.935003	24328.477392
501.301226	23959.485095
501.667390	24792.949142
502.033497	25018.200499
502.399546	24756.262145
502.765537	24318.513551
503.131470	24701.545461
503.497345	24841.916390
503.863163	24066.246651
504.228923	24646.927080
504.594625	24856.213103
504.960269	24394.299737
505.325856	24881.570106
505.691385	24282.050885
506.056856	24908.615897
506.422270	24870.217428
506.787625	24432.957826
507.152924	24829.593290
507.518164	24883.145467
507.883347	24686.974006
508.248472	24371.904411
508.613540	25142.931248
508.978550	24947.674757
509.343503	24947.871362
509.708398	25185.370202
510.073236	25344.660581
510.438016	25559.227212
510.802738	25229.656738
511.167403	25471.135569
511.532010	25189.556880
511.896561	25961.183614
512.261053	25912.118064
512.625488	25751.963127
512.989866	25636.167823
513.354186	25489.417314
513.718449	25610.720078
514.082655	25981.338147
514.446803	25714.593053
514.810894	26193.018718
515.174927	25672.103688
515.538904	25707.054008
515.902822	26195.501486
516.266684	25949.039474
516.630488	25858.931370
516.994235	25826.857029
517.357925	26138.377651
517.721558	26318.540928
518.085133	26423.127226
518.448651	26321.361453
518.812112	26061.706742
519.175516	26273.462930
519.538863	26428.649810
519.902152	26221.712965
520.265385	26493.232032
520.628560	26282.463910
520.991678	26291.091845
521.354739	26350.398500
521.717743	26421.206547
522.080690	26205.387189
522.443580	26522.465683
522.806413	26526.359975
523.169189	26623.059388
523.531908	26663.703691
523.894569	26274.103157
524.257174	26374.258281
524.619722	26528.273093
524.982213	26223.966361
525.344647	26276.059124
525.707025	26435.157940
526.069345	26405.092498
526.431608	26361.761260
526.793815	26546.980814
527.155964	26015.880133
527.518057	26192.391094
527.880093	26115.672294
528.242072	26340.603538
528.603995	26042.900718
528.965860	25843.412178
529.327669	25875.539451
529.689421	25869.916044
530.051117	25706.996034
530.412755	25885.999846
530.774337	25687.360740
531.135862	25551.967951
531.497331	25746.553968
531.858743	25330.207593
532.220098	25807.753576
532.581396	25488.940925
532.942638	25403.702575
533.303824	25516.619380
533.664953	25517.615008
534.026025	25178.131105
534.387040	25424.920791
534.747999	25476.948020
535.108902	25644.863813
535.469748	25122.759071
535.830537	25300.343797
536.191270	25424.204948
536.551947	25288.751664
536.912567	24932.793271
537.273131	25324.571583
537.633638	25002.078889
537.994089	25221.303546
538.354483	24745.582461
538.714821	25243.431691
539.075103	25287.166221
539.435328	25060.455451
539.795497	24636.423836
540.155609	25008.098027
540.515665	25316.301570
540.875665	24543.543097
541.235609	24865.609813
541.595496	24802.557582
541.955328	25165.581152
542.315102	25103.544713
542.674821	24618.101762
543.034483	24500.680686
543.394090	24669.955071
543.753640	24464.097033
544.113134	25100.215031
544.472571	24693.383833
544.831953	24990.779143
545.191278	24620.491269
545.550548	24531.441807
545.909761	24726.864657
546.268918	24966.962211
546.628019	24935.979280
546.987064	24613.801658
547.346053	24369.535069
547.704986	24480.511030
548.063863	24643.015145
548.422684	24662.703371
548.781449	24181.953734
549.140158	24586.791156
549.498811	24162.295755
549.857408	23912.612446
550.215949	24328.293389
550.574434	24004.845397
550.932864	24208.944072
551.291237	24376.534711
551.649555	24242.523198
552.007817	24299.853720
552.366022	24153.314939
552.724173	24188.325753
553.082267	24145.778414
553.440305	24628.395798
553.798288	23878.806468
554.156215	24378.074784
554.514086	24485.857173
554.871902	23874.546693
555.229661	24169.877650
555.587365	23995.736032
555.945014	23904.657505
556.302606	24116.522078
556.660143	24081.228960
557.017625	24331.764224
557.375050	23850.205482
557.732421	24255.604992
558.089735	24058.531165
558.446994	24110.800368
558.804197	24137.596622
559.161345	24073.498351
559.518437	23843.208361
559.875474	24026.706361
560.232455	24200.036353
560.589381	24017.070195
560.946251	24016.866028
561.303065	24329.079809
561.659825	24422.104221
562.016528	24011.277909
562.373177	23762.265074
562.729770	24118.634322
563.086307	23979.828671
563.442789	24151.759743
563.799216	23983.975020
564.155587	23987.060206
564.511904	23968.836435
564.868164	23913.434154
565.224370	23877.780594
565.580520	23801.074397
565.936615	23937.175468
566.292654	23613.044399
566.648638	23892.034456
567.004567	23721.114135
567.360441	23669.253265
567.716260	23397.310741
568.072023	23716.778743
568.427732	23481.651766
568.783385	23253.955449
569.138982	23500.835877
569.494525	23534.432646
569.850013	23293.127735
570.205445	23384.115521
570.560823	23209.873079
570.916145	22973.770639
571.271412	23148.005519
571.626625	22889.137228
571.981782	22995.810564
572.336884	22820.002844
572.691931	22952.318009
573.046923	22684.327750
573.401860	22566.682342
573.756743	22592.442639
574.111570	22494.777845
574.466342	22415.014188
574.821059	22503.925018
575.175722	22206.953166
575.530330	22172.421262
575.884882	22183.587418
576.239380	22102.742433
576.593823	22002.857011
576.948211	21961.932924
577.302544	21830.318480
577.656823	21684.767765
578.011047	21783.266870
578.365216	21664.832522
578.719330	21539.126310
579.073389	21424.019124
579.427394	21580.768761
579.781344	21344.855364
580.135239	21225.440512
580.489080	21183.372083
580.842866	20965.276644
581.196597	21156.399389
581.550273	21122.905963
581.903895	21011.501504
582.257463	21324.998259
582.610975	20853.927638
582.964434	21182.288235
583.317837	20867.420286
583.671186	20946.425249
584.024481	20934.928898
584.377721	20696.305881
584.730906	20771.817324
585.084037	20785.448604
585.437113	20681.613438
585.790135	20899.799618
586.143103	20348.274702
586.496016	20380.157479
586.848874	20609.396388
587.201679	20537.552384
587.554428	20226.954293
587.907124	20556.335724
588.259765	20325.042544
588.612352	20399.165150
588.964884	19969.600869
589.317362	20139.931375
589.669786	20196.488080
590.022155	20209.983249
590.374470	20428.330745
590.726731	20204.448062
591.078937	19987.895216
591.431090	20073.065510
591.783188	19830.936370
592.135232	19797.868922
592.487222	19893.126565
592.839157	19913.349153
593.191038	19801.085178
593.542866	19683.071766
593.894639	19395.456295
594.246358	19616.546180
594.598022	19510.830663
594.949633	19264.277911
595.301190	19231.308764
595.652692	19401.523324
596.004141	19635.873963
596.355535	18959.406570
596.706876	18985.781887
597.058162	18871.120843
597.409395	19122.530747
597.760573	19170.459517
598.111698	18944.787224
598.462768	18884.232884
598.813785	18850.321042
599.164748	18664.035284
599.515657	18710.199650
599.866511	18500.817846
600.217312	18858.573411
600.568060	18375.918218
600.918753	18690.904634
601.269392	18587.031659
601.619978	18380.989619
601.970510	18572.596315
602.320988	18527.813225
602.671412	18721.769098
603.021783	18650.502306
603.372100	18365.392289
603.722363	18516.160598
604.072572	18456.584241
604.422728	18596.153627
604.772830	18344.113578
605.122878	18312.029155
605.472872	18294.619530
605.822813	18273.013145
606.172701	18257.594776
606.522534	18453.708263
606.872314	18465.403740
607.222041	18309.901788
607.571714	18522.338532
607.921333	18353.293520
608.270899	18421.759951
608.620411	18595.334439
608.969870	18382.305360
609.319276	18371.713896
609.668627	18399.790602
610.017926	18535.037198
610.367171	18652.559097
610.716362	18705.660091
611.065500	18525.000261
611.414585	18651.427358
611.763616	18636.021592
612.112594	18583.021421
612.461518	18543.428199
612.810389	18734.676973
613.159207	18595.210931
613.507971	18515.442233
613.856682	18767.444473
614.205340	18691.438996
614.553945	18839.759825
614.902496	18594.719418
615.250994	18810.556420
615.599439	18757.246218
615.947830	18745.681812
616.296169	18817.987081
616.644454	18769.813815
616.992686	18742.977232
617.340864	18965.196335
617.688990	18706.985915
618.037063	18891.131703
618.385082	18741.011182
618.733048	19020.510396
619.080961	18897.044976
619.428821	18931.140820
619.776628	18804.665832
620.124382	18736.897601
620.472083	18787.856105
620.819731	18800.141397
621.167326	18493.621599
621.514868	18527.939253
621.862357	18299.103636
622.209793	18317.400504
622.557176	18144.226787
622.904506	17971.032906
623.251783	17906.324655
623.599007	17645.253380
623.946179	17589.145337
624.293297	17507.972678
624.640363	17268.298580
624.987376	17294.734391
625.334336	17092.329543
625.681243	16936.925894
626.028097	16947.834951
626.374899	16879.613016
626.721647	16745.452788
627.068343	16572.442909
627.414987	16506.565111
627.761577	16461.570292
628.108115	16511.709608
628.454600	16232.780045
628.801032	16331.669840
629.147412	16271.175993
629.493739	16280.550019
629.840014	16096.850373
630.186236	16187.079465
630.532405	15956.338292
630.878521	16152.784495
631.224585	16058.656071
631.570597	15872.269490
631.916556	15907.103863
632.262462	15878.054214
632.608316	15797.541946
632.954117	15742.162350
633.299866	15737.592544
633.645562	15642.622247
633.991206	15409.466361
634.336797	15278.875270
634.682336	15249.291259
635.027823	15130.320028
635.373257	15005.251522
635.718639	14920.900415
636.063968	14861.850860
636.409245	14611.406337
636.754470	14644.798940
637.099642	14488.825640
637.444762	14261.552780
637.789829	14295.613336
638.134845	14135.571825
638.479808	14167.696578
638.824719	14094.451133
639.169577	13952.096510
639.514383	14000.610054
639.859137	13831.970855
640.203839	13916.460594
640.548489	13759.526954
640.893086	13747.539090
641.237632	13618.470428
641.582125	13773.400209
641.926566	13590.035800
642.270955	13601.002830
642.615292	13565.934043
642.959576	13570.367738
643.303809	13609.028347
643.647990	13539.498232
643.992118	13602.429477
644.336195	13370.755690
644.680219	13588.848608
645.024192	13501.049352
645.368112	13739.760590
645.711981	13786.119040
646.055797	13970.151403
646.399562	13953.334113
646.743274	14221.616759
647.086935	14492.205733
647.430544	14455.717862
647.774101	14495.757226
648.117606	14635.634122
648.461059	14618.612666
648.804460	14597.701960
649.147810	14317.970853
649.491108	14228.331576
649.834354	14241.264657
650.177548	13925.212037
650.520690	13741.588008
650.863781	13655.810255
651.206820	13708.994428
651.549807	13537.449003
651.892742	13325.269359
652.235626	13265.904731
652.578458	13270.507304
652.921238	12965.704019
653.263967	13162.583762
653.606644	12997.332219
653.949269	12984.449550
654.291843	12774.941717
654.634365	12933.259153
654.976836	12781.132254
655.319255	12783.294909
655.661622	12745.214032
656.003938	12662.889470
656.346203	12588.605547
656.688416	12676.712313
657.030577	12623.134930
657.372687	12532.310982
657.714746	12515.171059
658.056753	12711.702962
658.398708	12520.779343
658.740612	12521.553160
659.082465	12628.465951
659.424266	12597.644336
659.766016	12625.683234
660.107715	12529.346784
660.449362	12612.966923
660.790958	12564.660066
661.132503	12509.068742
661.473996	12576.607601
661.815438	12584.386101
662.156829	12609.473403
662.498168	12586.266452
662.839456	12589.434817
663.180693	12607.088938
663.521879	12705.555275
663.863013	12675.381449
664.204097	12647.042603
664.545129	12772.252261
664.886110	12749.103283
665.227040	12839.312210
665.567918	12842.717510
665.908746	12861.705016
666.249522	12860.643853
666.590248	12906.888878
666.930922	13022.220395
667.271545	12992.580931
667.612118	13079.450094
667.952639	12975.635092
668.293109	13003.641223
668.633528	12949.491669
668.973896	12926.251949
669.314213	13001.639885
669.654480	12737.322106
669.994695	12822.431907
670.334859	12852.464581
670.674973	12790.607102
671.015035	12821.292606
671.355047	12764.554419
671.695008	12741.019792
672.034918	12748.883993
672.374777	12786.301957
672.714585	12706.545862
673.054342	12742.736305
673.394049	12682.910412
673.733705	12787.302626
674.073310	12687.245804
674.412864	12699.720140
674.752368	12567.097464
675.091820	12594.473450
675.431223	12579.221439
675.770574	12449.845267
676.109875	12361.420908
676.449125	12317.242756
676.788324	12267.854572
677.127473	12102.552617
677.466571	12096.548603
677.805619	11983.475522
678.144616	11915.160325
678.483562	11881.782846
678.822458	11755.408681
679.161303	11730.550751
679.500098	11715.815458
679.838842	11668.446256
680.177535	11706.322966
680.516179	11767.683890
680.854771	11713.829244
681.193314	11924.337746
681.531805	12093.942326
681.870247	12515.791121
682.208638	12935.981376
682.546978	13241.699631
682.885268	13273.242130
683.223508	12975.088127
683.561697	12815.006287
683.899836	12720.777039
684.237925	12515.551666
684.575963	12430.199890
684.913951	12347.098990
685.251889	12305.418730
685.589776	12399.078327
685.927614	12317.028507
686.265401	12290.832151
686.603137	12348.661747
686.940824	12495.641629
687.278460	12621.927574
687.616046	12661.215807
687.953582	12819.568531
688.291068	12763.876384
688.628504	12993.200993
688.965889	12998.554698
689.303224	12954.197586
689.640510	12846.014424
689.977745	12532.467258
690.314930	12314.523054
690.652065	12219.391439
690.989150	11928.872264
691.326185	11702.463962
691.663170	11496.205153
692.000105	11256.326888
692.336990	11139.062088
692.673825	10883.894004
693.010610	10766.828329
693.347345	10557.063397
693.684030	10362.280774
694.020665	10303.619387
694.357251	10104.277041
694.693786	10033.849601
695.030272	9879.121466
695.366707	9765.302294
695.703093	9700.092449
696.039429	9689.001910
696.375716	9602.853632
696.711952	9477.754879
697.048139	9523.420171
697.384276	9479.236978
697.720363	9507.326287
698.056400	9435.333569
698.392388	9383.223162
698.728326	9342.344446
699.064214	9286.589284
699.400053	9326.250562
699.735842	9140.390781
700.071581	9107.658569
700.407270	9026.808544
700.742910	8946.205535
701.078501	8852.724899
701.414042	8724.702276
701.749533	8659.497472
702.084974	8525.145681
702.420366	8641.326633
702.755709	8520.913632
703.091002	8384.590750
703.426246	8417.887571
703.761440	8368.796815
704.096584	8325.553797
704.431679	8256.905885
704.766725	8241.679079
705.101721	8192.938683
705.436668	8247.385666
705.771565	8131.688664
706.106413	8216.173362
706.441212	8255.489320
706.775961	8212.425264
707.110661	8261.831092
707.445311	8397.720435
707.779913	8290.059033
708.114465	8419.594002
708.448967	8452.792520
708.783421	8615.825956
709.117825	8789.531515
709.452180	8823.612235
709.786485	8910.163806
710.120742	9199.780615
710.454949	9197.970841
710.789107	9296.971540
711.123216	9526.903608
711.457275	9696.891316
711.791286	9844.639974
712.125247	9843.593934
712.459159	9826.103651
712.793023	10072.394263
713.126837	9644.138162
713.460602	9800.991143
713.794318	9630.340524
714.127985	9663.566769
714.461602	9322.323503
714.795171	9271.513713
715.128691	9022.984829
715.462162	8775.771685
715.795584	8717.039722
716.128957	8561.545332
716.462281	8395.036021
716.795556	8441.364224
717.128782	8237.310920
717.461960	7976.597566
717.795088	8047.604739
718.128167	7953.065460
718.461198	7787.944986
718.794180	7739.504539
719.127113	7724.769246
719.459997	7553.533853
719.792833	7335.289700
720.125619	7403.418374
720.458357	7257.368585
720.791046	7251.752740
721.123686	7239.001141
721.456278	7076.998621
721.788821	7100.374452
722.121315	6994.674058
722.453761	7063.218627
722.786158	7006.301480
723.118506	7017.540732
723.450805	6974.479196
723.783056	7041.340019
724.115259	6958.279448
724.447412	6960.011084
724.779518	7007.680235
725.111574	7004.148907
725.443582	7085.956752
725.775542	7059.624284
726.107453	7259.795901
726.439315	7166.340470
726.771129	7233.962508
727.102895	7411.151504
727.434612	7519.014552
727.766281	7561.012405
728.097901	7634.439331
728.429473	7636.289435
728.760996	7620.382074
729.092471	7590.261179
729.423897	7525.260542
729.755276	7529.429576
730.086606	7453.139274
730.417887	7557.864204
730.749120	7768.357583
731.080305	7950.441539
731.411442	8065.556288
731.742530	8057.190493
732.073570	8169.819952
732.404562	8255.943024
732.735506	8104.373172
733.066401	8243.370387
733.397249	8169.845158
733.728048	7930.791122
734.058798	7597.628826
734.389501	7365.786160
734.720156	7188.725714
735.050762	6964.051569
735.381320	6873.633434
735.711831	6812.723693
736.042293	6706.352826
736.372707	6722.456792
736.703073	6585.312201
737.033391	6628.809797
737.363661	6637.326827
737.693883	6672.559451
738.024056	6759.050528
738.354182	6794.751979
738.684260	6827.418656
739.014290	6952.053623
739.344272	7058.863070
739.674207	7089.130158
740.004093	7162.433576
740.333931	7176.934455
740.663722	7181.400917
740.993464	7255.021928
741.323159	7238.204639
741.652806	6986.474622
741.982405	7019.330342
742.311956	7070.177940
742.641460	6892.754530
742.970915	6696.943512
743.300323	6692.378747
743.629683	6645.291850
743.958996	6515.156984
744.288260	6416.960348
744.617477	6370.173399
744.946647	6364.169385
745.275768	6197.249219
745.604842	6155.087529
745.933869	6140.190920
746.262847	6097.066369
746.591778	6084.440799
746.920662	6044.469490
747.249498	6040.368512
747.578286	6089.721408
747.907027	6162.460217
748.235720	6222.137396
748.564365	6189.528692
748.892963	6233.331278
749.221514	6375.423761
749.550017	6191.565318
749.878473	6080.649852
750.206881	6140.669829
750.535242	6084.183700
750.863555	6011.250807
751.191821	6029.207397
751.520039	6027.546337
751.848210	5932.412202
752.176334	5957.766685
752.504411	6008.836094
752.832440	5929.127890
753.160421	5865.836204
753.488356	5913.409573
753.816243	5937.516370
754.144082	5791.015398
754.471875	5766.031440
754.799620	5807.850332
755.127318	5815.880890
755.454969	5772.524446
755.782572	5745.511423
756.110129	5785.906189
756.437638	5767.553868
756.765100	5706.727306
757.092515	5711.239139
757.419882	5768.438591
757.747203	5738.310135
758.074477	5800.379342
758.401703	5785.558349
758.728882	5739.514971
759.056014	5804.036699
759.383099	5924.966418
759.710138	5934.781544
760.037129	5917.903761
760.364073	5926.874495
760.690970	6005.312328
761.017820	5984.908258
761.344623	5946.126661
761.671379	6051.829575
761.998088	6177.059398
762.324751	6432.676145
762.651366	7057.010446
762.977935	8402.075992
763.304456	10054.510770
763.630931	10930.058370
763.957359	10500.438636
764.283740	9540.234940
764.610074	8681.923045
764.936362	7681.402720
765.262602	7086.786021
765.588796	6558.894035
765.914943	6219.715122
766.241044	6056.298558
766.567097	5839.178582
766.893104	5585.631229
767.219064	5407.350823
767.544978	5344.538046
767.870845	5263.428402
768.196665	5156.629037
768.522438	5089.216207
768.848165	5054.762441
769.173846	4984.508921
769.499479	4941.422179
769.825066	4886.934868
770.150607	4823.252492
770.476101	4806.415038
770.801548	4797.822391
771.126949	4716.843816
771.452303	4665.570241
771.777611	4626.813850
772.102872	4645.743382
772.428087	4608.269965
772.753256	4568.296136
773.078378	4517.327550
773.403453	4448.818269
773.728482	4432.187503
774.053465	4388.442890
774.378401	4378.373185
774.703291	4373.198441
775.028135	4296.396462
775.352932	4252.828290
775.677683	4240.041403
776.002388	4261.400772
776.327046	4269.080970
776.651658	4191.404351
776.976224	4130.461842
777.300743	4137.869818
777.625216	4162.137932
777.949643	4150.008916
778.274024	4108.399232
778.598359	4069.229467
778.922647	4093.731995
779.246889	4084.700768
779.571086	4076.234150
779.895236	4058.083476
780.219339	4048.190211
780.543397	4042.672668
780.867409	4096.292901
781.191374	4114.511631
781.515294	4046.105694
781.839167	4037.104714
782.162995	4063.074218
782.486776	4048.313720
782.810511	4058.098599
783.134201	4047.229872
783.457844	4002.424096
783.781441	3950.837969
784.104993	3955.168320
784.428498	3971.365547
784.751958	3969.452429
785.075372	3947.175571
785.398739	3908.028490
785.722061	3926.302673
786.045337	3968.907985
786.368568	3996.354547
786.691752	3910.919592
787.014891	3963.922284
787.337983	4095.965226
787.661030	4255.976491
787.984031	4421.134773
788.306987	4582.590328
788.629897	4672.600130
788.952760	4624.300835
789.275579	4557.931524
789.598351	4490.921986
789.921078	4341.242567
790.243759	4142.512720
790.566395	4127.510247
790.888984	4122.156541
791.211529	4016.851878
791.534027	3956.322744
791.856480	3939.286165
792.178888	3880.239130
792.501249	3834.402438
792.823566	3844.033563
793.145836	3872.382492
793.468062	3817.590190
793.790241	3772.217285
794.112375	3804.634425
794.434464	3871.764950
794.756507	3892.350502
795.078505	3872.306874
795.400457	3909.593769
795.722364	4050.418401
796.044226	4154.548475
796.366042	4233.220722
796.687812	4205.940518
797.009538	4203.402297
797.331218	4169.334179
797.652852	4142.926095
797.974442	4122.809371
798.295986	4119.061273
798.617484	4033.684291
798.938938	3951.959626
799.260346	3994.592664
799.581709	3989.841376
799.903026	3911.950508
800.224299	3876.775857
800.545526	3870.280330
800.866708	3830.621573
801.187845	3770.586472
801.508936	3806.986123
801.829983	3798.033034
802.150984	3723.174420
802.471940	3715.491702
802.792851	3723.907908
803.113717	3725.178279
803.434538	3725.735326
803.755314	3667.457067
804.076045	3645.656597
804.396731	3667.212571
804.717372	3688.314841
805.037967	3675.787574
805.358518	3661.594205
805.679024	3687.861137
805.999485	3703.720607
806.319901	3709.439796
806.640272	3724.878330
806.960598	3737.498859
807.280879	3709.966597
807.601115	3723.255078
807.921306	3741.312492
808.241453	3782.909572
808.561554	3753.635592
808.881611	3686.512629
809.201623	3730.191706
809.521590	3738.849888
809.841513	3711.000033
810.161390	3743.664190
810.481223	3715.557237
810.801011	3663.214936
811.120755	3660.621262
811.440453	3692.690563
811.760107	3695.097714
812.079716	3649.311434
812.399281	3619.082155
812.718801	3644.683655
813.038276	3615.863378
813.357707	3611.840537
813.677093	3630.699494
813.996434	3574.568766
814.315731	3587.479161
814.634983	3593.344544
814.954191	3607.048921
815.273354	3633.646048
815.592473	3627.616828
815.911547	3642.836072
816.230577	3683.014068
816.549562	3733.629773
816.868502	3776.865229
817.187399	3798.632931
817.506250	3795.910708
817.825058	3772.577728
818.143821	3866.872510
818.462539	3964.887665
818.781213	4010.805014
819.099843	4072.634766
819.418429	4329.289991
819.736970	4572.520623
820.055466	4823.537317
820.373919	5196.076066
820.692327	5607.149394
821.010691	6080.798566
821.329011	7525.941098
821.647286	10360.715496
821.965517	15033.406366
822.283704	19048.251865
822.601847	21109.204107
822.919945	19223.583196
823.237999	16602.324348
823.556010	14096.651597
823.873976	11965.425670
824.191897	9856.952992
824.509775	8517.687294
824.827609	7383.165538
825.145398	6843.656213
825.463144	6729.201856
825.780845	6840.233269
826.098502	7046.078704
826.416116	7964.733211
826.733685	9322.772166
827.051210	10418.308158
827.368692	10407.663762
827.686129	9112.165361
828.003522	7598.478260
828.320872	6573.488175
828.638177	5859.096181
828.955439	5297.277229
829.272656	4788.463489
829.589830	4515.253115
829.906960	4337.524716
830.224046	4149.938340
830.541088	4023.949823
830.858086	3978.135817
831.175041	3897.689084
831.491952	3885.766755
831.808819	3896.587592
832.125642	3972.588027
832.442421	4127.147283
832.759157	4414.437600
833.075849	4985.040763
833.392497	5867.746801
833.709101	6655.606051
834.025662	6972.067004
834.342179	6577.750471
834.658653	5900.103447
834.975083	5247.775619
835.291469	4662.729550
835.607811	4259.732150
835.924110	4119.358701
836.240366	3915.749017
836.556578	3713.543296
836.872746	3601.659927
837.188871	3560.665264
837.504952	3491.616580
837.820990	3411.545413
838.136984	3364.798793
838.452935	3389.364336
838.768842	3385.444839
839.084706	3408.543406
839.400526	3572.030545
839.716303	3925.705296
840.032037	4471.526147
840.347727	4716.175863
840.663373	4418.261315
840.978977	4027.836553
841.294537	3717.288873
841.610054	3492.919718
841.925527	3387.867113
842.240957	3316.638130
842.556344	3260.850201
842.871687	3199.862322
843.186987	3149.095382
843.502244	3115.039867
843.817458	3079.058631
844.132629	3052.242213
844.447756	3057.081721
844.762840	3042.490101
845.077881	3011.260153
845.392879	2993.177534
845.707833	2987.980105
846.022745	2985.489775
846.337613	2986.505567
846.652438	2975.752786
846.967221	2972.183649
847.281960	2957.806278
847.596656	2956.551031
847.911309	2959.235446
848.225919	2948.099537
848.540485	2943.693568
848.855009	2943.549895
849.169490	2932.630756
849.483928	2923.798655
849.798323	2923.244128
850.112675	2920.970567
850.426984	2935.126127
850.741251	2929.210333
851.055474	2921.467121
851.369654	2913.625606
851.683792	2919.503592
851.997887	2927.052719
852.311938	2927.113213
852.625947	2916.867068
852.939914	2920.501740
853.253837	2924.960641
853.567718	2908.738208
853.881555	2910.492529
854.195350	2926.616660
854.509103	2918.757501
854.822812	2913.537386
855.136479	2908.652508
855.450103	2910.426994
855.763685	2906.046231
856.077224	2904.054976
856.390720	2914.686769
856.704173	2921.353695
857.017584	2912.960174
857.330953	2914.119639
857.644278	2922.828233
857.957561	2933.969183
858.270802	2935.065633
858.584000	2932.315684
858.897155	2920.809250
859.210268	2917.837490
859.523339	2917.840011
859.836367	2918.447470
860.149352	2911.810791
860.462295	2908.208886
860.775195	2917.751791
861.088054	2915.024526
861.400869	2898.902916
861.713642	2897.771177
862.026373	2912.952612
862.339062	2911.662077
862.651708	2920.688263
862.964312	2923.712955
863.276873	2918.233221
863.589392	2927.375353
863.901869	2939.287600
864.214303	2962.587813
864.526696	2975.392344
864.839045	2972.155923
865.151353	2971.613999
865.463619	2967.873463
865.775842	2969.947898
866.088023	2991.403048
866.400162	3000.149450
866.712258	2967.754996
867.024313	2958.121351
867.336325	2963.953966
867.648296	2988.451453
867.960224	2979.430308
868.272110	2963.407000
868.583954	2971.742548
868.895755	2984.363077
869.207515	2970.666262
869.519233	2979.221100
869.830909	2991.574448
870.142542	2995.143584
870.454134	2995.098214
870.765684	2998.561487
871.077191	2999.993174
871.388657	3007.557426
871.700081	3021.380270
872.011463	3033.612629
872.322803	3036.228988
872.634101	3034.109183
872.945357	3049.552758
873.256571	3074.834144
873.567744	3068.620922
873.878874	3060.721434
874.189963	3086.088520
874.501010	3083.827563
874.812015	3077.357242
875.122979	3073.674679
875.433900	3072.852971
875.744780	3083.988880
876.055618	3090.650765
876.366415	3082.068200
876.677169	3095.497834
876.987882	3088.687235
877.298554	3087.230342
877.609183	3110.845627
877.919771	3130.929584
878.230317	3159.495282
878.540822	3217.347564
878.851285	3252.592791
879.161707	3296.009728
879.472087	3405.012077
879.782425	3648.646002
880.092722	4094.979681
880.402977	4638.078308
880.713191	5283.469509
881.023363	6479.705069
881.333494	7776.743543
881.643583	8302.669479
881.953631	7988.779514
882.263637	7334.137797
882.573602	6729.806794
882.883526	6140.853831
883.193408	5573.681174
883.503248	5117.083705
883.813048	4803.481086
884.122806	4486.783199
884.432522	4162.548786
884.742197	3926.501799
885.051831	3731.935945
885.361424	3602.557252
885.670975	3528.777445
885.980485	3436.922581
886.289954	3358.222608
886.599382	3315.415650
886.908768	3275.714043
887.218113	3233.012949
887.527417	3175.354752
887.836680	3122.089921
888.145901	3116.635392
888.455082	3105.978393
888.764221	3052.761452
889.073319	3026.187010
889.382376	3023.898326
889.691392	3029.027700
890.000366	3024.374715
890.309300	3013.493384
890.618193	3026.335724
890.927044	3040.849206
891.235855	3038.331149
891.544625	3029.567103
891.853353	3040.511448
892.162041	3058.180693
892.470687	3099.752568
892.779293	3150.564878
893.087858	3200.467260
893.396381	3270.877056
893.704864	3401.536202
894.013306	3652.046260
894.321707	3959.390286
894.630068	4159.844207
894.938387	4152.239627
895.246665	4106.851598
895.554903	3985.614369
895.863100	3777.573511
896.171256	3609.365331
896.479371	3466.811582
896.787446	3337.468178
897.095480	3234.091756
897.403473	3170.084226
897.711425	3134.902013
898.019336	3124.643265
898.327207	3096.145622
898.635038	3057.822771
898.942827	3044.652756
899.250576	3033.552136
899.558284	2998.211127
899.865952	2981.086327
900.173579	2955.479786
900.481165	2948.578446
900.788711	2940.840275
901.096216	2913.134094
901.403681	2903.949111
901.711105	2909.275090
902.018489	2907.810635
902.325832	2905.663104
902.633135	2917.358581
902.940397	2954.484158
903.247619	3041.648229
903.554800	3243.838827
903.861941	3603.336111
904.169041	4044.185015
904.476101	4335.888861
904.783121	4273.491980
905.090100	4021.716592
905.397039	3738.065988
905.703938	3486.968636
906.010796	3303.279072
906.317614	3186.750280
906.624391	3092.100096
906.931129	3021.072759
907.237826	2958.882565
907.544483	2909.539751
907.851099	2879.098743
908.157675	2857.179807
908.464211	2841.262363
908.770707	2824.235866
909.077163	2812.989052
909.383578	2796.900209
909.689954	2784.685494
909.996289	2781.859927
910.302584	2784.496450
910.608839	2783.584002
910.915054	2778.812549
911.221229	2770.618154
911.527363	2772.362393
911.833458	2782.338837
912.139513	2789.272944
912.445527	2789.948458
912.751502	2800.590334
913.057436	2807.716005
913.363331	2823.479693
913.669186	2846.348887
913.975000	2880.437170
914.280775	2942.425718
914.586510	3014.983045
914.892205	3093.506578
915.197859	3230.245356
915.503475	3430.671550
915.809050	3649.775220
916.114585	3799.900782
916.420081	3808.821103
916.725536	3750.189963
917.030952	3629.739154
917.336328	3497.686129
917.641665	3362.134543
917.946961	3260.028493
918.252218	3187.037626
918.557435	3108.912344
918.862612	3048.559651
919.167750	2996.701301
919.472848	2961.503965
919.777906	2931.599840
920.082925	2901.403329
920.387904	2871.557177
920.692843	2855.856504
920.997743	2846.432067
921.302603	2830.459171
921.607423	2819.043478
921.912204	2804.605613
922.216946	2795.864252
922.521647	2787.800927
922.826310	2776.511263
923.130932	2771.613782
923.435516	2765.798811
923.740059	2754.554517
924.044564	2747.030595
924.349028	2741.588669
924.653454	2735.141034
924.957840	2724.776421
925.262186	2722.454970
925.566493	2717.305431
925.870761	2712.113043
926.174989	2709.710933
926.479178	2704.014429
926.783328	2702.108873
927.087438	2699.883204
927.391509	2701.105683
927.695541	2696.046886
927.999533	2692.260979
928.303486	2688.570854
928.607400	2690.705783
928.911275	2685.949454
929.215110	2685.904084
929.518906	2684.071625
929.822663	2685.258816
930.126381	2684.951306
930.430060	2685.263857
930.733699	2684.815195
931.037299	2689.553879
931.340861	2688.603622
931.644383	2690.214271
931.947866	2689.105217
932.251309	2685.609177
932.554714	2685.634382
932.858080	2685.886440
933.161407	2683.176820
933.464694	2679.375790
933.767943	2676.295645
934.071153	2681.571212
934.374323	2680.096675
934.677455	2679.186747
934.980548	2678.624658
935.283602	2677.324040
935.586617	2674.841272
935.889593	2677.518125
936.192530	2675.446210
936.495428	2676.323371
936.798287	2681.193126
937.101108	2684.427026
937.403890	2688.366688
937.706632	2692.853315
938.009336	2698.774150
938.312002	2705.279759
938.614628	2715.830894
938.917216	2724.410938
939.219765	2720.496482
939.522275	2721.913046
939.824747	2719.024465
940.127179	2715.934237
940.429573	2713.358208
940.731929	2709.748742
941.034246	2709.388299
941.336524	2705.751107
941.638763	2702.277752
941.940964	2700.601568
942.243126	2699.240457
942.545250	2698.431351
942.847335	2696.233408
943.149381	2691.184693
943.451389	2686.561955
943.753359	2683.035667
944.055290	2683.572550
944.357182	2684.853003
944.659036	2682.307221
944.960851	2679.464010
945.262628	2679.136335
945.564367	2677.082065
945.866067	2679.834535
946.167729	2678.629699
946.469352	2677.692044
946.770937	2679.222035
947.072484	2679.282528
947.373992	2676.444359
947.675462	2677.001406
947.976893	2671.826662
948.278286	2670.687361
948.579641	2669.543019
948.880958	2668.552432
949.182236	2672.739111
949.483476	2670.110149
949.784678	2669.558143
950.085841	2669.868174
950.386967	2670.354645
950.688054	2669.311126
950.989103	2675.058042
951.290114	2675.816735
951.591087	2675.002589
951.892021	2679.267405
952.192917	2681.316634
952.493776	2683.852334
952.794596	2681.326716
953.095378	2682.705472
953.396122	2681.568692
953.696828	2680.469720
953.997496	2679.476613
954.298126	2676.270439
954.598718	2672.880263
954.899272	2671.786333
955.199788	2669.026301
955.500266	2667.145951
955.800706	2663.912050
956.101108	2662.613953
956.401472	2661.046154
956.701798	2658.429796
957.002087	2654.759836
957.302337	2654.923673
957.602550	2655.591626
957.902724	2655.647079
958.202861	2651.853610
958.502960	2650.356388
958.803022	2651.863693
959.103045	2650.847900
959.403031	2649.612817
959.702979	2648.433187
960.002889	2649.015441
960.302762	2646.691469
960.602596	2647.177940
960.902393	2643.671818
961.202153	2644.662404
961.501875	2645.786582
961.801559	2645.547127
962.101205	2641.340284
962.400814	2646.540234
962.700385	2644.523773
962.999918	2640.163175
963.299414	2641.587301
963.598873	2640.122845
963.898293	2638.149234
964.197677	2644.221303
964.497022	2641.730973
964.796331	2641.181488
965.095601	2644.929586
965.394835	2644.491005
965.694030	2642.041004
965.993189	2643.260964
966.292309	2642.640902
966.591393	2641.804070
966.890439	2642.494708
967.189447	2641.005047
967.488419	2642.381282
967.787353	2641.920017
968.086249	2641.483957
968.385108	2642.502270
968.683930	2640.778195
968.982714	2640.266518
969.281462	2642.451858
969.580172	2641.562095
969.878844	2639.384316
970.177480	2644.342291
970.476078	2639.575880
970.774639	2643.386992
971.073162	2640.803401
971.371649	2642.363638
971.670098	2642.288021
971.968510	2643.901190
972.266885	2640.513535
972.565223	2641.569657
972.863524	2645.365645
973.161788	2643.107208
973.460014	2640.077475
973.758204	2643.578556
974.056356	2641.980511
974.354471	2642.895480
974.652550	2642.633340
974.950591	2643.591159
975.248595	2644.082672
975.546563	2643.129894
975.844493	2642.895480
976.142386	2644.501087
976.440243	2640.919348
976.738062	2641.171405
977.035845	2640.193422
977.333590	2641.811632
977.631299	2639.699388
977.928971	2639.265849
978.226606	2637.153606
978.524204	2636.253760
978.821765	2636.760396
979.119290	2640.417753
979.416777	2638.542444
979.714228	2642.106539
980.011642	2638.237454
980.309020	2640.135448
980.606360	2641.546971
980.903664	2639.054121
981.200931	2639.545633
981.498162	2643.397075
981.795356	2640.185860
982.092513	2643.603762
982.389633	2646.252888
982.686717	2647.896305
982.983764	2654.427119
983.280775	2656.592295
983.577749	2657.240083
983.874686	2657.625732
984.171587	2654.903508
984.468451	2651.989722
984.765279	2651.344454
985.062070	2648.750780
985.358824	2646.958650
985.655543	2643.351704
985.952224	2641.977990
986.248869	2643.311375
986.545478	2640.816004
986.842050	2640.248874
987.138586	2642.033443
987.435086	2639.648977
987.731549	2637.748462
988.027975	2638.570170
988.324366	2637.811476
988.620719	2639.759882
988.917037	2639.197794
989.213318	2635.457257
989.509563	2635.893317
989.805772	2637.198976
990.101944	2636.087402
990.398080	2636.611682
990.694180	2636.347021
990.990244	2637.045221
991.286271	2634.774181
991.582262	2636.707464
991.878217	2638.867598
992.174136	2634.862401
992.470019	2637.196456
992.765865	2634.227216
993.061676	2633.886938
993.357450	2634.759058
993.653188	2631.071454
993.948890	2636.152937
994.244556	2637.274593
994.540186	2638.686117
994.835780	2640.463123
995.131337	2638.827269
995.426859	2637.292237
995.722345	2637.950108
996.017795	2640.289203
996.313208	2640.412712
996.608586	2641.035294
996.903928	2640.216107
997.199234	2641.831797
997.494504	2640.914307
997.789738	2641.481436
998.084936	2640.589152
998.380099	2638.799542
998.675225	2640.664769
998.970316	2635.192597
999.265371	2638.517238
999.560390	2638.602937
999.855373	2638.492032
1000.150320	2638.741569
1000.445232	2635.795015
1000.740108	2634.794346
1001.034948	2633.198821
1001.329752	2634.738893
1001.624521	2635.358955
1001.919254	2634.433903
1002.213951	2635.926085
1002.508613	2637.713174
1002.803239	2634.612864
1003.097829	2632.414921
1003.392384	2632.180508
1003.686903	2633.284520
1003.981386	2634.486835
1004.275834	2635.631177
1004.570246	2635.643780
1004.864623	2635.769809
1005.158964	2636.281486
1005.453270	2636.067237
1005.747540	2634.789305
1006.041775	2634.592700
1006.335974	2635.704274
1006.630138	2635.104377
1006.924266	2633.856691
1007.218359	2631.857874
1007.512416	2632.235960
1007.806438	2630.637914
1008.100425	2632.374592
1008.394376	2628.024076
1008.688292	2634.701084
1008.982172	2633.196300
1009.276017	2633.828965
1009.569827	2634.030611
1009.863602	2636.183184
1010.157341	2633.924747
1010.451045	2632.913995
1010.744714	2634.963224
1011.038347	2634.280148
1011.331945	2631.142030
1011.625508	2633.690333
1011.919036	2633.801238
1012.212528	2634.101187
1012.505986	2634.234778
1012.799408	2634.653193
1013.092795	2632.482977
1013.386147	2633.266876
1013.679464	2635.863070
1013.972745	2632.989613
1014.265992	2632.069602
1014.559204	2634.146557
1014.852380	2634.449027
1015.145521	2634.673358
1015.438628	2631.643625
1015.731699	2633.995323
1016.024736	2631.981382
1016.317737	2631.106742
1016.610703	2634.068420
1016.903635	2633.808800
1017.196531	2632.334263
1017.489393	2632.664458
1017.782219	2632.881228
1018.075011	2632.190590
1018.367768	2632.858543
1018.660490	2632.818213
1018.953177	2632.818213
1019.245829	2632.818213
