Dividing Wavelength (nm)	Counts (n)	Blue Motor Position (mm): 32.600000	Red Motor Position (mm): 0.000000	
326.493990	2218.878989
326.888308	2218.878989
327.282561	2218.878989
327.676750	2180.064625
328.070874	2177.100426
328.464933	2176.190498
328.858929	2182.529749
329.252859	2186.857580
329.646726	2195.321677
330.040528	2206.699561
330.434265	2220.678681
330.827938	2236.273490
331.221547	2256.274268
331.615091	2270.815476
332.008571	2290.407921
332.401986	2311.101857
332.795338	2326.623570
333.188625	2346.858762
333.581847	2366.698223
333.975006	2386.293187
334.368100	2405.063924
334.761129	2421.125040
335.154095	2442.436518
335.546996	2466.513069
335.939833	2503.900786
336.332606	2520.176151
336.725315	2534.535878
337.117960	2547.332847
337.510540	2557.180741
337.903056	2568.470405
338.295508	2575.621282
338.687896	2586.583271
339.080220	2593.381267
339.472480	2600.758996
339.864676	2605.858123
340.256807	2611.098402
340.648875	2612.575460
341.040879	2614.362549
341.432818	2617.964454
341.824694	2622.050309
342.216506	2624.094497
342.608253	2624.336472
342.999937	2622.745988
343.391557	2624.074332
343.783113	2622.690535
344.174605	2621.619290
344.566033	2623.275309
344.957397	2621.768004
345.348697	2618.145935
345.739934	2621.553755
346.131106	2616.860441
346.522215	2615.348095
346.913260	2613.931531
347.304241	2613.865996
347.695159	2609.394492
348.086012	2610.317023
348.476802	2604.025663
348.867528	2599.942329
349.258191	2600.141454
349.648789	2597.923347
350.039324	2596.204313
350.429796	2597.376381
350.820203	2596.161463
351.210548	2595.412852
351.600828	2595.211206
351.991045	2594.147522
352.381198	2594.437389
352.771288	2592.672985
353.161314	2591.896647
353.551276	2591.788262
353.941175	2592.186513
354.331010	2592.209199
354.720782	2591.447984
355.110490	2590.785073
355.500135	2589.938159
355.889717	2588.798858
356.279235	2592.055443
356.668689	2591.732810
357.058080	2590.507809
357.447408	2591.773139
357.836672	2592.441092
358.225873	2589.239959
358.615010	2592.148705
359.004084	2592.914960
359.393095	2594.593664
359.782043	2595.785897
360.170927	2593.429158
360.559748	2595.717842
360.948505	2597.809921
361.337199	2594.346648
361.725830	2593.358582
362.114398	2596.312698
362.502903	2594.568459
362.891344	2597.837647
363.279722	2597.336052
363.668037	2597.525095
364.056289	2597.245311
364.444478	2602.861157
364.832603	2600.948039
365.220665	2599.818820
365.608665	2601.003492
365.996601	2601.159767
366.384474	2600.138934
366.772284	2603.607247
367.160031	2601.994078
367.547715	2606.004316
367.935336	2600.559870
368.322893	2601.651280
368.710388	2600.222113
369.097820	2601.951228
369.485189	2600.295209
369.872495	2602.677155
370.259738	2602.692278
370.646918	2606.029522
371.034035	2606.513473
371.421090	2606.072372
371.808081	2606.256374
372.195010	2608.108998
372.581875	2607.735953
372.968678	2606.039604
373.355418	2608.877774
373.742096	2608.436673
374.128710	2607.428442
374.515262	2608.066148
374.901751	2608.083792
375.288177	2610.816097
375.674540	2608.779471
376.060841	2609.812908
376.447079	2609.964142
376.833254	2610.238885
377.219367	2607.380551
377.605417	2613.389607
377.991404	2612.199894
378.377329	2613.571088
378.763191	2611.186622
379.148991	2613.346757
379.534727	2611.398351
379.920402	2611.047991
380.306013	2612.915738
380.691563	2613.387086
381.077049	2613.329113
381.462474	2616.550410
381.847835	2612.409102
382.233134	2614.791047
382.618371	2616.411778
383.003545	2615.940430
383.388657	2614.256685
383.773706	2617.099896
384.158693	2616.694083
384.543618	2616.651233
384.928480	2618.334978
385.313280	2615.358177
385.698017	2617.823301
386.082692	2620.127109
386.467305	2619.907818
386.851856	2619.393621
387.236344	2619.050822
387.620770	2618.700462
388.005133	2618.455966
388.389435	2618.166100
388.773674	2616.537807
389.157851	2621.851183
389.541965	2619.900257
389.926018	2622.614918
390.310008	2622.443519
390.693936	2621.188272
391.077802	2623.630711
391.461606	2623.499641
391.845348	2624.112141
392.229027	2628.480301
392.612645	2627.300671
392.996200	2624.863273
393.379694	2626.153808
393.763125	2627.177162
394.146494	2627.799745
394.529801	2629.891824
394.913047	2628.389560
395.296230	2629.992647
395.679351	2629.821247
396.062410	2629.312091
396.445408	2629.112965
396.828343	2633.823924
397.211217	2631.124386
397.594028	2633.042545
397.976778	2635.288379
398.359466	2633.536578
398.742092	2637.831641
399.124656	2634.524644
399.507158	2634.010446
399.889598	2637.110756
400.271977	2636.286527
400.654294	2639.533030
401.036549	2637.859367
401.418742	2637.813997
401.800874	2637.690489
402.182944	2639.349028
402.564952	2640.614358
402.946898	2642.227527
403.328783	2640.468164
403.710606	2643.661735
404.092367	2643.102167
404.474067	2644.790954
404.855705	2645.998310
405.237282	2645.476551
405.618797	2645.252219
406.000250	2646.305821
406.381642	2647.223311
406.762972	2648.660039
407.144240	2646.842703
407.525447	2648.181130
407.906593	2646.605769
408.287677	2653.280257
408.668700	2654.704383
409.049661	2653.081131
409.430560	2654.729589
409.811399	2655.599188
410.192176	2663.828871
410.572891	2660.365599
410.953545	2663.768377
411.334138	2666.704850
411.714669	2667.153512
412.095139	2671.435973
412.475547	2676.023422
412.855894	2683.549865
413.236180	2694.206864
413.616405	2699.159798
413.996568	2713.665718
414.376670	2725.046123
414.756711	2739.678072
415.136691	2754.224322
415.516609	2778.404216
415.896466	2801.480098
416.276262	2832.465550
416.655997	2865.190200
417.035670	2908.251736
417.415283	2965.622588
417.794834	3008.663959
418.174324	3045.852551
418.553753	3091.532967
418.933121	3172.473733
419.312428	3239.115266
419.691674	3275.038528
420.070859	3406.834454
420.449983	3441.590690
420.829045	3568.398394
421.208047	3615.346660
421.586988	3753.547372
421.965867	3840.217409
422.344686	3949.164306
422.723444	4055.787230
423.102141	3994.259947
423.480777	4272.738327
423.859352	4236.870518
424.237866	4518.802088
424.616319	4580.233588
424.994712	4810.276562
425.373044	4786.368890
425.751314	5056.231937
426.129524	5117.403819
426.507673	5284.165188
426.885762	5459.894770
427.263789	5532.668867
427.641756	5611.822544
428.019662	5780.723883
428.397508	6006.779304
428.775292	5969.363860
429.153016	6293.840248
429.530679	6316.162477
429.908282	6455.807480
430.285824	6403.520632
430.663305	6899.915489
431.040726	6706.073042
431.418086	6798.394213
431.795385	7109.839218
432.172624	7268.275122
432.549802	7325.537588
432.926920	7491.835171
433.303977	7501.085688
433.680974	7748.220694
434.057910	7917.976509
434.434786	8057.387098
434.811601	8053.649082
435.188355	8570.584121
435.565050	8454.438457
435.941683	8489.996236
436.318257	8976.712078
436.694770	9159.509357
437.071222	9314.910486
437.447614	9274.742573
437.823946	9258.777238
438.200218	9474.402512
438.576429	9373.556750
438.952580	9651.548658
439.328670	9777.582545
439.704700	9630.635431
440.080670	9682.871867
440.456580	10260.968705
440.832429	10077.992465
441.208218	9765.735834
441.583947	10122.984763
441.959616	10295.863572
442.335224	10156.122787
442.710773	10334.713224
443.086261	10554.467203
443.461689	9919.281818
443.837057	10545.877077
444.212365	10863.898267
444.587612	10546.177025
444.962800	10808.717797
445.337927	10613.322674
445.712995	10200.006032
446.088002	11291.330140
446.462949	10966.768052
446.837837	10946.515217
447.212664	10979.885135
447.587431	11474.750002
447.962139	12171.482834
448.336786	14395.213933
448.711374	14986.851310
449.085901	12885.784087
449.460369	12498.948626
449.834776	11969.188892
450.209124	12808.939258
450.583412	13215.415055
450.957640	14170.839737
451.331808	13378.977812
451.705917	12342.824091
452.079965	11683.574759
452.453954	12573.237590
452.827883	12208.628576
453.201752	12485.113179
453.575562	11996.448931
453.949311	12423.545567
454.323001	12372.365253
454.696632	12603.066097
455.070202	12887.140157
455.443713	13149.549859
455.817164	13595.104680
456.190556	13605.955764
456.563888	13959.073467
456.937160	14142.402588
457.310373	13476.894663
457.683526	13552.688412
458.056619	13113.898819
458.429653	13242.196184
458.802628	12703.906818
459.175542	13051.287688
459.548398	14006.719933
459.921194	14329.966279
460.293930	14393.890630
460.666607	15293.350944
461.039224	16317.141234
461.411782	17011.802152
461.784280	16908.191317
462.156719	16956.583873
462.529099	16639.283568
462.901419	15567.435958
463.273680	15354.674060
463.645882	15220.614655
464.018024	14960.037413
464.390106	15180.308110
464.762130	15899.516926
465.134094	16651.208417
465.505999	18625.291496
465.877845	21879.860419
466.249631	24704.791964
466.621358	24438.992087
466.993026	22986.650787
467.364634	22424.534407
467.736184	20964.936366
468.107674	20166.813328
468.479105	20301.162598
468.850477	19759.415000
469.221790	19338.362708
469.593043	18669.464607
469.964238	18105.372094
470.335373	17777.742464
470.706449	18197.171506
471.077467	17742.875324
471.448425	19578.130067
471.819324	23554.667838
472.190164	25640.160417
472.560945	22130.360395
472.931667	19737.186032
473.302330	19086.231918
473.672934	18590.520137
474.043479	18935.609803
474.413965	18771.782386
474.784393	18392.801042
475.154761	19058.581190
475.525070	19082.509026
475.895321	18722.941167
476.265513	19301.234609
476.635645	19886.477283
477.005719	19676.752680
477.375734	19876.631909
477.745691	20349.875268
478.115588	20855.455108
478.485427	21372.611957
478.855207	22422.142379
479.224928	24182.387274
479.594591	26407.630719
479.964194	26474.158827
480.333739	26668.086974
480.703226	26232.566570
481.072653	25901.501394
481.442022	26459.368081
481.811333	27376.371610
482.180584	27312.323750
482.549777	26357.851846
482.918912	25984.057850
483.287988	26113.754135
483.657005	25789.509640
484.025964	25524.677664
484.394864	25452.823578
484.763706	25157.419524
485.132489	24574.127777
485.501213	24746.741926
485.869879	24673.841800
486.238487	24464.402023
486.607036	24616.118068
486.975527	24303.982425
487.343959	24626.679286
487.712333	24588.374078
488.080648	24263.610344
488.448905	24731.757096
488.817104	24473.153466
489.185244	25136.148376
489.553326	25124.495748
489.921350	26097.410714
490.289315	28369.889772
490.657222	30166.922486
491.025070	30648.559366
491.392861	30449.148963
491.760593	29610.217784
492.128267	28710.742348
492.495883	27669.814655
492.863440	26805.564280
493.230939	25920.478817
493.598380	25769.952484
493.965763	25369.737801
494.333088	24924.936632
494.700354	24847.890158
495.067563	24727.651077
495.434713	24479.225536
495.801805	24633.459637
496.168839	24448.096411
496.535815	24275.802375
496.902733	24489.653162
497.269593	24167.135263
497.636395	24344.898950
498.003139	24319.486494
498.369825	24082.819444
498.736453	24269.342136
499.103023	24152.198324
499.469535	24169.948227
499.835989	24370.848290
500.202385	24397.140427
500.568723	23904.153390
500.935003	24157.357945
501.301226	23764.715075
501.667390	24594.184008
502.033497	24824.778988
502.399546	24559.861312
502.765537	24142.519308
503.131470	24523.126424
503.497345	24648.941021
503.863163	23870.382700
504.228923	24479.759898
504.594625	24675.578478
504.960269	24192.867832
505.325856	24696.670666
505.691385	24100.871816
506.056856	24715.116247
506.422270	24676.037223
506.787625	24249.790021
507.152924	24660.475181
507.518164	24685.398646
507.883347	24498.195397
508.248472	24182.301574
508.613540	24962.478105
508.978550	24749.486834
509.343503	24738.597942
509.708398	25012.146073
510.073236	25160.451778
510.438016	25362.533992
510.802738	25050.438678
511.167403	25285.046416
511.532010	24998.645863
511.896561	25775.712002
512.261053	25737.709264
512.625488	25579.515336
512.989866	25463.974610
513.354186	25313.463400
513.718449	25421.434833
514.082655	25803.478678
514.446803	25532.899786
514.810894	26006.927044
515.174927	25477.154707
515.538904	25521.789083
515.902822	26015.799475
516.266684	25762.156340
516.630488	25675.017475
516.994235	25641.329964
517.357925	25946.541583
517.721558	26124.980785
518.085133	26221.904529
518.448651	26137.457641
518.812112	25866.155343
519.175516	26066.785705
519.538863	26214.425977
519.902152	26006.165830
520.265385	26292.256352
520.628560	26077.185605
520.991678	26098.368534
521.354739	26175.291500
521.717743	26223.744550
522.080690	26026.285075
522.443580	26355.782452
522.806413	26339.693609
523.169189	26441.754290
523.531908	26485.687945
523.894569	26099.933812
524.257174	26168.443093
524.619722	26360.816044
524.982213	26043.581274
525.344647	26109.229700
525.707025	26238.525213
526.069345	26225.977782
526.431608	26180.120926
526.793815	26366.194955
527.155964	25831.041186
527.518057	26012.489957
527.880093	25913.025471
528.242072	26154.438767
528.603995	25866.876228
528.965860	25666.520610
529.327669	25711.119698
529.689421	25695.035897
530.051117	25524.128178
530.412755	25697.385074
530.774337	25512.551169
531.135862	25373.788368
531.497331	25583.210502
531.858743	25132.675021
532.220098	25611.249399
532.581396	25290.780729
532.942638	25230.034825
533.303824	25322.895399
533.664953	25351.017476
534.026025	24999.149979
534.387040	25241.972277
534.747999	25303.328161
535.108902	25460.385309
535.469748	24953.184738
535.830537	25142.679190
536.191270	25259.460040
536.551947	25129.955318
536.912567	24791.711539
537.273131	25135.550999
537.633638	24836.441697
537.994089	25043.343254
538.354483	24588.396763
538.714821	25092.060965
539.075103	25127.391891
539.435328	24916.908595
539.795497	24483.457584
540.155609	24860.301478
540.515665	25164.474619
540.875665	24399.149327
541.235609	24692.282341
541.595496	24656.424614
541.955328	25016.524315
542.315102	24942.678973
542.674821	24474.267561
543.034483	24355.503017
543.394090	24515.957903
543.753640	24323.151413
544.113134	24951.841270
544.472571	24554.157246
544.831953	24831.057745
545.191278	24461.662156
545.550548	24379.204002
545.909761	24593.175777
546.268918	24814.159797
546.628019	24791.146930
546.987064	24484.019673
547.346053	24243.549073
547.704986	24361.179357
548.063863	24518.483521
548.422684	24522.587020
548.781449	24055.443458
549.140158	24463.083761
549.498811	24038.311097
549.857408	23782.001191
550.215949	24202.491395
550.574434	23890.184353
550.932864	24106.122178
551.291237	24266.998000
551.649555	24135.978411
552.007817	24179.087838
552.366022	24043.563979
552.724173	24084.692233
553.082267	24020.107490
553.440305	24509.535473
553.798288	23760.263736
554.156215	24278.252376
554.514086	24376.348188
554.871902	23743.370829
555.229661	24033.108626
555.587365	23892.283993
555.945014	23764.122739
556.302606	24000.862885
556.660143	23954.670793
557.017625	24207.608166
557.375050	23731.294745
557.732421	24123.070537
558.089735	23945.561428
558.446994	23996.177133
558.804197	24024.173181
559.161345	23969.774090
559.518437	23729.661411
559.875474	23929.550723
560.232455	24105.118988
560.589381	23916.047992
560.946251	23909.726386
561.303065	24231.215890
561.659825	24317.996833
562.016528	23916.668054
562.373177	23665.147245
562.729770	24014.111038
563.086307	23880.880903
563.442789	24045.091449
563.799216	23878.274627
564.155587	23874.791189
564.511904	23867.264747
564.868164	23808.063957
565.224370	23783.092601
565.580520	23698.691083
565.936615	23821.909486
566.292654	23511.679398
566.648638	23804.807371
567.004567	23624.651656
567.360441	23588.546912
567.716260	23308.641886
568.072023	23632.833449
568.427732	23388.730697
568.783385	23185.841899
569.138982	23408.948245
569.494525	23449.348052
569.850013	23189.736190
570.205445	23297.458086
570.560823	23100.316203
570.916145	22864.838866
571.271412	23032.711810
571.626625	22796.488382
571.981782	22907.265217
572.336884	22712.560732
572.691931	22848.457637
573.046923	22594.038164
573.401860	22468.415131
573.756743	22478.638591
574.111570	22373.505327
574.466342	22307.745996
574.821059	22405.809041
575.175722	22100.347885
575.530330	22084.871543
575.884882	22107.960028
576.239380	22011.457220
576.593823	21901.739027
576.948211	21895.533366
577.302544	21733.208213
577.656823	21598.443047
578.011047	21705.610416
578.365216	21573.191907
578.719330	21450.018875
579.073389	21342.354952
579.427394	21496.460504
579.781344	21265.931060
580.135239	21144.235085
580.489080	21118.038729
580.842866	20878.992255
581.196597	21082.077658
581.550273	21054.575643
581.903895	20949.177719
582.257463	21262.666912
582.610975	20791.669388
582.964434	21104.651945
583.317837	20792.728030
583.671186	20886.349819
584.024481	20858.772187
584.377721	20627.421034
584.730906	20689.633914
585.084037	20714.965712
585.437113	20618.047008
585.790135	20825.114923
586.143103	20288.990732
586.496016	20296.802000
586.848874	20539.702437
587.201679	20463.868359
587.554428	20150.812705
587.907124	20482.019034
588.259765	20247.116388
588.612352	20334.708957
588.964884	19905.550488
589.317362	20072.019471
589.669786	20129.460898
590.022155	20166.606640
590.374470	20358.477997
590.726731	20146.976387
591.078937	19924.205278
591.431090	20021.807058
591.783188	19760.740824
592.135232	19737.773327
592.487222	19841.608493
592.839157	19849.812971
593.191038	19724.429393
593.542866	19618.678588
593.894639	19330.231326
594.246358	19555.560821
594.598022	19457.046593
594.949633	19208.550475
595.301190	19174.903294
595.652692	19351.782259
596.004141	19581.638710
596.355535	18908.611904
596.706876	18914.925949
597.058162	18814.995156
597.409395	19043.631648
597.760573	19124.191807
598.111698	18895.923320
598.462768	18833.229010
598.813785	18800.249781
599.164748	18616.776987
599.515657	18652.458274
599.866511	18447.986553
600.217312	18800.537127
600.568060	18322.119024
600.918753	18639.091655
601.269392	18542.518270
601.619978	18316.684660
601.970510	18527.440179
602.320988	18479.193816
602.671412	18678.425258
603.021783	18592.324870
603.372100	18314.839598
603.722363	18458.071382
604.072572	18393.161485
604.422728	18545.991625
604.772830	18296.888049
605.122878	18255.149816
605.472872	18237.117609
605.822813	18229.989417
606.172701	18194.603038
606.522534	18392.269201
606.872314	18420.388757
607.222041	18247.525071
607.571714	18472.458835
607.921333	18296.363769
608.270899	18371.565182
608.620411	18547.261996
608.969870	18317.221543
609.319276	18316.498138
609.668627	18351.226647
610.017926	18484.245052
610.367171	18596.859388
610.716362	18650.681267
611.065500	18449.768601
611.414585	18596.675386
611.763616	18578.922963
612.112594	18522.419190
612.461518	18488.404004
612.810389	18673.305966
613.159207	18544.446512
613.507971	18456.866546
613.856682	18721.905209
614.205340	18648.533736
614.553945	18799.566705
614.902496	18545.719403
615.250994	18777.698180
615.599439	18721.194407
615.947830	18701.811170
616.296169	18767.008413
616.644454	18718.744406
616.992686	18703.479792
617.340864	18907.644002
617.688990	18667.518721
618.037063	18846.184775
618.385082	18690.793728
618.733048	18973.829311
619.080961	18833.445779
619.428821	18875.549496
619.776628	18763.252753
620.124382	18690.670220
620.472083	18722.762206
620.819731	18744.771883
621.167326	18436.800233
621.514868	18480.444022
621.862357	18252.069671
622.209793	18261.869674
622.557176	18092.920444
622.904506	17915.842353
623.251783	17826.313982
623.599007	17592.026357
623.946179	17542.058440
624.293297	17482.580386
624.640363	17224.977425
624.987376	17249.585817
625.334336	17045.817337
625.681243	16888.465282
626.028097	16896.561375
626.374899	16829.196436
626.721647	16689.455652
627.068343	16517.005340
627.414987	16454.978983
627.761577	16434.680777
628.108115	16475.403218
628.454600	16196.072883
628.801032	16289.603931
629.147412	16218.793364
629.493739	16227.272585
629.840014	16039.784511
630.186236	16146.629247
630.532405	15907.872639
630.878521	16103.507217
631.224585	16007.775705
631.570597	15824.184444
631.916556	15859.008734
632.262462	15828.454301
632.608316	15746.956487
632.954117	15692.348188
633.299866	15681.522310
633.645562	15610.600838
633.991206	15350.749521
634.336797	15237.174846
634.682336	15205.211410
635.027823	15084.364870
635.373257	14961.998422
635.718639	14872.036511
636.063968	14816.377131
636.409245	14557.130754
636.754470	14602.009626
637.099642	14439.331591
637.444762	14207.751066
637.789829	14257.003139
638.134845	14097.619498
638.479808	14117.869813
638.824719	14058.316142
639.169577	13917.869596
639.514383	13963.176966
639.859137	13783.217856
640.203839	13870.606258
640.548489	13715.346282
640.893086	13698.072768
641.237632	13572.416967
641.582125	13726.300709
641.926566	13553.101786
642.270955	13558.873907
642.615292	13512.666691
642.959576	13533.300134
643.303809	13561.812900
643.647990	13498.012057
643.992118	13554.349472
644.336195	13317.838698
644.680219	13533.474054
645.024192	13461.662817
645.368112	13698.024877
645.711981	13756.661058
646.055797	13937.981279
646.399562	13905.634716
646.743274	14177.904914
647.086935	14450.275936
647.430544	14412.484926
647.774101	14444.803764
648.117606	14600.766981
648.461059	14568.843875
648.804460	14553.866607
649.147810	14280.580615
649.491108	14179.528166
649.834354	14191.596688
650.177548	13879.677815
650.520690	13697.944218
650.863781	13620.285243
651.206820	13661.864680
651.549807	13481.656033
651.892742	13292.406077
652.235626	13232.325605
652.578458	13237.419691
652.921238	12923.665837
653.263967	13118.750930
653.606644	12951.238428
653.949269	12925.311774
654.291843	12723.252246
654.634365	12879.434754
654.976836	12743.691604
655.319255	12745.241759
655.661622	12698.013709
656.003938	12619.533026
656.346203	12546.476624
656.688416	12615.343827
657.030577	12576.345461
657.372687	12493.569715
657.714746	12472.560706
658.056753	12663.118842
658.398708	12476.182775
658.740612	12481.710400
659.082465	12578.372005
659.424266	12549.637428
659.766016	12569.837331
660.107715	12481.168476
660.449362	12559.918861
660.790958	12516.159125
661.132503	12455.551853
661.473996	12516.668282
661.815438	12540.394472
662.156829	12562.547823
662.498168	12533.188143
662.839456	12535.081096
663.180693	12553.597254
663.521879	12642.437508
663.863013	12620.642080
664.204097	12596.416815
664.545129	12716.597923
664.886110	12694.326105
665.227040	12781.424641
665.567918	12783.110907
665.908746	12811.119557
666.249522	12797.584059
666.590248	12848.146832
666.930922	12965.731746
667.271545	12941.057818
667.612118	13031.387733
667.952639	12925.828493
668.293109	12945.854476
668.633528	12904.650605
668.973896	12879.626317
669.314213	12955.707411
669.654480	12693.557329
669.994695	12763.939398
670.334859	12786.306998
670.674973	12724.832647
671.015035	12763.780602
671.355047	12707.420502
671.695008	12676.510667
672.034918	12681.919825
672.374777	12731.955798
672.714585	12644.658137
673.054342	12676.792972
673.394049	12631.901497
673.733705	12726.118142
674.073310	12631.271353
674.412864	12647.927325
674.752368	12504.438443
675.091820	12533.220910
675.431223	12518.412521
675.770574	12383.042417
676.109875	12306.184985
676.449125	12263.720826
676.788324	12212.106972
677.127473	12044.163452
677.466571	12040.349819
677.805619	11924.025194
678.144616	11855.417611
678.483562	11828.641522
678.822458	11689.883763
679.161303	11669.593119
679.500098	11664.617500
679.838842	11612.988523
680.177535	11640.697225
680.516179	11700.628982
680.854771	11653.002681
681.193314	11861.240144
681.531805	12020.989268
681.870247	12439.299173
682.208638	12854.443233
682.546978	13165.174915
682.885268	13212.392883
683.223508	12903.286973
683.561697	12748.626894
683.899836	12646.588899
684.237925	12444.294957
684.575963	12361.340249
684.913951	12290.254939
685.251889	12237.335427
685.589776	12338.425685
685.927614	12260.539858
686.265401	12231.104560
686.603137	12274.445881
686.940824	12425.511617
687.278460	12554.507183
687.616046	12604.522990
687.953582	12765.993669
688.291068	12691.586238
688.628504	12930.960387
688.965889	12936.190584
689.303224	12908.905339
689.640510	12788.273048
689.977745	12465.976959
690.314930	12248.438568
690.652065	12163.608552
690.989150	11876.648431
691.326185	11644.904068
691.663170	11439.633324
692.000105	11193.801457
692.336990	11081.287944
692.673825	10830.757722
693.010610	10713.815555
693.347345	10501.890489
693.684030	10305.872783
694.020665	10246.298947
694.357251	10050.896263
694.693786	9984.325306
695.030272	9820.588629
695.366707	9712.652484
695.703093	9641.715887
696.039429	9643.603799
696.375716	9555.872599
696.711952	9425.510881
697.048139	9473.772367
697.384276	9426.912322
697.720363	9443.870763
698.056400	9376.687306
698.392388	9324.095469
698.728326	9289.044326
699.064214	9230.695491
699.400053	9267.357282
699.735842	9082.546062
700.071581	9041.148106
700.407270	8967.453999
700.742910	8889.023727
701.078501	8799.606261
701.414042	8674.999020
701.749533	8606.073844
702.084974	8462.592523
702.420366	8582.211542
702.755709	8463.958676
703.091002	8327.368613
703.426246	8356.740895
703.761440	8311.824215
704.096584	8266.272348
704.431679	8198.821710
704.766725	8183.231942
705.101721	8135.585476
705.436668	8181.286056
705.771565	8070.612565
706.106413	8161.338211
706.441212	8197.838685
706.775961	8152.947210
707.110661	8193.692336
707.445311	8338.315478
707.779913	8235.864108
708.114465	8365.504941
708.448967	8397.644818
708.783421	8542.852734
709.117825	8732.947083
709.452180	8765.273482
709.786485	8856.278912
710.120742	9137.645873
710.454949	9138.800297
710.789107	9237.057427
711.123216	9458.255696
711.457275	9621.926838
711.791286	9772.392677
712.125247	9774.537688
712.459159	9770.703891
712.793023	10008.008646
713.126837	9584.246733
713.460602	9738.296833
713.794318	9557.768073
714.127985	9582.590714
714.461602	9260.609698
714.795171	9211.655053
715.128691	8965.828227
715.462162	8712.222900
715.795584	8665.158688
716.128957	8515.257458
716.462281	8340.843617
716.795556	8392.298674
717.128782	8187.471552
717.461960	7923.090759
717.795088	7994.970051
718.128167	7900.692913
718.461198	7734.165957
718.794180	7676.021289
719.127113	7665.744897
719.459997	7505.738673
719.792833	7288.079294
720.125619	7348.164807
720.458357	7201.482354
720.791046	7195.952208
721.123686	7191.962135
721.456278	7029.180756
721.788821	7045.201543
722.121315	6946.979702
722.453761	7011.249372
722.786158	6951.413397
723.118506	6961.823379
723.450805	6926.890704
723.783056	6996.009964
724.115259	6908.016624
724.447412	6901.909266
724.779518	6950.609332
725.111574	6947.597243
725.443582	7028.293513
725.775542	7015.544435
726.107453	7207.846810
726.439315	7114.898016
726.771129	7176.821029
727.102895	7347.537183
727.434612	7458.581200
727.766281	7498.048393
728.097901	7566.540030
728.429473	7564.092550
728.760996	7542.065228
729.092471	7511.883840
729.423897	7461.177394
729.755276	7475.274981
730.086606	7396.060810
730.417887	7495.547981
730.749120	7700.438117
731.080305	7888.268989
731.411442	8009.745673
731.742530	8003.328284
732.073570	8117.250800
732.404562	8200.941515
732.735506	8048.728916
733.066401	8184.272940
733.397249	8116.923125
733.728048	7876.255919
734.058798	7545.044550
734.389501	7317.144067
734.720156	7139.844166
735.050762	6903.961015
735.381320	6809.071377
735.711831	6760.237719
736.042293	6647.792262
736.372707	6671.609193
736.703073	6533.446290
737.033391	6571.234779
737.363661	6587.348827
737.693883	6614.140040
738.024056	6701.750252
738.354182	6741.721561
738.684260	6778.653054
739.014290	6894.521455
739.344272	7004.514391
739.674207	7031.335850
740.004093	7102.481654
740.333931	7116.238963
740.663722	7123.349510
740.993464	7200.441355
741.323159	7186.305960
741.652806	6933.522342
741.982405	6954.438089
742.311956	7013.283478
742.641460	6839.141859
742.970915	6650.277551
743.300323	6640.432178
743.629683	6593.632626
743.958996	6459.795032
744.288260	6365.230548
744.617477	6316.311191
744.946647	6312.114430
745.275768	6147.500593
745.604842	6101.321103
745.933869	6092.093271
746.262847	6045.081991
746.591778	6036.930445
746.920662	5997.017109
747.249498	5989.246171
747.578286	6034.772831
747.907027	6112.477176
748.235720	6170.619324
748.564365	6143.180324
748.892963	6175.047978
749.221514	6323.835113
749.550017	6155.369834
749.878473	6030.066914
750.206881	6088.965235
750.535242	6028.980545
750.863555	5963.695082
751.191821	5976.799562
751.520039	5975.940045
751.848210	5888.735645
752.176334	5911.100724
752.504411	5956.987827
752.832440	5887.548453
753.160421	5813.710673
753.488356	5859.824628
753.816243	5891.762858
754.144082	5746.683492
754.471875	5714.122679
754.799620	5753.579790
755.127318	5767.692500
755.454969	5727.630451
755.782572	5690.094019
756.110129	5736.197892
756.437638	5720.867743
756.765100	5658.407847
757.092515	5659.242157
757.419882	5710.672009
757.747203	5684.992371
758.074477	5750.756744
758.401703	5738.446246
758.728882	5690.235171
759.056014	5748.359675
759.383099	5872.240990
759.710138	5884.909409
760.037129	5872.941710
760.364073	5877.052771
760.690970	5956.929854
761.017820	5941.685405
761.344623	5897.272839
761.671379	6002.070866
761.998088	6118.463547
762.324751	6365.003696
762.651366	6970.058104
762.977935	8301.315929
763.304456	9939.781670
763.630931	10833.598412
763.957359	10424.034909
764.283740	9469.880597
764.610074	8628.416238
764.936362	7632.122921
765.262602	7034.085799
765.588796	6499.310117
765.914943	6166.712430
766.241044	6001.198746
766.567097	5796.502694
766.893104	5536.663981
767.219064	5355.747052
767.544978	5297.675480
767.870845	5218.302513
768.196665	5114.101863
768.522438	5040.513620
768.848165	5008.968599
769.173846	4940.693732
769.499479	4899.565479
769.825066	4850.648642
770.150607	4785.862254
770.476101	4759.267647
770.801548	4757.427625
771.126949	4681.790153
771.452303	4625.722440
771.777611	4581.022529
772.102872	4601.298050
772.428087	4563.585178
772.753256	4526.658726
773.078378	4482.112570
773.403453	4408.262187
773.728482	4391.782655
774.053465	4349.905790
774.378401	4339.367258
774.703291	4337.318028
775.028135	4263.311369
775.352932	4214.255901
775.677683	4202.751988
776.002388	4223.705544
776.327046	4237.299016
776.651658	4162.710103
776.976224	4095.622428
777.300743	4103.229529
777.625216	4122.859782
777.949643	4118.995738
778.274024	4073.945466
778.598359	4029.928632
778.922647	4058.486768
779.246889	4043.711146
779.571086	4041.019170
779.895236	4025.653733
780.219339	4009.953059
780.543397	4004.279241
780.867409	4057.362591
781.191374	4067.719641
781.515294	4005.663037
781.839167	3997.806399
782.162995	4018.714585
782.486776	4007.717308
782.810511	4017.010675
783.134201	4011.480529
783.457844	3967.141060
783.781441	3912.535282
784.104993	3919.081220
784.428498	3940.165846
784.751958	3935.190227
785.075372	3911.499325
785.398739	3877.821897
785.722061	3887.473186
786.045337	3931.283333
786.368568	3964.895226
786.691752	3874.222513
787.014891	3929.569341
787.337983	4058.343095
787.661030	4214.893607
787.984031	4381.362590
788.306987	4549.233013
788.629897	4631.492041
788.952760	4588.463272
789.275579	4520.816028
789.598351	4453.050318
789.921078	4306.630004
790.243759	4109.588945
790.566395	4089.999021
790.888984	4086.165223
791.211529	3976.996516
791.534027	3920.681787
791.856480	3905.099580
792.178888	3845.417360
792.501249	3795.913229
792.823566	3808.992502
793.145836	3836.476873
793.468062	3782.909573
793.790241	3740.553798
794.112375	3769.069085
794.434464	3836.817151
794.756507	3857.208618
795.078505	3838.637008
795.400457	3873.025239
795.722364	4014.202752
796.044226	4119.560347
796.366042	4190.635575
796.687812	4168.242770
797.009538	4176.931198
797.331218	4136.483500
797.652852	4108.174901
797.974442	4087.528855
798.295986	4086.631530
798.617484	4002.585413
798.938938	3920.467537
799.260346	3957.825008
799.581709	3953.514822
799.903026	3880.647463
800.224299	3842.939632
800.545526	3837.036441
800.866708	3800.757778
801.187845	3735.784866
801.508936	3771.824075
801.829983	3769.036317
802.150984	3692.398176
802.471940	3681.259746
802.792851	3692.309956
803.113717	3695.982436
803.434538	3693.923125
803.755314	3636.756440
804.076045	3613.083182
804.396731	3632.655462
804.717372	3661.029596
805.037967	3641.827841
805.358518	3628.118423
805.679024	3659.582785
805.999485	3671.812624
806.319901	3676.755475
806.640272	3686.343750
806.960598	3705.061554
807.280879	3680.191022
807.601115	3694.381870
807.921306	3707.831668
808.241453	3749.232144
808.561554	3722.045202
808.881611	3656.497599
809.201623	3696.746171
809.521590	3706.054662
809.841513	3680.480888
810.161390	3707.935012
810.481223	3682.789737
810.801011	3633.492293
811.120755	3627.148001
811.440453	3660.182682
811.760107	3660.401972
812.079716	3619.745067
812.399281	3586.796085
812.718801	3611.830455
813.038276	3583.771393
813.357707	3583.847010
813.677093	3599.078856
813.996434	3544.654559
814.315731	3554.691497
814.634983	3560.251889
814.954191	3574.024322
815.273354	3601.402828
815.592473	3596.512909
815.911547	3603.694033
816.230577	3644.696257
816.549562	3697.787169
816.868502	3739.323756
817.187399	3762.805451
817.506250	3759.440481
817.825058	3732.213209
818.143821	3828.501768
818.462539	3925.589350
818.781213	3972.903099
819.099843	4033.454919
819.418429	4284.287611
819.736970	4524.576729
820.055466	4775.691726
820.373919	5141.987005
820.692327	5550.479263
821.010691	6003.356360
821.329011	7408.008344
821.647286	10195.118633
821.965517	14808.142407
822.283704	18873.071769
822.601847	20992.176241
822.919945	19141.172934
823.237999	16527.916918
823.556010	14011.808978
823.873976	11898.653067
824.191897	9796.040730
824.509775	8449.024258
824.827609	7321.245046
825.145398	6777.251613
825.463144	6662.063769
825.780845	6774.685666
826.098502	6972.167827
826.416116	7875.482102
826.733685	9204.985606
827.051210	10321.966667
827.368692	10344.858546
827.686129	9072.526768
828.003522	7546.846763
828.320872	6525.917327
828.638177	5818.895500
828.955439	5253.872894
829.272656	4759.350826
829.589830	4474.250890
829.906960	4297.878561
830.224046	4112.245633
830.541088	3988.215604
830.858086	3941.602575
831.175041	3862.264896
831.491952	3851.877598
831.808819	3861.453270
832.125642	3936.959672
832.442421	4084.007609
832.759157	4365.309035
833.075849	4921.169343
833.392497	5799.774403
833.709101	6578.705769
834.025662	6906.761376
834.342179	6529.703233
834.658653	5863.827304
834.975083	5213.752872
835.291469	4633.808451
835.607811	4222.818301
835.924110	4080.829162
836.240366	3881.259963
836.556578	3677.564581
836.872746	3567.725400
837.188871	3528.043957
837.504952	3459.887558
837.820990	3379.818911
838.136984	3336.396932
838.452935	3357.625231
838.768842	3353.496526
839.084706	3375.133158
839.400526	3537.296995
839.716303	3880.914644
840.032037	4418.475564
840.347727	4674.646838
840.663373	4387.152355
840.978977	4000.848736
841.294537	3690.043957
841.610054	3462.937456
841.925527	3358.469624
842.240957	3289.985549
842.556344	3232.334914
842.871687	3175.337108
843.186987	3125.343985
843.502244	3088.379725
843.817458	3053.623490
844.132629	3022.703573
844.447756	3031.603730
844.762840	3018.161493
845.077881	2986.190495
845.392879	2967.628967
845.707833	2962.144191
846.022745	2963.336424
846.337613	2962.328193
846.652438	2951.073818
846.967221	2948.706996
847.281960	2936.114193
847.596656	2930.911723
847.911309	2929.205292
848.225919	2925.729417
848.540485	2918.409661
848.855009	2918.066863
849.169490	2906.278124
849.483928	2900.816034
849.798323	2898.751682
850.112675	2896.619274
850.426984	2906.961201
850.741251	2903.921385
851.055474	2893.362688
851.369654	2886.773900
851.683792	2892.036865
851.997887	2902.454409
852.311938	2904.170922
852.625947	2890.884961
852.939914	2893.791186
853.253837	2898.262690
853.567718	2887.935886
853.881555	2885.727861
854.195350	2898.018194
854.509103	2894.728841
854.822812	2885.745505
855.136479	2886.282388
855.450103	2888.283726
855.763685	2878.597149
856.077224	2876.676469
856.390720	2887.406565
856.704173	2899.901065
857.017584	2891.994015
857.330953	2887.361195
857.644278	2898.449213
857.957561	2907.651839
858.270802	2908.415574
858.584000	2908.602096
858.897155	2897.723286
859.210268	2894.605333
859.523339	2893.004766
859.836367	2892.188099
860.149352	2886.126112
860.462295	2881.876419
860.775195	2892.107441
861.088054	2890.947976
861.400869	2875.446428
861.713642	2869.694471
862.026373	2887.835063
862.339062	2887.570403
862.651708	2891.404200
862.964312	2896.735220
863.276873	2890.244735
863.589392	2903.502969
863.901869	2912.473703
864.214303	2936.467074
864.526696	2950.083231
864.839045	2946.009978
865.151353	2945.120215
865.463619	2941.089812
865.775842	2945.165585
866.088023	2965.022690
866.400162	2971.356900
866.712258	2940.505038
867.024313	2930.205961
867.336325	2938.586879
867.648296	2962.711321
867.960224	2954.693366
868.272110	2941.329267
868.583954	2946.856892
868.895755	2958.126392
869.207515	2946.655246
869.519233	2953.468366
869.830909	2959.517750
870.142542	2972.105511
870.454134	2970.469657
870.765684	2973.706078
871.077191	2973.418732
871.388657	2981.514825
871.700081	2995.698111
872.011463	3005.029287
872.322803	3006.902076
872.634101	3005.462826
872.945357	3024.430168
873.256571	3051.717933
873.567744	3043.054711
873.878874	3035.356869
874.189963	3057.553069
874.501010	3059.829150
874.812015	3053.061401
875.122979	3048.758776
875.433900	3044.559495
875.744780	3049.383879
876.055618	3060.179510
876.366415	3053.147101
876.677169	3066.891807
876.987882	3064.035993
877.298554	3057.437122
877.609183	3081.972418
877.919771	3103.523351
878.230317	3130.037300
878.540822	3180.058149
878.851285	3222.111454
879.161707	3265.452774
879.472087	3369.945811
879.782425	3604.412397
880.092722	4048.883370
880.402977	4581.788784
880.713191	5225.087906
881.023363	6405.227062
881.333494	7697.869649
881.643583	8249.172755
881.953631	7938.524252
882.263637	7298.229658
882.573602	6694.775816
882.883526	6109.850735
883.193408	5531.484196
883.503248	5070.321962
883.813048	4761.571454
884.122806	4447.991520
884.432522	4135.014004
884.742197	3895.339906
885.051831	3699.181048
885.361424	3567.422931
885.670975	3491.997187
885.980485	3405.949732
886.289954	3327.416117
886.599382	3283.369035
886.908768	3245.888056
887.218113	3201.722507
887.527417	3142.952736
887.836680	3096.158225
888.145901	3087.416864
888.455082	3075.917993
888.764221	3027.545601
889.073319	2997.533091
889.382376	2995.204078
889.691392	3002.349914
890.000366	2997.996878
890.309300	2983.468272
890.618193	2997.144923
890.927044	3015.595546
891.235855	3018.363139
891.544625	3002.410408
891.853353	3013.543796
892.162041	3030.930736
892.470687	3071.126376
892.779293	3121.096813
893.087858	3171.987261
893.396381	3243.780854
893.704864	3366.729555
894.013306	3611.596041
894.321707	3913.548554
894.630068	4122.950523
894.938387	4119.618320
895.246665	4074.999067
895.554903	3950.255716
895.863100	3748.682658
896.171256	3574.737645
896.479371	3435.425358
896.787446	3313.525217
897.095480	3207.020760
897.403473	3142.607417
897.711425	3104.024946
898.019336	3096.528750
898.327207	3066.138154
898.635038	3033.080788
898.942827	3016.641585
899.250576	3005.425018
899.558284	2974.532827
899.865952	2953.128088
900.173579	2933.795263
900.481165	2925.086669
900.788711	2913.549989
901.096216	2888.238355
901.403681	2877.009185
901.711105	2885.112840
902.018489	2882.967829
902.325832	2881.014382
902.633135	2893.337482
902.940397	2927.183789
903.247619	3009.173116
903.554800	3208.225596
903.861941	3561.605439
904.169041	3993.665091
904.476101	4292.169455
904.783121	4244.591045
905.090100	3994.408662
905.397039	3717.472875
905.703938	3461.306642
906.010796	3277.337294
906.317614	3165.169101
906.624391	3068.227712
906.931129	2996.209788
907.237826	2931.413318
907.544483	2886.231976
907.851099	2854.830629
908.157675	2832.175683
908.464211	2812.081644
908.770707	2800.413894
909.077163	2789.676236
909.383578	2772.072527
909.689954	2763.560538
909.996289	2758.032913
910.302584	2761.909561
910.608839	2762.796804
910.915054	2755.560227
911.221229	2748.109402
911.527363	2752.817840
911.833458	2757.639703
912.139513	2762.854777
912.445527	2766.408790
912.751502	2774.673762
913.057436	2785.408899
913.363331	2796.544808
913.669186	2820.870896
913.975000	2854.823067
914.280775	2916.050401
914.586510	2988.078407
914.892205	3069.399781
915.197859	3198.743185
915.503475	3395.305336
915.809050	3613.577215
916.114585	3764.015328
916.420081	3779.224489
916.725536	3720.986559
917.030952	3594.846808
917.336328	3466.632621
917.641665	3335.769309
917.946961	3232.385326
918.252218	3163.881086
918.557435	3082.143818
918.862612	3019.308355
919.167750	2972.375213
919.472848	2931.536826
919.777906	2904.884245
920.082925	2877.021788
920.387904	2847.712520
920.692843	2829.924808
920.997743	2817.889053
921.302603	2804.351035
921.607423	2797.048923
921.912204	2782.500153
922.216946	2771.684358
922.521647	2760.727410
922.826310	2753.022006
923.130932	2746.778537
923.435516	2735.745972
923.740059	2732.438975
924.044564	2722.691904
924.349028	2720.980432
924.653454	2711.664380
924.957840	2706.802187
925.262186	2701.256918
925.566493	2697.695343
925.870761	2691.701411
926.174989	2690.103365
926.479178	2684.570699
926.783328	2677.639112
927.087438	2676.076355
927.391509	2677.530727
927.695541	2673.298679
927.999533	2669.928667
928.303486	2667.120745
928.607400	2667.531599
928.911275	2665.288285
929.215110	2665.686537
929.518906	2664.872390
929.822663	2663.213851
930.126381	2663.879283
930.430060	2662.051865
930.733699	2664.658141
931.037299	2665.913388
931.340861	2665.540343
931.644383	2666.588903
931.947866	2665.305929
932.251309	2665.661331
932.554714	2662.850887
932.858080	2661.998932
933.161407	2659.226298
933.464694	2660.214364
933.767943	2654.003662
934.071153	2656.801503
934.374323	2657.227480
934.677455	2656.851914
934.980548	2657.066163
935.283602	2655.231183
935.586617	2654.764877
935.889593	2654.265802
936.192530	2656.085659
936.495428	2657.845022
936.798287	2658.187820
937.101108	2661.141936
937.403890	2663.753254
937.706632	2671.345232
938.009336	2676.121725
938.312002	2684.928621
938.614628	2692.225691
938.917216	2699.588296
939.219765	2700.084850
939.522275	2700.909078
939.824747	2696.046886
940.127179	2693.528829
940.429573	2690.670495
940.731929	2688.739733
941.034246	2684.699248
941.336524	2682.256809
941.638763	2679.925276
941.940964	2680.310924
942.243126	2676.756910
942.545250	2674.632064
942.847335	2672.474450
943.149381	2669.623678
943.451389	2665.610919
943.753359	2662.354334
944.055290	2662.621515
944.357182	2660.983140
944.659036	2661.293171
944.960851	2658.460042
945.262628	2655.160607
945.564367	2660.151350
945.866067	2657.098931
946.167729	2658.581030
946.469352	2657.396359
946.770937	2657.376194
947.072484	2656.551966
947.373992	2658.500372
947.675462	2656.635145
947.976893	2649.106182
948.278286	2648.387817
948.579641	2650.847900
948.880958	2645.199287
949.182236	2649.252375
949.483476	2649.572488
949.784678	2648.586943
950.085841	2646.315903
950.386967	2648.312200
950.688054	2651.067190
950.989103	2652.171203
951.290114	2650.903353
951.591087	2652.163641
951.892021	2654.217912
952.192917	2659.417862
952.493776	2661.598161
952.794596	2661.257883
953.095378	2658.722182
953.396122	2661.482214
953.696828	2659.261586
953.997496	2657.146822
954.298126	2653.930566
954.598718	2650.991573
954.899272	2649.529638
955.199788	2647.790440
955.500266	2643.631488
955.800706	2642.010757
956.101108	2640.248874
956.401472	2639.684265
956.701798	2636.702422
957.002087	2633.408028
957.302337	2633.287041
957.602550	2631.389046
957.902724	2630.927781
958.202861	2631.121865
958.502960	2627.585496
958.803022	2632.490538
959.103045	2625.415279
959.403031	2624.583489
959.702979	2623.749178
960.002889	2626.184055
960.302762	2625.417800
960.602596	2624.069291
960.902393	2623.245062
961.202153	2619.870010
961.501875	2624.802779
961.801559	2620.487551
962.101205	2621.067284
962.400814	2623.565176
962.700385	2621.092490
962.999918	2619.554938
963.299414	2618.531583
963.598873	2617.699793
963.898293	2617.271295
964.197677	2619.373456
964.497022	2622.352778
964.796331	2621.881430
965.095601	2620.762294
965.394835	2620.800103
965.694030	2618.879423
965.993189	2620.873199
966.292309	2620.084259
966.591393	2621.513426
966.890439	2621.195833
967.189447	2618.458487
967.488419	2618.324896
967.787353	2621.357150
968.086249	2619.940586
968.385108	2620.502675
968.683930	2620.217849
968.982714	2621.291615
969.281462	2621.016872
969.580172	2616.429422
969.878844	2621.215998
970.177480	2620.013683
970.476078	2622.967799
970.774639	2622.740947
971.073162	2621.460494
971.371649	2620.217849
971.670098	2620.091821
971.968510	2619.625514
972.266885	2622.496451
972.565223	2621.944445
972.863524	2620.416975
973.161788	2619.743981
973.460014	2621.989815
973.758204	2618.962602
974.056356	2619.900257
974.354471	2618.536625
974.652550	2622.977881
974.950591	2619.872530
975.248595	2621.843622
975.546563	2619.973353
975.844493	2618.592077
976.142386	2617.717437
976.440243	2617.906480
976.738062	2620.749691
977.035845	2617.326748
977.333590	2620.555607
977.631299	2621.359671
977.928971	2617.475462
978.226606	2616.815071
978.524204	2615.456480
978.821765	2611.917590
979.119290	2620.772376
979.416777	2617.972015
979.714228	2617.745163
980.011642	2617.024278
980.309020	2617.515791
980.606360	2615.990842
980.903664	2617.362036
981.200931	2619.592746
981.498162	2620.933693
981.795356	2617.810698
982.092513	2622.443519
982.389633	2626.395783
982.686717	2628.349231
982.983764	2630.418624
983.280775	2635.611013
983.577749	2636.354583
983.874686	2637.352731
984.171587	2632.525827
984.468451	2630.930301
984.765279	2626.506689
985.062070	2626.042903
985.358824	2625.082563
985.655543	2624.379322
985.952224	2621.531070
986.248869	2618.647530
986.545478	2618.206429
986.842050	2620.505195
987.138586	2614.433125
987.435086	2617.518312
987.731549	2614.297014
988.027975	2616.860441
988.324366	2614.407920
988.620719	2615.595111
988.917037	2616.830194
989.213318	2615.393465
989.509563	2615.930348
989.805772	2614.493619
990.101944	2613.687035
990.398080	2613.689555
990.694180	2614.886829
990.990244	2613.863475
991.286271	2614.133177
991.582262	2613.697117
991.878217	2614.508743
992.174136	2616.384052
992.470019	2614.216356
992.765865	2611.113526
993.061676	2610.125459
993.357450	2613.684514
993.653188	2609.850717
993.948890	2612.111674
994.244556	2612.812394
994.540186	2616.033692
994.835780	2615.703496
995.131337	2612.756942
995.426859	2616.999073
995.722345	2617.611573
996.017795	2619.305401
996.313208	2617.535956
996.608586	2618.150976
996.903928	2618.836573
997.199234	2621.873868
997.494504	2616.847838
997.789738	2618.541666
998.084936	2617.775410
998.380099	2617.442694
998.675225	2616.285749
998.970316	2617.740122
999.265371	2615.116202
999.560390	2616.961264
999.855373	2613.805502
1000.150320	2615.111161
1000.445232	2614.271808
1000.740108	2611.413474
1001.034948	2613.992024
1001.329752	2612.056221
1001.624521	2613.157713
1001.919254	2612.585542
1002.213951	2614.949844
1002.508613	2612.764503
1002.803239	2614.934720
1003.097829	2614.125615
1003.392384	2614.730553
1003.686903	2612.630913
1003.981386	2613.971860
1004.275834	2612.535131
1004.570246	2612.436828
1004.864623	2613.535800
1005.158964	2612.136880
1005.453270	2612.698968
1005.747540	2611.264760
1006.041775	2612.734257
1006.335974	2612.540172
1006.630138	2614.453290
1006.924266	2610.301900
1007.218359	2611.673094
1007.512416	2609.326437
1007.806438	2606.057248
1008.100425	2607.138576
1008.394376	2607.814090
1008.688292	2611.015223
1008.982172	2613.273660
1009.276017	2613.142590
1009.569827	2611.174019
1009.863602	2610.163268
1010.157341	2612.966150
1010.451045	2609.878443
1010.744714	2611.471447
1011.038347	2610.498505
1011.331945	2609.671756
1011.625508	2612.583022
1011.919036	2610.838783
1012.212528	2612.832559
1012.505986	2609.313834
1012.799408	2609.132352
1013.092795	2610.785851
1013.386147	2610.155706
1013.679464	2613.066973
1013.972745	2611.468927
1014.265992	2611.272322
1014.559204	2610.972373
1014.852380	2609.331478
1015.145521	2612.025974
1015.438628	2610.117898
1015.731699	2610.329626
1016.024736	2609.787702
1016.317737	2611.201746
1016.610703	2612.613269
1016.903635	2612.890532
1017.196531	2611.204266
1017.489393	2611.572271
1017.782219	2611.433639
1018.075011	2610.725357
1018.367768	2614.087806
1018.660490	2610.450614
1018.953177	2610.450614
1019.245829	2610.450614
