Dividing Wavelength (nm)	Counts (n)	Blue Motor Position (mm): 14.900000	Red Motor Position (mm): 0.000000	
326.493990	2171.726556
326.888308	2171.726556
327.282561	2171.726556
327.676750	2134.154837
328.070874	2128.584362
328.464933	2129.975720
328.858929	2133.534775
329.252859	2138.936371
329.646726	2145.414254
330.040528	2159.927736
330.434265	2168.323778
330.827938	2189.272292
331.221547	2203.863912
331.615091	2225.435009
332.008571	2242.645509
332.401986	2260.100504
332.795338	2281.538011
333.188625	2296.429579
333.581847	2316.246355
333.975006	2334.691937
334.368100	2353.742457
334.761129	2372.651825
335.154095	2389.353168
335.546996	2408.065931
335.939833	2435.194900
336.332606	2451.049329
336.725315	2468.088429
337.117960	2478.077476
337.510540	2489.805720
337.903056	2501.342401
338.295508	2507.820283
338.687896	2519.072139
339.080220	2524.834178
339.472480	2530.034128
339.864676	2537.119469
340.256807	2542.677342
340.648875	2546.667415
341.040879	2551.113712
341.432818	2553.566234
341.824694	2556.273333
342.216506	2555.428940
342.608253	2557.921791
342.999937	2557.321893
343.391557	2556.500185
343.783113	2555.164280
344.174605	2555.391132
344.566033	2557.132850
344.957397	2552.016079
345.348697	2552.595812
345.739934	2550.770914
346.131106	2549.175389
346.522215	2545.346632
346.913260	2545.384441
347.304241	2545.049204
347.695159	2539.203987
348.086012	2541.490150
348.476802	2538.054603
348.867528	2531.801052
349.258191	2529.335928
349.648789	2530.502955
350.039324	2527.574045
350.429796	2527.929446
350.820203	2530.608819
351.210548	2530.462626
351.600828	2525.234949
351.991045	2525.882737
352.381198	2528.239477
352.771288	2524.327542
353.161314	2522.545494
353.551276	2522.399300
353.941175	2520.362674
354.331010	2523.188241
354.720782	2521.063394
355.110490	2520.425688
355.500135	2520.745802
355.889717	2521.602798
356.279235	2522.772346
356.668689	2522.227901
357.058080	2522.479959
357.447408	2520.811337
357.836672	2520.884433
358.225873	2521.368384
358.615010	2523.079856
359.004084	2522.598426
359.393095	2523.959537
359.782043	2523.909126
360.170927	2524.430885
360.559748	2524.753519
360.948505	2526.832995
361.337199	2526.137316
361.725830	2529.242667
362.114398	2525.459281
362.502903	2526.608664
362.891344	2525.797038
363.279722	2528.305012
363.668037	2530.777698
364.056289	2529.824920
364.444478	2531.985054
364.832603	2531.765764
365.220665	2532.902544
365.608665	2531.269210
365.996601	2535.034952
366.384474	2532.012781
366.772284	2533.126876
367.160031	2533.719211
367.547715	2535.095446
367.935336	2536.401105
368.322893	2530.727286
368.710388	2533.383974
369.097820	2533.676361
369.485189	2530.628984
369.872495	2535.123172
370.259738	2536.711136
370.646918	2536.978317
371.034035	2536.857329
371.421090	2532.784077
371.808081	2537.250539
372.195010	2537.479912
372.581875	2536.123842
372.968678	2538.921682
373.355418	2536.527134
373.742096	2537.714326
374.128710	2537.535365
374.515262	2540.209697
374.901751	2539.559388
375.288177	2540.970911
375.674540	2539.869419
376.060841	2538.314223
376.447079	2539.161137
376.833254	2541.399409
377.219367	2538.415046
377.605417	2542.710109
377.991404	2540.905376
378.377329	2543.196580
378.763191	2540.706250
379.148991	2541.464944
379.534727	2541.543082
379.920402	2543.362938
380.306013	2541.815304
380.691563	2542.543751
381.077049	2542.160623
381.462474	2542.715150
381.847835	2542.536189
382.233134	2542.271529
382.618371	2542.758000
383.003545	2542.846220
383.388657	2544.270346
383.773706	2545.129863
384.158693	2541.036446
384.543618	2545.661705
384.928480	2547.325285
385.313280	2546.662374
385.698017	2543.176416
386.082692	2547.058104
386.467305	2541.694317
386.851856	2546.445604
387.236344	2543.118443
387.620770	2543.796478
388.005133	2541.033925
388.389435	2543.564585
388.773674	2542.841179
389.157851	2547.811757
389.541965	2547.267312
389.926018	2546.097764
390.310008	2549.046839
390.693936	2548.656150
391.077802	2548.830070
391.461606	2549.555996
391.845348	2550.786038
392.229027	2548.678835
392.612645	2549.805533
392.996200	2548.388969
393.379694	2550.801161
393.763125	2548.958619
394.146494	2549.563558
394.529801	2552.537838
394.913047	2549.314021
395.296230	2553.276367
395.679351	2549.102292
396.062410	2551.247303
396.445408	2549.777807
396.828343	2549.359391
397.211217	2550.473486
397.594028	2551.743857
397.976778	2551.149001
398.359466	2551.549772
398.742092	2550.798640
399.124656	2551.133877
399.507158	2548.968702
399.889598	2554.292160
400.271977	2553.649413
400.654294	2551.035575
401.036549	2551.164124
401.418742	2552.258054
401.800874	2553.067160
402.182944	2551.761501
402.564952	2552.467262
402.946898	2555.076059
403.328783	2553.876265
403.710606	2553.367108
404.092367	2554.758467
404.474067	2556.099414
404.855705	2557.977243
405.237282	2554.887016
405.618797	2553.256203
406.000250	2555.098745
406.381642	2555.164280
406.762972	2553.790565
407.144240	2551.572457
407.525447	2551.484237
407.906593	2550.339895
408.287677	2560.376833
408.668700	2556.001111
409.049661	2558.970351
409.430560	2558.176369
409.811399	2558.708211
410.192176	2557.054712
410.572891	2557.803324
410.953545	2559.174517
411.334138	2556.618652
411.714669	2556.810216
412.095139	2558.347768
412.475547	2557.609239
412.855894	2561.843808
413.236180	2558.993036
413.616405	2560.207954
413.996568	2560.669220
414.376670	2561.909343
414.756711	2561.390105
415.136691	2559.872717
415.516609	2560.218036
415.896466	2560.039075
416.276262	2559.834909
416.655997	2561.125444
417.035670	2558.299877
417.415283	2560.291133
417.794834	2560.212995
418.174324	2562.110990
418.553753	2558.183931
418.933121	2562.836916
419.312428	2562.526885
419.691674	2562.758778
420.070859	2563.053685
420.449983	2559.595454
420.829045	2564.921433
421.208047	2560.883469
421.586988	2563.124262
421.965867	2563.414128
422.344686	2562.610064
422.723444	2564.669375
423.102141	2563.666186
423.480777	2563.144426
423.859352	2561.362378
424.237866	2562.872204
424.616319	2560.878427
424.994712	2562.005125
425.373044	2565.155847
425.751314	2559.456822
426.129524	2560.215516
426.507673	2561.329611
426.885762	2559.771894
427.263789	2563.822461
427.641756	2564.387071
428.019662	2563.731721
428.397508	2564.893707
428.775292	2561.216185
429.153016	2564.056875
429.530679	2562.849519
429.908282	2564.979406
430.285824	2563.063768
430.663305	2565.107956
431.040726	2565.617112
431.418086	2564.813048
431.795385	2564.621484
432.172624	2564.273645
432.549802	2564.639128
432.926920	2565.339849
433.303977	2565.975034
433.680974	2567.394119
434.057910	2566.567370
434.434786	2567.056362
434.811601	2565.211299
435.188355	2565.753223
435.565050	2564.906309
435.941683	2561.085115
436.318257	2567.169787
436.694770	2565.511248
437.071222	2566.098542
437.447614	2566.731207
437.823946	2570.345714
438.200218	2567.134499
438.576429	2565.302040
438.952580	2567.142061
439.328670	2568.208265
439.704700	2567.404201
440.080670	2564.608881
440.456580	2567.396639
440.832429	2566.675754
441.208218	2567.779767
441.583947	2571.071641
441.959616	2569.619788
442.335224	2567.593244
442.710773	2565.329766
443.086261	2567.162226
443.461689	2568.903944
443.837057	2570.078533
444.212365	2569.675241
444.587612	2567.656259
444.962800	2565.831361
445.337927	2567.189952
445.712995	2561.581668
446.088002	2567.620971
446.462949	2568.818245
446.837837	2571.353945
447.212664	2569.670200
447.587431	2569.143399
447.962139	2573.388051
448.336786	2572.215982
448.711374	2570.191959
449.085901	2571.182546
449.460369	2571.618606
449.834776	2566.632905
450.209124	2569.561815
450.583412	2573.645150
450.957640	2573.428380
451.331808	2571.747155
451.705917	2568.851012
452.079965	2569.450910
452.453954	2568.167936
452.827883	2572.094995
453.201752	2570.930488
453.575562	2571.472412
453.949311	2572.712536
454.323001	2570.887638
454.696632	2573.584656
455.070202	2570.144068
455.443713	2571.328739
455.817164	2570.436455
456.190556	2571.782443
456.563888	2571.316137
456.937160	2571.003585
457.310373	2573.405695
457.683526	2574.232444
458.056619	2575.641447
458.429653	2573.259501
458.802628	2574.265212
459.175542	2572.349573
459.548398	2575.205387
459.921194	2574.915520
460.293930	2572.969635
460.666607	2575.979204
461.039224	2574.353432
461.411782	2575.215469
461.784280	2578.204873
462.156719	2574.514749
462.529099	2578.260326
462.901419	2575.202866
463.273680	2572.800756
463.645882	2570.587690
464.018024	2574.227403
464.390106	2570.872515
464.762130	2578.436766
465.134094	2574.676066
465.505999	2577.083217
465.877845	2580.216294
466.249631	2580.344843
466.621358	2582.043712
466.993026	2580.927096
467.364634	2583.304000
467.736184	2582.169741
468.107674	2582.895667
468.479105	2580.637230
468.850477	2581.481623
469.221790	2581.022878
469.593043	2577.927610
469.964238	2580.488516
470.335373	2578.943402
470.706449	2578.187229
471.077467	2579.918866
471.448425	2577.829307
471.819324	2582.567992
472.190164	2584.753332
472.560945	2581.567323
472.931667	2582.089082
473.302330	2580.163362
473.672934	2581.317786
474.043479	2580.657395
474.413965	2581.537076
474.784393	2578.711509
475.154761	2583.777869
475.525070	2581.917683
475.895321	2582.820050
476.265513	2584.072776
476.635645	2583.525811
477.005719	2584.718044
477.375734	2583.175451
477.745691	2580.992631
478.115588	2584.735688
478.485427	2584.405492
478.855207	2583.215780
479.224928	2584.841552
479.594591	2589.509661
479.964194	2591.299270
480.333739	2588.113261
480.703226	2589.401276
481.072653	2588.440936
481.442022	2589.239959
481.811333	2587.798189
482.180584	2585.300297
482.549777	2586.744588
482.918912	2587.286512
483.287988	2590.901019
483.657005	2589.890268
484.025964	2588.536718
484.394864	2591.049733
484.763706	2592.438571
485.132489	2590.636359
485.501213	2589.958323
485.869879	2590.933787
486.238487	2591.100145
486.607036	2591.495875
486.975527	2589.928077
487.343959	2590.099476
487.712333	2591.024527
488.080648	2589.502099
488.448905	2591.274065
488.817104	2589.189547
489.185244	2591.495875
489.553326	2590.384301
489.921350	2592.105855
490.289315	2594.228181
490.657222	2596.053078
491.025070	2595.551484
491.392861	2597.096597
491.760593	2595.226329
492.128267	2595.226329
492.495883	2593.943356
492.863440	2595.102821
493.230939	2591.659713
493.598380	2593.696339
493.965763	2595.783377
494.333088	2591.379929
494.700354	2592.257090
495.067563	2593.756833
495.434713	2591.568972
495.801805	2594.860846
496.168839	2594.114755
496.535815	2593.945876
496.902733	2595.483428
497.269593	2595.329673
497.636395	2596.836978
498.003139	2596.166504
498.369825	2591.677357
498.736453	2596.489138
499.103023	2595.788418
499.469535	2595.175918
499.835989	2595.664910
500.202385	2593.187182
500.568723	2591.402614
500.935003	2595.425455
501.301226	2587.878847
501.667390	2593.955958
502.033497	2598.513162
502.399546	2595.269179
502.765537	2597.295723
503.131470	2597.419231
503.497345	2598.082143
503.863163	2599.881835
504.228923	2600.459047
504.594625	2600.179263
504.960269	2598.722369
505.325856	2600.857298
505.691385	2600.990889
506.056856	2601.217741
506.422270	2601.540374
506.787625	2603.977772
507.152924	2603.261928
507.518164	2604.209665
507.883347	2604.519696
508.248472	2604.103801
508.613540	2607.332660
508.978550	2605.921137
509.343503	2607.642691
509.708398	2607.912393
510.073236	2608.683689
510.438016	2610.264091
510.802738	2612.484719
511.167403	2610.435490
511.532010	2609.770058
511.896561	2613.883640
512.261053	2614.634772
512.625488	2615.274998
512.989866	2615.794237
513.354186	2616.005965
513.718449	2614.901953
514.082655	2618.249279
514.446803	2617.359515
514.810894	2621.452932
515.174927	2620.701800
515.538904	2622.032665
515.902822	2624.154991
516.266684	2624.807820
516.630488	2624.548201
516.994235	2623.794548
517.357925	2626.355454
517.721558	2629.344858
518.085133	2629.254118
518.448651	2627.656072
518.812112	2624.964096
519.175516	2626.947790
519.538863	2628.467698
519.902152	2632.780405
520.265385	2638.368524
520.628560	2636.357103
520.991678	2636.977165
521.354739	2638.650828
521.717743	2640.425315
522.080690	2642.562764
522.443580	2639.626292
522.806413	2644.445635
523.169189	2644.566622
523.531908	2653.002993
523.894569	2647.170378
524.257174	2651.301604
524.619722	2652.166162
524.982213	2654.432161
525.344647	2653.103817
525.707025	2658.651606
526.069345	2659.501041
526.431608	2658.467604
526.793815	2663.690240
527.155964	2663.138233
527.518057	2662.893737
527.880093	2667.251815
528.242072	2668.567556
528.603995	2671.625016
528.965860	2671.284738
529.327669	2672.608041
529.689421	2677.467713
530.051117	2677.548372
530.412755	2682.324865
530.774337	2681.523321
531.135862	2681.362004
531.497331	2689.594209
531.858743	2691.449353
532.220098	2691.945907
532.581396	2696.074612
532.942638	2696.470342
533.303824	2703.618699
533.664953	2705.246991
534.026025	2705.504090
534.387040	2712.438197
534.747999	2718.585884
535.108902	2718.394321
535.469748	2720.700648
535.830537	2721.287943
536.191270	2737.306209
536.551947	2730.682133
536.912567	2734.831003
537.273131	2740.560274
537.633638	2743.809298
537.994089	2753.848756
538.354483	2755.492172
538.714821	2764.914088
539.075103	2770.257711
539.435328	2775.361880
539.795497	2781.517128
540.155609	2787.125412
540.515665	2793.925929
540.875665	2796.721248
541.235609	2803.967907
541.595496	2810.148362
541.955328	2821.362408
542.315102	2833.362875
542.674821	2833.884635
543.034483	2839.540809
543.394090	2848.604804
543.753640	2854.850793
544.113134	2873.782847
544.472571	2878.151007
544.831953	2890.892523
545.191278	2899.618760
545.550548	2905.675707
545.909761	2917.005700
546.268918	2933.669234
546.628019	2943.527210
546.987064	2959.500106
547.346053	2967.407156
547.704986	2974.984010
548.063863	2995.882113
548.422684	2998.455623
548.781449	3012.623785
549.140158	3034.154553
549.498811	3049.373797
549.857408	3055.065260
550.215949	3079.701378
550.574434	3088.142791
550.932864	3112.801595
551.291237	3132.096611
551.649555	3150.711072
552.007817	3171.357117
552.366022	3186.624252
552.724173	3202.022456
553.082267	3225.894840
553.440305	3262.513782
553.798288	3266.723145
554.156215	3304.993064
554.514086	3334.665296
554.871902	3331.096159
555.229661	3361.690922
555.587365	3392.338617
555.945014	3416.833583
556.302606	3465.606747
556.660143	3479.532934
557.017625	3527.930532
557.375050	3537.465874
557.732421	3575.841658
558.089735	3610.665948
558.446994	3634.094711
558.804197	3680.112884
559.161345	3717.954305
559.518437	3718.034964
559.875474	3775.176443
560.232455	3803.774908
560.589381	3846.125642
560.946251	3872.974827
561.303065	3935.195268
561.659825	3984.071776
562.016528	4000.526102
562.373177	4023.554092
562.729770	4071.707194
563.086307	4131.054178
563.442789	4176.916075
563.799216	4214.427301
564.155587	4247.724122
564.511904	4313.354904
564.868164	4335.140250
565.224370	4401.852359
565.580520	4425.540741
565.936615	4499.738964
566.292654	4508.808000
566.648638	4602.326445
567.004567	4629.778048
567.360441	4677.963917
567.716260	4702.678174
568.072023	4803.554183
568.427732	4839.598433
568.783385	4867.360067
569.138982	4940.918064
569.494525	5016.895814
569.850013	5064.625458
570.205445	5113.965752
570.560823	5139.284947
570.916145	5195.889543
571.271412	5248.869549
571.626625	5312.383047
571.981782	5364.097723
572.336884	5394.357249
572.691931	5476.475125
573.046923	5480.641638
573.401860	5562.187343
573.756743	5639.654754
574.111570	5681.478687
574.466342	5731.129011
574.821059	5813.541794
575.175722	5827.125183
575.530330	5908.451598
575.884882	5972.302852
576.239380	6034.861051
576.593823	6083.581282
576.948211	6127.051152
577.302544	6161.152037
577.656823	6216.272013
578.011047	6312.280788
578.365216	6354.571028
578.719330	6413.897847
579.073389	6443.630572
579.427394	6579.446819
579.781344	6568.865437
580.135239	6647.940976
580.489080	6689.548139
580.842866	6701.480551
581.196597	6857.673141
581.550273	6874.951696
581.903895	6982.449260
582.257463	7101.112981
582.610975	7090.249294
582.964434	7228.699543
583.317837	7246.436843
583.671186	7338.770617
584.024481	7425.453257
584.377721	7419.066115
584.730906	7516.501537
585.084037	7618.957948
585.437113	7661.487642
585.790135	7776.758666
586.143103	7718.067032
586.496016	7776.330168
586.848874	7969.124056
587.201679	8000.361565
587.554428	7976.463976
587.907124	8149.103330
588.259765	8160.062799
588.612352	8286.777242
588.964884	8233.535095
589.317362	8355.490689
589.669786	8441.396992
590.022155	8523.731637
590.374470	8677.600255
590.726731	8698.369809
591.078937	8687.770783
591.431090	8786.300135
591.783188	8768.585521
592.135232	8822.009148
592.487222	8969.402405
592.839157	9030.889358
593.191038	9092.701466
593.542866	9097.883772
593.894639	9103.174463
594.246358	9252.478317
594.598022	9270.913816
594.949633	9271.518755
595.301190	9311.222882
595.652692	9455.939286
596.004141	9626.494123
596.355535	9437.584445
596.706876	9504.427624
597.058162	9553.286487
597.409395	9681.311630
597.760573	9821.117950
598.111698	9804.671185
598.462768	9848.287248
598.813785	9888.813084
599.164748	9888.089679
599.515657	9971.117482
599.866511	9960.636924
600.217312	10175.904275
600.568060	10035.004025
600.918753	10264.794941
601.269392	10307.276744
601.619978	10257.850752
601.970510	10455.577408
602.320988	10469.622063
602.671412	10648.756944
603.021783	10670.469194
603.372100	10612.218661
603.722363	10758.943964
604.072572	10809.993209
604.422728	10910.667572
604.772830	10910.251677
605.122878	10903.841849
605.472872	11000.836170
605.822813	11068.289329
606.172701	11125.687907
606.522534	11297.833228
606.872314	11373.526153
607.222041	11328.160810
607.571714	11523.797908
607.921333	11508.263593
608.270899	11621.845830
608.620411	11824.595997
608.969870	11710.403780
609.319276	11785.695933
609.668627	11892.218034
610.017926	12034.973429
610.367171	12156.707212
610.716362	12278.962754
611.065500	12199.867051
611.414585	12345.914319
611.763616	12421.322418
612.112594	12466.297073
612.461518	12486.703663
612.810389	12681.614836
613.159207	12622.547636
613.507971	12639.808547
613.856682	12940.893981
614.205340	12938.804422
614.553945	13120.263276
614.902496	12972.229793
615.250994	13243.443870
615.599439	13255.681271
615.947830	13297.563177
616.296169	13352.385725
616.644454	13434.090226
616.992686	13439.017954
617.340864	13651.459739
617.688990	13560.235019
618.037063	13743.140683
618.385082	13685.313608
618.733048	13933.373665
619.080961	13875.087844
619.428821	13987.248476
619.776628	13989.035565
620.124382	13958.995329
620.472083	14056.589547
620.819731	14146.490964
621.167326	13963.728973
621.514868	14051.583681
621.862357	13952.134319
622.209793	14007.382844
622.557176	13962.564466
622.904506	13867.742883
623.251783	13868.473850
623.599007	13791.142550
623.946179	13776.805509
624.293297	13804.980517
624.640363	13678.424871
624.987376	13721.796438
625.334336	13610.575981
625.681243	13550.223287
626.028097	13583.305859
626.374899	13620.549904
626.721647	13527.185214
627.068343	13430.284155
627.414987	13422.810644
627.761577	13477.441629
628.108115	13550.757650
628.454600	13352.781456
628.801032	13448.064305
629.147412	13435.990741
629.493739	13502.463396
629.840014	13396.944484
630.186236	13491.355213
630.532405	13351.432947
630.878521	13541.587791
631.224585	13477.159324
631.570597	13384.349161
631.916556	13427.219133
632.262462	13441.352008
632.608316	13423.992795
632.954117	13390.597671
633.299866	13433.686934
633.645562	13401.978076
633.991206	13215.034447
634.336797	13130.597641
634.682336	13158.830623
635.027823	13091.296806
635.373257	13047.063201
635.718639	12965.187301
636.063968	12958.530458
636.409245	12785.321452
636.754470	12844.320597
637.099642	12739.676325
637.444762	12554.199672
637.789829	12634.984163
638.134845	12511.244000
638.479808	12558.706464
638.824719	12544.457642
639.169577	12423.785022
639.514383	12502.696724
639.859137	12359.906041
640.203839	12458.616875
640.548489	12323.829024
640.893086	12353.274403
641.237632	12240.652506
641.582125	12411.688773
641.926566	12287.454578
642.270955	12314.326449
642.615292	12302.293214
642.959576	12330.201042
643.303809	12381.716593
643.647990	12341.528515
643.992118	12410.035275
644.336195	12212.800131
644.680219	12408.717013
645.024192	12371.450283
645.368112	12609.566665
645.711981	12683.641379
646.055797	12857.493132
646.399562	12842.810771
646.743274	13099.231582
647.086935	13377.697359
647.430544	13349.287936
647.774101	13376.053942
648.117606	13548.985684
648.461059	13523.759750
648.804460	13561.339032
649.147810	13324.508144
649.491108	13227.622209
649.834354	13288.252166
650.177548	13016.352492
650.520690	12853.054396
650.863781	12792.769757
651.206820	12850.017100
651.549807	12687.664220
651.892742	12526.876618
652.235626	12481.297026
652.578458	12502.913493
652.921238	12212.716952
653.263967	12404.898339
653.606644	12259.597162
653.949269	12230.726474
654.291843	12087.086357
654.634365	12225.612223
654.976836	12103.162596
655.319255	12128.378448
655.661622	12097.095568
656.003938	12035.409489
656.346203	11982.290851
656.688416	12040.836291
657.030577	12014.612208
657.372687	11955.608023
657.714746	11942.770725
658.056753	12113.433947
658.398708	11965.821401
658.740612	11974.547638
659.082465	12071.723440
659.424266	12040.425437
659.766016	12074.203688
660.107715	11994.676966
660.449362	12066.964591
660.790958	12038.502237
661.132503	11997.386586
661.473996	12050.653938
661.815438	12080.603433
662.156829	12098.282759
662.498168	12093.413005
662.839456	12092.886204
663.180693	12118.079371
663.521879	12205.818133
663.863013	12201.765045
664.204097	12183.959690
664.545129	12294.116463
664.886110	12274.579471
665.227040	12345.271572
665.567918	12364.029705
665.908746	12411.144329
666.249522	12387.483673
666.590248	12434.610900
666.930922	12554.514744
667.271545	12538.002445
667.612118	12627.780354
667.952639	12537.654605
668.293109	12544.624000
668.633528	12514.782890
668.973896	12492.934529
669.314213	12591.332811
669.654480	12340.424502
669.994695	12394.997513
670.334859	12422.983479
670.674973	12375.609235
671.015035	12424.994899
671.355047	12366.635982
671.695008	12341.528515
672.034918	12352.573683
672.374777	12392.078685
672.714585	12309.615490
673.054342	12342.693021
673.394049	12292.631843
673.733705	12386.414949
674.073310	12321.265597
674.412864	12336.681445
674.752368	12216.903630
675.091820	12213.962117
675.431223	12219.033517
675.770574	12103.702000
676.109875	12023.015812
676.449125	11989.567756
676.788324	11926.908734
677.127473	11773.700507
677.466571	11760.071748
677.805619	11677.021259
678.144616	11591.787950
678.483562	11559.559854
678.822458	11429.367014
679.161303	11409.973696
679.500098	11408.463870
679.838842	11362.952333
680.177535	11377.619570
680.516179	11435.726430
680.854771	11392.942157
681.193314	11597.902870
681.531805	11745.457443
681.870247	12134.208542
682.208638	12533.883822
682.546978	12860.898431
682.885268	12930.854523
683.223508	12624.685085
683.561697	12465.132566
683.899836	12367.631609
684.237925	12180.486335
684.575963	12098.970877
684.913951	12030.489322
685.251889	11965.438273
685.589776	12064.043242
685.927614	12002.266423
686.265401	11948.772219
686.603137	11998.173006
686.940824	12143.648103
687.278460	12260.330650
687.616046	12316.088332
687.953582	12488.883962
688.291068	12410.741037
688.628504	12629.093574
688.965889	12638.240748
689.303224	12618.028242
689.640510	12523.557018
689.977745	12230.398799
690.314930	12005.465035
690.652065	11912.947259
690.989150	11638.506843
691.326185	11414.195662
691.663170	11202.605832
692.000105	10964.401231
692.336990	10865.506395
692.673825	10621.416246
693.010610	10494.086782
693.347345	10294.890629
693.684030	10090.398744
694.020665	10038.835302
694.357251	9841.040590
694.693786	9806.188573
695.030272	9628.850863
695.366707	9511.167647
695.703093	9440.586452
696.039429	9437.957490
696.375716	9369.314619
696.711952	9245.829035
697.048139	9272.935319
697.384276	9234.443589
697.720363	9243.008509
698.056400	9181.166154
698.392388	9144.007809
698.728326	9108.475236
699.064214	9036.230461
699.400053	9084.469262
699.735842	8904.210203
700.071581	8862.862659
700.407270	8792.508316
700.742910	8710.682827
701.078501	8622.074466
701.414042	8497.938573
701.749533	8431.193697
702.084974	8297.260321
702.420366	8400.404849
702.755709	8289.007952
703.091002	8161.922984
703.426246	8188.946090
703.761440	8141.634861
704.096584	8091.230884
704.431679	8026.207561
704.766725	8017.733382
705.101721	7962.187428
705.436668	8006.768872
705.771565	7899.178046
706.106413	7984.794482
706.441212	8030.565639
706.775961	7977.930951
707.110661	8002.683017
707.445311	8157.224629
707.779913	8060.484887
708.114465	8184.875358
708.448967	8229.595434
708.783421	8354.704269
709.117825	8534.338225
709.452180	8578.181140
709.786485	8657.922111
710.120742	8932.133154
710.454949	8936.143392
710.789107	9032.076550
711.123216	9233.422755
711.457275	9401.504907
711.791286	9567.076563
712.125247	9559.207322
712.459159	9554.887053
712.793023	9814.209048
713.126837	9390.114419
713.460602	9531.649855
713.794318	9354.140746
714.127985	9386.784737
714.461602	9091.990663
714.795171	9026.034727
715.128691	8789.231566
715.462162	8534.653297
715.795584	8483.162952
716.128957	8356.980350
716.462281	8177.537958
716.795556	8219.429947
717.128782	8029.965741
717.461960	7753.690346
717.795088	7824.037127
718.128167	7731.174032
718.461198	7568.995072
718.794180	7509.678335
719.127113	7503.588621
719.459997	7364.152827
719.792833	7130.076930
720.125619	7188.206475
720.458357	7047.888478
720.791046	7036.974380
721.123686	7038.078393
721.456278	6882.452933
721.788821	6899.111425
722.121315	6791.535723
722.453761	6850.262645
722.786158	6806.165151
723.118506	6818.221071
723.450805	6783.782428
723.783056	6861.005343
724.115259	6754.137923
724.447412	6745.693990
724.779518	6797.696013
725.111574	6799.543596
725.443582	6880.512088
725.775542	6857.368151
726.107453	7044.914197
726.439315	6959.975796
726.771129	7007.541603
727.102895	7175.701893
727.434612	7286.052751
727.766281	7313.456463
728.097901	7406.163282
728.429473	7385.222329
728.760996	7357.871549
729.092471	7336.978487
729.423897	7295.547764
729.755276	7305.103271
730.086606	7241.302428
730.417887	7334.014288
730.749120	7505.519383
731.080305	7693.549381
731.411442	7828.059968
731.742530	7834.358890
732.073570	7937.500897
732.404562	8012.919080
732.735506	7864.000874
733.066401	8010.388420
733.397249	7946.837114
733.728048	7713.524953
734.058798	7383.483131
734.389501	7174.610483
734.720156	6992.584500
735.050762	6756.661021
735.381320	6646.040461
735.711831	6614.185410
736.042293	6502.334809
736.372707	6524.331884
736.703073	6389.302057
737.033391	6423.385299
737.363661	6430.536175
737.693883	6453.027283
738.024056	6537.610283
738.354182	6592.412667
738.684260	6623.761082
739.014290	6726.189766
739.344272	6835.224883
739.674207	6863.036928
740.004093	6925.189314
740.333931	6949.263344
740.663722	6954.929601
740.993464	7033.223762
741.323159	7029.931888
741.652806	6784.578931
741.982405	6774.685666
742.311956	6838.904925
742.641460	6700.852927
742.970915	6498.516135
743.300323	6495.829200
743.629683	6439.338030
743.958996	6307.186703
744.288260	6220.234360
744.617477	6168.295352
744.946647	6178.705335
745.275768	6015.868504
745.604842	5966.039219
745.933869	5944.992402
746.262847	5903.196195
746.591778	5898.709568
746.920662	5858.776068
747.249498	5840.872410
747.578286	5891.059617
747.907027	5965.956040
748.235720	6021.267580
748.564365	5993.311861
748.892963	6007.422051
749.221514	6171.942627
749.550017	6024.045256
749.878473	5887.465274
750.206881	5938.806906
750.535242	5880.117793
750.863555	5814.285365
751.191821	5836.151369
751.520039	5840.973233
751.848210	5749.314974
752.176334	5761.532210
752.504411	5817.645294
752.832440	5744.641824
753.160421	5667.058467
753.488356	5716.696188
753.816243	5754.270428
754.144082	5606.032779
754.471875	5571.468107
754.799620	5620.319409
755.127318	5630.242920
755.454969	5575.493469
755.782572	5544.636566
756.110129	5586.936888
756.437638	5584.998564
756.765100	5523.004975
757.092515	5516.779150
757.419882	5560.173402
757.747203	5547.555394
758.074477	5611.215085
758.401703	5601.394917
758.728882	5550.627977
759.056014	5595.907621
759.383099	5733.450463
759.710138	5739.124281
760.037129	5723.000151
760.364073	5731.915431
760.690970	5814.935673
761.017820	5800.034023
761.344623	5743.666361
761.671379	5836.862172
761.998088	5951.392146
762.324751	6177.971847
762.651366	6743.397745
762.977935	7996.999116
763.304456	9590.429709
763.630931	10511.972796
763.957359	10181.678917
764.283740	9269.366182
764.610074	8469.231723
764.936362	7490.549677
765.262602	6896.747124
765.588796	6357.671338
765.914943	6008.200909
766.241044	5857.016705
766.567097	5673.322100
766.893104	5406.241769
767.219064	5229.148555
767.544978	5168.158156
767.870845	5100.788176
768.196665	4986.744673
768.522438	4919.404940
768.848165	4886.266915
769.173846	4824.558151
769.499479	4784.201193
769.825066	4724.937389
770.150607	4668.216846
770.476101	4638.284995
770.801548	4640.498062
771.126949	4572.039193
771.452303	4521.524311
771.777611	4474.064368
772.102872	4486.556347
772.428087	4450.809525
772.753256	4416.854833
773.078378	4375.371178
773.403453	4304.709325
773.728482	4288.254999
774.053465	4243.663472
774.378401	4231.637800
774.703291	4238.587030
775.028135	4167.910053
775.352932	4115.219913
775.677683	4101.071915
776.002388	4122.131335
776.327046	4138.189931
776.651658	4061.289650
776.976224	3998.953262
777.300743	4005.423583
777.625216	4022.321530
777.949643	4022.412271
778.274024	3978.617247
778.598359	3928.155297
778.922647	3950.157413
779.246889	3948.382927
779.571086	3946.439562
779.895236	3927.615894
780.219339	3916.792536
780.543397	3903.322573
780.867409	3952.264615
781.191374	3971.095846
781.515294	3914.919748
781.839167	3908.091505
782.162995	3919.774379
782.486776	3908.298192
782.810511	3916.071651
783.134201	3918.781272
783.457844	3879.185529
783.781441	3818.757217
784.104993	3820.395592
784.428498	3842.007019
784.751958	3842.508614
785.075372	3820.889626
785.398739	3782.486116
785.722061	3790.133546
786.045337	3833.762212
786.368568	3870.998695
786.691752	3786.002320
787.014891	3828.753826
787.337983	3947.508287
787.661030	4100.600567
787.984031	4259.323817
788.306987	4433.357050
788.629897	4510.963093
788.952760	4470.507834
789.275579	4401.070981
789.598351	4343.092670
789.921078	4211.072413
790.243759	4014.931199
790.566395	3986.766272
790.888984	3990.169051
791.211529	3884.766086
791.534027	3820.932475
791.856480	3821.040860
792.178888	3753.486878
792.501249	3700.363199
792.823566	3712.877863
793.145836	3745.121083
793.468062	3696.572251
793.790241	3643.491422
794.112375	3677.403264
794.434464	3734.275041
794.756507	3759.763115
795.078505	3746.056217
795.400457	3772.524796
795.722364	3900.484404
796.044226	4004.319570
796.366042	4077.665838
796.687812	4066.285433
797.009538	4077.897731
797.331218	4029.295967
797.652852	4001.236904
797.974442	3984.533041
798.295986	3986.214266
798.617484	3907.630239
798.938938	3820.960202
799.260346	3856.202908
799.581709	3856.396993
799.903026	3787.222280
800.224299	3745.529417
800.545526	3744.982452
800.866708	3704.476780
801.187845	3643.882111
801.508936	3676.110208
801.829983	3684.269315
802.150984	3604.593879
802.471940	3590.685335
802.792851	3603.661265
803.113717	3602.504320
803.434538	3605.650000
803.755314	3552.891805
804.076045	3523.068339
804.396731	3540.276317
804.717372	3565.867735
805.037967	3556.203843
805.358518	3545.292265
805.679024	3568.050554
805.999485	3578.712595
806.319901	3579.884663
806.640272	3601.758230
806.960598	3616.213738
807.280879	3589.069645
807.601115	3596.827981
807.921306	3610.746607
808.241453	3654.718071
808.561554	3634.334166
808.881611	3568.504258
809.201623	3602.219495
809.521590	3611.545630
809.841513	3588.162238
810.161390	3614.388841
810.481223	3599.567848
810.801011	3542.786812
811.120755	3531.340872
811.440453	3565.966037
811.760107	3574.223447
812.079716	3535.961090
812.399281	3497.219822
812.718801	3520.767052
813.038276	3495.465501
813.357707	3489.446363
813.677093	3511.952594
813.996434	3461.523412
814.315731	3467.235039
814.634983	3467.729072
814.954191	3481.070486
815.273354	3513.338912
815.592473	3512.489477
815.911547	3511.181298
816.230577	3549.607493
816.549562	3598.610029
816.868502	3641.066627
817.187399	3671.986544
817.506250	3662.131088
817.825058	3630.628918
818.143821	3720.114440
818.462539	3822.159996
818.781213	3867.512737
819.099843	3918.415788
819.418429	4146.696878
819.736970	4381.690265
820.055466	4615.120893
820.373919	4970.290347
820.692327	5373.383529
821.010691	5774.011587
821.329011	7049.438633
821.647286	9630.098548
821.965517	13983.860821
822.283704	17994.002923
822.601847	20283.828591
822.919945	18564.331343
823.237999	16088.189671
823.556010	13667.508252
823.873976	11634.342850
824.191897	9583.213297
824.509775	8231.450578
824.827609	7117.562266
825.145398	6563.708337
825.463144	6449.684998
825.780845	6570.508853
826.098502	6728.329736
826.416116	7522.008998
826.733685	8798.819841
827.051210	9914.142362
827.368692	10037.965703
827.686129	8857.093059
828.003522	7362.655604
828.320872	6361.941195
828.638177	5681.057751
828.955439	5135.471314
829.272656	4648.561388
829.589830	4360.630844
829.906960	4188.848486
830.224046	4009.789222
830.541088	3883.838514
830.858086	3835.874455
831.175041	3763.284361
831.491952	3744.755600
831.808819	3754.008638
832.125642	3819.873833
832.442421	3956.902477
832.759157	4215.274214
833.075849	4732.173965
833.392497	5559.303803
833.709101	6313.863711
834.025662	6676.811664
834.342179	6366.758017
834.658653	5719.357917
834.975083	5089.092699
835.291469	4527.853479
835.607811	4118.549596
835.924110	3979.675889
836.240366	3789.952064
836.556578	3586.758276
836.872746	3476.994713
837.188871	3441.552881
837.504952	3378.732542
837.820990	3297.849749
838.136984	3245.809918
838.452935	3273.027108
838.768842	3271.706326
839.084706	3290.207360
839.400526	3434.613733
839.716303	3750.184922
840.032037	4243.177001
840.347727	4532.854304
840.663373	4284.751397
840.978977	3910.657452
841.294537	3611.051597
841.610054	3386.185888
841.925527	3279.182357
842.240957	3208.853219
842.556344	3158.681136
842.871687	3102.220213
843.186987	3053.308417
843.502244	3016.006400
843.817458	2982.424753
844.132629	2950.909980
844.447756	2960.788121
844.762840	2949.077521
845.077881	2917.567788
845.392879	2900.374933
845.707833	2895.169942
846.022745	2891.867986
846.337613	2895.399314
846.652438	2880.406923
846.967221	2879.008003
847.281960	2866.400077
847.596656	2864.134078
847.911309	2862.770446
848.225919	2855.317100
848.540485	2848.554392
848.855009	2850.953982
849.169490	2841.229596
849.483928	2833.231805
849.798323	2832.042093
850.112675	2825.768377
850.426984	2838.356138
850.741251	2839.195490
851.055474	2828.387256
851.369654	2823.779642
851.683792	2826.080928
851.997887	2834.151816
852.311938	2835.069306
852.625947	2826.098572
852.939914	2827.532781
853.253837	2834.020746
853.567718	2818.415854
853.881555	2816.437201
854.195350	2829.183759
854.509103	2830.330621
854.822812	2820.278560
855.136479	2818.632624
855.450103	2818.884681
855.763685	2812.530307
856.077224	2807.153916
856.390720	2820.956596
856.704173	2833.025118
857.017584	2827.552945
857.330953	2821.299394
857.644278	2830.194510
857.957561	2840.833865
858.270802	2842.441993
858.584000	2841.509380
858.897155	2829.450940
859.210268	2828.583861
859.523339	2829.783656
859.836367	2826.852225
860.149352	2822.224446
860.462295	2817.843683
860.775195	2824.140084
861.088054	2826.375836
861.400869	2808.157106
861.713642	2804.252732
862.026373	2821.438026
862.339062	2824.152687
862.651708	2824.876093
862.964312	2832.740293
863.276873	2829.261897
863.589392	2832.883966
863.901869	2843.132631
864.214303	2865.321270
864.526696	2881.097561
864.839045	2879.998589
865.151353	2878.584546
865.463619	2874.619678
865.775842	2876.245450
866.088023	2892.770353
866.400162	2901.310067
866.712258	2871.554657
867.024313	2864.980992
867.336325	2870.243957
867.648296	2890.567368
867.960224	2883.426574
868.272110	2870.485932
868.583954	2876.220245
868.895755	2889.365053
869.207515	2875.574977
869.519233	2879.144114
869.830909	2889.886813
870.142542	2897.995509
870.454134	2897.526681
870.765684	2901.962897
871.077191	2899.278482
871.388657	2907.540933
871.700081	2921.187337
872.011463	2933.699481
872.322803	2934.642177
872.634101	2933.671754
872.945357	2948.253292
873.256571	2973.784216
873.567744	2967.477732
873.878874	2957.546659
874.189963	2978.941316
874.501010	2985.414158
874.812015	2974.391675
875.122979	2971.291365
875.433900	2968.473360
875.744780	2973.549802
876.055618	2982.313848
876.366415	2978.172540
876.677169	2989.754591
876.987882	2990.389776
877.298554	2981.300576
877.609183	2995.778770
877.919771	3022.552338
878.230317	3046.240720
878.540822	3097.806682
878.851285	3135.910244
879.161707	3174.797705
879.472087	3264.779780
879.782425	3469.987509
880.092722	3876.755692
880.402977	4385.939957
880.713191	4980.097911
881.023363	6073.067956
881.333494	7311.160217
881.643583	7890.809731
881.953631	7611.131556
882.263637	7026.866867
882.573602	6473.012938
882.883526	5911.330097
883.193408	5349.359910
883.503248	4888.061566
883.813048	4596.972740
884.122806	4317.211386
884.432522	4014.356507
884.742197	3783.456538
885.051831	3594.756067
885.361424	3461.780511
885.670975	3389.749984
885.980485	3311.571770
886.289954	3238.648959
886.599382	3195.416024
886.908768	3155.134684
887.218113	3116.711009
887.527417	3061.656568
887.836680	3012.580936
888.145901	3007.769154
888.455082	3000.061230
888.764221	2949.495936
889.073319	2921.225146
889.382376	2919.743046
889.691392	2923.385280
890.000366	2921.572985
890.309300	2905.799215
890.618193	2921.895619
890.927044	2936.651076
891.235855	2939.519493
891.544625	2926.117585
891.853353	2932.915581
892.162041	2951.519960
892.470687	2988.580002
892.779293	3039.349463
893.087858	3082.862182
893.396381	3144.951553
893.704864	3259.549583
894.013306	3482.441680
894.321707	3766.515740
894.630068	3977.430055
894.938387	3983.290397
895.246665	3934.124023
895.554903	3825.847600
895.863100	3631.997591
896.171256	3470.877273
896.479371	3342.685772
896.787446	3223.888461
897.095480	3123.196454
897.403473	3059.357802
897.711425	3022.443953
898.019336	3013.808457
898.327207	2989.915908
898.635038	2955.371401
898.942827	2938.213834
899.250576	2929.971548
899.558284	2899.661610
899.865952	2876.976418
900.173579	2859.801207
900.481165	2855.548993
900.788711	2843.167919
901.096216	2820.787717
901.403681	2808.804894
901.711105	2812.449648
902.018489	2812.459731
902.325832	2813.669608
902.633135	2820.213025
902.940397	2849.008096
903.247619	2924.617842
903.554800	3099.041765
903.861941	3421.322731
904.169041	3825.555213
904.476101	4128.936893
904.783121	4105.162812
905.090100	3872.024570
905.397039	3608.498252
905.703938	3369.227447
906.010796	3191.473842
906.317614	3082.610124
906.624391	2990.682163
906.931129	2925.721855
907.237826	2865.238091
907.544483	2816.969043
907.851099	2788.484003
908.157675	2767.243101
908.464211	2748.616038
908.770707	2737.835530
909.077163	2723.468242
909.383578	2712.493650
909.689954	2702.340766
909.996289	2698.809438
910.302584	2698.643080
910.608839	2702.741538
910.915054	2694.559745
911.221229	2688.470031
911.527363	2689.392562
911.833458	2695.373892
912.139513	2700.793132
912.445527	2703.926209
912.751502	2709.640357
913.057436	2722.399517
913.363331	2732.582648
913.669186	2749.841038
913.975000	2782.865637
914.280775	2837.836899
914.586510	2907.619071
914.892205	2980.279742
915.197859	3095.046651
915.503475	3275.792181
915.809050	3477.813901
916.114585	3620.009727
916.420081	3649.618944
916.725536	3597.001901
917.030952	3483.066783
917.336328	3362.885675
917.641665	3235.735172
917.946961	3138.914772
918.252218	3074.403126
918.557435	3001.404698
918.862612	2945.795729
919.167750	2895.220353
919.472848	2858.460260
919.777906	2832.039572
920.082925	2808.232723
920.387904	2778.560492
920.692843	2764.173039
920.997743	2753.311873
921.302603	2740.996334
921.607423	2732.408728
921.912204	2720.282233
922.216946	2710.071376
922.521647	2701.839171
922.826310	2694.005218
923.130932	2687.040864
923.435516	2680.149607
923.740059	2672.880263
924.044564	2664.907678
924.349028	2658.757471
924.653454	2651.588950
924.957840	2648.876809
925.262186	2642.797177
925.566493	2639.555716
925.870761	2631.840230
926.174989	2633.168574
926.479178	2626.105917
926.783328	2619.295318
927.087438	2620.096862
927.391509	2620.742129
927.695541	2614.980091
927.999533	2611.829369
928.303486	2612.709051
928.607400	2608.857609
928.911275	2610.311982
929.215110	2608.610593
929.518906	2604.852412
929.822663	2605.119594
930.126381	2607.362907
930.430060	2605.719491
930.733699	2606.082454
931.037299	2610.866509
931.340861	2608.950871
931.644383	2610.944647
931.947866	2611.403392
932.251309	2608.015737
932.554714	2608.154368
932.858080	2605.898452
933.161407	2602.651949
933.464694	2601.489963
933.767943	2598.306474
934.071153	2601.633636
934.374323	2600.317895
934.677455	2599.667586
934.980548	2598.929057
935.283602	2598.087184
935.586617	2600.363265
935.889593	2598.170363
936.192530	2599.256732
936.495428	2600.469129
936.798287	2602.462906
937.101108	2607.103288
937.403890	2606.931888
937.706632	2610.440532
938.009336	2620.079218
938.312002	2628.384519
938.614628	2635.749644
938.917216	2643.215593
939.219765	2642.514873
939.522275	2641.141158
939.824747	2639.810294
940.127179	2637.723256
940.429573	2632.848460
940.731929	2631.830147
941.034246	2628.772687
941.336524	2625.120372
941.638763	2622.814044
941.940964	2619.648199
942.243126	2618.486213
942.545250	2619.502006
942.847335	2617.745163
943.149381	2612.522528
943.451389	2608.734101
943.753359	2604.796960
944.055290	2603.065323
944.357182	2603.062803
944.659036	2605.182608
944.960851	2602.145313
945.262628	2597.699015
945.564367	2601.681527
945.866067	2602.374685
946.167729	2603.647577
946.469352	2602.785539
946.770937	2602.306630
947.072484	2599.460898
947.373992	2598.664396
947.675462	2595.727924
947.976893	2595.221288
948.278286	2593.570310
948.579641	2593.764395
948.880958	2589.943200
949.182236	2594.470156
949.483476	2590.470001
949.784678	2592.766246
950.085841	2593.643407
950.386967	2593.242635
950.688054	2593.134250
950.989103	2594.006370
951.290114	2591.916812
951.591087	2597.986361
951.892021	2598.543408
952.192917	2602.725046
952.493776	2606.440376
952.794596	2603.614809
953.095378	2605.338884
953.396122	2605.124635
953.696828	2600.895107
953.997496	2600.940477
954.298126	2602.556167
954.598718	2597.570466
954.899272	2594.875969
955.199788	2590.984198
955.500266	2588.284660
955.800706	2585.479258
956.101108	2583.135122
956.401472	2583.329206
956.701798	2582.381469
957.002087	2582.895667
957.302337	2580.541448
957.602550	2579.235789
957.902724	2576.977352
958.202861	2577.443659
958.502960	2572.949470
958.803022	2575.873340
959.103045	2573.640108
959.403031	2572.203380
959.702979	2570.779254
960.002889	2572.999882
960.302762	2570.955694
960.602596	2571.283369
960.902393	2570.315467
961.202153	2571.096846
961.501875	2568.689695
961.801559	2567.149623
962.101205	2568.992165
962.400814	2570.358317
962.700385	2565.372616
962.999918	2565.070147
963.299414	2562.789025
963.598873	2565.763306
963.898293	2563.285578
964.197677	2567.706670
964.497022	2567.701629
964.796331	2563.630897
965.095601	2567.258008
965.394835	2566.537123
965.694030	2566.534602
965.993189	2565.286917
966.292309	2564.230795
966.591393	2564.505538
966.890439	2569.186249
967.189447	2564.389591
967.488419	2563.721638
967.787353	2566.012843
968.086249	2564.346741
968.385108	2568.513255
968.683930	2567.189952
968.982714	2565.231464
969.281462	2564.457647
969.580172	2565.801114
969.878844	2565.728017
970.177480	2568.762792
970.476078	2563.633418
970.774639	2567.225240
971.073162	2567.013512
971.371649	2568.873697
971.670098	2566.027966
971.968510	2570.922927
972.266885	2567.575600
972.565223	2567.378995
972.863524	2568.258677
973.161788	2569.080385
973.460014	2566.171639
973.758204	2568.939232
974.056356	2567.981413
974.354471	2567.305899
974.652550	2566.383367
974.950591	2568.596434
975.248595	2568.193142
975.546563	2565.667524
975.844493	2567.310940
976.142386	2566.363203
976.440243	2566.529561
976.738062	2565.710373
977.035845	2563.683830
977.333590	2565.967472
977.631299	2565.362534
977.928971	2563.162070
978.226606	2561.069991
978.524204	2563.625856
978.821765	2560.086966
979.119290	2562.509241
979.416777	2564.402194
979.714228	2563.157029
980.011642	2563.630897
980.309020	2564.298850
980.606360	2565.533933
980.903664	2565.700291
981.200931	2562.967986
981.498162	2564.036710
981.795356	2564.520661
982.092513	2565.367575
982.389633	2569.098029
982.686717	2573.463668
982.983764	2576.105233
983.280775	2579.324009
983.577749	2578.794688
983.874686	2582.041191
984.171587	2577.783937
984.468451	2574.807136
984.765279	2573.027608
985.062070	2571.580797
985.358824	2571.230437
985.655543	2570.325550
985.952224	2565.362534
986.248869	2564.384550
986.545478	2566.539643
986.842050	2567.179870
987.138586	2565.738100
987.435086	2563.151988
987.731549	2563.940928
988.027975	2564.288768
988.324366	2562.418500
988.620719	2560.200392
988.917037	2564.656772
989.213318	2563.119220
989.509563	2561.374981
989.805772	2563.333469
990.101944	2563.071329
990.398080	2563.293140
990.694180	2561.266596
990.990244	2563.819941
991.286271	2558.662840
991.582262	2563.308264
991.878217	2564.104766
992.174136	2563.018397
992.470019	2561.120403
992.765865	2559.287943
993.061676	2557.352140
993.357450	2558.670402
993.653188	2557.299208
993.948890	2562.121072
994.244556	2562.012687
994.540186	2563.031000
994.835780	2561.639642
995.131337	2562.882286
995.426859	2559.171997
995.722345	2565.004612
996.017795	2564.596278
996.313208	2564.513099
996.608586	2564.654252
996.903928	2566.252297
997.199234	2566.229612
997.494504	2565.491083
997.789738	2566.302709
998.084936	2565.458316
998.380099	2564.180383
998.675225	2565.261711
998.970316	2564.283727
999.265371	2566.307750
999.560390	2563.094015
999.855373	2560.281051
1000.150320	2563.071329
1000.445232	2562.000084
1000.740108	2562.242060
1001.034948	2560.608726
1001.329752	2561.579148
1001.624521	2559.844991
1001.919254	2561.327090
1002.213951	2564.397153
1002.508613	2560.689384
1002.803239	2558.982954
1003.097829	2561.629559
1003.392384	2560.838098
1003.686903	2560.757440
1003.981386	2561.062430
1004.275834	2560.447409
1004.570246	2559.605536
1004.864623	2558.042778
1005.158964	2560.097049
1005.453270	2559.781977
1005.747540	2560.916236
1006.041775	2559.681153
1006.335974	2560.482697
1006.630138	2560.497820
1006.924266	2560.175187
1007.218359	2559.439178
1007.512416	2556.361554
1007.806438	2556.825340
1008.100425	2558.917419
1008.394376	2554.919784
1008.688292	2559.822306
1008.982172	2560.086966
1009.276017	2559.040927
1009.569827	2560.593602
1009.863602	2557.153015
1010.157341	2559.086297
1010.451045	2559.976061
1010.744714	2561.957234
1011.038347	2558.110834
1011.331945	2563.023438
1011.625508	2561.170814
1011.919036	2559.590413
1012.212528	2561.117882
1012.505986	2560.520506
1012.799408	2560.049158
1013.092795	2557.372305
1013.386147	2559.066133
1013.679464	2557.120247
1013.972745	2560.454971
1014.265992	2559.905485
1014.559204	2559.199723
1014.852380	2560.185269
1015.145521	2559.340876
1015.438628	2558.965310
1015.731699	2560.318859
1016.024736	2562.307595
1016.317737	2558.476318
1016.610703	2560.628890
1016.903635	2561.448078
1017.196531	2556.646379
1017.489393	2559.779456
1017.782219	2557.747871
1018.075011	2558.088149
1018.367768	2559.018242
1018.660490	2558.138560
1018.953177	2558.138560
1019.245829	2558.138560
