Dividing Wavelength (nm)	Counts (n)	Blue Motor Position (mm): 45.100000	Red Motor Position (mm): 0.000000	
326.493990	2264.786256
326.888308	2264.786256
327.282561	2264.786256
327.676750	2228.734445
328.070874	2223.753785
328.464933	2224.351161
328.858929	2228.704198
329.252859	2235.746690
329.646726	2242.554768
330.040528	2255.820564
330.434265	2267.483274
330.827938	2287.027827
331.221547	2302.932668
331.615091	2321.463949
332.008571	2339.244099
332.401986	2359.779239
332.795338	2377.148534
333.188625	2397.968500
333.581847	2417.702097
333.975006	2438.154058
334.368100	2455.924125
334.761129	2473.701754
335.154095	2490.118272
335.546996	2516.874196
335.939833	2556.558159
336.332606	2573.027608
336.725315	2584.299628
337.117960	2598.558532
337.510540	2610.576643
337.903056	2617.755246
338.295508	2627.550208
338.687896	2638.101343
339.080220	2646.189874
339.472480	2649.776655
339.864676	2654.880823
340.256807	2659.712769
340.648875	2665.308450
341.040879	2668.290292
341.432818	2670.021929
341.824694	2675.597445
342.216506	2674.075017
342.608253	2675.761282
342.999937	2677.424863
343.391557	2675.912517
343.783113	2676.071313
344.174605	2674.001920
344.566033	2672.870181
344.957397	2673.210459
345.348697	2670.964625
345.739934	2669.076712
346.131106	2669.268276
346.522215	2666.853564
346.913260	2664.905158
347.304241	2664.501865
347.695159	2660.239570
348.086012	2659.601864
348.476802	2658.954076
348.867528	2653.166831
349.258191	2650.149700
349.648789	2648.027375
350.039324	2648.566778
350.429796	2652.115750
350.820203	2649.138949
351.210548	2649.764052
351.600828	2644.864051
351.991045	2647.006541
352.381198	2649.098620
352.771288	2645.940337
353.161314	2643.623927
353.551276	2645.645429
353.941175	2643.507980
354.331010	2643.886067
354.720782	2645.713485
355.110490	2644.581746
355.500135	2646.709113
355.889717	2644.410347
356.279235	2644.090233
356.668689	2644.952271
357.058080	2645.358084
357.447408	2644.080151
357.836672	2645.980666
358.225873	2644.556540
358.615010	2647.329175
359.004084	2647.160296
359.393095	2646.971253
359.782043	2650.883188
360.170927	2649.154072
360.559748	2649.327992
360.948505	2652.544248
361.337199	2654.653971
361.725830	2651.500730
362.114398	2652.811430
362.502903	2651.120122
362.891344	2653.340751
363.279722	2654.774959
363.668037	2653.406286
364.056289	2653.587767
364.444478	2654.921152
364.832603	2657.315701
365.220665	2655.132881
365.608665	2658.291164
365.996601	2658.124806
366.384474	2657.751760
366.772284	2658.956596
367.160031	2657.477017
367.547715	2661.336021
367.935336	2659.672440
368.322893	2659.017090
368.710388	2658.928870
369.097820	2658.475166
369.485189	2659.826195
369.872495	2663.851557
370.259738	2662.893737
370.646918	2665.273162
371.034035	2664.708553
371.421090	2665.242915
371.808081	2666.304078
372.195010	2667.448420
372.581875	2664.940446
372.968678	2669.477484
373.355418	2666.556136
373.742096	2673.260870
374.128710	2670.331960
374.515262	2675.494101
374.901751	2678.675069
375.288177	2684.379135
375.674540	2688.414579
376.060841	2692.626463
376.447079	2703.893442
376.833254	2715.132694
377.219367	2724.216853
377.605417	2743.438773
377.991404	2756.717172
378.377329	2782.089299
378.763191	2798.236115
379.148991	2833.569562
379.534727	2861.298429
379.920402	2892.362019
380.306013	2919.662388
380.691563	2967.689461
381.077049	2998.957217
381.462474	3040.372817
381.847835	3087.394179
382.233134	3135.247332
382.618371	3169.486849
383.003545	3236.410687
383.388657	3273.745472
383.773706	3333.465501
384.158693	3377.114332
384.543618	3416.831063
384.928480	3484.838748
385.313280	3545.786298
385.698017	3584.313317
386.082692	3676.465609
386.467305	3694.817930
386.851856	3741.554467
387.236344	3830.792972
387.620770	3867.406873
388.005133	3926.219494
388.389435	3979.796877
388.773674	4007.066999
389.157851	4086.215635
389.541965	4165.011390
389.926018	4136.569200
390.310008	4239.103749
390.693936	4305.747803
391.077802	4341.618133
391.461606	4347.445707
391.845348	4419.042694
392.229027	4486.001820
392.612645	4485.094412
392.996200	4593.113736
393.379694	4660.019930
393.763125	4756.873098
394.146494	4789.620434
394.529801	4852.944888
394.913047	4934.825829
395.296230	4883.277511
395.679351	4994.177854
396.062410	5047.440165
396.445408	5019.242471
396.828343	5080.270679
397.211217	5134.904184
397.594028	5017.868757
397.976778	5142.614629
398.359466	5184.388150
398.742092	5210.808838
399.124656	5124.022854
399.507158	5244.327470
399.889598	5307.097397
400.271977	5431.066932
400.654294	5425.370428
401.036549	5470.897088
401.418742	5387.390375
401.800874	5597.578764
402.182944	5650.609182
402.564952	5758.799905
402.946898	5817.794008
403.328783	5662.113095
403.710606	5675.217574
404.092367	5998.957953
404.474067	6022.943763
404.855705	5922.282003
405.237282	5855.204410
405.618797	6113.366940
406.000250	6084.292085
406.381642	6293.820083
406.762972	6313.132743
407.144240	6373.752618
407.525447	6355.322160
407.906593	6372.845211
408.287677	6538.323606
408.668700	6447.164421
409.049661	6563.975518
409.430560	6593.297389
409.811399	6450.967972
410.192176	6718.000412
410.572891	6730.333595
410.953545	6932.456138
411.334138	6657.355331
411.714669	6827.552247
412.095139	6623.909796
412.475547	6872.564709
412.855894	6940.373270
413.236180	7122.623584
413.616405	6791.780219
413.996568	7006.956830
414.376670	7052.788480
414.756711	6945.535411
415.136691	7045.798920
415.516609	7247.074549
415.896466	7234.443938
416.276262	7434.623116
416.655997	7424.598782
417.035670	7600.358611
417.415283	7945.367618
417.794834	8003.829879
418.174324	7863.214454
418.553753	7789.089328
418.933121	8092.047551
419.312428	8192.915998
419.691674	7964.584497
420.070859	8442.959750
420.449983	8123.307746
420.829045	8491.407759
421.208047	8262.955269
421.586988	8568.507166
421.965867	8589.092717
422.344686	8688.766411
422.723444	8750.404599
423.102141	8090.744413
423.480777	8857.372843
423.859352	8380.303248
424.237866	8999.452723
424.616319	8866.542702
424.994712	9293.951889
425.373044	8839.897683
425.751314	9315.517945
426.129524	9200.733393
426.507673	9288.522567
426.885762	9438.433879
427.263789	9356.782310
427.641756	9298.589751
428.019662	9384.246516
428.397508	9646.764603
428.775292	9311.006113
429.153016	9686.136014
429.530679	9524.186427
429.908282	9546.927072
430.285824	9275.201318
430.663305	9965.332758
431.040726	9414.019571
431.418086	9392.375377
431.795385	9726.891223
432.172624	9814.652670
432.549802	9727.168486
432.926920	9797.023755
433.303977	9673.878449
433.680974	9875.355724
434.057910	9971.619077
434.434786	10045.711436
434.811601	9868.560249
435.188355	10434.742319
435.565050	10176.022742
435.941683	10101.201937
436.318257	10580.403939
436.694770	10744.851419
437.071222	10801.519029
437.447614	10621.111257
437.823946	10553.688344
438.200218	10643.105811
438.576429	10492.249282
438.952580	10730.428678
439.328670	10759.377504
439.704700	10561.441639
440.080670	10558.374097
440.456580	11079.919271
440.832429	10867.916067
441.208218	10459.184354
441.583947	10760.065621
441.959616	10937.799062
442.335224	10752.085475
442.710773	10865.821467
443.086261	11092.469223
443.461689	10354.794661
443.837057	11039.842098
444.212365	11281.701536
444.587612	10916.273335
444.962800	11137.214505
445.337927	10880.609692
445.712995	10546.476974
446.088002	11582.930643
446.462949	11284.310333
446.837837	11239.817109
447.212664	11178.882162
447.587431	11757.047056
447.962139	12512.947910
448.336786	14791.672957
448.711374	15294.119720
449.085901	13106.342129
449.460369	12755.843305
449.834776	12203.254706
450.209124	13127.101601
450.583412	13552.133885
450.957640	14481.029495
451.331808	13532.173436
451.705917	12594.095364
452.079965	11849.731190
452.453954	12769.199843
452.827883	12406.067887
453.201752	12699.662166
453.575562	12248.337745
453.949311	12665.427691
454.323001	12638.926345
454.696632	12876.659598
455.070202	13153.751661
455.443713	13363.030122
455.817164	13857.227036
456.190556	13817.013752
456.563888	14190.391853
456.937160	14331.246732
457.310373	13687.146067
457.683526	13793.670689
458.056619	13302.236327
458.429653	13526.897868
458.802628	12886.852812
459.175542	13299.395637
459.548398	14247.369494
459.921194	14613.390031
460.293930	14684.752604
460.666607	15528.029258
461.039224	16592.244561
461.411782	17309.298284
461.784280	17103.767922
462.156719	17203.812140
462.529099	16874.360133
462.901419	15830.879096
463.273680	15590.708444
463.645882	15489.789586
464.018024	15212.027050
464.390106	15432.471666
464.762130	16155.741132
465.134094	16949.039787
465.505999	19001.754783
465.877845	22283.036780
466.249631	25080.627628
466.621358	24700.958167
466.993026	23275.198872
467.364634	22701.558414
467.736184	21222.864482
468.107674	20431.315108
468.479105	20560.020807
468.850477	20015.724906
469.221790	19623.644124
469.593043	18925.948432
469.964238	18358.032204
470.335373	17993.687851
470.706449	18496.374069
471.077467	18079.591633
471.448425	19951.712334
471.819324	24092.437966
472.190164	25936.227382
472.560945	22256.689190
472.931667	19966.750096
473.302330	19349.236476
473.672934	18976.208736
474.043479	19203.821873
474.413965	19018.720786
474.784393	18622.171022
475.154761	19377.734119
475.525070	19305.413726
475.895321	19018.181383
476.265513	19626.978847
476.635645	20212.229083
477.005719	19970.193204
477.375734	20157.933335
477.745691	20643.663632
478.115588	21191.427847
478.485427	21749.171026
478.855207	22843.119055
479.224928	24625.686178
479.594591	26848.222524
479.964194	26768.229495
480.333739	27005.352769
480.703226	26577.971308
481.072653	26296.047299
481.442022	26897.512406
481.811333	27825.782913
482.180584	27713.884422
482.549777	26767.087674
482.918912	26442.336543
483.287988	26584.698727
483.657005	26207.625461
484.025964	26003.735994
484.394864	25872.340839
484.763706	25520.773291
485.132489	24996.339535
485.501213	25174.307390
485.869879	25087.460912
486.238487	24927.895790
486.607036	25051.915736
486.975527	24810.905732
487.343959	25100.371307
487.712333	24993.203938
488.080648	24649.556042
488.448905	25168.389075
488.817104	24922.879842
489.185244	25635.283100
489.553326	25583.074390
489.921350	26640.854661
490.289315	28980.285282
490.657222	30710.895753
491.025070	31216.727651
491.392861	30948.508019
491.760593	30103.774472
492.128267	29192.868219
492.495883	28121.655794
492.863440	27264.218540
493.230939	26401.593938
493.598380	26235.182928
493.965763	25848.455852
494.333088	25354.720203
494.700354	25320.266437
495.067563	25156.368444
495.434713	24907.920218
495.801805	25095.768733
496.168839	24853.571538
496.535815	24721.452978
496.902733	24929.478712
497.269593	24631.672548
497.636395	24798.106243
498.003139	24740.899229
498.369825	24483.381967
498.736453	24704.416398
499.103023	24562.933895
499.469535	24569.036212
499.835989	24786.007473
500.202385	24819.997453
500.568723	24350.068653
500.935003	24528.817887
501.301226	24223.659200
501.667390	25067.124897
502.033497	25263.258549
502.399546	24997.128476
502.765537	24534.814339
503.131470	24922.156436
503.497345	25062.547529
503.863163	24310.062057
504.228923	24847.040723
504.594625	25090.271355
504.960269	24658.443596
505.325856	25133.279959
505.691385	24512.189641
506.056856	25127.449865
506.422270	25115.865293
506.787625	24634.112467
507.152924	25077.212246
507.518164	25121.481138
507.883347	24928.883856
508.248472	24611.971719
508.613540	25389.509206
508.978550	25185.060171
509.343503	25204.433325
509.708398	25408.617700
510.073236	25570.405971
510.438016	25781.897498
510.802738	25436.250785
511.167403	25708.662136
511.532010	25435.449241
511.896561	26192.512082
512.261053	26163.948904
512.625488	25976.196170
512.989866	25871.682969
513.354186	25709.206580
513.718449	25845.847055
514.082655	26220.339251
514.446803	25930.563646
514.810894	26444.327799
515.174927	25926.324035
515.538904	25955.872758
515.902822	26449.638654
516.266684	26198.364861
516.630488	26100.029594
516.994235	26046.074124
517.357925	26388.449129
517.721558	26537.967231
518.085133	26661.674626
518.448651	26546.771607
518.812112	26324.232391
519.175516	26542.675669
519.538863	26682.025764
519.902152	26470.178836
520.265385	26718.407772
520.628560	26525.742433
520.991678	26520.038368
521.354739	26577.129435
521.717743	26667.577817
522.080690	26454.901619
522.443580	26783.443697
522.806413	26751.613852
523.169189	26863.401438
523.531908	26899.811172
523.894569	26522.127926
524.257174	26637.139330
524.619722	26759.437723
524.982213	26483.076628
525.344647	26498.772260
525.707025	26676.533427
526.069345	26631.825954
526.431608	26596.805058
526.793815	26761.771777
527.155964	26263.204182
527.518057	26438.850585
527.880093	26343.204773
528.242072	26571.390081
528.603995	26281.498529
528.965860	26092.747647
529.327669	26126.319211
529.689421	26110.139628
530.051117	25957.349817
530.412755	26130.946990
530.774337	25912.397848
531.135862	25798.815610
531.497331	25990.689487
531.858743	25590.109321
532.220098	26022.552100
532.581396	25734.896300
532.942638	25624.545443
533.303824	25747.781489
533.664953	25744.711427
534.026025	25407.480920
534.387040	25647.588557
534.747999	25694.919950
535.108902	25855.208478
535.469748	25350.319276
535.830537	25522.202458
536.191270	25663.006926
536.551947	25483.967826
536.912567	25112.278512
537.273131	25551.549535
537.633638	25215.322217
537.994089	25435.658449
538.354483	24934.242602
538.714821	25449.027589
539.075103	25480.255017
539.435328	25265.302737
539.795497	24854.176476
540.155609	25199.109867
540.515665	25518.824885
540.875665	24724.596137
541.235609	25069.428704
541.595496	24999.061758
541.955328	25362.042479
542.315102	25281.124398
542.674821	24785.745333
543.034483	24670.517159
543.394090	24852.422155
543.753640	24658.478884
544.113134	25292.277951
544.472571	24877.789241
544.831953	25179.164541
545.191278	24832.635626
545.550548	24714.138264
545.909761	24899.297324
546.268918	25141.602904
546.628019	25123.379133
546.987064	24806.477079
547.346053	24541.166193
547.704986	24653.999819
548.063863	24808.168386
548.422684	24837.399516
548.781449	24329.336908
549.140158	24746.996504
549.498811	24320.996319
549.857408	24083.741975
550.215949	24470.821932
550.574434	24172.110882
550.932864	24375.652509
551.291237	24564.042949
551.649555	24405.675101
552.007817	24478.013138
552.366022	24304.274812
552.724173	24326.496218
553.082267	24321.016484
553.440305	24782.912205
553.798288	24032.952350
554.156215	24519.960579
554.514086	24654.347658
554.871902	24026.570249
555.229661	24301.829852
555.587365	24147.633559
555.945014	24055.062851
556.302606	24259.716053
556.660143	24254.339663
557.017625	24478.907943
557.375050	24001.671991
557.732421	24386.939653
558.089735	24212.283837
558.446994	24263.698565
558.804197	24310.971985
559.161345	24213.922212
559.518437	24004.222814
559.875474	24175.196068
560.232455	24364.589697
560.589381	24168.967722
560.946251	24183.423231
561.303065	24481.794003
561.659825	24576.439146
562.016528	24168.440922
562.373177	23908.211519
562.729770	24272.248362
563.086307	24108.466314
563.442789	24286.265290
563.799216	24130.239058
564.155587	24119.955104
564.511904	24109.429175
564.868164	24060.545106
565.224370	24004.242979
565.580520	23969.882474
565.936615	24072.737136
566.292654	23783.884062
566.648638	24022.038252
567.004567	23859.806360
567.360441	23810.062774
567.716260	23527.712788
568.072023	23837.637886
568.427732	23626.980669
568.783385	23384.677610
569.138982	23638.945848
569.494525	23666.805785
569.850013	23422.002313
570.205445	23516.135778
570.560823	23340.433923
570.916145	23085.585952
571.271412	23282.279172
571.626625	23026.256612
571.981782	23141.668788
572.336884	22952.965797
572.691931	23082.470519
573.046923	22830.097754
573.401860	22703.332900
573.756743	22720.916444
574.111570	22613.532306
574.466342	22524.934027
574.821059	22614.185135
575.175722	22326.262154
575.530330	22296.413482
575.884882	22306.377322
576.239380	22225.693655
576.593823	22121.508129
576.948211	22089.534610
577.302544	21945.055141
577.656823	21806.892238
578.011047	21909.648597
578.365216	21771.334459
578.719330	21645.086323
579.073389	21536.709077
579.427394	21707.387423
579.781344	21441.942946
580.135239	21337.238181
580.489080	21286.740943
580.842866	21065.351110
581.196597	21286.579626
581.550273	21232.722459
581.903895	21116.372628
582.257463	21431.686719
582.610975	20963.723969
582.964434	21289.332096
583.317837	20958.748350
583.671186	21058.109492
584.024481	21042.867564
584.377721	20806.205555
584.730906	20885.119777
585.084037	20869.834999
585.437113	20797.988474
585.790135	21006.767861
586.143103	20457.070363
586.496016	20476.274639
586.848874	20716.893953
587.201679	20624.298039
587.554428	20337.557208
587.907124	20656.720220
588.259765	20418.853376
588.612352	20487.594550
588.964884	20059.613191
589.317362	20229.169880
589.669786	20281.126532
590.022155	20292.753954
590.374470	20539.115142
590.726731	20281.340781
591.078937	20097.464695
591.431090	20165.563122
591.783188	19931.424211
592.135232	19899.538913
592.487222	20004.692341
592.839157	20008.405150
593.191038	19881.660460
593.542866	19772.312792
593.894639	19472.349015
594.246358	19688.914464
594.598022	19583.685418
594.949633	19341.221042
595.301190	19318.114913
595.652692	19500.783643
596.004141	19702.596155
596.355535	19039.008910
596.706876	19058.850891
597.058162	18952.560683
597.409395	19198.274083
597.760573	19242.172451
598.111698	19016.225415
598.462768	18958.456312
598.813785	18943.975598
599.164748	18730.076920
599.515657	18794.177712
599.866511	18581.335155
600.217312	18939.017623
600.568060	18448.246173
600.918753	18760.051621
601.269392	18650.179672
601.619978	18454.499724
601.970510	18643.777407
602.320988	18609.527808
602.671412	18793.529923
603.021783	18728.735973
603.372100	18428.568029
603.722363	18585.559642
604.072572	18527.815745
604.422728	18682.001956
604.772830	18430.047607
605.122878	18392.967400
605.472872	18374.844452
605.822813	18358.818624
606.172701	18343.009566
606.522534	18515.832923
606.872314	18551.226864
607.222041	18395.515704
607.571714	18602.775182
607.921333	18423.410928
608.270899	18502.604935
608.620411	18640.465369
608.969870	18453.057954
609.319276	18444.389690
609.668627	18460.649932
610.017926	18606.561089
610.367171	18711.863231
610.716362	18773.080483
611.065500	18581.700639
611.414585	18742.962109
611.763616	18715.192913
612.112594	18646.078694
612.461518	18615.143653
612.810389	18808.053488
613.159207	18661.691147
613.507971	18584.095187
613.856682	18831.845213
614.205340	18754.299664
614.553945	18918.338810
614.902496	18666.018978
615.250994	18871.556902
615.599439	18830.491663
615.947830	18814.659920
616.296169	18880.701556
616.644454	18837.682869
616.992686	18812.048602
617.340864	19029.360141
617.688990	18779.911246
618.037063	18946.380228
618.385082	18813.061874
618.733048	19081.783100
619.080961	18970.451738
619.428821	18988.630139
619.776628	18872.973467
620.124382	18814.140681
620.472083	18864.766468
620.819731	18866.689668
621.167326	18553.024035
621.514868	18594.908462
621.862357	18385.730824
622.209793	18379.719248
622.557176	18226.001864
622.904506	18049.780770
623.251783	17976.784862
623.599007	17717.606540
623.946179	17660.644022
624.293297	17597.712778
624.640363	17336.407089
624.987376	17367.818519
625.334336	17160.828742
625.681243	17005.616656
626.028097	17028.662291
626.374899	16927.279646
626.721647	16800.260213
627.068343	16642.245246
627.414987	16572.299236
627.761577	16544.910647
628.108115	16576.808548
628.454600	16305.503731
628.801032	16401.716672
629.147412	16341.530337
629.493739	16352.502408
629.840014	16149.396840
630.186236	16247.739669
630.532405	16021.137283
630.878521	16213.348918
631.224585	16118.595390
631.570597	15930.545228
631.916556	15957.578416
632.262462	15928.732933
632.608316	15857.796337
632.954117	15798.459436
633.299866	15795.351564
633.645562	15696.613004
633.991206	15478.265508
634.336797	15345.741135
634.682336	15312.895497
635.027823	15177.142265
635.373257	15043.322316
635.718639	14967.359689
636.063968	14910.223251
636.409245	14663.158822
636.754470	14696.700139
637.099642	14542.524010
637.444762	14314.492457
637.789829	14356.455022
638.134845	14184.037478
638.479808	14228.288727
638.824719	14139.503925
639.169577	14003.062576
639.514383	14047.404565
639.859137	13876.242268
640.203839	13970.534530
640.548489	13819.995594
640.893086	13795.130103
641.237632	13672.619982
641.582125	13829.316688
641.926566	13648.046878
642.270955	13664.944825
642.615292	13616.625366
642.959576	13629.681954
643.303809	13654.227332
643.647990	13588.077312
643.992118	13653.345130
644.336195	13417.857711
644.680219	13651.729441
645.024192	13556.832240
645.368112	13801.219817
645.711981	13841.667515
646.055797	14035.192370
646.399562	14016.837528
646.743274	14277.024081
647.086935	14545.657087
647.430544	14510.646274
647.774101	14558.506989
648.117606	14685.594477
648.461059	14664.232588
648.804460	14645.355987
649.147810	14367.353997
649.491108	14280.265543
649.834354	14287.993632
650.177548	13966.108397
650.520690	13773.682514
650.863781	13701.362121
651.206820	13757.636521
651.549807	13593.501593
651.892742	13374.060166
652.235626	13319.562772
652.578458	13317.967247
652.921238	13019.805682
653.263967	13202.915514
653.606644	13046.339796
653.949269	13022.366589
654.291843	12821.844612
654.634365	12979.592398
654.976836	12827.399964
655.319255	12828.279645
655.661622	12794.468626
656.003938	12720.134292
656.346203	12637.441725
656.688416	12720.976165
657.030577	12672.939010
657.372687	12575.475862
657.714746	12572.390676
658.056753	12755.714756
658.398708	12568.587125
658.740612	12573.529977
659.082465	12680.629290
659.424266	12652.504693
659.766016	12680.228518
660.107715	12585.653952
660.449362	12664.752176
660.790958	12616.717542
661.132503	12551.495093
661.473996	12637.885347
661.815438	12639.317034
662.156829	12670.564626
662.498168	12640.476500
662.839456	12639.369966
663.180693	12648.771718
663.521879	12755.984458
663.863013	12730.733318
664.204097	12702.636447
664.545129	12834.908762
664.886110	12803.391468
665.227040	12895.153071
665.567918	12895.679872
665.908746	12918.256679
666.249522	12912.108992
666.590248	12962.976755
666.930922	13070.186974
667.271545	13044.850135
667.612118	13135.280873
667.952639	13036.668342
668.293109	13059.837485
668.633528	13003.495029
668.973896	12986.609684
669.314213	13046.818705
669.654480	12790.917133
669.994695	12880.001883
670.334859	12897.245150
670.674973	12839.707941
671.015035	12872.969474
671.355047	12824.329901
671.695008	12789.069550
672.034918	12809.340030
672.374777	12849.583561
672.714585	12760.365220
673.054342	12787.647945
673.394049	12751.056730
673.733705	12838.107374
674.073310	12741.140780
674.412864	12758.706681
674.752368	12612.016666
675.091820	12665.100016
675.431223	12633.121456
675.770574	12500.352587
676.109875	12416.256059
676.449125	12376.304915
676.788324	12325.109477
677.127473	12147.953248
677.466571	12146.365285
677.805619	12035.444777
678.144616	11970.373563
678.483562	11941.621342
678.822458	11808.746609
679.161303	11789.091150
679.500098	11772.228490
679.838842	11726.694268
680.177535	11766.743715
680.516179	11833.987666
680.854771	11768.061977
681.193314	11991.475833
681.531805	12158.514466
681.870247	12600.744646
682.208638	13009.932583
682.546978	13302.148107
682.885268	13325.050068
683.223508	13032.705995
683.561697	12883.709652
683.899836	12792.961321
684.237925	12581.124475
684.575963	12494.683810
684.913951	12410.254565
685.251889	12373.360881
685.589776	12471.713792
685.927614	12379.821119
686.265401	12362.540044
686.603137	12415.819999
686.940824	12565.247361
687.278460	12699.813401
687.616046	12738.063156
687.953582	12884.261658
688.291068	12834.807939
688.628504	13068.609093
688.965889	13079.376998
689.303224	13028.897403
689.640510	12918.337338
689.977745	12592.099067
690.314930	12376.493958
690.652065	12286.438786
690.989150	11982.361427
691.326185	11758.738363
691.663170	11554.284286
692.000105	11319.583287
692.336990	11199.177847
692.673825	10933.277147
693.010610	10818.822790
693.347345	10612.561460
693.684030	10425.688407
694.020665	10360.849086
694.357251	10155.220421
694.693786	10080.901210
695.030272	9935.799159
695.366707	9817.198453
695.703093	9757.125543
696.039429	9746.720601
696.375716	9654.527980
696.711952	9527.422847
697.048139	9577.642822
697.384276	9532.534577
697.720363	9552.792454
698.056400	9487.572526
698.392388	9423.892671
698.728326	9397.217405
699.064214	9337.938477
699.400053	9373.276966
699.735842	9185.670425
700.071581	9152.287904
700.407270	9078.187984
700.742910	9001.028083
701.078501	8900.691478
701.414042	8767.363041
701.749533	8718.244558
702.084974	8573.089574
702.420366	8698.541208
702.755709	8568.487001
703.091002	8440.209800
703.426246	8467.858008
703.761440	8426.497862
704.096584	8377.281077
704.431679	8305.273235
704.766725	8289.312942
705.101721	8248.131756
705.436668	8300.360631
705.771565	8192.338786
706.106413	8272.311651
706.441212	8306.583935
706.775961	8267.333511
707.110661	8325.546235
707.445311	8446.967467
707.779913	8347.026592
708.114465	8474.356056
708.448967	8508.688834
708.783421	8671.215634
709.117825	8846.670473
709.452180	8878.921255
709.786485	8972.033887
710.120742	9261.068443
710.454949	9256.249100
710.789107	9368.117345
711.123216	9588.985418
711.457275	9759.542776
711.791286	9901.347913
712.125247	9904.410414
712.459159	9890.244772
712.793023	10122.180699
713.126837	9701.728303
713.460602	9859.395431
713.794318	9690.844452
714.127985	9710.383964
714.461602	9375.447182
714.795171	9331.475718
715.128691	9073.519876
715.462162	8839.295265
715.795584	8775.708671
716.128957	8611.750183
716.462281	8450.607180
716.795556	8500.217175
717.128782	8284.170965
717.461960	8032.690485
717.795088	8100.667924
718.128167	8011.568050
718.461198	7836.559353
718.794180	7789.364071
719.127113	7775.311855
719.459997	7602.624609
719.792833	7387.775673
720.125619	7454.933925
720.458357	7304.513456
720.791046	7300.258722
721.123686	7289.039634
721.456278	7121.688450
721.788821	7144.476986
722.121315	7048.909312
722.453761	7123.261290
722.786158	7055.785446
723.118506	7059.021867
723.450805	7025.024325
723.783056	7091.502021
724.115259	7009.001017
724.447412	7004.794175
724.779518	7060.151085
725.111574	7054.699077
725.443582	7138.750235
725.775542	7117.670650
726.107453	7318.154818
726.439315	7219.348203
726.771129	7296.223278
727.102895	7472.189795
727.434612	7575.072183
727.766281	7611.081145
728.097901	7680.775097
728.429473	7684.114861
728.760996	7675.265116
729.092471	7640.014847
729.423897	7576.889519
729.755276	7584.632731
730.086606	7507.026688
730.417887	7615.580375
730.749120	7836.720670
731.080305	8024.296964
731.411442	8132.593551
731.742530	8120.159545
732.073570	8237.648677
732.404562	8313.311355
732.735506	8175.181219
733.066401	8311.103330
733.397249	8232.536947
733.728048	7985.283474
734.058798	7649.991291
734.389501	7416.144767
734.720156	7234.665749
735.050762	7015.478900
735.381320	6929.885149
735.711831	6862.474840
736.042293	6757.434838
736.372707	6771.073679
736.703073	6637.868751
737.033391	6682.036820
737.363661	6689.280958
737.693883	6728.846454
738.024056	6810.563558
738.354182	6846.060843
738.684260	6880.900257
739.014290	7008.272571
739.344272	7119.359437
739.674207	7145.722151
740.004093	7219.575055
740.333931	7229.916982
740.663722	7236.087354
740.993464	7310.220042
741.323159	7292.548277
741.652806	7044.954527
741.982405	7076.938127
742.311956	7120.390353
742.641460	6937.242713
742.970915	6748.963179
743.300323	6743.201140
743.629683	6707.623197
743.958996	6563.756228
744.288260	6468.412885
744.617477	6422.369506
744.946647	6411.551190
745.275768	6250.050265
745.604842	6211.598864
745.933869	6189.778229
746.262847	6150.066540
746.591778	6131.139528
746.920662	6093.494712
747.249498	6092.892294
747.578286	6142.822402
747.907027	6214.404266
748.235720	6275.429954
748.564365	6249.624287
748.892963	6295.108098
749.221514	6425.452172
749.550017	6237.971660
749.878473	6131.406709
750.206881	6195.580598
750.535242	6138.960878
750.863555	6066.751390
751.191821	6080.256642
751.520039	6074.020734
751.848210	5980.809800
752.176334	6017.829513
752.504411	6053.634308
752.832440	5982.271734
753.160421	5913.034007
753.488356	5962.689372
753.816243	5992.240616
754.144082	5839.216391
754.471875	5817.801569
754.799620	5856.825141
755.127318	5869.649837
755.454969	5825.489329
755.782572	5794.574453
756.110129	5842.057081
756.437638	5812.513399
756.765100	5753.511734
757.092515	5762.326192
757.419882	5814.441640
757.747203	5795.035719
758.074477	5856.053845
758.401703	5830.142314
758.728882	5792.326098
759.056014	5864.434763
759.383099	5979.718390
759.710138	5989.359597
760.037129	5977.981712
760.364073	5984.278113
760.690970	6062.025309
761.017820	6035.705444
761.344623	6005.345095
761.671379	6110.715293
761.998088	6238.816053
762.324751	6503.290108
762.651366	7150.302039
762.977935	8518.226697
763.304456	10178.122383
763.630931	11025.442042
763.957359	10564.708307
764.283740	9608.035938
764.610074	8734.855160
764.936362	7730.579176
765.262602	7136.829556
765.588796	6603.500684
765.914943	6277.811899
766.241044	6100.978304
766.567097	5891.122632
766.893104	5626.870388
767.219064	5457.356549
767.544978	5396.270367
767.870845	5308.392973
768.196665	5204.706521
768.522438	5135.327641
768.848165	5096.407413
769.173846	5027.635992
769.499479	4990.046628
769.825066	4938.158032
770.150607	4871.012383
770.476101	4851.614023
770.801548	4840.364688
771.126949	4760.170013
771.452303	4706.181776
771.777611	4669.275489
772.102872	4688.910783
772.428087	4647.830420
772.753256	4606.732413
773.078378	4559.978232
773.403453	4487.226820
773.728482	4475.634687
774.053465	4429.901339
774.378401	4419.667797
774.703291	4412.413577
775.028135	4340.194007
775.352932	4293.492758
775.677683	4281.651087
776.002388	4302.276968
776.327046	4306.960200
776.651658	4234.130650
776.976224	4171.769057
777.300743	4179.005633
777.625216	4200.927091
777.949643	4191.225390
778.274024	4148.942712
778.598359	4106.886886
778.922647	4133.516781
779.246889	4123.585708
779.571086	4115.169502
779.895236	4098.647120
780.219339	4085.220007
780.543397	4086.366869
780.867409	4138.139519
781.191374	4146.510355
781.515294	4082.631374
781.839167	4073.811876
782.162995	4102.420424
782.486776	4085.305707
782.810511	4097.953962
783.134201	4083.216148
783.457844	4037.941546
783.781441	3990.705934
784.104993	3994.159124
784.428498	4015.521014
784.751958	4008.748224
785.075372	3989.566633
785.398739	3953.603042
785.722061	3965.868169
786.045337	4005.930219
786.368568	4033.452398
786.691752	3944.360086
787.014891	4008.821320
787.337983	4141.476763
787.661030	4305.667144
787.984031	4468.468687
788.306987	4633.127895
788.629897	4715.581007
788.952760	4670.646682
789.275579	4604.841981
789.598351	4532.362791
789.921078	4378.448803
790.243759	4183.151982
790.566395	4174.173687
790.888984	4164.227491
791.211529	4056.445101
791.534027	3994.164166
791.856480	3976.643635
792.178888	3915.660797
792.501249	3874.557749
792.823566	3886.880850
793.145836	3907.358017
793.468062	3852.996734
793.790241	3814.668842
794.112375	3845.762679
794.434464	3913.808173
794.756507	3931.810134
795.078505	3910.861619
795.400457	3954.802836
795.722364	4097.195268
796.044226	4199.233263
796.366042	4273.229840
796.687812	4243.807145
797.009538	4247.754369
797.331218	4210.207855
797.652852	4186.239689
797.974442	4162.518539
798.295986	4158.193229
798.617484	4078.313626
798.938938	3991.860358
799.260346	4037.203017
799.581709	4031.874517
799.903026	3951.785706
800.224299	3918.831683
800.545526	3910.559150
800.866708	3871.986761
801.187845	3812.682627
801.508936	3848.381558
801.829983	3836.247501
802.150984	3759.468207
802.471940	3755.553751
802.792851	3759.516098
803.113717	3762.311418
803.434538	3762.634052
803.755314	3701.653734
804.076045	3681.625230
804.396731	3705.326215
804.717372	3730.612643
805.037967	3712.340980
805.358518	3701.255483
805.679024	3733.675143
805.999485	3742.839961
806.319901	3749.007813
806.640272	3759.879061
806.960598	3777.152575
807.280879	3747.891197
807.601115	3766.886265
807.921306	3785.626754
808.241453	3822.805264
808.561554	3789.057260
808.881611	3725.077456
809.201623	3768.045730
809.521590	3776.681227
809.841513	3747.699633
810.161390	3779.867236
810.481223	3751.230962
810.801011	3701.961245
811.120755	3698.218188
811.440453	3728.916294
811.760107	3726.136098
812.079716	3685.537165
812.399281	3657.778052
812.718801	3685.403575
813.038276	3653.379645
813.357707	3647.766320
813.677093	3668.220802
813.996434	3610.587811
814.315731	3626.028865
814.634983	3629.212353
814.954191	3647.279849
815.273354	3673.899662
815.592473	3665.342303
815.911547	3677.123480
816.230577	3724.331365
816.549562	3771.352727
816.868502	3810.630877
817.187399	3833.610977
817.506250	3834.410000
817.825058	3813.017864
818.143821	3912.900766
818.462539	4010.754603
818.781213	4055.842683
819.099843	4119.971201
819.418429	4390.005648
819.736970	4631.676043
820.055466	4883.597624
820.373919	5262.420171
820.692327	5684.518503
821.010691	6175.390776
821.329011	7671.330495
821.647286	10586.362583
821.965517	15325.795810
822.283704	19336.147120
822.601847	21332.000422
822.919945	19394.256501
823.237999	16719.067389
823.556010	14203.163616
823.873976	12041.589943
824.191897	9918.281149
824.509775	8581.276408
824.827609	7447.117616
825.145398	6925.887514
825.463144	6806.298742
825.780845	6918.396359
826.098502	7145.523025
826.416116	8099.924354
826.733685	9472.073499
827.051210	10567.838863
827.368692	10503.256641
827.686129	9164.981530
828.003522	7656.461612
828.320872	6633.261136
828.638177	5912.726496
828.955439	5332.093958
829.272656	4834.829502
829.589830	4558.302048
829.906960	4380.271180
830.224046	4188.251109
830.541088	4068.942121
830.858086	4016.753576
831.175041	3940.380095
831.491952	3930.307870
831.808819	3937.776339
832.125642	4019.523690
832.442421	4180.913710
832.759157	4474.775170
833.075849	5058.276125
833.392497	5962.409588
833.709101	6747.816316
834.025662	7053.216978
834.342179	6630.778368
834.658653	5949.363082
834.975083	5287.126866
835.291469	4701.170869
835.607811	4305.468018
835.924110	4158.974608
836.240366	3952.925007
836.556578	3745.907503
836.872746	3641.258191
837.188871	3594.866972
837.504952	3527.658309
837.820990	3443.042542
838.136984	3402.519227
838.452935	3426.197526
838.768842	3420.329623
839.084706	3447.637554
839.400526	3617.305148
839.716303	3986.105881
840.032037	4534.278430
840.347727	4766.841980
840.663373	4455.437304
840.978977	4064.510947
841.294537	3753.595263
841.610054	3527.623021
841.925527	3424.851538
842.240957	3351.475023
842.556344	3298.089204
842.871687	3232.531519
843.186987	3181.636030
843.502244	3145.848879
843.817458	3114.087089
844.132629	3081.611976
844.447756	3092.861311
844.762840	3071.753999
845.077881	3040.327446
845.392879	3024.568799
845.707833	3020.188037
846.022745	3018.834487
846.337613	3017.244003
846.652438	3008.401819
846.967221	3004.920902
847.281960	2988.201916
847.596656	2986.611432
847.911309	2989.925990
848.225919	2982.976760
848.540485	2976.347642
848.855009	2974.938640
849.169490	2959.653861
849.483928	2954.302677
849.798323	2956.787965
850.112675	2949.183385
850.426984	2963.918678
850.741251	2959.290898
851.055474	2947.635751
851.369654	2943.711212
851.683792	2946.708178
851.997887	2957.118161
852.311938	2959.721917
852.625947	2944.905966
852.939914	2953.317131
853.253837	2954.292594
853.567718	2941.820780
853.881555	2942.113167
854.195350	2955.668829
854.509103	2948.250771
854.822812	2941.203238
855.136479	2936.998916
855.450103	2942.829010
855.763685	2936.159564
856.077224	2933.747372
856.390720	2944.850513
856.704173	2953.397789
857.017584	2944.502673
857.330953	2942.861778
857.644278	2952.777728
857.957561	2963.003708
858.270802	2967.049234
858.584000	2967.258442
858.897155	2951.731688
859.210268	2950.582305
859.523339	2948.321348
859.836367	2948.586008
860.149352	2938.866663
860.462295	2938.211313
860.775195	2944.918569
861.088054	2945.384875
861.400869	2929.522885
861.713642	2930.374840
862.026373	2942.307251
862.339062	2945.699948
862.651708	2950.529373
862.964312	2955.507512
863.276873	2947.270267
863.589392	2957.592029
863.901869	2969.710963
864.214303	2991.866834
864.526696	3006.297137
864.839045	3004.184894
865.151353	3003.151457
865.463619	3001.631549
865.775842	3002.425531
866.088023	3024.089890
866.400162	3029.080632
866.712258	2996.028307
867.024313	2986.636637
867.336325	2998.783298
867.648296	3020.813140
867.960224	3010.410719
868.272110	2998.153153
868.583954	3002.143227
868.895755	3017.238962
869.207515	3002.934688
869.519233	3012.044053
869.830909	3019.416740
870.142542	3028.793286
870.454134	3029.436033
870.765684	3028.878986
871.077191	3031.863349
871.388657	3039.551109
871.700081	3055.092986
872.011463	3064.298133
872.322803	3065.013977
872.634101	3064.376271
872.945357	3082.627768
873.256571	3112.378138
873.567744	3100.385233
873.878874	3096.546394
874.189963	3117.187398
874.501010	3118.470372
874.812015	3109.136676
875.122979	3106.752210
875.433900	3106.744648
875.744780	3114.250926
876.055618	3121.308542
876.366415	3115.412912
876.677169	3127.189048
876.987882	3124.600415
877.298554	3121.734519
877.609183	3144.318888
877.919771	3171.818383
878.230317	3195.655479
878.540822	3248.423757
878.851285	3290.477062
879.161707	3337.279134
879.472087	3450.969756
879.782425	3703.014846
880.092722	4160.214732
880.402977	4715.969176
880.713191	5376.904775
881.023363	6604.390448
881.333494	7909.729181
881.643583	8429.104138
881.953631	8091.596368
882.263637	7415.189468
882.573602	6795.573687
882.883526	6214.847887
883.193408	5637.005628
883.503248	5183.256411
883.813048	4861.567782
884.122806	4531.558727
884.432522	4208.209037
884.742197	3967.551914
885.051831	3773.391874
885.361424	3642.536123
885.670975	3569.620874
885.980485	3475.389106
886.289954	3396.096797
886.599382	3347.265660
886.908768	3312.176709
887.218113	3266.786159
887.527417	3202.519010
887.836680	3157.735919
888.145901	3152.598984
888.455082	3137.485604
888.764221	3082.731112
889.073319	3058.778069
889.382376	3056.053326
889.691392	3061.812844
890.000366	3059.302349
890.309300	3043.919268
890.618193	3058.425189
890.927044	3078.080647
891.235855	3072.086716
891.544625	3064.318297
891.853353	3075.116449
892.162041	3095.248297
892.470687	3135.897641
892.779293	3189.487627
893.087858	3237.492014
893.396381	3315.904642
893.704864	3452.136783
894.013306	3703.342521
894.321707	4016.977907
894.630068	4215.664904
894.938387	4202.220147
895.246665	4157.996624
895.554903	4029.079197
895.863100	3820.791323
896.171256	3649.934016
896.479371	3503.685102
896.787446	3373.434290
897.095480	3271.013167
897.403473	3207.610575
897.711425	3170.850481
898.019336	3160.503513
898.327207	3128.222484
898.635038	3091.679160
898.942827	3078.534351
899.250576	3066.886765
899.558284	3033.400901
899.865952	3013.034639
900.173579	2990.465394
900.481165	2983.097747
900.788711	2971.404791
901.096216	2948.076852
901.403681	2935.095880
901.711105	2940.560491
902.018489	2940.457148
902.325832	2935.965479
902.633135	2952.553396
902.940397	2988.814416
903.247619	3080.230700
903.554800	3289.665436
903.861941	3661.090090
904.169041	4108.462247
904.476101	4396.002100
904.783121	4328.937110
905.090100	4063.820309
905.397039	3780.043677
905.703938	3526.458515
906.010796	3340.787777
906.317614	3225.196640
906.624391	3126.463122
906.931129	3052.763973
907.237826	2989.502533
907.544483	2940.963783
907.851099	2910.840369
908.157675	2888.898747
908.464211	2867.985520
908.770707	2853.043540
909.077163	2841.307734
909.383578	2824.235866
909.689954	2811.902683
909.996289	2813.263795
910.302584	2815.791933
910.608839	2813.067190
910.915054	2806.281797
911.221229	2802.064872
911.527363	2802.533699
911.833458	2814.448466
912.139513	2814.768579
912.445527	2817.700010
912.751502	2828.581341
913.057436	2837.829337
913.363331	2853.398941
913.669186	2877.402395
913.975000	2916.725916
914.280775	2979.241265
914.586510	3051.803633
914.892205	3135.796818
915.197859	3277.286883
915.503475	3486.613235
915.809050	3707.569528
916.114585	3856.792723
916.420081	3863.661295
916.725536	3800.420020
917.030952	3672.561235
917.336328	3535.996378
917.641665	3403.736665
917.946961	3299.263793
918.252218	3221.945096
918.557435	3141.021974
918.862612	3082.307655
919.167750	3029.751106
919.472848	2989.870538
919.777906	2960.284006
920.082925	2934.811055
920.387904	2904.301992
920.692843	2886.350443
920.997743	2874.380223
921.302603	2861.764736
921.607423	2849.449197
921.912204	2836.715242
922.216946	2827.169818
922.521647	2816.432160
922.826310	2807.201807
923.130932	2798.470529
923.435516	2792.786628
923.740059	2784.176337
924.044564	2772.957249
924.349028	2768.808380
924.653454	2762.471649
924.957840	2755.088879
925.262186	2752.727099
925.566493	2747.912797
925.870761	2742.790985
926.174989	2739.002557
926.479178	2733.366547
926.783328	2728.257338
927.087438	2726.649210
927.391509	2727.803634
927.695541	2721.892881
927.999533	2718.492623
928.303486	2717.388610
928.607400	2714.714278
928.911275	2715.314176
929.215110	2711.745039
929.518906	2711.901314
929.822663	2714.681511
930.126381	2714.522714
930.430060	2714.245451
930.733699	2713.305276
931.037299	2715.898949
931.340861	2716.035061
931.644383	2717.562530
931.947866	2712.418033
932.251309	2713.960626
932.554714	2712.980121
932.858080	2712.884339
933.161407	2709.768906
933.464694	2707.477702
933.767943	2704.384954
934.071153	2708.281766
934.374323	2708.740511
934.677455	2706.328319
934.980548	2705.441076
935.283602	2703.727083
935.586617	2705.156251
935.889593	2703.084336
936.192530	2703.343956
936.495428	2705.927547
936.798287	2708.359904
937.101108	2712.765872
937.403890	2715.835935
937.706632	2719.319372
938.009336	2726.180383
938.312002	2735.075499
938.614628	2743.645460
938.917216	2748.414392
939.219765	2751.809609
939.522275	2751.066039
939.824747	2745.692169
940.127179	2745.268712
940.429573	2742.029770
940.731929	2737.981724
941.034246	2734.455437
941.336524	2732.121382
941.638763	2730.840929
941.940964	2728.960579
942.243126	2725.230125
942.545250	2722.724672
942.847335	2721.043447
943.149381	2717.716285
943.451389	2712.178578
943.753359	2712.438197
944.055290	2709.501725
944.357182	2710.149513
944.659036	2709.902497
944.960851	2708.322095
945.262628	2706.592979
945.564367	2706.285469
945.866067	2708.312013
946.167729	2707.175233
946.469352	2705.420911
946.770937	2706.668597
947.072484	2704.637012
947.373992	2705.811601
947.675462	2702.476877
947.976893	2697.468491
948.278286	2699.116948
948.579641	2698.489325
948.880958	2698.025538
949.182236	2698.196938
949.483476	2695.537729
949.784678	2694.146371
950.085841	2699.144675
950.386967	2697.647452
950.688054	2698.592668
950.989103	2697.801207
951.290114	2700.223482
951.591087	2701.171218
951.892021	2705.761189
952.192917	2708.080120
952.493776	2710.522559
952.794596	2710.146993
953.095378	2710.822507
953.396122	2708.939637
953.696828	2707.369317
953.997496	2705.579707
954.298126	2704.647094
954.598718	2701.161136
954.899272	2696.709797
955.199788	2697.097966
955.500266	2692.870959
955.800706	2690.995649
956.101108	2690.340299
956.401472	2687.345854
956.701798	2686.370391
957.002087	2680.988959
957.302337	2684.575740
957.602550	2680.918383
957.902724	2678.420491
958.202861	2677.923937
958.502960	2677.593742
958.803022	2677.984431
959.103045	2675.541992
959.403031	2672.063596
959.702979	2672.280366
960.002889	2677.003927
960.302762	2672.749193
960.602596	2675.173988
960.902393	2672.429080
961.202153	2673.855726
961.501875	2672.217351
961.801559	2672.696261
962.101205	2669.283400
962.400814	2670.019408
962.700385	2670.251301
962.999918	2668.756599
963.299414	2668.980931
963.598873	2668.701147
963.898293	2667.156033
964.197677	2668.698626
964.497022	2668.345745
964.796331	2670.321877
965.095601	2668.300375
965.394835	2668.552432
965.694030	2669.590910
965.993189	2669.583348
966.292309	2667.539161
966.591393	2668.796928
966.890439	2667.592093
967.189447	2669.235509
967.488419	2667.760971
967.787353	2666.656959
968.086249	2667.463543
968.385108	2672.018226
968.683930	2667.430776
968.982714	2667.027483
969.281462	2668.247443
969.580172	2669.308606
969.878844	2668.842299
970.177480	2668.290292
970.476078	2667.372802
970.774639	2669.598472
971.073162	2665.371464
971.371649	2669.401867
971.670098	2670.279028
971.968510	2670.289110
972.266885	2670.273987
972.565223	2668.643173
972.863524	2667.682833
973.161788	2670.064779
973.460014	2670.011847
973.758204	2671.118380
974.056356	2671.355314
974.354471	2667.166115
974.652550	2667.463543
974.950591	2670.019408
975.248595	2670.604182
975.546563	2670.427742
975.844493	2669.442196
976.142386	2669.807680
976.440243	2669.023780
976.738062	2668.426404
977.035845	2666.694767
977.333590	2668.867505
977.631299	2667.692916
977.928971	2662.503048
978.226606	2664.617812
978.524204	2664.398522
978.821765	2663.367606
979.119290	2668.703667
979.416777	2666.069664
979.714228	2665.905827
980.011642	2665.396670
980.309020	2665.452123
980.606360	2666.992195
980.903664	2667.080416
981.200931	2667.773574
981.498162	2666.528409
981.795356	2668.489418
982.092513	2670.697443
982.389633	2670.095026
982.686717	2674.916889
982.983764	2680.746984
983.280775	2684.522808
983.577749	2683.418795
983.874686	2685.125226
984.171587	2682.092972
984.468451	2679.597601
984.765279	2675.602486
985.062070	2674.798422
985.358824	2672.676096
985.655543	2668.325581
985.952224	2670.019408
986.248869	2670.634429
986.545478	2666.331804
986.842050	2663.581855
987.138586	2666.858605
987.435086	2665.217709
987.731549	2662.613953
988.027975	2663.690240
988.324366	2664.716114
988.620719	2663.513799
988.917037	2661.535146
989.213318	2665.913388
989.509563	2662.518171
989.805772	2663.372647
990.101944	2664.857267
990.398080	2662.114879
990.694180	2664.174190
990.990244	2662.813079
991.286271	2661.668737
991.582262	2662.944149
991.878217	2661.204951
992.174136	2664.091011
992.470019	2663.750733
992.765865	2663.836433
993.061676	2660.219405
993.357450	2661.270486
993.653188	2659.874086
993.948890	2661.940959
994.244556	2663.891886
994.540186	2665.326094
994.835780	2665.890703
995.131337	2667.030004
995.426859	2665.230312
995.722345	2666.293996
996.017795	2665.184942
996.313208	2667.413132
996.608586	2667.488749
996.903928	2666.200734
997.199234	2667.208965
997.494504	2665.250477
997.789738	2667.398008
998.084936	2669.089315
998.380099	2666.215858
998.675225	2667.942453
998.970316	2666.472957
999.265371	2661.920795
999.560390	2661.189827
999.855373	2663.675116
1000.150320	2663.796104
1000.445232	2665.074036
1000.740108	2663.080260
1001.034948	2661.091525
1001.329752	2662.069509
1001.624521	2661.338541
1001.919254	2662.530774
1002.213951	2662.939108
1002.508613	2662.717297
1002.803239	2661.673778
1003.097829	2659.858963
1003.392384	2660.143788
1003.686903	2662.805517
1003.981386	2660.050527
1004.275834	2660.905002
1004.570246	2659.874086
1004.864623	2659.216216
1005.158964	2662.122441
1005.453270	2662.011535
1005.747540	2659.778304
1006.041775	2660.804179
1006.335974	2660.171514
1006.630138	2662.298881
1006.924266	2662.845846
1007.218359	2662.087153
1007.512416	2656.564569
1007.806438	2656.567089
1008.100425	2659.861483
1008.394376	2657.033396
1008.688292	2660.970537
1008.982172	2662.528254
1009.276017	2659.864004
1009.569827	2660.605053
1009.863602	2660.239570
1010.157341	2659.861483
1010.451045	2660.095897
1010.744714	2660.554642
1011.038347	2659.402738
1011.331945	2660.194199
1011.625508	2658.848211
1011.919036	2659.707728
1012.212528	2660.295022
1012.505986	2662.170332
1012.799408	2658.603715
1013.092795	2660.272337
1013.386147	2660.080773
1013.679464	2660.166473
1013.972745	2661.706546
1014.265992	2659.881648
1014.559204	2658.903664
1014.852380	2657.610608
1015.145521	2657.905516
1015.438628	2659.359888
1015.731699	2659.680002
1016.024736	2660.078253
1016.317737	2657.928201
1016.610703	2659.574137
1016.903635	2658.971720
1017.196531	2661.736792
1017.489393	2658.815444
1017.782219	2658.308808
1018.075011	2661.036072
1018.367768	2657.976092
1018.660490	2662.329128
1018.953177	2662.329128
1019.245829	2662.329128
