Dividing Wavelength (nm)	Counts (n)	Blue Motor Position (mm): 24.000000	Red Motor Position (mm): 0.000000	
326.493990	2198.243026
326.888308	2198.243026
327.282561	2198.243026
327.676750	2154.546304
328.070874	2151.909781
328.464933	2153.888433
328.858929	2154.006901
329.252859	2163.073416
329.646726	2167.633139
330.040528	2181.599656
330.434265	2196.236646
330.827938	2214.954451
331.221547	2228.862994
331.615091	2249.128433
332.008571	2267.581576
332.401986	2284.015738
332.795338	2304.147586
333.188625	2321.080821
333.581847	2340.920282
333.975006	2357.644310
334.368100	2378.376055
334.761129	2395.483211
335.154095	2415.040367
335.546996	2437.420570
335.939833	2474.238637
336.332606	2486.518888
336.725315	2500.984479
337.117960	2515.359329
337.510540	2525.804600
337.903056	2533.938501
338.295508	2543.809081
338.687896	2555.993549
339.080220	2559.184600
339.472480	2569.733214
339.864676	2572.352094
340.256807	2578.373752
340.648875	2583.089751
341.040879	2585.302818
341.432818	2585.960688
341.824694	2591.669795
342.216506	2595.150712
342.608253	2594.601226
342.999937	2592.788931
343.391557	2591.715166
343.783113	2593.106524
344.174605	2591.765577
344.566033	2593.484611
344.957397	2591.556369
345.348697	2589.237438
345.739934	2586.001018
346.131106	2586.490010
346.522215	2584.292067
346.913260	2582.424319
347.304241	2577.559606
347.695159	2578.585480
348.086012	2576.440469
348.476802	2574.718915
348.867528	2569.589541
349.258191	2566.564849
349.648789	2565.417987
350.039324	2558.047820
350.429796	2566.017884
350.820203	2563.545198
351.210548	2563.068809
351.600828	2562.030331
351.991045	2563.197358
352.381198	2562.002605
352.771288	2561.218705
353.161314	2560.356668
353.551276	2559.471946
353.941175	2558.105793
354.331010	2558.055381
354.720782	2553.934238
355.110490	2557.422717
355.500135	2555.010524
355.889717	2558.746019
356.279235	2557.180741
356.668689	2558.259548
357.058080	2557.062274
357.447408	2558.499003
357.836672	2557.901626
358.225873	2557.941955
358.615010	2557.783159
359.004084	2561.558983
359.393095	2558.231822
359.782043	2559.983623
360.170927	2563.134344
360.559748	2561.173335
360.948505	2564.150136
361.337199	2563.754406
361.725830	2564.724828
362.114398	2565.811197
362.502903	2563.893038
362.891344	2563.525033
363.279722	2564.427400
363.668037	2567.220199
364.056289	2565.775908
364.444478	2567.099211
364.832603	2566.900086
365.220665	2570.411249
365.608665	2566.663152
365.996601	2568.309088
366.384474	2569.481157
366.772284	2571.792526
367.160031	2568.815724
367.547715	2572.387382
367.935336	2567.925961
368.322893	2568.606516
368.710388	2566.660631
369.097820	2568.314129
369.485189	2567.109294
369.872495	2571.245560
370.259738	2570.829665
370.646918	2572.730180
371.034035	2574.872671
371.421090	2573.156158
371.808081	2574.943247
372.195010	2576.029615
372.581875	2575.442321
372.968678	2574.713874
373.355418	2573.869481
373.742096	2578.910635
374.128710	2575.180181
374.515262	2576.233782
374.901751	2575.679255
375.288177	2576.858885
375.674540	2575.659091
376.060841	2576.621951
376.447079	2575.555747
376.833254	2576.213617
377.219367	2578.464493
377.605417	2578.661098
377.991404	2576.241344
378.377329	2579.112281
378.763191	2577.163875
379.148991	2578.847620
379.534727	2577.332754
379.920402	2579.016499
380.306013	2579.255954
380.691563	2579.082034
381.077049	2579.359297
381.462474	2580.846438
381.847835	2579.303845
382.233134	2582.376428
382.618371	2583.518249
383.003545	2577.572208
383.388657	2580.143197
383.773706	2583.278795
384.158693	2580.349884
384.543618	2581.111098
384.928480	2581.521952
385.313280	2580.738053
385.698017	2583.029258
386.082692	2583.979515
386.467305	2584.556727
386.851856	2584.138311
387.236344	2585.723754
387.620770	2583.520770
388.005133	2582.683938
388.389435	2584.002200
388.773674	2579.281160
389.157851	2585.491861
389.541965	2584.443301
389.926018	2586.794999
390.310008	2583.435070
390.693936	2585.922880
391.077802	2587.639393
391.461606	2586.502612
391.845348	2589.000504
392.229027	2588.887078
392.612645	2587.125195
392.996200	2587.170565
393.379694	2587.384814
393.763125	2587.649475
394.146494	2587.546131
394.529801	2590.727099
394.913047	2590.717017
395.296230	2592.367995
395.679351	2591.435382
396.062410	2590.994281
396.445408	2590.656523
396.828343	2589.698704
397.211217	2590.573344
397.594028	2590.225505
397.976778	2594.719693
398.359466	2593.035948
398.742092	2590.981678
399.124656	2590.343972
399.507158	2590.742223
399.889598	2591.720207
400.271977	2594.371854
400.654294	2592.960331
401.036549	2594.417224
401.418742	2593.260279
401.800874	2590.563262
402.182944	2593.855135
402.564952	2594.381936
402.946898	2595.347317
403.328783	2595.067533
403.710606	2593.398911
404.092367	2594.795311
404.474067	2595.740527
404.855705	2597.956114
405.237282	2594.830599
405.618797	2595.990064
406.000250	2600.310333
406.381642	2594.959148
406.762972	2594.074426
407.144240	2591.768098
407.525447	2594.515527
407.906593	2593.033427
408.287677	2597.371340
408.668700	2599.229005
409.049661	2599.909561
409.430560	2599.884355
409.811399	2598.727411
410.192176	2600.592637
410.572891	2598.979468
410.953545	2601.011053
411.334138	2601.769747
411.714669	2598.470312
412.095139	2598.034252
412.475547	2600.632967
412.855894	2602.785539
413.236180	2601.371496
413.616405	2603.604727
413.996568	2602.019284
414.376670	2599.818820
414.756711	2599.710436
415.136691	2602.077257
415.516609	2604.262597
415.896466	2604.315530
416.276262	2600.325456
416.655997	2604.343256
417.035670	2604.391147
417.415283	2606.659666
417.794834	2604.267639
418.174324	2605.023812
418.553753	2603.098091
418.933121	2604.847371
419.312428	2603.937443
419.691674	2604.650766
420.070859	2606.301744
420.449983	2605.225458
420.829045	2602.190683
421.208047	2605.227978
421.586988	2607.360387
421.965867	2607.650253
422.344686	2606.876436
422.723444	2609.129832
423.102141	2606.420211
423.480777	2607.831734
423.859352	2606.652104
424.237866	2606.253853
424.616319	2606.631940
424.994712	2610.415326
425.373044	2607.718308
425.751314	2606.763010
426.129524	2606.069851
426.507673	2608.925665
426.885762	2603.682865
427.263789	2610.299379
427.641756	2610.493464
428.019662	2610.556478
428.397508	2610.508587
428.775292	2611.814246
429.153016	2610.067486
429.530679	2613.399689
429.908282	2611.153855
430.285824	2614.917076
430.663305	2609.770058
431.040726	2613.056890
431.418086	2612.915738
431.795385	2612.625872
432.172624	2613.997066
432.549802	2613.994545
432.926920	2616.767180
433.303977	2616.295832
433.680974	2611.536982
434.057910	2614.982611
434.434786	2614.604525
434.811601	2616.356326
435.188355	2616.293311
435.565050	2613.455142
435.941683	2616.908332
436.318257	2616.053856
436.694770	2617.062087
437.071222	2617.518312
437.447614	2619.731378
437.823946	2617.631737
438.200218	2618.834053
438.576429	2618.929835
438.952580	2619.025617
439.328670	2616.159721
439.704700	2620.860597
440.080670	2618.423199
440.456580	2621.906636
440.832429	2622.756070
441.208218	2622.249434
441.583947	2623.224898
441.959616	2621.568879
442.335224	2623.088787
442.710773	2624.099538
443.086261	2623.557614
443.461689	2626.179014
443.837057	2627.363685
444.212365	2624.215484
444.587612	2625.374950
444.962800	2625.117851
445.337927	2622.801441
445.712995	2621.876389
446.088002	2628.346710
446.462949	2627.353603
446.837837	2629.415435
447.212664	2632.180507
447.587431	2632.104890
447.962139	2632.656897
448.336786	2638.164357
448.711374	2638.025725
449.085901	2634.396095
449.460369	2637.098153
449.834776	2635.134624
450.209124	2639.696868
450.583412	2639.187711
450.957640	2643.966725
451.331808	2645.287507
451.705917	2642.497229
452.079965	2641.864564
452.453954	2645.095944
452.827883	2645.756335
453.201752	2650.923517
453.575562	2651.155411
453.949311	2653.441574
454.323001	2656.423416
454.696632	2660.347955
455.070202	2665.179901
455.443713	2669.202741
455.817164	2672.882784
456.190556	2680.033660
456.563888	2687.650844
456.937160	2693.485979
457.310373	2696.271217
457.683526	2703.754810
458.056619	2707.092054
458.429653	2714.220245
458.802628	2721.736606
459.175542	2730.389746
459.548398	2755.479569
459.921194	2771.134872
460.293930	2790.450053
460.666607	2824.528253
461.039224	2869.291179
461.411782	2904.254101
461.784280	2928.093718
462.156719	2945.901594
462.529099	2969.804225
462.901419	2968.939667
463.273680	2986.200578
463.645882	3009.160513
464.018024	3037.217054
464.390106	3081.564085
464.762130	3152.745177
465.134094	3238.901017
465.505999	3404.563415
465.877845	3690.792568
466.249631	3926.887447
466.621358	3960.549752
466.993026	3931.374074
467.364634	3965.807675
467.736184	3957.343578
468.107674	3978.478615
468.479105	4078.732042
468.850477	4128.730206
469.221790	4178.672917
469.593043	4196.085062
469.964238	4237.775405
470.335373	4294.473262
470.706449	4432.570630
471.077467	4468.254438
471.448425	4801.124347
471.819324	5487.003575
472.190164	5924.177477
472.560945	5568.080452
472.931667	5314.775074
473.302330	5335.907591
473.672934	5366.613259
474.043479	5573.671092
474.413965	5656.154451
474.784393	5723.552157
475.154761	5988.621068
475.525070	6121.707529
475.895321	6176.467063
476.265513	6446.783814
476.635645	6708.104627
477.005719	6820.466905
477.375734	7015.748602
477.745691	7309.310114
478.115588	7582.913698
478.485427	7922.989936
478.855207	8377.984318
479.224928	9064.324811
479.594591	9982.931427
479.964194	10197.608963
480.333739	10532.676815
480.703226	10533.823678
481.072653	10680.377582
481.442022	11124.185643
481.811333	11661.759166
482.180584	11900.437636
482.549777	11747.670509
482.918912	11884.565563
483.287988	12150.352837
483.657005	12261.711926
484.025964	12364.768234
484.394864	12592.462030
484.763706	12692.647401
485.132489	12717.941390
485.501213	12980.552738
485.869879	13216.854304
486.238487	13256.331580
486.607036	13635.685968
486.975527	13675.813553
487.343959	14056.932346
487.712333	14309.390810
488.080648	14288.681750
488.448905	14804.033866
488.817104	14873.919382
489.185244	15466.096163
489.553326	15726.711213
489.921350	16435.328566
490.289315	18001.935179
490.657222	19371.954436
491.025070	19964.902513
491.392861	20103.032649
491.760593	19834.490384
492.128267	19603.361042
492.495883	19134.289238
492.863440	18828.016457
493.230939	18428.442000
493.598380	18556.570487
493.965763	18458.585579
494.333088	18366.259367
494.700354	18498.942537
495.067563	18638.963105
495.434713	18629.054717
495.801805	18873.646461
496.168839	18979.041864
496.535815	19021.132978
496.902733	19343.058542
497.269593	19218.176559
497.636395	19579.614687
498.003139	19723.698425
498.369825	19716.479493
498.736453	19994.778912
499.103023	20045.644154
499.469535	20219.795855
499.835989	20531.263545
500.202385	20713.723067
500.568723	20426.231105
500.935003	20768.240626
501.301226	20566.186138
501.667390	21349.984738
502.033497	21725.739743
502.399546	21586.860996
502.765537	21401.132285
503.131470	21819.328764
503.497345	22068.119789
503.863163	21460.156635
504.228923	22138.355665
504.594625	22400.833422
504.960269	22036.224408
505.325856	22601.849432
505.691385	22159.397441
506.056856	22778.340228
506.422270	22854.459130
506.787625	22550.976628
507.152924	23029.803064
507.518164	23097.949382
507.883347	22981.062668
508.248472	22761.318772
508.613540	23566.698552
508.978550	23427.419033
509.343503	23472.950734
509.708398	23804.537669
510.073236	23993.893490
510.438016	24250.936884
510.802738	24005.651982
511.167403	24280.772953
511.532010	24030.192318
511.896561	24830.180584
512.261053	24852.674213
512.625488	24735.875719
512.989866	24665.841489
513.354186	24564.105963
513.718449	24696.330388
514.082655	25089.910912
514.446803	24879.533480
514.810894	25337.678583
515.174927	24862.244843
515.538904	24916.923718
515.902822	25414.457877
516.266684	25194.650966
516.630488	25120.288906
516.994235	25146.593646
517.357925	25438.415960
517.721558	25653.516954
518.085133	25747.027837
518.448651	25695.174528
518.812112	25425.369454
519.175516	25613.394410
519.538863	25801.908358
519.902152	25586.968682
520.265385	25903.976600
520.628560	25698.599993
520.991678	25734.150209
521.354739	25821.538611
521.717743	25869.974017
522.080690	25664.879714
522.443580	26011.201942
522.806413	26021.707707
523.169189	26125.353830
523.531908	26183.556472
523.894569	25789.945700
524.257174	25862.371957
524.619722	26068.713946
524.982213	25756.220381
525.344647	25834.053276
525.707025	25957.309487
526.069345	25963.729397
526.431608	25918.888333
526.793815	26122.014066
527.155964	25554.004577
527.518057	25728.201648
527.880093	25651.341696
528.242072	25890.262141
528.603995	25598.006288
528.965860	25401.118983
529.327669	25450.426509
529.689421	25443.162207
530.051117	25274.167606
530.412755	25452.770646
530.774337	25271.571412
531.135862	25136.176102
531.497331	25333.111298
531.858743	24873.990732
532.220098	25366.269487
532.581396	25039.320413
532.942638	25000.004454
533.303824	25077.716361
533.664953	25113.138029
534.026025	24774.927017
534.387040	25012.307390
534.747999	25081.025879
535.108902	25248.296405
535.469748	24723.643359
535.830537	24922.678195
536.191270	25033.767582
536.551947	24928.039463
536.912567	24605.045174
537.273131	24903.133642
537.633638	24638.024402
537.994089	24828.917775
538.354483	24395.136569
538.714821	24873.315217
539.075103	24933.597335
539.435328	24712.303284
539.795497	24264.948771
540.155609	24676.417830
540.515665	24952.438647
540.875665	24215.490010
541.235609	24480.682429
541.595496	24468.318999
541.955328	24820.831764
542.315102	24748.823923
542.674821	24300.473782
543.034483	24178.775287
543.394090	24343.411810
543.753640	24118.740186
544.113134	24761.121817
544.472571	24365.058524
544.831953	24643.141173
545.191278	24249.485031
545.550548	24206.020203
545.909761	24407.588219
546.268918	24636.507015
546.628019	24593.994965
546.987064	24289.715960
547.346053	24075.257713
547.704986	24185.666544
548.063863	24337.964843
548.422684	24334.622558
548.781449	23900.644747
549.140158	24291.336691
549.498811	23864.870199
549.857408	23603.866979
550.215949	24053.484970
550.574434	23724.330391
550.932864	23942.894657
551.291237	24082.012859
551.649555	23965.070693
552.007817	24016.780329
552.366022	23896.989910
552.724173	23936.079017
553.082267	23860.219734
553.440305	24341.100441
553.798288	23606.679943
554.156215	24136.457321
554.514086	24217.433375
554.871902	23587.392488
555.229661	23875.829667
555.587365	23738.037288
555.945014	23580.743206
556.302606	23849.600544
556.660143	23782.091932
557.017625	24051.760895
557.375050	23576.359923
557.732421	23970.535304
558.089735	23774.232773
558.446994	23837.345499
558.804197	23861.842986
559.161345	23821.710360
559.518437	23556.344022
559.875474	23762.912862
560.232455	23939.222177
560.589381	23773.456435
560.946251	23745.969544
561.303065	24078.088321
561.659825	24152.883921
562.016528	23752.996912
562.373177	23499.532738
562.729770	23844.607281
563.086307	23732.628130
563.442789	23889.516400
563.799216	23716.173804
564.155587	23738.496033
564.511904	23719.385019
564.868164	23650.928671
565.224370	23641.942814
565.580520	23540.902967
565.936615	23663.208921
566.292654	23329.305576
566.648638	23654.434793
567.004567	23484.749555
567.360441	23428.512963
567.716260	23158.438187
568.072023	23481.117403
568.427732	23237.758222
568.783385	23024.819883
569.138982	23246.986054
569.494525	23300.722233
569.850013	23042.584910
570.205445	23138.999497
570.560823	22939.558848
570.916145	22712.734652
571.271412	22885.482391
571.626625	22649.873984
571.981782	22757.497577
572.336884	22561.474831
572.691931	22686.908821
573.046923	22422.659098
573.401860	22313.976862
573.756743	22323.403820
574.111570	22229.088872
574.466342	22165.197288
574.821059	22251.141400
575.175722	21944.477929
575.530330	21936.805293
575.884882	21961.632976
576.239380	21872.102083
576.593823	21755.031367
576.948211	21739.713822
577.302544	21575.548647
577.656823	21460.675874
578.011047	21546.672917
578.365216	21432.047161
578.719330	21313.532155
579.073389	21216.883153
579.427394	21350.027588
579.781344	21129.903085
580.135239	21021.225890
580.489080	20988.886888
580.842866	20749.737070
581.196597	20936.494176
581.550273	20924.839029
581.903895	20829.982157
582.257463	21137.512707
582.610975	20653.856845
582.964434	20961.034513
583.317837	20679.496153
583.671186	20765.374730
584.024481	20730.278217
584.377721	20495.461270
584.730906	20554.415044
585.084037	20594.517423
585.437113	20487.080352
585.790135	20702.022549
586.143103	20161.943573
586.496016	20171.554533
586.848874	20415.475803
587.201679	20358.306598
587.554428	20019.646923
587.907124	20357.792400
588.259765	20135.429624
588.612352	20213.693538
588.964884	19774.898904
589.317362	19952.418096
589.669786	20001.665128
590.022155	20064.036804
590.374470	20230.099973
590.726731	20040.938237
591.078937	19780.567682
591.431090	19897.492204
591.783188	19645.565582
592.135232	19612.803123
592.487222	19708.106136
592.839157	19740.172916
593.191038	19615.182547
593.542866	19500.143417
593.894639	19223.192507
594.246358	19445.958575
594.598022	19356.541108
594.949633	19101.637685
595.301190	19067.940092
595.652692	19228.919258
596.004141	19473.233738
596.355535	18805.245565
596.706876	18818.854160
597.058162	18706.968271
597.409395	18917.254962
597.760573	19008.333489
598.111698	18795.226272
598.462768	18724.798832
598.813785	18681.502882
599.164748	18510.040637
599.515657	18532.748514
599.866511	18336.274584
600.217312	18689.760292
600.568060	18218.881235
600.918753	18532.859420
601.269392	18438.151262
601.619978	18210.023927
601.970510	18424.094005
602.320988	18364.868009
602.671412	18578.781811
603.021783	18479.007294
603.372100	18219.541626
603.722363	18353.482563
604.072572	18284.703580
604.422728	18423.282379
604.772830	18197.768882
605.122878	18131.916290
605.472872	18132.483419
605.822813	18114.879710
606.172701	18070.136949
606.522534	18285.300957
606.872314	18310.370615
607.222041	18135.568606
607.571714	18360.088995
607.921333	18182.542077
608.270899	18254.945649
608.620411	18447.517726
608.969870	18194.310651
609.319276	18215.246563
609.668627	18245.354854
610.017926	18368.936220
610.367171	18490.193614
610.716362	18517.872069
611.065500	18353.394343
611.414585	18476.756418
611.763616	18459.770251
612.112594	18411.934742
612.461518	18376.631541
612.810389	18568.878464
613.159207	18425.371937
613.507971	18327.601279
613.856682	18612.938148
614.205340	18549.762408
614.553945	18684.401545
614.902496	18432.003575
615.250994	18666.623916
615.599439	18602.119832
615.947830	18591.727494
616.296169	18640.851017
616.644454	18609.185009
616.992686	18577.161080
617.340864	18790.172515
617.688990	18549.853149
618.037063	18729.028360
618.385082	18576.982119
618.733048	18855.669706
619.080961	18716.395228
619.428821	18752.505013
619.776628	18647.528026
620.124382	18574.466583
620.472083	18607.496223
620.819731	18625.840982
621.167326	18321.730855
621.514868	18371.774390
621.862357	18127.918655
622.209793	18133.501732
622.557176	17973.218246
622.904506	17797.579405
623.251783	17711.589923
623.599007	17480.982340
623.946179	17418.887928
624.293297	17365.466821
624.640363	17122.347094
624.987376	17136.921070
625.334336	16928.197136
625.681243	16772.758198
626.028097	16782.651463
626.374899	16714.989096
626.721647	16584.453458
627.068343	16413.018939
627.414987	16345.429669
627.761577	16319.303889
628.108115	16362.874582
628.454600	16081.184987
628.801032	16176.606468
629.147412	16104.422186
629.493739	16130.127029
629.840014	15936.738286
630.186236	16041.674944
630.532405	15805.275076
630.878521	16000.922256
631.224585	15887.229114
631.570597	15715.776951
631.916556	15746.787609
632.262462	15732.551390
632.608316	15643.895138
632.954117	15586.042857
633.299866	15579.867443
633.645562	15507.791546
633.991206	15265.337252
634.336797	15136.167767
634.682336	15099.163177
635.027823	14989.031609
635.373257	14875.482140
635.718639	14761.617598
636.063968	14723.564448
636.409245	14480.903466
636.754470	14498.189583
637.099642	14353.745402
637.444762	14124.299805
637.789829	14162.143747
638.134845	13996.269621
638.479808	14023.728786
638.824719	13986.187313
639.169577	13830.342562
639.514383	13874.495508
639.859137	13700.711812
640.203839	13777.649902
640.548489	13616.622845
640.893086	13608.304941
641.237632	13477.093789
641.582125	13628.262869
641.926566	13456.541005
642.270955	13471.730001
642.615292	13430.505966
642.959576	13446.972895
643.303809	13468.445690
643.647990	13413.219849
643.992118	13471.140186
644.336195	13229.457189
644.680219	13430.979834
645.024192	13366.430380
645.368112	13596.564094
645.711981	13662.265452
646.055797	13836.510414
646.399562	13800.299806
646.743274	14070.175457
647.086935	14339.889790
647.430544	14308.276715
647.774101	14336.348380
648.117606	14500.342156
648.461059	14457.794817
648.804460	14452.380618
649.147810	14185.685935
649.491108	14080.940841
649.834354	14102.017905
650.177548	13801.083706
650.520690	13613.827525
650.863781	13527.999361
651.206820	13573.659612
651.549807	13407.966967
651.892742	13215.059653
652.235626	13143.729847
652.578458	13152.894665
652.921238	12843.085514
653.263967	13034.243547
653.606644	12858.947504
653.949269	12837.598218
654.291843	12642.437508
654.634365	12797.876446
654.976836	12645.794917
655.319255	12659.103563
655.661622	12611.028599
656.003938	12535.154193
656.346203	12464.847741
656.688416	12534.297197
657.030577	12487.308602
657.372687	12412.255903
657.714746	12390.311761
658.056753	12571.745408
658.398708	12393.401988
658.740612	12400.751990
659.082465	12495.462668
659.424266	12455.451030
659.766016	12486.817089
660.107715	12389.270762
660.449362	12459.002523
660.790958	12422.403746
661.132503	12370.963812
661.473996	12432.889346
661.815438	12449.484824
662.156829	12460.736680
662.498168	12443.183382
662.839456	12443.987446
663.180693	12455.246863
663.521879	12544.021583
663.863013	12525.845702
664.204097	12499.727484
664.545129	12626.310857
664.886110	12585.575814
665.227040	12673.400275
665.567918	12682.023169
665.908746	12714.828478
666.249522	12694.764685
666.590248	12752.778284
666.930922	12858.927340
667.271545	12845.018796
667.612118	12925.155498
667.952639	12830.086899
668.293109	12839.770955
668.633528	12797.652115
668.973896	12771.627158
669.314213	12857.629243
669.654480	12597.747680
669.994695	12655.685661
670.334859	12681.115761
670.674973	12634.336374
671.015035	12662.652535
671.355047	12608.051798
671.695008	12579.859145
672.034918	12580.716141
672.374777	12629.201959
672.714585	12544.543342
673.054342	12578.538363
673.394049	12522.541226
673.733705	12616.929270
674.073310	12531.403574
674.412864	12550.887634
674.752368	12424.319384
675.091820	12427.679313
675.431223	12423.651432
675.770574	12293.166205
676.109875	12213.331972
676.449125	12177.600274
676.788324	12118.649021
677.127473	11952.588372
677.466571	11937.517843
677.805619	11840.831033
678.144616	11764.187850
678.483562	11732.962943
678.822458	11603.347316
679.161303	11575.343706
679.500098	11568.351626
679.838842	11521.791529
680.177535	11543.281968
680.516179	11611.143460
680.854771	11549.177597
681.193314	11761.148034
681.531805	11911.898699
681.870247	12324.204590
682.208638	12735.146848
682.546978	13056.656517
682.885268	13108.867747
683.223508	12793.064665
683.561697	12643.332313
683.899836	12544.424875
684.237925	12336.578102
684.575963	12257.731935
684.913951	12184.713342
685.251889	12133.759880
685.589776	12228.097512
685.927614	12157.831389
686.265401	12119.090122
686.603137	12161.246771
686.940824	12308.246817
687.278460	12428.133017
687.616046	12479.008342
687.953582	12650.319353
688.291068	12579.173548
688.628504	12808.203250
688.965889	12815.943942
689.303224	12781.240638
689.640510	12679.215246
689.977745	12369.728729
690.314930	12153.901810
690.652065	12066.621793
690.989150	11775.056578
691.326185	11554.193545
691.663170	11349.300888
692.000105	11098.334606
692.336990	10994.691003
692.673825	10735.759698
693.010610	10625.887750
693.347345	10420.415360
693.684030	10216.412467
694.020665	10158.605556
694.357251	9967.160177
694.693786	9906.850333
695.030272	9742.848995
695.366707	9623.769380
695.703093	9565.455832
696.039429	9552.671466
696.375716	9487.065890
696.711952	9349.039098
697.048139	9385.242144
697.384276	9339.218930
697.720363	9355.063277
698.056400	9297.352148
698.392388	9248.049663
698.728326	9211.949960
699.064214	9152.431577
699.400053	9191.951703
699.735842	9004.267025
700.071581	8968.754616
700.407270	8896.880365
700.742910	8809.837282
701.078501	8726.461639
701.414042	8601.425900
701.749533	8533.992906
702.084974	8393.742965
702.420366	8509.969287
702.755709	8391.895382
703.091002	8262.967872
703.426246	8290.656410
703.761440	8237.051300
704.096584	8197.274076
704.431679	8128.167418
704.766725	8116.847507
705.101721	8062.665186
705.436668	8113.422043
705.771565	8000.079261
706.106413	8083.500275
706.441212	8128.575752
706.775961	8075.812515
707.110661	8113.507743
707.445311	8266.244622
707.779913	8156.841501
708.114465	8286.086604
708.448967	8325.178231
708.783421	8457.092624
709.117825	8649.760483
709.452180	8682.038991
709.786485	8767.892362
710.120742	9044.104743
710.454949	9049.463489
710.789107	9150.750353
711.123216	9360.122075
711.457275	9523.402527
711.791286	9684.976549
712.125247	9675.670579
712.459159	9666.064660
712.793023	9919.488505
713.126837	9493.440429
713.460602	9650.880705
713.794318	9473.074168
714.127985	9503.260597
714.461602	9192.304584
714.795171	9132.050192
715.128691	8892.965909
715.462162	8634.720201
715.795584	8585.853776
716.128957	8441.885984
716.462281	8264.840661
716.795556	8321.263775
717.128782	8119.289946
717.461960	7844.645364
717.795088	7912.141373
718.128167	7828.521234
718.461198	7665.011409
718.794180	7603.113601
719.127113	7597.991789
719.459997	7446.951258
719.792833	7217.876186
720.125619	7277.437419
720.458357	7136.658156
720.791046	7125.832278
721.123686	7129.235057
721.456278	6964.051569
721.788821	6985.620146
722.121315	6878.835905
722.453761	6938.939061
722.786158	6891.370734
723.118506	6897.984728
723.450805	6858.784715
723.783056	6931.420180
724.115259	6838.562127
724.447412	6834.672876
724.779518	6883.342696
725.111574	6878.898919
725.443582	6961.440252
725.775542	6942.987108
726.107453	7134.578680
726.439315	7047.948972
726.771129	7102.592559
727.102895	7272.320647
727.434612	7384.193934
727.766281	7412.447080
728.097901	7499.792632
728.429473	7492.528330
728.760996	7467.302396
729.092471	7440.044877
729.423897	7386.137298
729.755276	7396.393526
730.086606	7326.848288
730.417887	7425.274296
730.749120	7607.443952
731.080305	7808.497771
731.411442	7930.166019
731.742530	7922.531191
732.073570	8029.575052
732.404562	8116.875234
732.735506	7958.643497
733.066401	8103.496011
733.397249	8043.954943
733.728048	7806.980383
734.058798	7471.955381
734.389501	7257.025787
734.720156	7077.931235
735.050762	6837.790830
735.381320	6744.932776
735.711831	6691.128541
736.042293	6584.278765
736.372707	6610.732220
736.703073	6468.483461
737.033391	6498.919427
737.363661	6515.714031
737.693883	6548.204268
738.024056	6631.731146
738.354182	6676.607497
738.684260	6704.694286
739.014290	6814.142777
739.344272	6926.618481
739.674207	6958.607123
740.004093	7021.321597
740.333931	7036.939092
740.663722	7049.484003
740.993464	7126.638863
741.323159	7119.586289
741.652806	6870.825511
741.982405	6877.300873
742.311956	6939.488547
742.641460	6781.503827
742.970915	6584.422438
743.300323	6571.464152
743.629683	6524.120155
743.958996	6392.074692
744.288260	6302.095137
744.617477	6250.564462
744.946647	6256.162664
745.275768	6089.272745
745.604842	6041.515374
745.933869	6026.354104
746.262847	5986.458413
746.591778	5972.476772
746.920662	5934.194250
747.249498	5926.267036
747.578286	5968.393438
747.907027	6043.108379
748.235720	6107.562051
748.564365	6076.977371
748.892963	6093.983703
749.221514	6257.178456
749.550017	6096.239620
749.878473	5971.647503
750.206881	6023.505852
750.535242	5971.060208
750.863555	5891.039453
751.191821	5913.119706
751.520039	5920.941057
751.848210	5824.249205
752.176334	5840.285116
752.504411	5895.165637
752.832440	5820.559081
753.160421	5748.374799
753.488356	5796.056552
753.816243	5831.662222
754.144082	5681.624881
754.471875	5651.556918
754.799620	5694.411767
755.127318	5708.254776
755.454969	5661.286345
755.782572	5623.071879
756.110129	5668.943858
756.437638	5655.952805
756.765100	5594.944761
757.092515	5590.616930
757.419882	5642.623994
757.747203	5623.389471
758.074477	5689.335325
758.401703	5676.888717
758.728882	5626.446931
759.056014	5680.583882
759.383099	5805.271782
759.710138	5816.387526
760.037129	5805.271782
760.364073	5808.840918
760.690970	5888.380244
761.017820	5876.183172
761.344623	5827.538558
761.671379	5927.943219
761.998088	6039.322472
762.324751	6278.089163
762.651366	6862.724377
762.977935	8146.371025
763.304456	9772.952245
763.630931	10688.450990
763.957359	10313.684051
764.283740	9382.174602
764.610074	8563.977689
764.936362	7571.503046
765.262602	6975.053888
765.588796	6435.007679
765.914943	6098.558551
766.241044	5937.697852
766.567097	5740.109827
766.893104	5482.612730
767.219064	5300.122960
767.544978	5238.812447
767.870845	5165.025078
768.196665	5058.029109
768.522438	4987.621833
768.848165	4953.891473
769.173846	4886.347573
769.499479	4844.536243
769.825066	4792.670332
770.150607	4735.082711
770.476101	4707.623546
770.801548	4705.488617
771.126949	4632.628821
771.452303	4573.841405
771.777611	4535.359757
772.102872	4554.813570
772.428087	4515.144730
772.753256	4474.497907
773.078378	4430.881844
773.403453	4360.484651
773.728482	4348.983258
774.053465	4303.302843
774.378401	4288.590235
774.703291	4290.107623
775.028135	4220.075913
775.352932	4168.557842
775.677683	4159.168693
776.002388	4177.049665
776.327046	4191.084238
776.651658	4113.659676
776.976224	4053.571643
777.300743	4054.887384
777.625216	4075.046958
777.949643	4075.732555
778.274024	4030.450391
778.598359	3982.375427
778.922647	4008.821320
779.246889	4002.560207
779.571086	3994.920339
779.895236	3979.149089
780.219339	3964.998570
780.543397	3958.634113
780.867409	4010.989017
781.191374	4027.108106
781.515294	3966.205926
781.839167	3959.710400
782.162995	3978.919716
782.486776	3961.759629
782.810511	3973.170280
783.134201	3971.365547
783.457844	3922.816715
783.781441	3868.044579
784.104993	3873.103377
784.428498	3893.373856
784.751958	3896.849732
785.075372	3871.777553
785.398739	3832.207016
785.722061	3845.553471
786.045337	3886.033936
786.368568	3920.830501
786.691752	3833.850432
787.014891	3877.665621
787.337983	4007.666896
787.661030	4162.959640
787.984031	4322.925534
788.306987	4493.535824
788.629897	4577.342487
788.952760	4531.967061
789.275579	4464.738233
789.598351	4402.293460
789.921078	4268.959982
790.243759	4068.238880
790.566395	4046.463616
790.888984	4044.293399
791.211529	3934.837347
791.534027	3876.644787
791.856480	3864.498127
792.178888	3804.861277
792.501249	3752.345057
792.823566	3764.534567
793.145836	3797.042447
793.468062	3745.698295
793.790241	3695.793393
794.112375	3727.903022
794.434464	3787.673463
794.756507	3811.956701
795.078505	3796.795431
795.400457	3827.755677
795.722364	3964.615442
796.044226	4067.308787
796.366042	4139.974499
796.687812	4123.709217
797.009538	4128.836070
797.331218	4086.447528
797.652852	4061.813930
797.974442	4037.881052
798.295986	4039.998336
798.617484	3961.210143
798.938938	3871.346534
799.260346	3915.791867
799.581709	3912.333636
799.903026	3835.987881
800.224299	3802.169301
800.545526	3792.402065
800.866708	3757.061056
801.187845	3695.014535
801.508936	3730.355544
801.829983	3731.809917
802.150984	3652.764624
802.471940	3639.697953
802.792851	3650.861589
803.113717	3650.859068
803.434538	3652.184892
803.755314	3594.115840
804.076045	3569.681368
804.396731	3590.309769
804.717372	3616.846403
805.037967	3603.933487
805.358518	3591.650716
805.679024	3620.140797
805.999485	3630.457518
806.319901	3631.982467
806.640272	3646.899242
806.960598	3663.532529
807.280879	3638.069661
807.601115	3647.403357
807.921306	3667.527643
808.241453	3704.955690
808.561554	3684.579346
808.881611	3614.860188
809.201623	3651.317813
809.521590	3665.344824
809.841513	3635.833909
810.161390	3670.005370
810.481223	3645.142400
810.801011	3593.150459
811.120755	3582.874067
811.440453	3615.470168
811.760107	3620.405458
812.079716	3581.162596
812.399281	3546.925599
812.718801	3570.883683
813.038276	3545.199004
813.357707	3540.490566
813.677093	3559.064698
813.996434	3506.646780
814.315731	3515.733460
814.634983	3517.107174
814.954191	3534.158877
815.273354	3559.105027
815.592473	3557.675860
815.911547	3565.242632
816.230577	3601.808641
816.549562	3652.530211
816.868502	3695.843804
817.187399	3721.354563
817.506250	3715.731156
817.825058	3687.825849
818.143821	3777.588635
818.462539	3883.473030
818.781213	3928.140174
819.099843	3980.013647
819.418429	4221.603383
819.736970	4457.607521
820.055466	4702.075756
820.373919	5060.968101
820.692327	5467.587571
821.010691	5895.132869
821.329011	7237.090544
821.647286	9920.058156
821.965517	14424.669395
822.283704	18441.995142
822.601847	20660.838843
822.919945	18886.148522
823.237999	16355.968201
823.556010	13864.004867
823.873976	11792.317488
824.191897	9711.671979
824.509775	8357.360957
824.827609	7237.198929
825.145398	6690.563932
825.463144	6569.301497
825.780845	6681.431882
826.098502	6860.276897
826.416116	7712.597380
826.733685	9018.982153
827.051210	10134.052616
827.368692	10209.392660
827.686129	8979.751893
828.003522	7472.207439
828.320872	6459.853006
828.638177	5762.948774
828.955439	5208.419331
829.272656	4714.877766
829.589830	4426.790947
829.906960	4251.883074
830.224046	4066.575299
830.541088	3945.002833
830.858086	3895.980133
831.175041	3821.456755
831.491952	3801.851708
831.808819	3810.519972
832.125642	3881.925396
832.442421	4027.677756
832.759157	4293.616266
833.075849	4831.565354
833.392497	5684.135375
833.709101	6456.616585
834.025662	6804.025182
834.342179	6459.338808
834.658653	5799.287932
834.975083	5160.064583
835.291469	4590.615845
835.607811	4177.183256
835.924110	4039.408521
836.240366	3842.296885
836.556578	3636.138899
836.872746	3528.386756
837.188871	3490.439470
837.504952	3427.682146
837.820990	3343.809949
838.136984	3294.341106
838.452935	3318.906649
838.768842	3313.618479
839.084706	3337.561439
839.400526	3491.455263
839.716303	3817.073472
840.032037	4335.349458
840.347727	4609.978917
840.663373	4341.489583
840.978977	3965.535453
841.294537	3658.884585
841.610054	3430.568207
841.925527	3320.355981
842.240957	3254.788213
842.556344	3198.518854
842.871687	3141.190852
843.186987	3090.832246
843.502244	3057.527863
843.817458	3018.970598
844.132629	2991.450939
844.447756	2998.412773
844.762840	2986.434991
845.077881	2952.500464
845.392879	2932.779470
845.707833	2932.202258
846.022745	2930.495828
846.337613	2931.783842
846.652438	2919.246493
846.967221	2916.688107
847.281960	2900.062382
847.596656	2896.067267
847.911309	2899.580952
848.225919	2892.795558
848.540485	2886.025289
848.855009	2887.363715
849.169490	2880.255688
849.483928	2870.291848
849.798323	2867.557022
850.112675	2859.909591
850.426984	2874.118083
850.741251	2872.789739
851.055474	2861.968903
851.369654	2857.378932
851.683792	2862.352030
851.997887	2869.437372
852.311938	2873.858464
852.625947	2859.992770
852.939914	2863.440920
853.253837	2871.272352
853.567718	2855.067563
853.881555	2849.794516
854.195350	2869.457537
854.509103	2864.257587
854.822812	2856.496730
855.136479	2853.361132
855.450103	2856.897502
855.763685	2847.236131
856.077224	2846.026254
856.390720	2860.622915
856.704173	2870.473329
857.017584	2860.406145
857.330953	2856.978160
857.644278	2866.203472
857.957561	2877.276366
858.270802	2878.259391
858.584000	2877.967004
858.897155	2866.644573
859.210268	2865.825385
859.523339	2864.126517
859.836367	2862.188193
860.149352	2858.414889
860.462295	2853.217460
860.775195	2859.322297
861.088054	2861.021166
861.400869	2841.249760
861.713642	2840.410408
862.026373	2855.400279
862.339062	2858.525795
862.651708	2862.402442
862.964312	2867.771271
863.276873	2860.214581
863.589392	2868.363606
863.901869	2883.839949
864.214303	2905.121180
864.526696	2920.526946
864.839045	2913.088723
865.151353	2914.964033
865.463619	2915.689959
865.775842	2913.474372
866.088023	2935.940274
866.400162	2940.527724
866.712258	2909.446490
867.024313	2899.303688
867.336325	2906.134452
867.648296	2931.751075
867.960224	2922.286308
868.272110	2906.683937
868.583954	2913.975966
868.895755	2922.402255
869.207515	2914.457397
869.519233	2917.096441
869.830909	2928.451640
870.142542	2939.370779
870.454134	2936.600665
870.765684	2942.680296
871.077191	2939.325408
871.388657	2945.251285
871.700081	2961.420786
872.011463	2971.591314
872.322803	2972.861684
872.634101	2972.801191
872.945357	2988.390959
873.256571	3012.618744
873.567744	3008.500122
873.878874	2999.060561
874.189963	3021.317255
874.501010	3025.829088
874.812015	3014.010103
875.122979	3016.192922
875.433900	3010.032632
875.744780	3016.329033
876.055618	3025.382946
876.366415	3020.185516
876.677169	3032.743030
876.987882	3028.503420
877.298554	3024.228522
877.609183	3043.029505
877.919771	3066.206210
878.230317	3094.194696
878.540822	3143.414001
878.851285	3182.598890
879.161707	3222.008110
879.472087	3322.304387
879.782425	3543.611041
880.092722	3975.854695
880.402977	4493.288808
880.713191	5110.809989
881.023363	6249.410038
881.333494	7524.080912
881.643583	8087.369360
881.953631	7801.077192
882.263637	7175.590987
882.573602	6602.192505
882.883526	6025.625657
883.193408	5458.727743
883.503248	4993.590560
883.813048	4690.213921
884.122806	4392.105288
884.432522	4085.010799
884.742197	3849.909028
885.051831	3657.140346
885.361424	3520.177237
885.670975	3449.220476
885.980485	3364.022455
886.289954	3290.073770
886.599382	3242.213055
886.908768	3208.777602
887.218113	3164.307063
887.527417	3107.543671
887.836680	3057.031310
888.145901	3050.024106
888.455082	3044.942623
888.764221	2992.378512
889.073319	2963.704428
889.382376	2961.090590
889.691392	2964.145529
890.000366	2965.395736
890.309300	2952.482820
890.618193	2962.771815
890.927044	2981.474496
891.235855	2982.591111
891.544625	2964.359778
891.853353	2978.167499
892.162041	2992.118892
892.470687	3031.470139
892.779293	3086.285125
893.087858	3130.400263
893.396381	3201.044472
893.704864	3320.126608
894.013306	3554.522618
894.321707	3851.209645
894.630068	4058.968198
894.938387	4055.880492
895.246665	4011.160416
895.554903	3893.615832
895.863100	3695.548897
896.171256	3531.683671
896.479371	3394.750809
896.787446	3275.149434
897.095480	3173.192097
897.403473	3106.437138
897.711425	3067.282496
898.019336	3060.678584
898.327207	3030.343441
898.635038	2997.218019
898.942827	2983.566575
899.250576	2971.465285
899.558284	2941.765327
899.865952	2920.030392
900.173579	2902.862743
900.481165	2893.927298
900.788711	2881.261398
901.096216	2859.198789
901.403681	2846.941223
901.711105	2852.189064
902.018489	2849.996162
902.325832	2847.982221
902.633135	2860.718697
902.940397	2889.833881
903.247619	2973.098619
903.554800	3159.802792
903.861941	3498.424658
904.169041	3916.487547
904.476101	4215.579204
904.783121	4180.795243
905.090100	3938.787091
905.397039	3667.013446
905.703938	3420.062442
906.010796	3236.478743
906.317614	3127.385653
906.624391	3036.874256
906.931129	2964.705098
907.237826	2900.168246
907.544483	2855.291894
907.851099	2826.854746
908.157675	2802.647125
908.464211	2784.929990
908.770707	2770.993720
909.077163	2757.377563
909.383578	2746.168558
909.689954	2735.025087
909.996289	2731.035014
910.302584	2733.099366
910.608839	2734.773029
910.915054	2728.441340
911.221229	2721.519836
911.527363	2724.289950
911.833458	2728.648027
912.139513	2733.038872
912.445527	2737.001219
912.751502	2745.523290
913.057436	2755.537542
913.363331	2769.483894
913.669186	2789.588016
913.975000	2819.736636
914.280775	2880.888353
914.586510	2948.999383
914.892205	3028.221115
915.197859	3151.449601
915.503475	3341.725432
915.809050	3553.806774
916.114585	3699.561655
916.420081	3724.414544
916.725536	3662.491531
917.030952	3548.037174
917.336328	3421.123605
917.641665	3293.221970
917.946961	3190.536187
918.252218	3125.462452
918.557435	3047.110319
918.862612	2988.738798
919.167750	2937.140068
919.472848	2900.611868
919.777906	2875.509442
920.082925	2846.928620
920.387904	2816.951399
920.692843	2802.206024
920.997743	2788.534415
921.302603	2775.760131
921.607423	2766.154212
921.912204	2755.824888
922.216946	2743.259812
922.521647	2735.486353
922.826310	2724.852039
923.130932	2719.762994
923.435516	2713.378372
923.740059	2705.337732
924.044564	2696.674509
924.349028	2692.384487
924.653454	2685.974660
924.957840	2679.703465
925.262186	2671.153668
925.566493	2669.764830
925.870761	2665.328615
926.174989	2660.678150
926.479178	2656.990546
926.783328	2651.868734
927.087438	2650.938641
927.391509	2650.532828
927.695541	2646.562919
927.999533	2643.933958
928.303486	2639.974131
928.607400	2641.945222
928.911275	2640.329533
929.215110	2637.110756
929.518906	2638.761734
929.822663	2636.029428
930.126381	2637.519089
930.430060	2637.904738
930.733699	2637.224182
931.037299	2640.226189
931.340861	2641.408340
931.644383	2641.027732
931.947866	2640.226189
932.251309	2638.058493
932.554714	2636.667134
932.858080	2638.338277
933.161407	2633.352576
933.464694	2629.969962
933.767943	2630.423665
934.071153	2631.809983
934.374323	2630.169087
934.677455	2630.758902
934.980548	2631.237812
935.283602	2628.291257
935.586617	2629.299488
935.889593	2629.007101
936.192530	2630.733696
936.495428	2630.363172
936.798287	2631.472225
937.101108	2635.016157
937.403890	2639.679224
937.706632	2643.414719
938.009336	2648.405461
938.312002	2658.112203
938.614628	2665.777277
938.917216	2673.316323
939.219765	2673.500325
939.522275	2674.349759
939.824747	2668.517144
940.127179	2667.866836
940.429573	2664.259890
940.731929	2663.564211
941.034246	2659.458191
941.336524	2655.969712
941.638763	2654.109527
941.940964	2652.209012
942.243126	2649.164155
942.545250	2648.846562
942.847335	2645.716006
943.149381	2643.530665
943.451389	2638.670993
943.753359	2638.199645
944.055290	2635.611013
944.357182	2634.935498
944.659036	2633.624798
944.960851	2631.131947
945.262628	2631.855353
945.564367	2630.143881
945.866067	2632.336783
946.167729	2631.681433
946.469352	2629.848974
946.770937	2633.370220
947.072484	2629.428037
947.373992	2628.525671
947.675462	2628.049282
947.976893	2623.413941
948.278286	2623.746657
948.579641	2624.706997
948.880958	2619.590226
949.182236	2621.732716
949.483476	2619.736419
949.784678	2621.684825
950.085841	2620.479989
950.386967	2622.519136
950.688054	2623.008128
950.989103	2622.403190
951.290114	2624.558283
951.591087	2628.686988
951.892021	2630.307719
952.192917	2631.550363
952.493776	2631.462143
952.794596	2635.537916
953.095378	2636.979686
953.396122	2634.123872
953.696828	2633.362658
953.997496	2630.431227
954.298126	2628.893675
954.598718	2627.676237
954.899272	2623.204733
955.199788	2619.847325
955.500266	2619.421347
955.800706	2616.371449
956.101108	2612.774586
956.401472	2612.323402
956.701798	2610.306941
957.002087	2606.150510
957.302337	2608.219903
957.602550	2607.695623
957.902724	2605.079264
958.202861	2601.157247
958.502960	2603.972731
958.803022	2603.564398
959.103045	2602.755292
959.403031	2599.806217
959.702979	2598.689602
960.002889	2597.842688
960.302762	2602.936774
960.602596	2599.007195
960.902393	2598.772781
961.202153	2597.520054
961.501875	2597.547781
961.801559	2595.042327
962.101205	2599.463419
962.400814	2599.145826
962.700385	2598.724890
962.999918	2594.863366
963.299414	2594.817996
963.598873	2595.790938
963.898293	2591.324476
964.197677	2596.673140
964.497022	2594.417224
964.796331	2593.885382
965.095601	2593.696339
965.394835	2596.630291
965.694030	2593.729107
965.993189	2594.790269
966.292309	2595.634663
966.591393	2595.496031
966.890439	2593.945876
967.189447	2593.290526
967.488419	2595.732965
967.787353	2592.194075
968.086249	2594.734817
968.385108	2596.204313
968.683930	2594.356730
968.982714	2595.266658
969.281462	2595.072574
969.580172	2593.514857
969.878844	2594.492841
970.177480	2595.478387
970.476078	2595.306988
970.774639	2595.251535
971.073162	2595.979982
971.371649	2595.342276
971.670098	2596.650455
971.968510	2595.301947
972.266885	2592.695670
972.565223	2596.325301
972.863524	2595.193562
973.161788	2596.050558
973.460014	2595.107862
973.758204	2594.278592
974.056356	2594.858325
974.354471	2595.375043
974.652550	2594.613829
974.950591	2596.801690
975.248595	2598.649273
975.546563	2595.122986
975.844493	2593.005701
976.142386	2592.700711
976.440243	2594.785228
976.738062	2593.005701
977.035845	2593.585434
977.333590	2592.118458
977.631299	2591.906729
977.928971	2590.795155
978.226606	2588.917325
978.524204	2591.382449
978.821765	2588.723241
979.119290	2593.494693
979.416777	2589.592840
979.714228	2594.245825
980.011642	2591.125351
980.309020	2591.876482
980.606360	2592.415886
980.903664	2594.465115
981.200931	2591.508478
981.498162	2594.134919
981.795356	2592.894796
982.092513	2596.693305
982.389633	2597.651124
982.686717	2600.907710
982.983764	2607.143617
983.280775	2609.457507
983.577749	2609.807867
983.874686	2609.351642
984.171587	2607.975407
984.468451	2603.032556
984.765279	2603.075406
985.062070	2602.727566
985.358824	2596.879828
985.655543	2594.959148
985.952224	2596.572317
986.248869	2594.881010
986.545478	2594.772625
986.842050	2592.110896
987.138586	2590.618715
987.435086	2593.565269
987.731549	2587.987232
988.027975	2590.517892
988.324366	2588.982860
988.620719	2588.720720
988.917037	2586.981522
989.213318	2591.649631
989.509563	2590.734661
989.805772	2590.129723
990.101944	2589.683581
990.398080	2589.116451
990.694180	2587.740216
990.990244	2591.879003
991.286271	2589.247521
991.582262	2590.679208
991.878217	2588.599733
992.174136	2590.553180
992.470019	2588.350195
992.765865	2584.985225
993.061676	2582.855338
993.357450	2590.719538
993.653188	2583.845924
993.948890	2587.667119
994.244556	2591.158118
994.540186	2589.877665
994.835780	2590.054105
995.131337	2591.190886
995.426859	2589.411358
995.722345	2592.902357
996.017795	2593.257759
996.313208	2594.386977
996.608586	2592.388160
996.903928	2593.003180
997.199234	2592.519230
997.494504	2594.013932
997.789738	2592.448653
998.084936	2592.468818
998.380099	2590.238108
998.675225	2592.488983
998.970316	2591.364805
999.265371	2587.750298
999.560390	2590.890937
999.855373	2592.655341
1000.150320	2590.810278
1000.445232	2587.561255
1000.740108	2587.049578
1001.034948	2587.243662
1001.329752	2587.818354
1001.624521	2586.185020
1001.919254	2586.144691
1002.213951	2587.911615
1002.508613	2584.952458
1002.803239	2585.053281
1003.097829	2586.958837
1003.392384	2585.701069
1003.686903	2584.556727
1003.981386	2589.270206
1004.275834	2588.965216
1004.570246	2587.735175
1004.864623	2584.448342
1005.158964	2588.168714
1005.453270	2585.481779
1005.747540	2586.260637
1006.041775	2586.449680
1006.335974	2587.079825
1006.630138	2586.449680
1006.924266	2587.974629
1007.218359	2586.409351
1007.512416	2582.308373
1007.806438	2581.499267
1008.100425	2583.503126
1008.394376	2580.748135
1008.688292	2586.704259
1008.982172	2586.129567
1009.276017	2586.386666
1009.569827	2583.046902
1009.863602	2587.495720
1010.157341	2585.393559
1010.451045	2585.569999
1010.744714	2586.724423
1011.038347	2587.641913
1011.331945	2587.556214
1011.625508	2587.483117
1011.919036	2585.990935
1012.212528	2583.901377
1012.505986	2587.190730
1012.799408	2586.802561
1013.092795	2584.813826
1013.386147	2585.398600
1013.679464	2584.881882
1013.972745	2586.865576
1014.265992	2584.874320
1014.559204	2587.803230
1014.852380	2584.975143
1015.145521	2586.875658
1015.438628	2586.963878
1015.731699	2582.908270
1016.024736	2586.109402
1016.317737	2582.457087
1016.610703	2584.221490
1016.903635	2583.760225
1017.196531	2584.281984
1017.489393	2586.535380
1017.782219	2586.182499
1018.075011	2585.630493
1018.367768	2585.136460
1018.660490	2583.989597
1018.953177	2583.989597
1019.245829	2583.989597
