Dividing Wavelength (nm)	Counts (n)	Blue Motor Position (mm): 46.800000	Red Motor Position (mm): 0.000000	
326.493990	2274.326640
326.888308	2274.326640
327.282561	2274.326640
327.676750	2234.534292
328.070874	2229.195710
328.464933	2232.016236
328.858929	2236.094529
329.252859	2241.730539
329.646726	2250.648340
330.040528	2260.677716
330.434265	2274.054418
330.827938	2293.840947
331.221547	2311.694193
331.615091	2326.865545
332.008571	2344.970849
332.401986	2366.052955
332.795338	2385.834443
333.188625	2406.417474
333.581847	2424.636204
333.975006	2443.417022
334.368100	2465.209930
334.761129	2480.860193
335.154095	2498.536998
335.546996	2523.984743
335.939833	2560.938921
336.332606	2577.151272
336.725315	2591.841194
337.117960	2607.350304
337.510540	2617.223404
337.903056	2627.366206
338.295508	2637.874491
338.687896	2644.581746
339.080220	2651.420071
339.472480	2659.853922
339.864676	2661.310815
340.256807	2667.904644
340.648875	2673.230623
341.040879	2675.557116
341.432818	2679.607683
341.824694	2680.366377
342.216506	2681.046932
342.608253	2681.457786
342.999937	2682.435770
343.391557	2682.095492
343.783113	2680.336130
344.174605	2678.581808
344.566033	2677.805470
344.957397	2678.912004
345.348697	2675.433607
345.739934	2676.083916
346.131106	2672.613082
346.522215	2670.072340
346.913260	2672.608041
347.304241	2668.927998
347.695159	2668.557474
348.086012	2665.772236
348.476802	2661.777122
348.867528	2660.539518
349.258191	2657.628252
349.648789	2656.254538
350.039324	2654.543066
350.429796	2659.574137
350.820203	2654.696821
351.210548	2655.377377
351.600828	2652.889567
351.991045	2652.186327
352.381198	2653.544917
352.771288	2651.034423
353.161314	2650.920997
353.551276	2651.089876
353.941175	2649.421254
354.331010	2648.513846
354.720782	2649.890081
355.110490	2650.021151
355.500135	2651.599032
355.889717	2649.408651
356.279235	2647.929072
356.668689	2649.499392
357.058080	2653.408806
357.447408	2649.779176
357.836672	2649.562406
358.225873	2651.261275
358.615010	2650.686583
359.004084	2655.568941
359.393095	2653.799496
359.782043	2655.521050
360.170927	2653.340751
360.559748	2657.630773
360.948505	2658.596154
361.337199	2660.121103
361.725830	2657.550114
362.114398	2658.976761
362.502903	2660.116062
362.891344	2655.687408
363.279722	2662.369457
363.668037	2661.250321
364.056289	2660.232008
364.444478	2662.704694
364.832603	2662.908861
365.220665	2662.195537
365.608665	2664.897596
365.996601	2665.590755
366.384474	2663.128151
366.772284	2664.965652
367.160031	2667.279541
367.547715	2666.929181
367.935336	2666.989675
368.322893	2666.871208
368.710388	2663.765857
369.097820	2663.599499
369.485189	2664.784170
369.872495	2671.156188
370.259738	2671.478822
370.646918	2670.735252
371.034035	2671.650222
371.421090	2675.095850
371.808081	2675.108453
372.195010	2679.942920
372.581875	2681.730009
372.968678	2685.606656
373.355418	2691.406503
373.742096	2700.336907
374.128710	2709.080789
374.515262	2717.832232
374.901751	2734.165570
375.288177	2746.428177
375.674540	2765.496342
376.060841	2783.241203
376.447079	2804.955973
376.833254	2829.287102
377.219367	2848.577077
377.605417	2878.082951
377.991404	2904.707805
378.377329	2940.268104
378.763191	2961.400621
379.148991	3006.420646
379.534727	3043.248795
379.920402	3081.382603
380.306013	3104.420676
380.691563	3168.889472
381.077049	3198.798638
381.462474	3240.360431
381.847835	3297.963175
382.233134	3340.747448
382.618371	3374.722304
383.003545	3443.531534
383.388657	3471.104125
383.773706	3532.505379
384.158693	3568.652972
384.543618	3598.315122
384.928480	3661.329545
385.313280	3719.625448
385.698017	3744.894231
386.082692	3838.440403
386.467305	3839.322605
386.851856	3878.852812
387.236344	3961.431954
387.620770	3985.604286
388.005133	4038.851474
388.389435	4085.862754
388.773674	4099.688118
389.157851	4173.026825
389.541965	4242.133482
389.926018	4207.770457
390.310008	4309.989933
390.693936	4361.762583
391.077802	4396.133170
391.461606	4394.484713
391.845348	4459.694559
392.229027	4518.043394
392.612645	4521.224362
392.996200	4624.232779
393.379694	4681.071789
393.763125	4787.790495
394.146494	4810.836130
394.529801	4869.396693
394.913047	4958.539417
395.296230	4904.770470
395.679351	5010.843909
396.062410	5064.305345
396.445408	5037.909864
396.828343	5093.778451
397.211217	5147.731400
397.594028	5035.996746
397.976778	5150.834230
398.359466	5197.948854
398.742092	5222.106063
399.124656	5142.322242
399.507158	5257.525210
399.889598	5325.243030
400.271977	5441.812151
400.654294	5442.510351
401.036549	5488.505838
401.418742	5405.024331
401.800874	5610.484117
402.182944	5674.640362
402.564952	5778.982164
402.946898	5841.142112
403.328783	5669.523591
403.710606	5695.825811
404.092367	6014.467063
404.474067	6039.037647
404.855705	5938.300270
405.237282	5871.827615
405.618797	6128.041739
406.000250	6103.085507
406.381642	6311.569986
406.762972	6330.285269
407.144240	6391.920937
407.525447	6376.442074
407.906593	6389.102932
408.287677	6555.395474
408.668700	6468.032278
409.049661	6582.355565
409.430560	6608.327589
409.811399	6469.970601
410.192176	6735.079841
410.572891	6752.136585
410.953545	6946.316790
411.334138	6678.586150
411.714669	6849.682912
412.095139	6643.295553
412.475547	6889.558439
412.855894	6959.975796
413.236180	7144.721482
413.616405	6806.318907
413.996568	7021.306474
414.376670	7071.891932
414.756711	6970.486602
415.136691	7063.702578
415.516609	7275.284846
415.896466	7250.895744
416.276262	7460.814431
416.655997	7450.659027
417.035670	7614.867051
417.415283	7964.428221
417.794834	8031.571349
418.174324	7884.896457
418.553753	7811.250241
418.933121	8102.913758
419.312428	8212.722692
419.691674	7983.607291
420.070859	8460.558418
420.449983	8144.213411
420.829045	8510.027260
421.208047	8279.840614
421.586988	8596.026824
421.965867	8620.247048
422.344686	8704.807363
422.723444	8782.345350
423.102141	8113.759801
423.480777	8882.719764
423.859352	8410.366169
424.237866	9025.122278
424.616319	8887.841577
424.994712	9324.660078
425.373044	8856.581382
425.751314	9343.453499
426.129524	9229.974606
426.507673	9305.218868
426.885762	9464.718455
427.263789	9381.012616
427.641756	9327.727620
428.019662	9409.626205
428.397508	9679.398512
428.775292	9334.664248
429.153016	9718.343946
429.530679	9558.070542
429.908282	9568.059588
430.285824	9295.388618
430.663305	9981.905552
431.040726	9437.092932
431.418086	9410.858768
431.795385	9747.181867
432.172624	9848.002423
432.549802	9745.722453
432.926920	9824.276233
433.303977	9703.570845
433.680974	9892.528415
434.057910	10002.407924
434.434786	10074.153626
434.811601	9883.172033
435.188355	10461.856165
435.565050	10207.187155
435.941683	10120.580132
436.318257	10599.703997
436.694770	10772.174473
437.071222	10820.317492
437.447614	10649.646708
437.823946	10575.193907
438.200218	10663.930817
438.576429	10511.110759
438.952580	10754.449776
439.328670	10779.118662
439.704700	10580.799670
440.080670	10571.760881
440.456580	11086.520662
440.832429	10880.826462
441.208218	10480.856274
441.583947	10774.732858
441.959616	10956.748759
442.335224	10773.210430
442.710773	10876.508713
443.086261	11107.159146
443.461689	10369.529953
443.837057	11060.833463
444.212365	11293.671756
444.587612	10930.600294
444.962800	11147.715228
445.337927	10881.950639
445.712995	10565.315766
446.088002	11600.065525
446.462949	11294.367435
446.837837	11258.474420
447.212664	11180.817965
447.587431	11776.667226
447.962139	12536.936241
448.336786	14828.985057
448.711374	15323.103834
449.085901	13127.081436
449.460369	12786.470836
449.834776	12224.926626
450.209124	13166.094926
450.583412	13580.024068
450.957640	14509.968239
451.331808	13543.732802
451.705917	12628.307154
452.079965	11856.158661
452.453954	12773.961212
452.827883	12434.399172
453.201752	12719.483983
453.575562	12279.267744
453.949311	12688.117924
454.323001	12678.761542
454.696632	12914.548911
455.070202	13191.116693
455.443713	13377.790620
455.817164	13876.766548
456.190556	13841.349922
456.563888	14198.641701
456.937160	14345.813146
457.310373	13710.191702
457.683526	13823.756295
458.056619	13334.996265
458.429653	13555.818968
458.802628	12906.346953
459.175542	13317.652175
459.548398	14279.315286
459.921194	14642.966480
460.293930	14714.629003
460.666607	15546.926023
461.039224	16607.425996
461.411782	17342.857246
461.784280	17113.784694
462.156719	17230.227786
462.529099	16893.929893
462.901419	15859.122160
463.273680	15616.700634
463.645882	15526.025399
464.018024	15245.298665
464.390106	15466.083560
464.762130	16173.251580
465.134094	16984.395919
465.505999	19048.612308
465.877845	22320.394251
466.249631	25120.034327
466.621358	24729.962446
466.993026	23309.130878
467.364634	22723.805026
467.736184	21255.233731
468.107674	20455.457194
468.479105	20586.507029
468.850477	20044.023423
469.221790	19648.474327
469.593043	18956.737279
469.964238	18372.805306
470.335373	18016.708280
470.706449	18534.742291
471.077467	18118.637890
471.448425	20000.596403
471.819324	24141.805985
472.190164	25948.787417
472.560945	22260.916197
472.931667	19981.472786
473.302330	19378.956599
473.672934	19028.861067
474.043479	19240.607173
474.413965	19033.418270
474.784393	18632.190315
475.154761	19410.831815
475.525070	19319.750768
475.895321	19046.147184
476.265513	19657.084618
476.635645	20245.969525
477.005719	19995.154477
477.375734	20184.280926
477.745691	20677.300731
478.115588	21217.384748
478.485427	21783.748300
478.855207	22886.067165
479.224928	24678.567882
479.594591	26895.697591
479.964194	26797.266541
480.333739	27040.650928
480.703226	26625.637938
481.072653	26335.698495
481.442022	26974.783212
481.811333	27900.966682
482.180584	27761.737574
482.549777	26811.056618
482.918912	26497.002815
483.287988	26634.941387
483.657005	26251.692707
484.025964	26059.355044
484.394864	25914.920945
484.763706	25552.940893
485.132489	25038.196236
485.501213	25211.740477
485.869879	25128.211079
486.238487	24969.477747
486.607036	25106.145948
486.975527	24854.219326
487.343959	25138.673994
487.712333	25045.710076
488.080648	24702.893970
488.448905	25232.406688
488.817104	24989.443237
489.185244	25694.846853
489.553326	25634.645394
489.921350	26692.181169
490.289315	29053.170284
490.657222	30750.937638
491.025070	31263.736411
491.392861	31004.721926
491.760593	30154.405301
492.128267	29236.932945
492.495883	28159.217432
492.863440	27298.163149
493.230939	26435.178104
493.598380	26284.591277
493.965763	25899.464767
494.333088	25390.212447
494.700354	25365.228489
495.067563	25201.534662
495.434713	24965.144875
495.801805	25142.434694
496.168839	24908.779734
496.535815	24782.637462
496.902733	25007.498129
497.269593	24700.887591
497.636395	24863.913465
498.003139	24780.666371
498.369825	24529.032136
498.736453	24749.449026
499.103023	24613.327790
499.469535	24619.820796
499.835989	24838.190977
500.202385	24855.517423
500.568723	24400.339040
500.935003	24572.640637
501.301226	24279.525267
501.667390	25112.339006
502.033497	25318.560007
502.399546	25048.202926
502.765537	24586.400466
503.131470	24965.616223
503.497345	25113.281702
503.863163	24349.867007
504.228923	24888.700818
504.594625	25150.460211
504.960269	24707.894795
505.325856	25188.266345
505.691385	24578.173303
506.056856	25185.811303
506.422270	25172.747152
506.787625	24697.061355
507.152924	25126.827282
507.518164	25168.482336
507.883347	24985.155736
508.248472	24653.704911
508.613540	25429.999754
508.978550	25232.459620
509.343503	25250.534677
509.708398	25442.413595
510.073236	25614.647137
510.438016	25834.973286
510.802738	25477.502547
511.167403	25746.788382
511.532010	25489.755071
511.896561	26228.677319
512.261053	26200.376282
512.625488	26026.988316
512.989866	25929.341166
513.354186	25750.344916
513.718449	25878.153290
514.082655	26260.983554
514.446803	25961.864170
514.810894	26465.611550
515.174927	25957.160773
515.538904	26000.335735
515.902822	26505.260225
516.266684	26233.438689
516.630488	26143.658260
516.994235	26091.373933
517.357925	26444.226976
517.721558	26576.481647
518.085133	26715.935086
518.448651	26585.424654
518.812112	26367.883742
519.175516	26597.588958
519.538863	26738.481646
519.902152	26529.558587
520.265385	26776.814580
520.628560	26587.168893
520.991678	26571.536275
521.354739	26618.237524
521.717743	26716.860137
522.080690	26479.472203
522.443580	26814.051063
522.806413	26787.312783
523.169189	26914.480930
523.531908	26949.330426
523.894569	26586.228718
524.257174	26683.026433
524.619722	26818.774624
524.982213	26530.460953
525.344647	26545.584415
525.707025	26726.332465
526.069345	26662.498855
526.431608	26651.299932
526.793815	26804.046893
527.155964	26323.377915
527.518057	26488.805899
527.880093	26394.750571
528.242072	26625.950489
528.603995	26346.983118
528.965860	26124.887523
529.327669	26171.253536
529.689421	26159.825240
530.051117	26003.413360
530.412755	26177.925503
530.774337	25956.873428
531.135862	25863.949839
531.497331	26034.192125
531.858743	25629.702543
532.220098	26078.614772
532.581396	25777.022702
532.942638	25672.350704
533.303824	25795.543902
533.664953	25779.596211
534.026025	25446.050788
534.387040	25700.611413
534.747999	25741.371662
535.108902	25905.614975
535.469748	25402.442286
535.830537	25548.618104
536.191270	25711.913680
536.551947	25514.701221
536.912567	25149.565407
537.273131	25593.171822
537.633638	25250.287660
537.994089	25479.077907
538.354483	24961.487518
538.714821	25479.448432
539.075103	25518.744226
539.435328	25284.638083
539.795497	24896.166767
540.155609	25225.477622
540.515665	25562.158643
540.875665	24765.802529
541.235609	25115.557783
541.595496	25027.400605
541.955328	25403.616875
542.315102	25327.651728
542.674821	24819.926877
543.034483	24715.998449
543.394090	24880.549273
543.753640	24692.741086
544.113134	25328.617109
544.472571	24908.086576
544.831953	25218.724996
545.191278	24871.628951
545.550548	24737.587191
545.909761	24955.155829
546.268918	25197.247160
546.628019	25169.825804
546.987064	24843.998387
547.346053	24579.549538
547.704986	24671.669063
548.063863	24832.358362
548.422684	24870.144331
548.781449	24364.057855
549.140158	24778.987667
549.498811	24349.567059
549.857408	24119.781184
550.215949	24503.176057
550.574434	24203.381159
550.932864	24393.961980
551.291237	24596.266004
551.649555	24420.576752
552.007817	24480.440454
552.366022	24334.539379
552.724173	24358.099212
553.082267	24325.692154
553.440305	24826.137579
553.798288	24039.727661
554.156215	24533.627147
554.514086	24668.296531
554.871902	24074.171345
555.229661	24328.255581
555.587365	24188.237533
555.945014	24098.883081
556.302606	24288.332163
556.660143	24298.603514
557.017625	24525.425190
557.375050	24043.377456
557.732421	24415.389404
558.089735	24255.718418
558.446994	24299.150479
558.804197	24347.137223
559.161345	24222.603078
559.518437	24039.092476
559.875474	24189.722153
560.232455	24370.238310
560.589381	24173.948382
560.946251	24192.890518
561.303065	24488.886907
561.659825	24577.028961
562.016528	24186.596637
562.373177	23919.667541
562.729770	24280.099959
563.086307	24121.946360
563.442789	24298.074193
563.799216	24157.239478
564.155587	24144.402179
564.511904	24118.624239
564.868164	24094.472071
565.224370	24046.187900
565.580520	23986.175484
565.936615	24098.807463
566.292654	23818.756244
566.648638	24031.790364
567.004567	23873.351940
567.360441	23814.456140
567.716260	23526.903683
568.072023	23844.556869
568.427732	23621.460606
568.783385	23391.072313
569.138982	23644.090345
569.494525	23670.556403
569.850013	23436.876237
570.205445	23532.295197
570.560823	23354.546633
570.916145	23125.973156
571.271412	23318.782167
571.626625	23071.085073
571.981782	23162.168641
572.336884	22964.779741
572.691931	23117.728349
573.046923	22855.681610
573.401860	22732.485893
573.756743	22768.457046
574.111570	22646.572028
574.466342	22579.955701
574.821059	22647.091267
575.175722	22362.719778
575.530330	22313.906286
575.884882	22326.695693
576.239380	22236.201940
576.593823	22137.740644
576.948211	22106.140171
577.302544	21965.572637
577.656823	21826.512408
578.011047	21939.245211
578.365216	21802.067853
578.719330	21679.325840
579.073389	21561.584650
579.427394	21735.733831
579.781344	21465.878345
580.135239	21359.865400
580.489080	21303.404477
580.842866	21079.942730
581.196597	21306.328346
581.550273	21247.626630
581.903895	21133.144547
582.257463	21445.507042
582.610975	20977.284673
582.964434	21320.622538
583.317837	20968.545832
583.671186	21066.331614
584.024481	21053.345602
584.377721	20819.604942
584.730906	20915.681773
585.084037	20887.169007
585.437113	20825.654327
585.790135	21024.008607
586.143103	20470.744493
586.496016	20502.902013
586.848874	20730.734441
587.201679	20640.573404
587.554428	20345.804536
587.907124	20681.336174
588.259765	20433.349214
588.612352	20506.818990
588.964884	20072.977290
589.317362	20248.543034
589.669786	20310.075358
590.022155	20297.195210
590.374470	20549.068900
590.726731	20298.127824
591.078937	20101.542988
591.431090	20171.955305
591.783188	19955.402459
592.135232	19907.708102
592.487222	20007.129738
592.839157	20007.286014
593.191038	19898.119828
593.542866	19781.429719
593.894639	19483.066508
594.246358	19695.467964
594.598022	19582.765408
594.949633	19342.960240
595.301190	19340.008644
595.652692	19498.305916
596.004141	19710.717454
596.355535	19044.980157
596.706876	19078.395445
597.058162	18963.512590
597.409395	19215.857628
597.760573	19250.344161
598.111698	19027.056334
598.462768	18972.332088
598.813785	18951.174366
599.164748	18745.475124
599.515657	18801.953691
599.866511	18604.285008
600.217312	18957.501014
600.568060	18450.970917
600.918753	18772.596532
601.269392	18677.028858
601.619978	18471.493454
601.970510	18658.270724
602.320988	18606.059494
602.671412	18810.498447
603.021783	18739.856758
603.372100	18437.959698
603.722363	18603.818701
604.072572	18544.398621
604.422728	18694.708184
604.772830	18440.177806
605.122878	18410.119926
605.472872	18387.754847
605.822813	18369.415130
606.172701	18354.112707
606.522534	18522.310805
606.872314	18553.818017
607.222041	18408.032889
607.571714	18615.103324
607.921333	18436.659081
608.270899	18521.257204
608.620411	18660.428338
608.969870	18469.681159
609.319276	18455.921330
609.668627	18484.537439
610.017926	18618.488459
610.367171	18727.490808
610.716362	18789.247463
611.065500	18602.737374
611.414585	18746.848839
611.763616	18732.340398
612.112594	18655.271238
612.461518	18637.584350
612.810389	18832.553495
613.159207	18687.791721
613.507971	18606.016644
613.856682	18850.376495
614.205340	18758.312423
614.553945	18917.970806
614.902496	18669.515018
615.250994	18872.008086
615.599439	18830.315223
615.947830	18807.647675
616.296169	18890.171363
616.644454	18841.138580
616.992686	18828.036621
617.340864	19045.086021
617.688990	18784.642369
618.037063	18960.649214
618.385082	18825.228699
618.733048	19083.678574
619.080961	18987.813472
619.428821	19015.033182
619.776628	18890.529285
620.124382	18801.252971
620.472083	18879.035454
620.819731	18873.661584
621.167326	18565.813442
621.514868	18611.009907
621.862357	18401.078617
622.209793	18390.459426
622.557176	18221.951297
622.904506	18061.110763
623.251783	18002.585488
623.599007	17732.883757
623.946179	17679.366868
624.293297	17611.558307
624.640363	17334.998087
624.987376	17363.614197
625.334336	17171.001790
625.681243	17020.644336
626.028097	17030.829987
626.374899	16943.403777
626.721647	16811.877552
627.068343	16654.535579
627.414987	16588.509066
627.761577	16540.708846
628.108115	16573.652786
628.454600	16312.725183
628.801032	16406.563742
629.147412	16352.189856
629.493739	16350.498549
629.840014	16161.503171
630.186236	16269.303205
630.532405	16028.220104
630.878521	16222.233951
631.224585	16132.645086
631.570597	15949.194977
631.916556	15983.784854
632.262462	15948.524503
632.608316	15868.816299
632.954117	15816.312682
633.299866	15800.980013
633.645562	15718.879781
633.991206	15488.315048
634.336797	15359.974833
634.682336	15337.062789
635.027823	15190.128277
635.373257	15052.371187
635.718639	14978.646832
636.063968	14915.410599
636.409245	14668.739379
636.754470	14702.676427
637.099642	14555.031113
637.444762	14326.631556
637.789829	14366.557494
638.134845	14204.532289
638.479808	14233.713008
638.824719	14140.953257
639.169577	14012.865099
639.514383	14047.530594
639.859137	13874.946692
640.203839	13974.766579
640.548489	13828.409280
640.893086	13808.804233
641.237632	13687.057847
641.582125	13854.915667
641.926566	13657.776305
642.270955	13674.044108
642.615292	13631.287562
642.959576	13643.628306
643.303809	13666.310978
643.647990	13598.804887
643.992118	13663.210668
644.336195	13433.800360
644.680219	13664.690247
645.024192	13568.063931
645.368112	13810.382114
645.711981	13849.735881
646.055797	14034.743707
646.399562	14022.203837
646.743274	14280.356284
647.086935	14537.495459
647.430544	14511.157951
647.774101	14549.876533
648.117606	14685.735629
648.461059	14667.960521
648.804460	14651.785979
649.147810	14376.307086
649.491108	14292.306339
649.834354	14311.097240
650.177548	13976.712464
650.520690	13784.896561
650.863781	13719.782497
651.206820	13766.244291
651.549807	13595.888579
651.892742	13370.327192
652.235626	13315.333244
652.578458	13329.687930
652.921238	13028.582331
653.263967	13219.367319
653.606644	13057.243812
653.949269	13041.109599
654.291843	12826.333760
654.634365	12995.346004
654.976836	12838.490502
655.319255	12831.647136
655.661622	12802.831900
656.003938	12728.406826
656.346203	12650.384887
656.688416	12743.263106
657.030577	12675.469669
657.372687	12587.047831
657.714746	12582.485586
658.056753	12767.621961
658.398708	12570.875809
658.740612	12573.807240
659.082465	12694.799973
659.424266	12657.150116
659.766016	12685.156246
660.107715	12600.371600
660.449362	12678.103672
660.790958	12624.241464
661.132503	12558.119169
661.473996	12652.192141
661.815438	12649.157367
662.156829	12680.198271
662.498168	12658.402843
662.839456	12657.586176
663.180693	12656.741783
663.521879	12761.186928
663.863013	12732.137279
664.204097	12714.342006
664.545129	12844.683560
664.886110	12817.904950
665.227040	12907.314855
665.567918	12903.226479
665.908746	12921.656938
666.249522	12917.455136
666.590248	12971.511429
666.930922	13090.575921
667.271545	13047.247203
667.612118	13139.437304
667.952639	13037.535421
668.293109	13074.557654
668.633528	13005.992921
668.973896	12986.561793
669.314213	13052.905899
669.654480	12796.406950
669.994695	12886.631001
670.334859	12910.929362
670.674973	12847.854445
671.015035	12877.239331
671.355047	12829.552536
671.695008	12804.762662
672.034918	12810.675936
672.374777	12852.061288
672.714585	12766.270932
673.054342	12806.839618
673.394049	12764.519131
673.733705	12858.700488
674.073310	12749.751071
674.412864	12765.648350
674.752368	12609.596912
675.091820	12668.535562
675.431223	12634.091878
675.770574	12502.119512
676.109875	12423.706884
676.449125	12378.207950
676.788324	12329.568377
677.127473	12158.385916
677.466571	12156.329125
677.805619	12038.434181
678.144616	11977.068215
678.483562	11956.684310
678.822458	11818.160964
679.161303	11798.225721
679.500098	11776.291660
679.838842	11735.291956
680.177535	11779.258379
680.516179	11843.530570
680.854771	11780.190993
681.193314	11994.160247
681.531805	12168.193481
681.870247	12609.034823
682.208638	13016.249148
682.546978	13311.769149
682.885268	13327.341273
683.223508	13048.683932
683.561697	12897.751786
683.899836	12801.450624
684.237925	12588.146802
684.575963	12504.854338
684.913951	12419.615988
685.251889	12381.222560
685.589776	12474.322589
685.927614	12396.227555
686.265401	12363.308820
686.603137	12428.296855
686.940824	12581.424423
687.278460	12705.676263
687.616046	12738.393351
687.953582	12888.778532
688.291068	12841.419412
688.628504	13061.969893
688.965889	13076.508581
689.303224	13023.631918
689.640510	12896.909913
689.977745	12577.940986
690.314930	12371.110006
690.652065	12282.352930
690.989150	11980.607105
691.326185	11756.910944
691.663170	11547.168698
692.000105	11319.784933
692.336990	11196.838752
692.673825	10926.912690
693.010610	10828.466517
693.347345	10617.448858
693.684030	10423.737481
694.020665	10360.559220
694.357251	10166.379015
694.693786	10087.502601
695.030272	9945.556312
695.366707	9825.657509
695.703093	9759.452035
696.039429	9750.272094
696.375716	9656.236931
696.711952	9534.354434
697.048139	9582.721784
697.384276	9539.675372
697.720363	9563.245287
698.056400	9489.659564
698.392388	9436.059496
698.728326	9401.474660
699.064214	9346.831072
699.400053	9385.254747
699.735842	9189.327782
700.071581	9159.879882
700.407270	9077.502387
700.742910	9002.467333
701.078501	8908.472499
701.414042	8774.029967
701.749533	8716.535607
702.084974	8578.309689
702.420366	8704.157054
702.755709	8576.389010
703.091002	8441.717105
703.426246	8477.542065
703.761440	8427.385105
704.096584	8385.788024
704.431679	8317.840832
704.766725	8300.290055
705.101721	8259.355885
705.436668	8313.686921
705.771565	8201.533851
706.106413	8280.422867
706.441212	8309.412023
706.775961	8278.713916
707.110661	8327.618150
707.445311	8455.229918
707.779913	8350.782252
708.114465	8477.859658
708.448967	8515.310390
708.783421	8683.997480
709.117825	8852.077111
709.452180	8885.237821
709.786485	8964.857804
710.120742	9254.719109
710.454949	9269.015822
710.789107	9375.578252
711.123216	9600.622922
711.457275	9773.831927
711.791286	9909.186908
712.125247	9918.568495
712.459159	9903.205578
712.793023	10129.860897
713.126837	9703.026400
713.460602	9864.272747
713.794318	9698.696049
714.127985	9722.591118
714.461602	9376.087409
714.795171	9336.073250
715.128691	9083.130835
715.462162	8842.088064
715.795584	8781.115308
716.128957	8614.444680
716.462281	8443.622661
716.795556	8491.458170
717.128782	8284.992673
717.461960	8034.011267
717.795088	8101.250177
718.128167	8006.852051
718.461198	7844.428595
718.794180	7788.880120
719.127113	7782.641693
719.459997	7608.961340
719.792833	7388.272227
720.125619	7461.489946
720.458357	7310.426729
720.791046	7306.108981
721.123686	7293.803525
721.456278	7133.867878
721.788821	7149.324055
722.121315	7051.306381
722.453761	7126.553163
722.786158	7053.325363
723.118506	7067.352373
723.450805	7033.165788
723.783056	7090.823986
724.115259	7011.592171
724.447412	7014.263982
724.779518	7070.714823
725.111574	7071.299597
725.443582	7142.417675
725.775542	7112.080011
726.107453	7310.399003
726.439315	7224.911116
726.771129	7300.220913
727.102895	7474.460834
727.434612	7574.908345
727.766281	7625.327446
728.097901	7694.189607
728.429473	7701.393416
728.760996	7693.841767
729.092471	7666.914444
729.423897	7603.983200
729.755276	7593.590862
730.086606	7510.442070
730.417887	7619.774615
730.749120	7840.355342
731.080305	8025.791666
731.411442	8130.962738
731.742530	8110.810726
732.073570	8221.486738
732.404562	8307.045201
732.735506	8175.710540
733.066401	8302.339284
733.397249	8220.022282
733.728048	7975.251578
734.058798	7639.646843
734.389501	7408.981287
734.720156	7241.657829
735.050762	7019.552152
735.381320	6936.950326
735.711831	6865.837289
736.042293	6763.448934
736.372707	6774.703310
736.703073	6645.072560
737.033391	6689.593510
737.363661	6693.175250
737.693883	6733.310396
738.024056	6810.659340
738.354182	6848.969589
738.684260	6884.048458
739.014290	7017.485279
739.344272	7116.130578
739.674207	7153.009139
740.004093	7228.505459
740.333931	7239.890905
740.663722	7242.315700
740.993464	7323.019532
741.323159	7296.412322
741.652806	7051.414765
741.982405	7093.437824
742.311956	7125.255066
742.641460	6937.930831
742.970915	6753.404435
743.300323	6743.579226
743.629683	6704.626231
743.958996	6562.727832
744.288260	6472.884388
744.617477	6419.579227
744.946647	6415.450522
745.275768	6256.250884
745.604842	6208.243976
745.933869	6192.298806
746.262847	6151.495707
746.591778	6135.195136
746.920662	6098.571153
747.249498	6095.644764
747.578286	6143.951620
747.907027	6220.438527
748.235720	6279.248628
748.564365	6254.967910
748.892963	6306.017155
749.221514	6428.189518
749.550017	6240.151959
749.878473	6131.568026
750.206881	6199.537903
750.535242	6148.045037
750.863555	6074.111475
751.191821	6082.827630
751.520039	6079.268575
751.848210	5988.406818
752.176334	6025.676069
752.504411	6059.572787
752.832440	5982.433051
753.160421	5913.989305
753.488356	5967.879240
753.816243	5988.394216
754.144082	5845.548080
754.471875	5819.412218
754.799620	5865.256471
755.127318	5876.334407
755.454969	5831.561399
755.782572	5797.321882
756.110129	5846.135375
756.437638	5812.369726
756.765100	5762.653867
757.092515	5772.630310
757.419882	5831.465617
757.747203	5799.565195
758.074477	5850.856415
758.401703	5836.610114
758.728882	5800.981760
759.056014	5873.145877
759.383099	5979.584799
759.710138	5993.211038
760.037129	5977.679243
760.364073	5980.497248
760.690970	6065.314662
761.017820	6038.815836
761.344623	6007.273337
761.671379	6117.903978
761.998088	6243.012814
762.324751	6512.228073
762.651366	7153.649365
762.977935	8532.319243
763.304456	10194.123005
763.630931	11041.109948
763.957359	10566.838194
764.283740	9601.512685
764.610074	8725.037513
764.936362	7723.541725
765.262602	7139.692931
765.588796	6608.990501
765.914943	6281.565038
766.241044	6108.852587
766.567097	5893.943157
766.893104	5631.528414
767.219064	5461.298731
767.544978	5402.171038
767.870845	5317.262883
768.196665	5211.401173
768.522438	5139.736130
768.848165	5103.296150
769.173846	5031.323596
769.499479	4990.190301
769.825066	4937.008649
770.150607	4878.755596
770.476101	4860.501577
770.801548	4851.863560
771.126949	4764.762504
771.452303	4711.878280
771.777611	4675.866797
772.102872	4696.303635
772.428087	4656.627234
772.753256	4616.913024
773.078378	4560.958737
773.403453	4495.726206
773.728482	4482.014267
774.053465	4437.405097
774.378401	4426.906894
774.703291	4418.785595
775.028135	4340.882124
775.352932	4305.702432
775.677683	4285.462199
776.002388	4301.525836
776.327046	4310.612516
776.651658	4236.283223
776.976224	4174.881969
777.300743	4177.566384
777.625216	4202.109241
777.949643	4187.515101
778.274024	4149.719050
778.598359	4116.671766
778.922647	4140.536588
779.246889	4126.547386
779.571086	4116.409626
779.895236	4102.755661
780.219339	4089.293259
780.543397	4089.517591
780.867409	4142.863081
781.191374	4157.348836
781.515294	4086.926438
781.839167	4081.577773
782.162995	4107.320425
782.486776	4093.411882
782.810511	4106.675158
783.134201	4093.603446
783.457844	4043.605282
783.781441	3991.446984
784.104993	3997.352695
784.428498	4015.016898
784.751958	4008.508769
785.075372	3989.422960
785.398739	3956.796613
785.722061	3966.561328
786.045337	4015.178215
786.368568	4035.819220
786.691752	3952.173875
787.014891	4012.513966
787.337983	4148.249553
787.661030	4312.608813
787.984031	4467.773008
788.306987	4632.427175
788.629897	4717.289958
788.952760	4674.394780
789.275579	4608.849698
789.598351	4536.178945
789.921078	4380.240933
790.243759	4184.712219
790.566395	4174.529088
790.888984	4166.662368
791.211529	4058.804361
791.534027	3997.640041
791.856480	3979.262515
792.178888	3922.315120
792.501249	3882.878174
792.823566	3891.715317
793.145836	3911.169129
793.468062	3859.207436
793.790241	3816.728153
794.112375	3851.030684
794.434464	3919.983587
794.756507	3941.070733
795.078505	3910.092843
795.400457	3957.562868
795.722364	4105.412349
796.044226	4206.394222
796.366042	4278.971714
796.687812	4244.966611
797.009538	4250.582456
797.331218	4216.416036
797.652852	4193.057849
797.974442	4168.530115
798.295986	4161.830422
798.617484	4077.038214
798.938938	4001.405783
799.260346	4041.034293
799.581709	4034.006925
799.903026	3951.460551
800.224299	3922.052980
800.545526	3914.014861
800.866708	3874.293089
801.187845	3818.822752
801.508936	3853.836087
801.829983	3840.383767
802.150984	3766.039351
802.471940	3763.596912
802.792851	3766.977006
803.113717	3768.249897
803.434538	3765.953652
803.755314	3707.642625
804.076045	3690.227959
804.396731	3708.272769
804.717372	3730.968044
805.037967	3717.056980
805.358518	3708.489539
805.679024	3736.243611
805.999485	3750.588215
806.319901	3755.331940
806.640272	3764.300153
806.960598	3778.004530
807.280879	3753.935541
807.601115	3769.545474
807.921306	3785.934265
808.241453	3827.201150
808.561554	3793.526243
808.881611	3733.753281
809.201623	3772.156791
809.521590	3775.403294
809.841513	3752.506374
810.161390	3782.405457
810.481223	3754.386724
810.801011	3706.215978
811.120755	3705.313612
811.440453	3736.916605
811.760107	3733.775967
812.079716	3685.779141
812.399281	3663.104031
812.718801	3688.539173
813.038276	3661.029596
813.357707	3655.597753
813.677093	3671.505114
813.996434	3617.232051
814.315731	3631.037251
814.634983	3636.973210
814.954191	3652.487361
815.273354	3677.851926
815.592473	3666.854649
815.911547	3683.732432
816.230577	3731.487283
816.549562	3782.045015
816.868502	3818.668997
817.187399	3845.064479
817.506250	3842.286803
817.825058	3819.226045
818.143821	3916.157351
818.462539	4014.888349
818.781213	4060.967016
819.099843	4129.486379
819.418429	4397.917739
819.736970	4637.818689
820.055466	4892.069283
820.373919	5262.445377
820.692327	5679.989026
821.010691	6179.774060
821.329011	7682.789038
821.647286	10607.444688
821.965517	15369.714342
822.283704	19370.903356
822.601847	21308.501083
822.919945	19365.305154
823.237999	16705.872169
823.556010	14179.379452
823.873976	12013.472908
824.191897	9901.652903
824.509775	8573.339112
824.827609	7449.365971
825.145398	6925.569921
825.463144	6806.724719
825.780845	6911.716831
826.098502	7152.608367
826.416116	8113.704348
826.733685	9484.570519
827.051210	10566.321476
827.368692	10490.111833
827.686129	9152.615579
828.003522	7653.946076
828.320872	6624.096318
828.638177	5908.257513
828.955439	5333.331561
829.272656	4833.017207
829.589830	4562.191299
829.906960	4384.662025
830.224046	4192.798230
830.541088	4071.838264
830.858086	4020.118546
831.175041	3940.485959
831.491952	3933.037655
831.808819	3943.419911
832.125642	4026.881254
832.442421	4185.087785
832.759157	4480.839678
833.075849	5069.041509
833.392497	5972.955682
833.709101	6759.234530
834.025662	7053.864766
834.342179	6626.226206
834.658653	5946.393842
834.975083	5289.642402
835.291469	4701.848904
835.607811	4306.095642
835.924110	4159.405627
836.240366	3957.192343
836.556578	3749.184253
836.872746	3645.212976
837.188871	3599.093980
837.504952	3531.343393
837.820990	3445.399281
838.136984	3406.224475
838.452935	3435.523661
838.768842	3424.307094
839.084706	3448.844910
839.400526	3624.198926
839.716303	3995.091738
840.032037	4546.699833
840.347727	4770.582516
840.663373	4455.301193
840.978977	4066.668561
841.294537	3752.879419
841.610054	3529.236190
841.925527	3428.604677
842.240957	3356.483410
842.556344	3298.429482
842.871687	3235.301633
843.186987	3184.378417
843.502244	3150.418685
843.817458	3115.049949
844.132629	3087.323603
844.447756	3095.074377
844.762840	3072.973959
845.077881	3046.530586
845.392879	3028.853780
845.707833	3023.905888
846.022745	3025.607277
846.337613	3021.012265
846.652438	3007.980883
846.967221	3006.995337
847.281960	2994.581496
847.596656	2992.134016
847.911309	2992.018069
848.225919	2987.579333
848.540485	2980.758652
848.855009	2979.155565
849.169490	2969.002681
849.483928	2958.837194
849.798323	2959.923563
850.112675	2957.695373
850.426984	2970.588124
850.741251	2968.720377
851.055474	2952.147583
851.369654	2947.933179
851.683792	2955.610856
851.997887	2964.637042
852.311938	2966.552680
852.625947	2952.429888
852.939914	2959.522791
853.253837	2960.949438
853.567718	2947.164403
853.881555	2949.190947
854.195350	2961.687967
854.509103	2954.990794
854.822812	2947.915535
855.136479	2945.672221
855.450103	2949.627006
855.763685	2941.293979
856.077224	2938.826334
856.390720	2951.769497
856.704173	2956.672019
857.017584	2951.222532
857.330953	2951.020885
857.644278	2961.713173
857.957561	2968.889255
858.270802	2972.259267
858.584000	2970.774647
858.897155	2956.966926
859.210268	2956.780404
859.523339	2955.310907
859.836367	2955.580609
860.149352	2946.819084
860.462295	2944.011161
860.775195	2949.758076
861.088054	2950.176492
861.400869	2934.286775
861.713642	2934.198555
862.026373	2947.033333
862.339062	2952.341668
862.651708	2956.992132
862.964312	2958.305353
863.276873	2953.692697
863.589392	2963.964048
863.901869	2978.217910
864.214303	3000.527537
864.526696	3013.158148
864.839045	3006.365193
865.151353	3008.984072
865.463619	3004.636077
865.775842	3009.800739
866.088023	3028.611805
866.400162	3029.821682
866.712258	2999.718432
867.024313	2992.761639
867.336325	3002.997702
867.648296	3025.428316
867.960224	3018.834487
868.272110	3003.206910
868.583954	3006.909638
868.895755	3018.746267
869.207515	3007.398629
869.519233	3017.687624
869.830909	3025.846732
870.142542	3034.184800
870.454134	3033.801673
870.765684	3034.215047
871.077191	3038.749565
871.388657	3047.924465
871.700081	3055.818912
872.011463	3072.268197
872.322803	3072.404308
872.634101	3068.144533
872.945357	3089.806371
873.256571	3113.109105
873.567744	3104.508897
873.878874	3101.254832
874.189963	3125.701907
874.501010	3124.920528
874.812015	3111.727829
875.122979	3112.668004
875.433900	3110.767489
875.744780	3119.362656
876.055618	3124.862555
876.366415	3119.692852
876.677169	3132.545274
876.987882	3128.366157
877.298554	3126.858852
877.609183	3153.075373
877.919771	3177.154444
878.230317	3201.896427
878.540822	3256.567741
878.851285	3293.451343
879.161707	3340.818024
879.472087	3457.339254
879.782425	3714.579253
880.092722	4171.955579
880.402977	4717.206779
880.713191	5385.938522
881.023363	6621.958869
881.333494	7937.342101
881.643583	8450.130791
881.953631	8113.512784
882.263637	7415.958244
882.573602	6795.281300
882.883526	6206.315735
883.193408	5632.271984
883.503248	5187.039797
883.813048	4868.257393
884.122806	4530.376577
884.432522	4206.779870
884.742197	3969.812872
885.051831	3777.472688
885.361424	3649.384531
885.670975	3571.922161
885.980485	3478.857419
886.289954	3399.711304
886.599382	3354.686238
886.908768	3319.249448
887.218113	3274.544495
887.527417	3211.719115
887.836680	3162.560304
888.145901	3159.424706
888.455082	3147.315854
888.764221	3090.789396
889.073319	3065.457598
889.382376	3063.231929
889.691392	3067.655541
890.000366	3066.291909
890.309300	3051.473437
890.618193	3067.884914
890.927044	3080.729774
891.235855	3078.065524
891.544625	3070.168557
891.853353	3081.644743
892.162041	3099.477825
892.470687	3142.577170
892.779293	3193.306301
893.087858	3239.354721
893.396381	3320.822288
893.704864	3450.609314
894.013306	3710.309395
894.321707	4023.859082
894.630068	4215.145665
894.938387	4201.237122
895.246665	4161.076769
895.554903	4029.923590
895.863100	3819.037002
896.171256	3650.881753
896.479371	3505.129393
896.787446	3377.862943
897.095480	3275.603138
897.403473	3208.349104
897.711425	3178.301307
898.019336	3164.554080
898.327207	3131.842033
898.635038	3095.775098
898.942827	3084.765217
899.250576	3069.687126
899.558284	3036.609595
899.865952	3018.486647
900.173579	2996.517299
900.481165	2990.152842
900.788711	2976.065338
901.096216	2950.070628
901.403681	2939.451437
901.711105	2948.893518
902.018489	2943.330605
902.325832	2945.999896
902.633135	2957.448357
902.940397	2993.376660
903.247619	3085.569282
903.554800	3295.293884
903.861941	3672.268848
904.169041	4125.985298
904.476101	4412.373247
904.783121	4335.672092
905.090100	4067.739806
905.397039	3779.693316
905.703938	3528.321221
906.010796	3343.265504
906.317614	3228.685119
906.624391	3130.367495
906.931129	3059.388049
907.237826	2994.120230
907.544483	2946.720781
907.851099	2918.185330
908.157675	2895.676578
908.464211	2873.099770
908.770707	2862.226002
909.077163	2847.611697
909.383578	2831.263235
909.689954	2821.964826
909.996289	2821.246462
910.302584	2819.308138
910.608839	2821.024651
910.915054	2812.462251
911.221229	2807.741211
911.527363	2812.094247
911.833458	2818.438539
912.139513	2825.082780
912.445527	2825.425578
912.751502	2833.889676
913.057436	2844.168588
913.363331	2859.105527
913.669186	2883.787017
913.975000	2921.499888
914.280775	2986.442553
914.586510	3057.011145
914.892205	3136.792446
915.197859	3277.551543
915.503475	3488.667505
915.809050	3717.031774
916.114585	3861.654916
916.420081	3868.236142
916.725536	3803.162408
917.030952	3676.072399
917.336328	3540.626677
917.641665	3408.029208
917.946961	3306.737304
918.252218	3232.002198
918.557435	3148.959271
918.862612	3086.653130
919.167750	3037.166643
919.472848	2997.223060
919.777906	2967.686940
920.082925	2941.331788
920.387904	2909.204514
920.692843	2892.392266
920.997743	2879.822149
921.302603	2865.225488
921.607423	2855.173427
921.912204	2840.586849
922.216946	2830.585199
922.521647	2820.603715
922.826310	2814.491316
923.130932	2802.029583
923.435516	2796.875004
923.740059	2789.630866
924.044564	2779.379679
924.349028	2774.083947
924.653454	2769.982968
924.957840	2761.639859
925.262186	2758.675660
925.566493	2752.023858
925.870761	2749.964547
926.174989	2743.489184
926.479178	2738.390057
926.783328	2732.373440
927.087438	2734.226064
927.391509	2732.738924
927.695541	2728.174159
927.999533	2725.217522
928.303486	2723.916905
928.607400	2722.092007
928.911275	2722.109651
929.215110	2718.747201
929.518906	2717.214691
929.822663	2717.239896
930.126381	2716.380380
930.430060	2721.464383
930.733699	2719.374825
931.037299	2724.622666
931.340861	2720.662840
931.644383	2723.685012
931.947866	2720.118395
932.251309	2721.534959
932.554714	2718.674105
932.858080	2715.631768
933.161407	2715.576316
933.464694	2712.465924
933.767943	2710.111705
934.071153	2715.195708
934.374323	2714.474823
934.677455	2711.863506
934.980548	2710.956098
935.283602	2712.022302
935.586617	2710.343598
935.889593	2709.148844
936.192530	2710.046170
936.495428	2710.719164
936.798287	2712.405430
937.101108	2719.515977
937.403890	2723.092676
937.706632	2723.458160
938.009336	2733.454768
938.312002	2741.757548
938.614628	2752.729619
938.917216	2757.692635
939.219765	2756.719693
939.522275	2756.558376
939.824747	2753.296749
940.127179	2750.173754
940.429573	2747.872468
940.731929	2745.818197
941.034246	2741.991962
941.336524	2737.081878
941.638763	2736.671024
941.940964	2735.408215
942.243126	2731.823954
942.545250	2732.721280
942.847335	2729.013511
943.149381	2722.633931
943.451389	2719.445401
943.753359	2719.064794
944.055290	2714.915924
944.357182	2717.108826
944.659036	2714.031202
944.960851	2714.295862
945.262628	2711.064483
945.564367	2714.706717
945.866067	2713.738815
946.167729	2713.973229
946.469352	2713.517004
946.770937	2715.294011
947.072484	2712.201263
947.373992	2711.981973
947.675462	2710.179760
947.976893	2706.028370
948.278286	2704.682382
948.579641	2705.163812
948.880958	2701.387988
949.182236	2705.584749
949.483476	2704.642053
949.784678	2704.226158
950.085841	2705.579707
950.386967	2703.986703
950.688054	2705.909903
950.989103	2705.922506
951.290114	2705.357897
951.591087	2708.037270
951.892021	2711.283773
952.192917	2713.552292
952.493776	2715.823332
952.794596	2715.775441
953.095378	2714.535317
953.396122	2716.665205
953.696828	2712.591952
953.997496	2710.242775
954.298126	2709.305120
954.598718	2708.317054
954.899272	2704.140458
955.199788	2702.623071
955.500266	2699.752134
955.800706	2696.946732
956.101108	2696.535877
956.401472	2695.222657
956.701798	2692.792821
957.002087	2690.151256
957.302337	2688.165042
957.602550	2687.459280
957.902724	2683.123888
958.202861	2686.370391
958.502960	2685.278981
958.803022	2683.691017
959.103045	2682.682787
959.403031	2684.207736
959.702979	2679.544668
960.002889	2680.694052
960.302762	2678.130625
960.602596	2678.831345
960.902393	2679.237158
961.202153	2678.975018
961.501875	2676.830007
961.801559	2676.971159
962.101205	2678.415450
962.400814	2678.556602
962.700385	2676.724143
962.999918	2675.337826
963.299414	2670.611744
963.598873	2673.311282
963.898293	2670.541168
964.197677	2674.160716
964.497022	2674.075017
964.796331	2676.555264
965.095601	2674.465706
965.394835	2673.220541
965.694030	2675.599966
965.993189	2677.036694
966.292309	2674.299348
966.591393	2673.286076
966.890439	2674.672393
967.189447	2674.475788
967.488419	2674.059893
967.787353	2675.272291
968.086249	2672.981086
968.385108	2678.720440
968.683930	2677.175326
968.982714	2674.143072
969.281462	2677.563495
969.580172	2674.385047
969.878844	2676.298165
970.177480	2673.011333
970.476078	2675.237002
970.774639	2675.027795
971.073162	2673.296158
971.371649	2675.153823
971.670098	2675.599966
971.968510	2673.548216
972.266885	2673.654080
972.565223	2676.630882
972.863524	2676.096519
973.161788	2673.717095
973.460014	2674.594255
973.758204	2674.533762
974.056356	2675.821776
974.354471	2671.025118
974.652550	2674.853875
974.950591	2674.259019
975.248595	2676.426715
975.546563	2675.257167
975.844493	2676.522497
976.142386	2675.055521
976.440243	2673.941426
976.738062	2672.678617
977.035845	2674.322033
977.333590	2674.256498
977.631299	2673.427228
977.928971	2671.264573
978.226606	2670.382371
978.524204	2670.188287
978.821765	2669.666527
979.119290	2672.257681
979.416777	2671.269614
979.714228	2672.161899
980.011642	2673.651560
980.309020	2672.401353
980.606360	2671.682989
980.903664	2671.912362
981.200931	2674.339677
981.498162	2674.231292
981.795356	2674.904286
982.092513	2677.336643
982.389633	2679.781603
982.686717	2681.798064
982.983764	2686.602284
983.280775	2690.436081
983.577749	2692.155115
983.874686	2689.916842
984.171587	2686.776204
984.468451	2685.672191
984.765279	2684.810154
985.062070	2682.435770
985.358824	2680.618434
985.655543	2679.509380
985.952224	2676.220027
986.248869	2673.974193
986.545478	2674.647187
986.842050	2672.303051
987.138586	2672.688699
987.435086	2672.895387
987.731549	2669.903462
988.027975	2669.001095
988.324366	2671.990499
988.620719	2669.394305
988.917037	2666.533450
989.213318	2669.495128
989.509563	2669.835406
989.805772	2668.446568
990.101944	2668.789367
990.398080	2666.793070
990.694180	2670.858760
990.990244	2669.069151
991.286271	2668.927998
991.582262	2670.218534
991.878217	2668.844819
992.174136	2669.167453
992.470019	2668.025632
992.765865	2666.891372
993.061676	2664.186793
993.357450	2667.511434
993.653188	2664.849705
993.948890	2668.466733
994.244556	2668.620488
994.540186	2671.183915
994.835780	2669.656445
995.131337	2668.968328
995.426859	2671.153668
995.722345	2671.816580
996.017795	2672.998730
996.313208	2674.863957
996.608586	2672.976045
996.903928	2672.610561
997.199234	2672.303051
997.494504	2672.736590
997.789738	2672.691220
998.084936	2672.305572
998.380099	2671.037721
998.675225	2670.987310
998.970316	2671.287258
999.265371	2672.595438
999.560390	2671.075530
999.855373	2671.015036
1000.150320	2669.492608
1000.445232	2671.090653
1000.740108	2669.129645
1001.034948	2670.457989
1001.329752	2669.296003
1001.624521	2666.735097
1001.919254	2667.319870
1002.213951	2670.750376
1002.508613	2666.903975
1002.803239	2668.141578
1003.097829	2665.086639
1003.392384	2665.474808
1003.686903	2667.430776
1003.981386	2666.989675
1004.275834	2666.528409
1004.570246	2669.238029
1004.864623	2668.590241
1005.158964	2667.450940
1005.453270	2667.193842
1005.747540	2665.847853
1006.041775	2666.626712
1006.335974	2665.787360
1006.630138	2666.979592
1006.924266	2668.060920
1007.218359	2668.005467
1007.512416	2663.682678
1007.806438	2661.789725
1008.100425	2665.610919
1008.394376	2664.247287
1008.688292	2664.186793
1008.982172	2665.905827
1009.276017	2664.562359
1009.569827	2665.467246
1009.863602	2665.336176
1010.157341	2663.982627
1010.451045	2664.766526
1010.744714	2668.479336
1011.038347	2664.106135
1011.331945	2666.662000
1011.625508	2664.542195
1011.919036	2665.699139
1012.212528	2664.784170
1012.505986	2665.507576
1012.799408	2666.367092
1013.092795	2667.030004
1013.386147	2668.275169
1013.679464	2666.281393
1013.972745	2665.137051
1014.265992	2664.179232
1014.559204	2666.069664
1014.852380	2664.491783
1015.145521	2668.179387
1015.438628	2666.621671
1015.731699	2666.772905
1016.024736	2666.745179
1016.317737	2666.014212
1016.610703	2665.600837
1016.903635	2665.610919
1017.196531	2667.791218
1017.489393	2665.467246
1017.782219	2665.706701
1018.075011	2668.766682
1018.367768	2664.259890
1018.660490	2665.996567
1018.953177	2665.996567
1019.245829	2665.996567
