Dividing Wavelength (nm)	Counts (n)	Blue Motor Position (mm): 29.200000	Red Motor Position (mm): 0.000000	
326.493990	2211.400437
326.888308	2211.400437
327.282561	2211.400437
327.676750	2174.201763
328.070874	2168.684220
328.464933	2169.803356
328.858929	2171.769406
329.252859	2177.022288
329.646726	2184.420182
330.040528	2198.280834
330.434265	2211.576878
330.827938	2228.792418
331.221547	2247.631210
331.615091	2263.142840
332.008571	2283.998094
332.401986	2300.094498
332.795338	2318.101499
333.188625	2337.825014
333.581847	2361.016842
333.975006	2375.558050
334.368100	2393.527243
334.761129	2413.686818
335.154095	2429.894127
335.546996	2455.833384
335.939833	2493.732779
336.332606	2507.853051
336.725315	2522.931142
337.117960	2533.552853
337.510540	2544.978628
337.903056	2559.469425
338.295508	2565.017215
338.687896	2573.952660
339.080220	2582.741912
339.472480	2588.204002
339.864676	2592.814137
340.256807	2600.524582
340.648875	2603.776126
341.040879	2605.853082
341.432818	2609.190325
341.824694	2610.377517
342.216506	2610.798453
342.608253	2613.780296
342.999937	2613.906325
343.391557	2613.908845
343.783113	2613.820625
344.174605	2614.113012
344.566033	2611.310131
344.957397	2612.807353
345.348697	2609.603700
345.739934	2606.760489
346.131106	2604.706219
346.522215	2605.903493
346.913260	2602.432659
347.304241	2600.748913
347.695159	2597.940991
348.086012	2598.626587
348.476802	2594.739858
348.867528	2591.004363
349.258191	2588.002356
349.648789	2585.968250
350.039324	2585.184351
350.429796	2588.060329
350.820203	2585.209557
351.210548	2587.238621
351.600828	2583.823239
351.991045	2582.825091
352.381198	2581.927765
352.771288	2580.314596
353.161314	2579.949112
353.551276	2580.496078
353.941175	2575.840572
354.331010	2579.318968
354.720782	2580.208732
355.110490	2579.513053
355.500135	2578.769482
355.889717	2579.109760
356.279235	2576.934502
356.668689	2579.034143
357.058080	2577.541962
357.447408	2580.117991
357.836672	2582.252920
358.225873	2578.464493
358.615010	2579.964236
359.004084	2583.049422
359.393095	2582.036150
359.782043	2585.569999
360.170927	2583.674525
360.559748	2582.164700
360.948505	2586.971440
361.337199	2583.717375
361.725830	2585.549834
362.114398	2584.040009
362.502903	2584.627303
362.891344	2586.706779
363.279722	2583.450194
363.668037	2582.812488
364.056289	2587.120154
364.444478	2590.341451
364.832603	2588.629979
365.220665	2589.542428
365.608665	2589.544949
365.996601	2588.045206
366.384474	2589.880186
366.772284	2590.316245
367.160031	2590.908581
367.547715	2590.452357
367.935336	2593.792121
368.322893	2589.509661
368.710388	2588.924887
369.097820	2589.486976
369.485189	2589.418920
369.872495	2596.317739
370.259738	2593.086359
370.646918	2594.820516
371.034035	2595.294385
371.421090	2593.640886
371.808081	2595.039807
372.195010	2595.342276
372.581875	2595.206165
372.968678	2597.923347
373.355418	2593.340938
373.742096	2596.045517
374.128710	2596.068202
374.515262	2596.431165
374.901751	2596.733634
375.288177	2597.177256
375.674540	2598.341762
376.060841	2598.419900
376.447079	2598.671958
376.833254	2599.831423
377.219367	2596.839498
377.605417	2601.563060
377.991404	2599.450816
378.377329	2600.360744
378.763191	2599.622215
379.148991	2602.881321
379.534727	2599.632298
379.920402	2600.317895
380.306013	2600.390991
380.691563	2599.614654
381.077049	2600.219592
381.462474	2602.490632
381.847835	2600.902668
382.233134	2602.800663
382.618371	2602.697319
383.003545	2603.272011
383.388657	2601.958790
383.773706	2605.878287
384.158693	2606.059769
384.543618	2604.529779
384.928480	2606.692434
385.313280	2606.032042
385.698017	2605.270828
386.082692	2609.838114
386.467305	2606.531117
386.851856	2607.942640
387.236344	2604.617999
387.620770	2605.734614
388.005133	2601.096753
388.389435	2605.091867
388.773674	2604.073554
389.157851	2605.709409
389.541965	2611.153855
389.926018	2605.467433
390.310008	2608.229986
390.693936	2609.714605
391.077802	2608.227465
391.461606	2612.285594
391.845348	2608.499687
392.229027	2611.358022
392.612645	2610.107815
392.996200	2612.144442
393.379694	2613.044287
393.763125	2615.090996
394.146494	2613.157713
394.529801	2614.564195
394.913047	2612.088989
395.296230	2614.906994
395.679351	2613.709720
396.062410	2613.651747
396.445408	2613.253495
396.828343	2615.607714
397.211217	2614.964967
397.594028	2615.602673
397.976778	2615.297683
398.359466	2617.087293
398.742092	2616.152159
399.124656	2615.821963
399.507158	2614.924638
399.889598	2618.150976
400.271977	2617.881275
400.654294	2618.365225
401.036549	2616.222735
401.418742	2615.930348
401.800874	2617.803137
402.182944	2619.360853
402.564952	2619.953189
402.946898	2620.021244
403.328783	2621.054681
403.710606	2619.791872
404.092367	2620.520319
404.474067	2621.631893
404.855705	2621.137860
405.237282	2621.846142
405.618797	2622.002418
406.000250	2625.826133
406.381642	2621.145422
406.762972	2622.559465
407.144240	2620.855555
407.525447	2621.606687
407.906593	2619.479320
408.287677	2625.536267
408.668700	2623.539970
409.049661	2625.778242
409.430560	2627.083901
409.811399	2628.291257
410.192176	2626.302522
410.572891	2630.385857
410.953545	2629.445682
411.334138	2627.177162
411.714669	2630.141361
412.095139	2630.947945
412.475547	2632.510703
412.855894	2633.405508
413.236180	2631.462143
413.616405	2633.952473
413.996568	2633.309726
414.376670	2633.292082
414.756711	2632.989613
415.136691	2632.714870
415.516609	2632.828296
415.896466	2636.420118
416.276262	2636.291568
416.655997	2634.353245
417.035670	2637.236785
417.415283	2639.389357
417.794834	2638.544964
418.174324	2636.657052
418.553753	2640.586632
418.933121	2640.440438
419.312428	2641.766262
419.691674	2639.565798
420.070859	2643.412198
420.449983	2643.540748
420.829045	2646.580563
421.208047	2642.928247
421.586988	2645.315234
421.965867	2649.953095
422.344686	2648.052580
422.723444	2649.852272
423.102141	2647.649288
423.480777	2650.729433
423.859352	2649.872437
424.237866	2652.491316
424.616319	2654.865700
424.994712	2656.599857
425.373044	2654.711945
425.751314	2655.344609
426.129524	2655.440391
426.507673	2661.618325
426.885762	2661.056237
427.263789	2671.146106
427.641756	2669.520334
428.019662	2678.377641
428.397508	2685.712520
428.775292	2693.942204
429.153016	2699.610981
429.530679	2707.996941
429.908282	2722.611246
430.285824	2729.507544
430.663305	2753.516039
431.040726	2758.070722
431.418086	2777.700975
431.795385	2806.057465
432.172624	2832.054696
432.549802	2856.859693
432.926920	2889.324724
433.303977	2911.631830
433.680974	2959.679067
434.057910	3004.089112
434.434786	3051.924621
434.811601	3085.997780
435.188355	3174.812828
435.565050	3219.752194
435.941683	3267.078546
436.318257	3373.988817
436.694770	3453.011424
437.071222	3532.676778
437.447614	3596.515430
437.823946	3659.386180
438.200218	3760.675563
438.576429	3810.827483
438.952580	3933.372891
439.328670	4033.144888
439.704700	4088.446345
440.080670	4172.615971
440.456580	4384.064648
440.832429	4435.955765
441.208218	4438.672947
441.583947	4610.505717
441.959616	4761.919293
442.335224	4816.749403
442.710773	4963.512515
443.086261	5140.109176
443.461689	5027.704048
443.837057	5332.575388
444.212365	5549.224016
444.587612	5549.821393
444.962800	5756.261684
445.337927	5795.023116
445.712995	5742.857256
446.088002	6306.150745
446.462949	6285.887827
446.837837	6400.009468
447.212664	6540.922321
447.587431	6889.472739
447.962139	7359.139399
448.336786	8570.314419
448.711374	9078.860978
449.085901	8157.728744
449.460369	8078.922907
449.834776	7935.973428
450.209124	8549.829691
450.583412	8910.279752
450.957640	9630.680802
451.331808	9321.201846
451.705917	8837.240995
452.079965	8534.996095
452.453954	9258.744471
452.827883	9134.681675
453.201752	9454.298390
453.575562	9250.605528
453.949311	9661.078959
454.323001	9743.153985
454.696632	10026.958344
455.070202	10349.798877
455.443713	10641.059102
455.817164	11115.111566
456.190556	11235.673281
456.563888	11631.721450
456.937160	11898.111143
457.310373	11478.404838
457.683526	11643.845425
458.056619	11404.090669
458.429653	11595.954464
458.802628	11258.303020
459.175542	11628.094340
459.548398	12518.954445
459.921194	12901.711613
460.293930	13021.481866
460.666607	13880.895253
461.039224	14845.928375
461.411782	15549.970880
461.784280	15592.457725
462.156719	15731.444857
462.529099	15552.012548
462.901419	14651.972502
463.273680	14543.892684
463.645882	14462.909068
464.018024	14277.661787
464.390106	14535.332804
464.762130	15276.924344
465.134094	16003.089952
465.505999	17847.766612
465.877845	20987.926548
466.249631	23794.273880
466.621358	23652.171315
466.993026	22347.475329
467.364634	21865.939273
467.736184	20525.844305
468.107674	19770.823131
468.479105	19912.051056
468.850477	19428.004505
469.221790	19023.096508
469.593043	18393.811794
469.964238	17873.642855
470.335373	17567.949806
470.706449	17986.584865
471.077467	17538.091052
471.448425	19344.563327
471.819324	23276.159211
472.190164	25409.487299
472.560945	21987.032829
472.931667	19595.615309
473.302330	18958.612588
473.672934	18427.264891
474.043479	18820.714345
474.413965	18649.521802
474.784393	18297.417370
475.154761	18950.256876
475.525070	18983.823399
475.895321	18632.644019
476.265513	19204.580567
476.635645	19782.553896
477.005719	19581.946220
477.375734	19777.164903
477.745691	20257.927142
478.115588	20768.502766
478.485427	21270.964652
478.855207	22321.984735
479.224928	24066.954933
479.594591	26263.010098
479.964194	26377.900514
480.333739	26580.938027
480.703226	26137.840768
481.072653	25804.217207
481.442022	26361.189089
481.811333	27269.070650
482.180584	27214.598462
482.549777	26265.709636
482.918912	25896.127524
483.287988	26004.439235
483.657005	25710.794544
484.025964	25434.108294
484.394864	25378.809357
484.763706	25070.182357
485.132489	24491.556198
485.501213	24654.791280
485.869879	24595.691313
486.238487	24378.031934
486.607036	24534.867271
486.975527	24215.522778
487.343959	24550.076432
487.712333	24496.546940
488.080648	24175.211191
488.448905	24637.187571
488.817104	24383.236925
489.185244	25051.827516
489.553326	25039.325454
489.921350	25986.714538
490.289315	28243.439989
490.657222	30059.331660
491.025070	30552.628728
491.392861	30369.140811
491.760593	29508.636014
492.128267	28634.366346
492.495883	27593.806657
492.863440	26719.111013
493.230939	25830.839540
493.598380	25682.463259
493.965763	25282.301508
494.333088	24837.238199
494.700354	24764.890080
495.067563	24649.498068
495.434713	24400.389451
495.801805	24547.376894
496.168839	24373.436922
496.535815	24179.057592
496.902733	24406.635441
497.269593	24057.515372
497.636395	24266.516570
498.003139	24260.252936
498.369825	24000.850282
498.736453	24177.353682
499.103023	24073.284102
499.469535	24094.908131
499.835989	24292.155878
500.202385	24322.526309
500.568723	23815.043434
500.935003	24095.255971
501.301226	23667.259488
501.667390	24499.881663
502.033497	24760.398412
502.399546	24473.299659
502.765537	24060.078799
503.131470	24453.465239
503.497345	24570.092334
503.863163	23795.423263
504.228923	24420.551546
504.594625	24597.760707
504.960269	24118.924188
505.325856	24619.919098
505.691385	24026.582852
506.056856	24627.813545
506.422270	24591.265180
506.787625	24182.127654
507.152924	24578.843777
507.518164	24623.722649
507.883347	24422.358800
508.248472	24115.239104
508.613540	24886.855756
508.978550	24678.577964
509.343503	24664.619009
509.708398	24938.363746
510.073236	25102.513797
510.438016	25300.573170
510.802738	24982.055426
511.167403	25223.178856
511.532010	24923.537712
511.896561	25708.800767
512.261053	25674.319275
512.625488	25508.372052
512.989866	25413.374028
513.354186	25261.564722
513.718449	25349.416910
514.082655	25737.716826
514.446803	25480.910367
514.810894	25934.478102
515.174927	25407.642237
515.538904	25449.889626
515.902822	25944.767097
516.266684	25695.960948
516.630488	25592.914723
516.994235	25580.027013
517.357925	25862.011515
517.721558	26068.771919
518.085133	26154.090928
518.448651	26067.733442
518.812112	25794.969210
519.175516	25991.927091
519.538863	26141.016695
519.902152	25921.761791
520.265385	26217.445629
520.628560	26010.745718
520.991678	26026.287595
521.354739	26103.825583
521.717743	26162.003019
522.080690	25960.581196
522.443580	26289.385415
522.806413	26277.604238
523.169189	26367.518258
523.531908	26429.532012
523.894569	26030.875045
524.257174	26098.098832
524.619722	26301.627857
524.982213	25968.125283
525.344647	26051.785752
525.707025	26171.273701
526.069345	26170.845202
526.431608	26113.865041
526.793815	26302.933516
527.155964	25753.142757
527.518057	25932.144047
527.880093	25863.627205
528.242072	26087.404024
528.603995	25800.350642
528.965860	25594.464877
529.327669	25642.023123
529.689421	25628.976617
530.051117	25459.782891
530.412755	25638.869881
530.774337	25446.471724
531.135862	25318.338196
531.497331	25517.763722
531.858743	25058.461674
532.220098	25555.443826
532.581396	25217.918412
532.942638	25166.395299
533.303824	25261.635298
533.664953	25282.001559
534.026025	24944.385404
534.387040	25177.420302
534.747999	25227.148764
535.108902	25402.482616
535.469748	24886.964141
535.830537	25089.182466
536.191270	25197.615164
536.551947	25085.590644
536.912567	24739.205401
537.273131	25055.880603
537.633638	24777.351812
537.994089	24987.625901
538.354483	24525.266394
538.714821	25022.951787
539.075103	25073.207049
539.435328	24861.985224
539.795497	24419.613891
540.155609	24820.872093
540.515665	25110.473779
540.875665	24349.486400
541.235609	24631.319668
541.595496	24610.756801
541.955328	24953.956034
542.315102	24870.141811
542.674821	24425.489356
543.034483	24301.484533
543.394090	24473.869310
543.753640	24258.975003
544.113134	24893.943618
544.472571	24488.327339
544.831953	24786.688029
545.191278	24395.986003
545.550548	24327.764068
545.909761	24535.152096
546.268918	24751.679736
546.628019	24723.638318
546.987064	24422.290744
547.346053	24185.827861
547.704986	24303.732888
548.063863	24463.802125
548.422684	24470.421160
548.781449	24007.023175
549.140158	24411.429578
549.498811	23993.696885
549.857408	23730.193253
550.215949	24162.948584
550.574434	23834.035981
550.932864	24058.695002
551.291237	24206.312590
551.649555	24082.781635
552.007817	24142.340347
552.366022	24001.372042
552.724173	24044.534401
553.082267	23982.596264
553.440305	24465.473268
553.798288	23718.112128
554.156215	24239.576643
554.514086	24328.409336
554.871902	23699.311145
555.229661	23987.607171
555.587365	23847.453012
555.945014	23698.895249
556.302606	23961.249498
556.660143	23890.585124
557.017625	24149.723117
557.375050	23678.695346
557.732421	24072.527928
558.089735	23892.021853
558.446994	23941.843577
558.804197	23974.805161
559.161345	23930.982411
559.518437	23670.954654
559.875474	23879.968454
560.232455	24061.187853
560.589381	23880.031469
560.946251	23858.541030
561.303065	24179.443240
561.659825	24273.294401
562.016528	23880.407035
562.373177	23611.141364
562.729770	23965.521876
563.086307	23835.853317
563.442789	24005.359595
563.799216	23822.852181
564.155587	23837.471528
564.511904	23819.245236
564.868164	23752.538167
565.224370	23743.408638
565.580520	23645.700994
565.936615	23765.473768
566.292654	23465.719199
566.648638	23768.813533
567.004567	23584.496345
567.360441	23538.374829
567.716260	23263.450463
568.072023	23590.389454
568.427732	23349.233257
568.783385	23132.178816
569.138982	23358.463610
569.494525	23409.780035
569.850013	23145.376557
570.205445	23250.141816
570.560823	23039.580382
570.916145	22810.258293
571.271412	22983.835303
571.626625	22739.490576
571.981782	22851.797401
572.336884	22653.876660
572.691931	22801.930307
573.046923	22530.252444
573.401860	22401.544225
573.756743	22415.409918
574.111570	22316.121873
574.466342	22255.834714
574.821059	22352.980269
575.175722	22048.366028
575.530330	22041.847816
575.884882	22061.420095
576.239380	21961.103654
576.593823	21865.919108
576.948211	21831.586330
577.302544	21685.413033
577.656823	21556.588867
578.011047	21648.491622
578.365216	21520.582426
578.719330	21388.670553
579.073389	21295.832664
579.427394	21445.194490
579.781344	21215.983307
580.135239	21106.973397
580.489080	21079.418450
580.842866	20840.674445
581.196597	21028.434740
581.550273	21013.308758
581.903895	20907.608365
582.257463	21217.662012
582.610975	20744.887480
582.964434	21055.185623
583.317837	20756.139336
583.671186	20843.346256
584.024481	20820.807257
584.377721	20586.350754
584.730906	20649.652523
585.084037	20671.831079
585.437113	20569.722508
585.790135	20781.511463
586.143103	20252.775083
586.496016	20258.030486
586.848874	20497.583596
587.201679	20434.289389
587.554428	20101.185066
587.907124	20434.692681
588.259765	20219.589167
588.612352	20289.303284
588.964884	19854.455874
589.317362	20042.185922
589.669786	20085.154197
590.022155	20139.008844
590.374470	20319.232614
590.726731	20111.348033
591.078937	19873.851713
591.431090	19980.144442
591.783188	19722.370081
592.135232	19687.089566
592.487222	19789.490524
592.839157	19811.850562
593.191038	19697.262614
593.542866	19580.363298
593.894639	19298.812335
594.246358	19514.661940
594.598022	19424.594165
594.949633	19176.894550
595.301190	19140.409199
595.652692	19312.667946
596.004141	19544.021620
596.355535	18874.430360
596.706876	18886.692967
597.058162	18780.874107
597.409395	19004.688734
597.760573	19087.885417
598.111698	18864.174133
598.462768	18799.843968
598.813785	18762.531868
599.164748	18581.486390
599.515657	18612.340772
599.866511	18409.000790
600.217312	18772.120143
600.568060	18287.496380
600.918753	18601.000696
601.269392	18504.265995
601.619978	18282.389691
601.970510	18497.888935
602.320988	18438.657898
602.671412	18645.879568
603.021783	18544.607829
603.372100	18287.473694
603.722363	18428.386547
604.072572	18361.437504
604.422728	18503.552672
604.772830	18261.652904
605.122878	18218.724959
605.472872	18205.597794
605.822813	18199.266105
606.172701	18162.347215
606.522534	18360.252832
606.872314	18382.557418
607.222041	18217.608343
607.571714	18433.432742
607.921333	18259.470085
608.270899	18334.432043
608.620411	18518.333335
608.969870	18284.338097
609.319276	18285.984033
609.668627	18320.394950
610.017926	18456.226319
610.367171	18564.066682
610.716362	18607.284494
611.065500	18431.123894
611.414585	18572.041788
611.763616	18540.809319
612.112594	18484.227408
612.461518	18458.913254
612.810389	18644.856214
613.159207	18501.758021
613.507971	18416.199558
613.856682	18697.143062
614.205340	18625.462895
614.553945	18764.994472
614.902496	18514.852418
615.250994	18754.965096
615.599439	18688.416824
615.947830	18680.701338
616.296169	18725.605416
616.644454	18683.171504
616.992686	18658.875663
617.340864	18868.083548
617.688990	18628.444738
618.037063	18799.024781
618.385082	18656.319798
618.733048	18943.529456
619.080961	18797.293145
619.428821	18839.777469
619.776628	18726.928719
620.124382	18651.775198
620.472083	18691.073512
620.819731	18709.675370
621.167326	18405.686232
621.514868	18441.443136
621.862357	18212.206747
622.209793	18222.755361
622.557176	18055.787305
622.904506	17879.167959
623.251783	17787.305533
623.599007	17555.969504
623.946179	17505.386566
624.293297	17443.317359
624.640363	17189.233123
624.987376	17214.345631
625.334336	17004.134557
625.681243	16853.782143
626.028097	16859.080396
626.374899	16789.318389
626.721647	16651.039539
627.068343	16488.132132
627.414987	16419.464054
627.761577	16398.334058
628.108115	16442.030780
628.454600	16160.293294
628.801032	16260.166113
629.147412	16188.332192
629.493739	16203.576641
629.840014	16013.580594
630.186236	16117.115811
630.532405	15877.098915
630.878521	16068.904737
631.224585	15970.569469
631.570597	15788.057015
631.916556	15818.671942
632.262462	15795.167562
632.608316	15711.038266
632.954117	15664.631924
633.299866	15653.299411
633.645562	15575.844602
633.991206	15326.557024
634.336797	15195.194637
634.682336	15164.274720
635.027823	15059.912753
635.373257	14943.227686
635.718639	14834.467312
636.063968	14780.582418
636.409245	14533.444892
636.754470	14574.552981
637.099642	14415.623045
637.444762	14186.016131
637.789829	14234.469181
638.134845	14069.394078
638.479808	14099.676289
638.824719	14044.377352
639.169577	13889.064443
639.514383	13940.665694
639.859137	13761.029218
640.203839	13846.885109
640.548489	13684.537270
640.893086	13665.378365
641.237632	13538.321123
641.582125	13691.173949
641.926566	13524.417621
642.270955	13532.357438
642.615292	13495.539371
642.959576	13512.283563
643.303809	13534.625957
643.647990	13467.744969
643.992118	13527.137323
644.336195	13302.564002
644.680219	13515.303215
645.024192	13429.938836
645.368112	13670.517821
645.711981	13728.581831
646.055797	13910.348195
646.399562	13878.921642
646.743274	14151.040606
647.086935	14425.153346
647.430544	14380.188774
647.774101	14419.348457
648.117606	14567.505448
648.461059	14534.347259
648.804460	14526.175548
649.147810	14251.712448
649.491108	14145.951561
649.834354	14167.038707
650.177548	13865.716339
650.520690	13676.292463
650.863781	13597.010236
651.206820	13635.451555
651.549807	13474.018685
651.892742	13273.199281
652.235626	13214.089231
652.578458	13213.499416
652.921238	12903.065162
653.263967	13100.902724
653.606644	12918.362544
653.949269	12893.822207
654.291843	12707.120553
654.634365	12855.832071
654.976836	12717.182697
655.319255	12722.100342
655.661622	12672.986901
656.003938	12602.274636
656.346203	12527.005168
656.688416	12596.043770
657.030577	12560.735528
657.372687	12475.998773
657.714746	12449.936008
658.056753	12641.333496
658.398708	12458.097636
658.740612	12456.867594
659.082465	12560.390209
659.424266	12521.220444
659.766016	12554.960886
660.107715	12457.822893
660.449362	12534.292156
660.790958	12486.345741
661.132503	12439.931838
661.473996	12497.718584
661.815438	12516.592664
662.156829	12533.437680
662.498168	12516.562418
662.839456	12510.024041
663.180693	12528.005837
663.521879	12621.562090
663.863013	12599.121394
664.204097	12578.510637
664.545129	12688.145650
664.886110	12662.728153
665.227040	12759.362031
665.567918	12761.504521
665.908746	12793.364613
666.249522	12771.667487
666.590248	12827.798215
666.930922	12941.476234
667.271545	12923.877566
667.612118	13006.353363
667.952639	12904.229669
668.293109	12915.647882
668.633528	12872.702293
668.973896	12846.866379
669.314213	12934.572374
669.654480	12670.776355
669.994695	12735.351015
670.334859	12758.525199
670.674973	12703.816077
671.015035	12740.848393
671.355047	12681.622397
671.695008	12654.790856
672.034918	12663.323009
672.374777	12705.575440
672.714585	12612.614042
673.054342	12652.857573
673.394049	12601.957043
673.733705	12700.864482
674.073310	12612.828291
674.412864	12624.821196
674.752368	12489.985454
675.091820	12504.211591
675.431223	12495.177843
675.770574	12365.705889
676.109875	12288.372068
676.449125	12250.649114
676.788324	12189.121831
677.127473	12024.349197
677.466571	12015.408711
677.805619	11910.325859
678.144616	11831.507418
678.483562	11803.617235
678.822458	11670.820640
679.161303	11651.976807
679.500098	11645.516568
679.838842	11589.973135
680.177535	11615.451126
680.516179	11682.168277
680.854771	11622.786005
681.193314	11841.045282
681.531805	12002.647030
681.870247	12405.520922
682.208638	12824.566835
682.546978	13140.488385
682.885268	13188.979244
683.223508	12879.079352
683.561697	12726.566804
683.899836	12620.062347
684.237925	12424.349631
684.575963	12341.533556
684.913951	12262.556319
685.251889	12202.349819
685.589776	12310.908546
685.927614	12232.448028
686.265401	12200.913090
686.603137	12237.768966
686.940824	12400.648647
687.278460	12521.659024
687.616046	12572.615007
687.953582	12739.935944
688.291068	12675.144515
688.628504	12902.855954
688.965889	12912.040937
689.303224	12877.682953
689.640510	12777.240483
689.977745	12454.047069
690.314930	12234.182185
690.652065	12146.753454
690.989150	11848.463339
691.326185	11634.300001
691.663170	11419.713205
692.000105	11176.606081
692.336990	11067.210522
692.673825	10811.392129
693.010610	10697.772083
693.347345	10477.763526
693.684030	10283.968970
694.020665	10227.198016
694.357251	10030.673674
694.693786	9969.131268
695.030272	9809.009098
695.366707	9687.219862
695.703093	9624.654102
696.039429	9616.066497
696.375716	9544.129231
696.711952	9412.519828
697.048139	9446.033418
697.384276	9404.151512
697.720363	9424.253113
698.056400	9359.698618
698.392388	9314.716402
698.728326	9269.900544
699.064214	9208.806801
699.400053	9254.275488
699.735842	9064.115603
700.071581	9026.841312
700.407270	8953.971433
700.742910	8876.105770
701.078501	8781.576574
701.414042	8657.110486
701.749533	8591.411648
702.084974	8451.012993
702.420366	8558.477790
702.755709	8449.427550
703.091002	8321.599012
703.426246	8340.435283
703.761440	8299.924571
704.096584	8248.928259
704.431679	8183.945265
704.766725	8173.565529
705.101721	8124.658775
705.436668	8161.628077
705.771565	8059.726193
706.106413	8138.819376
706.441212	8179.307403
706.775961	8142.716188
707.110661	8174.437649
707.445311	8319.849732
707.779913	8219.548414
708.114465	8350.252930
708.448967	8382.786017
708.783421	8528.117441
709.117825	8708.457158
709.452180	8745.751614
709.786485	8833.883586
710.120742	9118.751628
710.454949	9113.329868
710.789107	9218.574036
711.123216	9432.429865
711.457275	9598.087221
711.791286	9759.152087
712.125247	9752.275953
712.459159	9736.938242
712.793023	9992.585236
713.126837	9562.544566
713.460602	9714.676507
713.794318	9544.320795
714.127985	9571.212830
714.461602	9248.392461
714.795171	9196.511427
715.128691	8952.887585
715.462162	8701.636477
715.795584	8648.994228
716.128957	8500.706167
716.462281	8336.001588
716.795556	8377.492805
717.128782	8177.064090
717.461960	7911.062566
717.795088	7976.045560
718.128167	7886.527270
718.461198	7719.385294
718.794180	7659.640059
719.127113	7657.210223
719.459997	7502.260277
719.792833	7271.120853
720.125619	7332.905234
720.458357	7185.688419
720.791046	7180.831267
721.123686	7173.990421
721.456278	7018.564086
721.788821	7031.842486
722.121315	6930.669048
722.453761	6996.569532
722.786158	6944.444001
723.118506	6949.404497
723.450805	6913.282109
723.783056	6983.817933
724.115259	6897.664614
724.447412	6884.668520
724.779518	6938.160203
725.111574	6938.603825
725.443582	7024.263111
725.775542	6999.967270
726.107453	7191.359717
726.439315	7101.503670
726.771129	7159.373596
727.102895	7330.238464
727.434612	7447.036958
727.766281	7473.225752
728.097901	7553.687608
728.429473	7539.259826
728.760996	7515.770570
729.092471	7492.921540
729.423897	7450.371681
729.755276	7453.517361
730.086606	7381.302832
730.417887	7481.175651
730.749120	7677.190836
731.080305	7879.043677
731.411442	7996.658838
731.742530	7996.555494
732.073570	8100.257070
732.404562	8183.627672
732.735506	8033.073613
733.066401	8178.548710
733.397249	8109.005992
733.728048	7868.096812
734.058798	7531.816562
734.389501	7304.939433
734.720156	7132.816797
735.050762	6892.981382
735.381320	6796.261805
735.711831	6752.605412
736.042293	6637.901518
736.372707	6655.658983
736.703073	6519.021028
737.033391	6558.657100
737.363661	6573.415078
737.693883	6599.729901
738.024056	6687.365320
738.354182	6724.100208
738.684260	6759.305106
739.014290	6878.641820
739.344272	6992.435786
739.674207	7014.022007
740.004093	7078.153045
740.333931	7097.579132
740.663722	7104.959381
740.993464	7182.832605
741.323159	7172.651995
741.652806	6921.592451
741.982405	6936.277332
742.311956	6992.987792
742.641460	6830.859243
742.970915	6634.377752
743.300323	6630.188553
743.629683	6578.574699
743.958996	6441.805675
744.288260	6352.773857
744.617477	6302.614376
744.946647	6306.070087
745.275768	6140.868955
745.604842	6090.091933
745.933869	6079.195479
746.262847	6031.478437
746.591778	6025.111460
746.920662	5978.659748
747.249498	5971.934848
747.578286	6016.793556
747.907027	6096.847079
748.235720	6153.247508
748.564365	6130.300176
748.892963	6155.914278
749.221514	6312.631149
749.550017	6144.695191
749.878473	6021.862436
750.206881	6070.859931
750.535242	6012.551425
750.863555	5940.772956
751.191821	5962.868333
751.520039	5965.787161
751.848210	5870.153952
752.176334	5895.364763
752.504411	5946.040962
752.832440	5867.230083
753.160421	5797.339526
753.488356	5843.980281
753.816243	5876.619232
754.144082	5728.691613
754.471875	5700.569537
754.799620	5742.600157
755.127318	5756.365028
755.454969	5707.400300
755.782572	5674.957955
756.110129	5717.298606
756.437638	5704.743612
756.765100	5640.665506
757.092515	5640.559641
757.419882	5690.078896
757.747203	5672.392007
758.074477	5735.489609
758.401703	5723.746242
758.728882	5673.231359
759.056014	5729.939299
759.383099	5859.426377
759.710138	5868.145052
760.037129	5857.215831
760.364073	5864.248240
760.690970	5942.847391
761.017820	5925.183188
761.344623	5876.551176
761.671379	5978.359799
761.998088	6097.850268
762.324751	6342.535273
762.651366	6943.453415
762.977935	8258.014938
763.304456	9888.109843
763.630931	10791.567792
763.957359	10405.780891
764.283740	9456.713103
764.610074	8615.145400
764.936362	7625.498845
765.262602	7025.699840
765.588796	6486.616491
765.914943	6151.838506
766.241044	5984.746941
766.567097	5779.604747
766.893104	5530.254154
767.219064	5346.635166
767.544978	5283.303151
767.870845	5206.334814
768.196665	5101.846818
768.522438	5027.479716
768.848165	4993.830014
769.173846	4926.218059
769.499479	4883.890011
769.825066	4831.411599
770.150607	4770.816930
770.476101	4747.753651
770.801548	4740.302826
771.126949	4667.561496
771.452303	4612.065954
771.777611	4570.975509
772.102872	4590.787244
772.428087	4550.813414
772.753256	4509.354965
773.078378	4465.045743
773.403453	4397.403541
773.728482	4385.849217
774.053465	4339.631918
774.378401	4326.008200
774.703291	4325.355370
775.028135	4250.227055
775.352932	4203.551011
775.677683	4193.463662
776.002388	4211.546281
776.327046	4224.562540
776.651658	4148.095798
776.976224	4084.516766
777.300743	4090.435081
777.625216	4111.378554
777.949643	4108.873101
778.274024	4064.654620
778.598359	4017.058566
778.922647	4040.741907
779.246889	4037.387019
779.571086	4028.948127
779.895236	4011.152854
780.219339	3999.858149
780.543397	3991.240296
780.867409	4042.816341
781.191374	4057.503743
781.515294	3995.923528
781.839167	3988.122343
782.162995	4006.764530
782.486776	3995.666429
782.810511	4005.045496
783.134201	4001.562059
783.457844	3956.771407
783.781441	3900.534815
784.104993	3908.358686
784.428498	3923.950975
784.751958	3921.193464
785.075372	3902.289137
785.398739	3863.706666
785.722061	3874.151937
786.045337	3918.342691
786.368568	3951.553813
786.691752	3864.702294
787.014891	3916.147269
787.337983	4039.741237
787.661030	4203.772822
787.984031	4363.390876
788.306987	4534.225498
788.629897	4616.865133
788.952760	4571.391404
789.275579	4506.967979
789.598351	4439.547587
789.921078	4297.578613
790.243759	4097.303653
790.566395	4076.264397
790.888984	4076.965117
791.211529	3967.451091
791.534027	3904.527409
791.856480	3898.783014
792.178888	3833.731965
792.501249	3783.948050
792.823566	3794.806696
793.145836	3828.158969
793.468062	3772.522275
793.790241	3727.855131
794.112375	3756.050305
794.434464	3821.580264
794.756507	3846.150848
795.078505	3826.510512
795.400457	3860.200543
795.722364	3997.287160
796.044226	4104.630970
796.366042	4178.693082
796.687812	4156.204494
797.009538	4163.753622
797.331218	4118.476499
797.652852	4092.869958
797.974442	4075.089808
798.295986	4074.530240
798.617484	3990.894977
798.938938	3903.574631
799.260346	3944.690282
799.581709	3938.487142
799.903026	3868.478118
800.224299	3828.405986
800.545526	3825.976150
800.866708	3787.086168
801.187845	3724.510326
801.508936	3762.059360
801.829983	3759.682456
802.150984	3677.688089
802.471940	3668.926563
802.792851	3679.344108
803.113717	3678.756813
803.434538	3683.205632
803.755314	3622.114409
804.076045	3600.321501
804.396731	3617.935292
804.717372	3645.825476
805.037967	3628.970378
805.358518	3614.701392
805.679024	3646.566526
805.999485	3659.156807
806.319901	3663.466994
806.640272	3674.118952
806.960598	3692.912373
807.280879	3666.985719
807.601115	3675.951411
807.921306	3698.354299
808.241453	3735.174887
808.561554	3710.213613
808.881611	3645.883449
809.201623	3682.880477
809.521590	3693.308104
809.841513	3662.879699
810.161390	3696.950338
810.481223	3673.506452
810.801011	3618.693986
811.120755	3612.465640
811.440453	3648.315806
811.760107	3649.228255
812.079716	3608.805763
812.399281	3573.217737
812.718801	3599.645986
813.038276	3570.981985
813.357707	3568.428641
813.677093	3589.228442
813.996434	3532.729710
814.315731	3543.260680
814.634983	3548.949622
814.954191	3559.762898
815.273354	3595.398814
815.592473	3589.112495
815.911547	3593.256324
816.230577	3629.971047
816.549562	3682.273018
816.868502	3724.225501
817.187399	3748.380189
817.506250	3747.044283
817.825058	3720.452197
818.143821	3812.589366
818.462539	3915.620468
818.781213	3962.402376
819.099843	4018.575953
819.418429	4264.433026
819.736970	4505.871528
820.055466	4749.376903
820.373919	5118.651504
820.692327	5526.720305
821.010691	5968.242203
821.329011	7348.094231
821.647286	10099.059447
821.965517	14667.718546
822.283704	18696.391930
822.601847	20861.035665
822.919945	19052.688081
823.237999	16475.211654
823.556010	13983.394514
823.873976	11886.430790
824.191897	9786.863309
824.509775	8426.386956
824.827609	7297.037425
825.145398	6754.717656
825.463144	6635.101157
825.780845	6751.975268
826.098502	6939.102899
826.416116	7811.303173
826.733685	9145.542841
827.051210	10260.099106
827.368692	10305.630808
827.686129	9047.494919
828.003522	7528.232302
828.320872	6509.790676
828.638177	5806.685825
828.955439	5244.355196
829.272656	4746.004371
829.589830	4461.814364
829.906960	4288.587715
830.224046	4100.154425
830.541088	3973.235815
830.858086	3930.844753
831.175041	3849.760314
831.491952	3834.939321
831.808819	3846.377699
832.125642	3920.674225
832.442421	4067.613777
832.759157	4341.560159
833.075849	4890.776227
833.392497	5756.947281
833.709101	6537.471651
834.025662	6874.762652
834.342179	6514.552045
834.658653	5847.161249
834.975083	5199.289801
835.291469	4620.835041
835.607811	4210.449830
835.924110	4067.659147
836.240366	3871.875856
836.556578	3665.904392
836.872746	3560.244328
837.188871	3517.059283
837.504952	3452.116619
837.820990	3366.066643
838.136984	3322.841270
838.452935	3345.226513
838.768842	3343.774661
839.084706	3368.050337
839.400526	3522.007176
839.716303	3858.050491
840.032037	4385.140934
840.347727	4651.389475
840.663373	4374.118452
840.978977	3989.100327
841.294537	3682.225127
841.610054	3453.966722
841.925527	3347.492512
842.240957	3277.019702
842.556344	3222.875189
842.871687	3168.201355
843.186987	3114.036677
843.502244	3079.288004
843.817458	3041.381048
844.132629	3010.536748
844.447756	3021.292049
844.762840	3004.147085
845.077881	2975.528455
845.392879	2954.159004
845.707833	2954.403500
846.022745	2949.720268
846.337613	2954.058181
846.652438	2941.606531
846.967221	2934.745520
847.281960	2923.009714
847.596656	2919.427974
847.911309	2922.500558
848.225919	2912.761048
848.540485	2907.278793
848.855009	2910.515214
849.169490	2897.420817
849.483928	2888.243397
849.798323	2886.577295
850.112675	2884.117212
850.426984	2896.284037
850.741251	2892.351937
851.055474	2883.237531
851.369654	2879.716285
851.683792	2883.524877
851.997887	2893.080384
852.311938	2894.262534
852.625947	2881.016903
852.939914	2887.172151
853.253837	2890.390928
853.567718	2875.053218
853.881555	2874.740666
854.195350	2888.364384
854.509103	2885.443036
854.822812	2876.926006
855.136479	2874.234030
855.450103	2878.246788
855.763685	2869.749924
856.077224	2865.406970
856.390720	2879.360883
856.704173	2888.366905
857.017584	2883.091337
857.330953	2877.243599
857.644278	2885.332130
857.957561	2897.602299
858.270802	2900.571538
858.584000	2896.405025
858.897155	2884.515463
859.210268	2884.223076
859.523339	2882.251985
859.836367	2884.301214
860.149352	2877.374669
860.462295	2871.032897
860.775195	2881.876419
861.088054	2877.909031
861.400869	2864.686085
861.713642	2860.917822
862.026373	2875.786705
862.339062	2878.017416
862.651708	2883.209804
862.964312	2889.654920
863.276873	2879.864999
863.589392	2890.063253
863.901869	2900.775705
864.214303	2924.171700
864.526696	2939.411108
864.839045	2933.409614
865.151353	2933.409614
865.463619	2933.419697
865.775842	2935.852053
866.088023	2952.906277
866.400162	2960.132771
866.712258	2932.461878
867.024313	2919.027203
867.336325	2932.139244
867.648296	2951.227573
867.960224	2945.858744
868.272110	2928.023142
868.583954	2933.394491
868.895755	2949.594239
869.207515	2934.261569
869.519233	2939.516972
869.830909	2952.346709
870.142542	2958.817030
870.454134	2958.590178
870.765684	2960.856177
871.077191	2963.991774
871.388657	2968.675006
871.700081	2980.136069
872.011463	2990.919098
872.322803	2996.822289
872.634101	2993.696773
872.945357	3012.480113
873.256571	3038.893238
873.567744	3031.207999
873.878874	3023.489992
874.189963	3046.495298
874.501010	3047.581667
874.812015	3038.114380
875.122979	3037.993392
875.433900	3034.257897
875.744780	3038.368958
876.055618	3047.354815
876.366415	3046.003786
876.677169	3056.486865
876.987882	3053.255485
877.298554	3046.160061
877.609183	3067.945408
877.919771	3093.078080
878.230317	3118.717389
878.540822	3171.089936
878.851285	3209.231306
879.161707	3250.498191
879.472087	3351.076772
879.782425	3579.834252
880.092722	4018.517980
880.402977	4548.179412
880.713191	5177.184342
881.023363	6333.635116
881.333494	7627.875749
881.643583	8174.906476
881.953631	7871.577729
882.263637	7244.642192
882.573602	6662.663666
882.883526	6077.645324
883.193408	5501.824567
883.503248	5043.356830
883.813048	4734.986929
884.122806	4436.321249
884.432522	4114.751086
884.742197	3883.168040
885.051831	3686.500026
885.361424	3549.357956
885.670975	3475.956235
885.980485	3391.703431
886.289954	3314.777944
886.599382	3271.111469
886.908768	3232.120665
887.218113	3187.632482
887.527417	3130.531333
887.836680	3080.117274
888.145901	3075.844896
888.455082	3067.032959
888.764221	3015.409023
889.073319	2986.258551
889.382376	2982.787716
889.691392	2986.906339
890.000366	2986.853407
890.309300	2973.023001
890.618193	2986.992039
890.927044	3002.496107
891.235855	3007.048269
891.544625	2987.513798
891.853353	2999.184069
892.162041	3020.641741
892.470687	3057.905950
892.779293	3110.931327
893.087858	3156.886485
893.396381	3228.538925
893.704864	3348.399920
894.013306	3593.770521
894.321707	3892.191706
894.630068	4100.497224
894.938387	4096.194599
895.246665	4050.481416
895.554903	3928.228394
895.863100	3729.480903
896.171256	3560.836663
896.479371	3421.930190
896.787446	3299.233546
897.095480	3195.834440
897.403473	3129.054275
897.711425	3094.093873
898.019336	3085.158428
898.327207	3052.688356
898.635038	3020.044364
898.942827	3006.092971
899.250576	2991.962616
899.558284	2961.390539
899.865952	2943.164247
900.173579	2923.400403
900.481165	2917.119126
900.788711	2902.310736
901.096216	2874.768392
901.403681	2867.793956
901.711105	2873.566077
902.018489	2873.440048
902.325832	2871.524410
902.633135	2884.235679
902.940397	2912.503949
903.247619	2997.490242
903.554800	3188.998635
903.861941	3532.167621
904.169041	3962.069660
904.476101	4266.666257
904.783121	4219.453331
905.090100	3976.736897
905.397039	3697.993857
905.703938	3450.085034
906.010796	3265.276334
906.317614	3153.639982
906.624391	3055.796227
906.931129	2987.481031
907.237826	2922.709765
907.544483	2874.733104
907.851099	2847.178157
908.157675	2826.970692
908.464211	2805.170222
908.770707	2791.526339
909.077163	2779.475461
909.383578	2763.552977
909.689954	2750.014958
909.996289	2751.670977
910.302584	2752.303642
910.608839	2753.377408
910.915054	2746.118146
911.221229	2737.371744
911.527363	2740.940881
911.833458	2749.679721
912.139513	2754.093252
912.445527	2755.497213
912.751502	2766.607916
913.057436	2773.335336
913.363331	2785.877727
913.669186	2810.057621
913.975000	2841.108608
914.280775	2905.242167
914.586510	2974.132055
914.892205	3053.368911
915.197859	3183.463448
915.503475	3376.627861
915.809050	3591.643154
916.114585	3733.168508
916.420081	3756.125922
916.725536	3695.863969
917.030952	3576.045824
917.336328	3451.456228
917.641665	3319.057884
917.946961	3218.554920
918.252218	3144.646563
918.557435	3071.204514
918.862612	3009.614217
919.167750	2958.454067
919.472848	2919.932090
919.777906	2894.852349
920.082925	2868.903010
920.387904	2835.981755
920.692843	2818.262099
920.997743	2808.593166
921.302603	2798.218471
921.607423	2787.281688
921.912204	2773.758793
922.216946	2759.356216
922.521647	2752.066708
922.826310	2742.077661
923.130932	2738.758062
923.435516	2727.239025
923.740059	2721.073694
924.044564	2714.905842
924.349028	2708.339739
924.653454	2702.459233
924.957840	2693.982533
925.262186	2690.201668
925.566493	2687.872655
925.870761	2684.633713
926.174989	2678.927127
926.479178	2673.555778
926.783328	2669.094357
927.087438	2668.544871
927.391509	2668.428924
927.695541	2665.134530
927.999533	2657.232522
928.303486	2657.784528
928.607400	2654.354023
928.911275	2656.844353
929.215110	2654.432161
929.518906	2653.015596
929.822663	2654.480052
930.126381	2652.584578
930.430060	2654.618683
930.733699	2653.595329
931.037299	2659.274189
931.340861	2658.979281
931.644383	2658.898623
931.947866	2655.836122
932.251309	2654.124650
932.554714	2655.889054
932.858080	2651.498209
933.161407	2653.471821
933.464694	2650.797489
933.767943	2645.957981
934.071153	2649.932931
934.374323	2647.510656
934.677455	2649.091058
934.980548	2645.831952
935.283602	2645.171561
935.586617	2645.335398
935.889593	2645.461427
936.192530	2645.126191
936.495428	2645.486633
936.798287	2650.958806
937.101108	2650.280770
937.403890	2653.474341
937.706632	2658.986843
938.009336	2666.276352
938.312002	2673.701971
938.614628	2684.212777
938.917216	2690.534384
939.219765	2687.449198
939.522275	2691.187213
939.824747	2689.775690
940.127179	2686.103210
940.429573	2681.152797
940.731929	2682.019875
941.034246	2677.714730
941.336524	2673.875891
941.638763	2670.276507
941.940964	2667.375323
942.243126	2667.612257
942.545250	2667.342556
942.847335	2663.639828
943.149381	2660.252173
943.451389	2655.420227
943.753359	2650.046357
944.055290	2652.294711
944.357182	2650.989053
944.659036	2649.701038
944.960851	2647.298928
945.262628	2647.820687
945.564367	2647.553506
945.866067	2648.123157
946.167729	2649.189361
946.469352	2651.740184
946.770937	2647.765235
947.072484	2648.715492
947.373992	2646.431849
947.675462	2643.868423
947.976893	2640.357259
948.278286	2640.004378
948.579641	2641.196611
948.880958	2640.190901
949.182236	2638.358442
949.483476	2639.291055
949.784678	2637.022536
950.085841	2639.916158
950.386967	2639.505304
950.688054	2640.226189
950.989103	2640.657208
951.290114	2643.775161
951.591087	2643.308855
951.892021	2645.100985
952.192917	2647.845893
952.493776	2649.854793
952.794596	2652.007366
953.095378	2653.227325
953.396122	2650.502581
953.696828	2645.975625
953.997496	2645.516880
954.298126	2644.836324
954.598718	2644.569143
954.899272	2639.044038
955.199788	2636.488173
955.500266	2637.314923
955.800706	2636.339459
956.101108	2631.346197
956.401472	2632.614047
956.701798	2626.340331
957.002087	2626.988119
957.302337	2624.986781
957.602550	2625.170783
957.902724	2620.648868
958.202861	2618.740791
958.502960	2619.577623
958.803022	2619.355812
959.103045	2617.757766
959.403031	2618.728188
959.702979	2615.872375
960.002889	2617.354474
960.302762	2616.361367
960.602596	2614.939761
960.902393	2615.955554
961.202153	2613.122425
961.501875	2615.380862
961.801559	2611.655450
962.101205	2614.241562
962.400814	2613.195522
962.700385	2612.124277
962.999918	2610.377517
963.299414	2609.767537
963.598873	2609.999431
963.898293	2609.442383
964.197677	2612.734257
964.497022	2612.580501
964.796331	2610.289297
965.095601	2611.300048
965.394835	2610.256529
965.694030	2613.838269
965.993189	2612.459514
966.292309	2608.867692
966.591393	2612.129318
966.890439	2610.367435
967.189447	2611.599997
967.488419	2611.405912
967.787353	2609.938937
968.086249	2612.293156
968.385108	2612.114195
968.683930	2608.731580
968.982714	2608.965994
969.281462	2610.773248
969.580172	2611.431118
969.878844	2611.312651
970.177480	2612.509925
970.476078	2611.789040
970.774639	2609.863319
971.073162	2612.351129
971.371649	2611.988166
971.670098	2614.037395
971.968510	2611.141252
972.266885	2609.936416
972.565223	2612.870368
972.863524	2613.195522
973.161788	2614.654936
973.460014	2611.468927
973.758204	2612.038577
974.056356	2610.397682
974.354471	2610.914400
974.652550	2611.451283
974.950591	2608.673607
975.248595	2609.707044
975.546563	2611.413474
975.844493	2610.753083
976.142386	2612.116715
976.440243	2609.641509
976.738062	2610.110336
977.035845	2610.455655
977.333590	2609.817949
977.631299	2609.283587
977.928971	2606.289141
978.226606	2607.945160
978.524204	2605.283431
978.821765	2605.348966
979.119290	2608.829883
979.416777	2606.687392
979.714228	2609.104626
980.011642	2607.839296
980.309020	2609.354163
980.606360	2609.777620
980.903664	2609.744852
981.200931	2611.098402
981.498162	2612.189812
981.795356	2610.150665
982.092513	2614.113012
982.389633	2616.583177
982.686717	2618.057715
982.983764	2620.757253
983.280775	2627.124230
983.577749	2626.993160
983.874686	2627.061216
984.171587	2623.300515
984.468451	2620.631224
984.765279	2619.622993
985.062070	2617.067128
985.358824	2615.983280
985.655543	2614.158382
985.952224	2613.150152
986.248869	2610.223762
986.545478	2609.475151
986.842050	2609.301231
987.138586	2610.327106
987.435086	2609.835593
987.731549	2607.793926
988.027975	2605.835437
988.324366	2606.112701
988.620719	2605.550612
988.917037	2606.868874
989.213318	2604.655807
989.509563	2606.266456
989.805772	2605.308637
990.101944	2605.971549
990.398080	2605.220417
990.694180	2603.990375
990.990244	2604.350818
991.286271	2604.973400
991.582262	2607.030191
991.878217	2606.160592
992.174136	2603.251846
992.470019	2605.963987
992.765865	2602.377206
993.061676	2601.104315
993.357450	2602.730087
993.653188	2605.386775
993.948890	2604.716301
994.244556	2605.590942
994.540186	2604.552464
994.835780	2608.088833
995.131337	2607.864502
995.426859	2608.172012
995.722345	2608.081272
996.017795	2610.254009
996.313208	2609.616303
996.608586	2611.962960
996.903928	2610.780809
997.199234	2612.565378
997.494504	2612.056221
997.789738	2610.395161
998.084936	2608.449276
998.380099	2609.094543
998.675225	2608.572784
998.970316	2608.078751
999.265371	2604.882659
999.560390	2605.974069
999.855373	2603.682865
1000.150320	2604.678493
1000.445232	2603.123297
1000.740108	2607.236878
1001.034948	2606.510952
1001.329752	2603.579521
1001.624521	2604.678493
1001.919254	2601.910899
1002.213951	2605.013729
1002.508613	2605.016250
1002.803239	2604.408791
1003.097829	2602.969542
1003.392384	2604.126486
1003.686903	2601.386619
1003.981386	2604.524737
1004.275834	2604.307968
1004.570246	2599.503748
1004.864623	2603.995416
1005.158964	2603.874429
1005.453270	2602.745210
1005.747540	2601.510127
1006.041775	2605.764861
1006.335974	2602.087340
1006.630138	2605.442227
1006.924266	2602.533482
1007.218359	2603.700509
1007.512416	2600.506938
1007.806438	2598.858481
1008.100425	2599.700353
1008.394376	2596.847060
1008.688292	2602.740169
1008.982172	2601.179932
1009.276017	2603.541713
1009.569827	2602.694799
1009.863602	2604.605396
1010.157341	2604.711260
1010.451045	2602.740169
1010.744714	2601.089191
1011.038347	2605.432145
1011.331945	2600.766557
1011.625508	2602.853595
1011.919036	2602.127669
1012.212528	2601.714294
1012.505986	2603.881990
1012.799408	2605.296034
1013.092795	2602.309150
1013.386147	2603.660180
1013.679464	2601.875611
1013.972745	2601.971393
1014.265992	2601.981475
1014.559204	2600.653131
1014.852380	2602.626743
1015.145521	2601.457195
1015.438628	2601.313522
1015.731699	2600.842175
1016.024736	2602.455344
1016.317737	2602.175560
1016.610703	2601.936105
1016.903635	2602.112545
1017.196531	2602.553646
1017.489393	2602.026846
1017.782219	2599.181114
1018.075011	2604.008019
1018.367768	2602.745210
1018.660490	2603.574480
1018.953177	2603.574480
1019.245829	2603.574480
