Dividing Wavelength (nm)	Counts (n)	Blue Motor Position (mm): 5.600000	Red Motor Position (mm): 0.000000	
326.493990	2161.009063
326.888308	2161.009063
327.282561	2161.009063
327.676750	2117.889554
328.070874	2114.995932
328.464933	2113.975098
328.858929	2118.537342
329.252859	2122.895420
329.646726	2132.027470
330.040528	2143.251599
330.434265	2158.037303
330.827938	2176.034222
331.221547	2192.919567
331.615091	2212.995962
332.008571	2227.574979
332.401986	2248.778072
332.795338	2266.207862
333.188625	2285.981788
333.581847	2304.122380
333.975006	2321.431182
334.368100	2340.927844
334.761129	2357.384691
335.154095	2374.121322
335.546996	2389.733775
335.939833	2407.952505
336.332606	2418.909453
336.725315	2434.804211
337.117960	2448.848866
337.510540	2459.238684
337.903056	2469.399129
338.295508	2480.167034
338.687896	2487.741368
339.080220	2494.040289
339.472480	2503.298368
339.864676	2509.559481
340.256807	2514.124246
340.648875	2517.204391
341.040879	2519.112468
341.432818	2519.419978
341.824694	2525.940711
342.216506	2523.815864
342.608253	2527.979857
342.999937	2528.736031
343.391557	2530.989426
343.783113	2526.691843
344.174605	2524.627490
344.566033	2525.860052
344.957397	2523.513395
345.348697	2521.335617
345.739934	2520.483662
346.131106	2516.906963
346.522215	2518.966274
346.913260	2516.632220
347.304241	2512.410254
347.695159	2510.454286
348.086012	2511.026457
348.476802	2505.377844
348.867528	2503.527741
349.258191	2500.107318
349.648789	2502.423728
350.039324	2493.906699
350.429796	2498.879797
350.820203	2500.840806
351.210548	2500.876094
351.600828	2494.466267
351.991045	2494.735968
352.381198	2494.168839
352.771288	2492.664054
353.161314	2492.243118
353.551276	2493.886534
353.941175	2491.449136
354.331010	2491.774291
354.720782	2490.761019
355.110490	2492.447285
355.500135	2489.750267
355.889717	2492.674137
356.279235	2492.081801
356.668689	2492.442243
357.058080	2493.667244
357.447408	2491.449136
357.836672	2494.040289
358.225873	2495.098932
358.615010	2493.105155
359.004084	2493.584065
359.393095	2493.959631
359.782043	2495.953407
360.170927	2497.097749
360.559748	2495.270331
360.948505	2497.576659
361.337199	2499.189828
361.725830	2499.996412
362.114398	2497.377533
362.502903	2499.630929
362.891344	2496.439878
363.279722	2497.690085
363.668037	2501.612102
364.056289	2498.025321
364.444478	2501.352483
364.832603	2501.675117
365.220665	2502.469098
365.608665	2499.565394
365.996601	2500.555981
366.384474	2501.400374
366.772284	2501.975065
367.160031	2504.629233
367.547715	2505.203924
367.935336	2501.687720
368.322893	2502.459016
368.710388	2499.550270
369.097820	2502.680827
369.485189	2500.795435
369.872495	2506.280211
370.259738	2505.889521
370.646918	2506.111332
371.034035	2505.682834
371.421090	2505.133348
371.808081	2505.423215
372.195010	2505.645025
372.581875	2505.390447
372.968678	2507.104439
373.355418	2508.515962
373.742096	2508.899090
374.128710	2508.420181
374.515262	2505.080416
374.901751	2507.721981
375.288177	2510.252640
375.674540	2508.906652
376.060841	2508.253822
376.447079	2508.377331
376.833254	2508.238699
377.219367	2510.723988
377.605417	2511.139883
377.991404	2510.923113
378.377329	2512.132990
378.763191	2511.187774
379.148991	2512.135511
379.534727	2510.960922
379.920402	2514.623320
380.306013	2511.817918
380.691563	2512.352281
381.077049	2510.655932
381.462474	2513.864627
381.847835	2511.918741
382.233134	2512.319513
382.618371	2509.698113
383.003545	2514.938392
383.388657	2512.720285
383.773706	2514.998886
384.158693	2510.580315
384.543618	2510.824811
384.928480	2512.006962
385.313280	2514.550224
385.698017	2515.465193
386.082692	2514.008300
386.467305	2514.968639
386.851856	2516.869154
387.236344	2516.087776
387.620770	2512.427898
388.005133	2513.960409
388.389435	2513.340347
388.773674	2511.139883
389.157851	2514.961078
389.541965	2515.661798
389.926018	2515.606345
390.310008	2516.085255
390.693936	2518.101717
391.077802	2516.425533
391.461606	2517.461490
391.845348	2519.440143
392.229027	2520.483662
392.612645	2517.544669
392.996200	2520.158507
393.379694	2519.127591
393.763125	2519.530884
394.146494	2519.031809
394.529801	2519.740092
394.913047	2516.720440
395.296230	2516.027282
395.679351	2522.106913
396.062410	2516.670029
396.445408	2519.472910
396.828343	2519.498116
397.211217	2520.629855
397.594028	2521.144053
397.976778	2520.791172
398.359466	2522.704290
398.742092	2521.106244
399.124656	2522.946265
399.507158	2522.091790
399.889598	2521.837212
400.271977	2521.960720
400.654294	2522.109434
401.036549	2520.145904
401.418742	2520.312263
401.800874	2522.910977
402.182944	2523.969620
402.564952	2524.350227
402.946898	2520.655061
403.328783	2523.110103
403.710606	2521.489372
404.092367	2522.822757
404.474067	2522.285874
404.855705	2521.068436
405.237282	2524.007428
405.618797	2519.888806
406.000250	2525.519774
406.381642	2524.803931
406.762972	2519.646830
407.144240	2520.040040
407.525447	2521.118847
407.906593	2521.471728
408.287677	2525.209743
408.668700	2523.357119
409.049661	2526.845598
409.430560	2524.057840
409.811399	2524.670340
410.192176	2526.031452
410.572891	2523.795700
410.953545	2527.916843
411.334138	2527.092614
411.714669	2522.963909
412.095139	2524.088087
412.475547	2525.366019
412.855894	2526.976668
413.236180	2526.739734
413.616405	2529.877852
413.996568	2528.468849
414.376670	2526.268386
414.756711	2524.675381
415.136691	2529.847605
415.516609	2529.318284
415.896466	2529.041020
416.276262	2526.676719
416.655997	2526.704446
417.035670	2528.184024
417.415283	2529.822399
417.794834	2529.371216
418.174324	2530.223171
418.553753	2527.465660
418.933121	2531.980013
419.312428	2529.041020
419.691674	2529.633356
420.070859	2530.749972
420.449983	2527.788294
420.829045	2528.867101
421.208047	2532.277441
421.586988	2528.849457
421.965867	2529.923222
422.344686	2530.205527
422.723444	2529.179652
423.102141	2529.494724
423.480777	2528.413397
423.859352	2529.449354
424.237866	2529.640918
424.616319	2530.220650
424.994712	2531.387677
425.373044	2531.526309
425.751314	2528.315094
426.129524	2528.395753
426.507673	2531.513706
426.885762	2524.350227
427.263789	2530.535722
427.641756	2530.933974
428.019662	2533.835158
428.397508	2529.847605
428.775292	2534.059489
429.153016	2530.462626
429.530679	2530.341638
429.908282	2530.863398
430.285824	2534.094777
430.663305	2530.865918
431.040726	2532.385826
431.418086	2532.579910
431.795385	2532.925229
432.172624	2533.550332
432.549802	2535.327339
432.926920	2531.765764
433.303977	2536.580066
433.680974	2531.087729
434.057910	2534.293903
434.434786	2535.874304
434.811601	2532.955476
435.188355	2537.361445
435.565050	2536.736342
435.941683	2533.446989
436.318257	2534.402287
436.694770	2535.612164
437.071222	2534.944212
437.447614	2534.238450
437.823946	2536.708615
438.200218	2535.917154
438.576429	2535.692823
438.952580	2536.058307
439.328670	2534.334232
439.704700	2533.696526
440.080670	2534.921526
440.456580	2533.396577
440.832429	2536.935467
441.208218	2536.108718
441.583947	2534.823224
441.959616	2533.961187
442.335224	2536.696012
442.710773	2535.649973
443.086261	2535.990251
443.461689	2536.509490
443.837057	2536.012936
444.212365	2532.763913
444.587612	2534.450178
444.962800	2533.920857
445.337927	2534.535878
445.712995	2531.680064
446.088002	2536.454037
446.462949	2538.019315
446.837837	2536.474202
447.212664	2536.264994
447.587431	2536.915303
447.962139	2538.735159
448.336786	2539.130890
448.711374	2538.069727
449.085901	2537.114428
449.460369	2538.415046
449.834776	2538.820859
450.209124	2537.283307
450.583412	2540.638195
450.957640	2539.803884
451.331808	2536.721218
451.705917	2539.687937
452.079965	2535.297092
452.453954	2537.132072
452.827883	2537.547968
453.201752	2538.432690
453.575562	2539.992927
453.949311	2535.828934
454.323001	2537.583256
454.696632	2540.469316
455.070202	2537.590817
455.443713	2537.941177
455.817164	2539.788760
456.190556	2537.295910
456.563888	2538.974614
456.937160	2538.659542
457.310373	2537.714326
457.683526	2538.745242
458.056619	2539.703061
458.429653	2540.849923
458.802628	2542.294214
459.175542	2537.414377
459.548398	2541.318751
459.921194	2540.723894
460.293930	2539.939995
460.666607	2540.794471
461.039224	2537.593338
461.411782	2538.992258
461.784280	2537.618544
462.156719	2542.127856
462.529099	2541.475026
462.901419	2539.297248
463.273680	2536.494366
463.645882	2534.530837
464.018024	2542.984852
464.390106	2537.981507
464.762130	2541.381765
465.134094	2537.273225
465.505999	2542.455531
465.877845	2540.371014
466.249631	2540.983514
466.621358	2540.716333
466.993026	2541.069213
467.364634	2546.866540
467.736184	2539.808925
468.107674	2541.787578
468.479105	2539.728267
468.850477	2541.412012
469.221790	2541.205325
469.593043	2542.304296
469.964238	2541.321271
470.335373	2541.717002
470.706449	2544.600542
471.077467	2541.507794
471.448425	2541.888401
471.819324	2541.142310
472.190164	2541.727084
472.560945	2541.366642
472.931667	2542.001827
473.302330	2540.600386
473.672934	2541.469985
474.043479	2540.728936
474.413965	2542.148020
474.784393	2540.363452
475.154761	2544.630789
475.525070	2545.807898
475.895321	2543.045346
476.265513	2545.442414
476.635645	2544.038453
477.005719	2542.379913
477.375734	2545.104657
477.745691	2542.773123
478.115588	2541.996786
478.485427	2543.451159
478.855207	2544.842517
479.224928	2543.201622
479.594591	2545.696993
479.964194	2542.969728
480.333739	2544.701365
480.703226	2543.904863
481.072653	2545.129863
481.442022	2542.155582
481.811333	2542.664739
482.180584	2539.876981
482.549777	2540.681045
482.918912	2536.917823
483.287988	2544.214893
483.657005	2543.438556
484.025964	2545.364277
484.394864	2543.090716
484.763706	2544.260264
485.132489	2542.269008
485.501213	2544.391334
485.869879	2543.539379
486.238487	2542.425284
486.607036	2545.999462
486.975527	2542.710109
487.343959	2541.674152
487.712333	2545.744884
488.080648	2544.928217
488.448905	2546.415357
488.817104	2541.863195
489.185244	2541.848072
489.553326	2544.063659
489.921350	2547.925183
490.289315	2546.427960
490.657222	2542.548792
491.025070	2546.589277
491.392861	2544.504760
491.760593	2544.875285
492.128267	2544.892929
492.495883	2544.708927
492.863440	2543.670449
493.230939	2543.519214
493.598380	2543.423432
493.965763	2546.846376
494.333088	2544.895449
494.700354	2545.762528
495.067563	2543.819163
495.434713	2545.273536
495.801805	2546.939637
496.168839	2544.955943
496.535815	2543.501570
496.902733	2546.175902
497.269593	2542.415202
497.636395	2544.565254
498.003139	2545.034081
498.369825	2546.470810
498.736453	2546.314534
499.103023	2546.498536
499.469535	2548.830070
499.835989	2545.225645
500.202385	2542.800850
500.568723	2542.533669
500.935003	2541.981662
501.301226	2541.434697
501.667390	2545.823022
502.033497	2545.671787
502.399546	2544.628268
502.765537	2544.703885
503.131470	2545.654143
503.497345	2547.254709
503.863163	2548.280584
504.228923	2547.499205
504.594625	2544.353525
504.960269	2550.034906
505.325856	2546.801005
505.691385	2547.950388
506.056856	2545.160110
506.422270	2546.485933
506.787625	2545.359235
507.152924	2544.661036
507.518164	2544.809750
507.883347	2544.703885
508.248472	2549.364432
508.613540	2545.974256
508.978550	2547.569781
509.343503	2547.214380
509.708398	2545.477703
510.073236	2546.846376
510.438016	2547.993238
510.802738	2544.935778
511.167403	2548.497354
511.532010	2545.586087
511.896561	2546.773279
512.261053	2545.041643
512.625488	2548.164638
512.989866	2544.492157
513.354186	2547.373176
513.718449	2546.052394
514.082655	2548.308310
514.446803	2546.798485
514.810894	2546.513660
515.174927	2544.688762
515.538904	2546.657333
515.902822	2545.621375
516.266684	2544.930737
516.630488	2545.792775
516.994235	2547.453835
517.357925	2546.274205
517.721558	2549.001469
518.085133	2547.267312
518.448651	2546.803526
518.812112	2542.205994
519.175516	2543.733463
519.538863	2541.283463
519.902152	2545.417209
520.265385	2547.998279
520.628560	2548.895605
520.991678	2547.181612
521.354739	2547.196736
521.717743	2550.208825
522.080690	2549.114895
522.443580	2547.804195
522.806413	2548.018444
523.169189	2547.093392
523.531908	2546.770758
523.894569	2549.059442
524.257174	2547.330327
524.619722	2547.252189
524.982213	2548.366284
525.344647	2549.424926
525.707025	2546.722867
526.069345	2548.076417
526.431608	2548.257899
526.793815	2548.091541
527.155964	2550.551624
527.518057	2547.073228
527.880093	2549.760163
528.242072	2547.486602
528.603995	2546.891746
528.965860	2550.042467
529.327669	2548.585574
529.689421	2548.320913
530.051117	2550.352498
530.412755	2547.882333
530.774337	2548.386448
531.135862	2547.602549
531.497331	2548.081458
531.858743	2548.119267
532.220098	2549.245965
532.581396	2548.593136
532.942638	2549.606408
533.303824	2547.705892
533.664953	2549.770245
534.026025	2547.216901
534.387040	2550.246634
534.747999	2548.583053
535.108902	2551.085986
535.469748	2546.216232
535.830537	2549.724875
536.191270	2552.205122
536.551947	2548.691438
536.912567	2546.801005
537.273131	2546.836293
537.633638	2544.282949
537.994089	2546.758156
538.354483	2549.359391
538.714821	2550.476007
539.075103	2548.865358
539.435328	2548.129349
539.795497	2547.930224
540.155609	2549.750080
540.515665	2546.874102
540.875665	2548.126829
541.235609	2547.206818
541.595496	2549.676984
541.955328	2548.303269
542.315102	2546.014585
542.674821	2546.712785
543.034483	2549.258568
543.394090	2548.436860
543.753640	2547.635316
544.113134	2548.464586
544.472571	2548.661191
544.831953	2548.535162
545.191278	2549.886192
545.550548	2549.243444
545.909761	2546.012065
546.268918	2549.167827
546.628019	2547.287477
546.987064	2547.531973
547.346053	2549.800492
547.704986	2549.538352
548.063863	2549.445091
548.422684	2550.753270
548.781449	2547.108516
549.140158	2549.102292
549.498811	2550.244113
549.857408	2549.230842
550.215949	2549.682025
550.574434	2548.993907
550.932864	2548.330996
551.291237	2547.978115
551.649555	2552.069011
552.007817	2549.177909
552.366022	2551.189330
552.724173	2548.552806
553.082267	2547.476520
553.440305	2548.089020
553.798288	2550.009700
554.156215	2548.699000
554.514086	2546.503577
554.871902	2547.685728
555.229661	2547.978115
555.587365	2543.773792
555.945014	2550.412992
556.302606	2549.855945
556.660143	2549.427447
557.017625	2549.377035
557.375050	2549.160265
557.732421	2551.005328
558.089735	2550.712941
558.446994	2548.383928
558.804197	2547.589946
559.161345	2550.546583
559.518437	2551.186809
559.875474	2550.123126
560.232455	2551.141439
560.589381	2549.656819
560.946251	2550.896943
561.303065	2550.687735
561.659825	2549.326623
562.016528	2549.621531
562.373177	2550.947354
562.729770	2550.581871
563.086307	2548.716644
563.442789	2550.589432
563.799216	2550.707900
564.155587	2550.342416
564.511904	2547.806716
564.868164	2550.498692
565.224370	2549.543393
565.580520	2551.307797
565.936615	2550.269319
566.292654	2549.608928
566.648638	2551.673281
567.004567	2550.420554
567.360441	2549.785368
567.716260	2547.640357
568.072023	2549.639175
568.427732	2551.370811
568.783385	2548.719164
569.138982	2549.745039
569.494525	2549.838301
569.850013	2551.343085
570.205445	2550.533980
570.560823	2551.085986
570.916145	2548.517518
571.271412	2548.681356
571.626625	2550.218908
571.981782	2552.580688
572.336884	2547.360573
572.691931	2545.765048
573.046923	2548.240255
573.401860	2545.810419
573.756743	2548.346119
574.111570	2552.774773
574.466342	2551.280071
574.821059	2550.304607
575.175722	2551.504402
575.530330	2552.870555
575.884882	2551.373332
576.239380	2550.423074
576.593823	2555.638148
576.948211	2548.751932
577.302544	2550.420554
577.656823	2551.073383
578.011047	2552.358878
578.365216	2551.864844
578.719330	2551.764021
579.073389	2552.716799
579.427394	2552.684032
579.781344	2549.729916
580.135239	2552.018600
580.489080	2551.774104
580.842866	2551.272509
581.196597	2552.973898
581.550273	2551.993394
581.903895	2552.832746
582.257463	2553.223435
582.610975	2553.215874
582.964434	2550.738147
583.317837	2551.678322
583.671186	2554.690411
584.024481	2551.300235
584.377721	2548.026006
584.730906	2547.824360
585.084037	2552.031202
585.437113	2551.980791
585.790135	2553.185627
586.143103	2551.088507
586.496016	2553.717468
586.848874	2553.223435
587.201679	2552.308466
587.554428	2548.260419
587.907124	2551.108671
588.259765	2553.195709
588.612352	2552.774773
588.964884	2551.915256
589.317362	2551.910215
589.669786	2550.665050
590.022155	2546.697662
590.374470	2545.472661
590.726731	2547.504246
591.078937	2548.099103
591.431090	2553.674619
591.783188	2552.530277
592.135232	2551.017931
592.487222	2551.433826
592.839157	2553.475493
593.191038	2552.913404
593.542866	2551.653116
593.894639	2551.065822
594.246358	2552.242931
594.598022	2549.450132
594.949633	2551.096068
595.301190	2552.938610
595.652692	2551.854762
596.004141	2551.585060
596.355535	2552.016079
596.706876	2552.900802
597.058162	2550.158414
597.409395	2551.653116
597.760573	2548.182282
598.111698	2552.089176
598.462768	2553.057077
598.813785	2552.996583
599.164748	2550.375183
599.515657	2549.442570
599.866511	2548.958619
600.217312	2551.506923
600.568060	2550.251675
600.918753	2553.692263
601.269392	2553.034392
601.619978	2551.741336
601.970510	2552.129505
602.320988	2548.273022
602.671412	2550.738147
603.021783	2550.299566
603.372100	2549.447611
603.722363	2550.042467
604.072572	2550.536500
604.422728	2550.564227
604.772830	2551.897612
605.122878	2551.010369
605.472872	2551.756460
605.822813	2551.438867
606.172701	2550.594474
606.522534	2550.430636
606.872314	2552.447098
607.222041	2551.534649
607.571714	2549.558517
607.921333	2548.764535
608.270899	2549.853424
608.620411	2547.995759
608.969870	2552.300904
609.319276	2555.348282
609.668627	2557.286605
610.017926	2562.415979
610.367171	2563.154508
610.716362	2564.913871
611.065500	2559.812223
611.414585	2559.348437
611.763616	2557.710062
612.112594	2556.089331
612.461518	2555.996070
612.810389	2554.745864
613.159207	2554.531615
613.507971	2553.062118
613.856682	2554.032541
614.205340	2554.589588
614.553945	2552.633620
614.902496	2553.094886
615.250994	2551.701007
615.599439	2548.764535
615.947830	2550.624721
616.296169	2548.958619
616.644454	2550.710420
616.992686	2550.894422
617.340864	2551.196892
617.688990	2552.374001
618.037063	2551.769063
618.385082	2552.048847
618.733048	2555.272664
619.080961	2552.154711
619.428821	2552.542880
619.776628	2552.873075
620.124382	2552.799978
620.472083	2553.924156
620.819731	2555.320555
621.167326	2550.264278
621.514868	2553.800648
621.862357	2550.231511
622.209793	2550.526418
622.557176	2553.117571
622.904506	2549.256047
623.251783	2552.590771
623.599007	2550.501212
623.946179	2553.319217
624.293297	2552.003476
624.640363	2552.222766
624.987376	2546.619524
625.334336	2546.014585
625.681243	2546.082641
626.028097	2547.899977
626.374899	2549.800492
626.721647	2552.056408
627.068343	2549.321582
627.414987	2549.266130
627.761577	2548.716644
628.108115	2550.556665
628.454600	2550.589432
628.801032	2552.593291
629.147412	2554.037582
629.493739	2551.572457
629.840014	2551.988353
630.186236	2552.610935
630.532405	2552.631100
630.878521	2551.118754
631.224585	2549.114895
631.570597	2549.447611
631.916556	2554.304763
632.262462	2549.994576
632.608316	2548.267981
632.954117	2547.582384
633.299866	2551.474155
633.645562	2551.600184
633.991206	2552.346275
634.336797	2551.464073
634.682336	2549.094730
635.027823	2551.060780
635.373257	2550.549103
635.718639	2551.590102
636.063968	2550.649926
636.409245	2549.639175
636.754470	2548.915769
637.099642	2550.223949
637.444762	2549.765204
637.789829	2551.146480
638.134845	2551.091027
638.479808	2551.098589
638.824719	2550.695297
639.169577	2549.349309
639.514383	2549.019113
639.859137	2547.584905
640.203839	2548.867878
640.548489	2548.618341
640.893086	2547.993238
641.237632	2550.259237
641.582125	2550.239072
641.926566	2549.361912
642.270955	2547.784030
642.615292	2546.433001
642.959576	2547.196736
643.303809	2544.749256
643.647990	2551.133877
643.992118	2550.171017
644.336195	2550.821326
644.680219	2548.492312
645.024192	2553.374670
645.368112	2551.794268
645.711981	2548.827549
646.055797	2550.690256
646.399562	2551.799309
646.743274	2552.832746
647.086935	2549.082128
647.430544	2550.460883
647.774101	2550.569268
648.117606	2547.262271
648.461059	2552.290822
648.804460	2550.954916
649.147810	2549.354350
649.491108	2551.295194
649.834354	2549.175389
650.177548	2550.793599
650.520690	2549.384597
650.863781	2552.129505
651.206820	2549.661860
651.549807	2553.112530
651.892742	2551.330482
652.235626	2549.956768
652.578458	2547.111036
652.921238	2550.889381
653.263967	2550.740667
653.606644	2551.179248
653.949269	2550.108002
654.291843	2549.782848
654.634365	2546.901828
654.976836	2547.479041
655.319255	2550.788558
655.661622	2550.652447
656.003938	2549.003990
656.346203	2549.742519
656.688416	2550.531459
657.030577	2550.745708
657.372687	2549.694628
657.714746	2547.257230
658.056753	2548.641027
658.398708	2549.064483
658.740612	2548.769576
659.082465	2549.228321
659.424266	2547.670604
659.766016	2545.714637
660.107715	2547.882333
660.449362	2548.018444
660.790958	2551.219577
661.132503	2548.343598
661.473996	2550.717982
661.815438	2548.061294
662.156829	2549.117416
662.498168	2550.670091
662.839456	2548.744370
663.180693	2551.201933
663.521879	2547.811757
663.863013	2549.591284
664.204097	2550.914587
664.545129	2548.295707
664.886110	2551.098589
665.227040	2548.608259
665.567918	2548.572971
665.908746	2548.888043
666.249522	2551.902653
666.590248	2551.819474
666.930922	2548.845193
667.271545	2550.234031
667.612118	2549.190512
667.952639	2549.210677
668.293109	2549.382076
668.633528	2551.149001
668.973896	2548.230172
669.314213	2550.352498
669.654480	2550.024823
669.994695	2548.507436
670.334859	2549.692107
670.674973	2550.100441
671.015035	2545.681869
671.355047	2549.976932
671.695008	2548.237734
672.034918	2546.281767
672.374777	2551.176727
672.714585	2548.557847
673.054342	2549.402241
673.394049	2548.885523
673.733705	2549.092210
674.073310	2550.642365
674.412864	2550.594474
674.752368	2549.513146
675.091820	2550.952396
675.431223	2549.959288
675.770574	2548.404092
676.109875	2550.594474
676.449125	2548.315872
676.788324	2545.785213
677.127473	2547.279915
677.466571	2545.823022
677.805619	2551.701007
678.144616	2549.608928
678.483562	2549.888712
678.822458	2551.713610
679.161303	2549.067004
679.500098	2551.872406
679.838842	2549.079607
680.177535	2549.349309
680.516179	2550.183620
680.854771	2552.363919
681.193314	2550.712941
681.531805	2551.453990
681.870247	2552.356357
682.208638	2549.591284
682.546978	2550.609597
682.885268	2550.259237
683.223508	2549.956768
683.561697	2551.085986
683.899836	2553.651933
684.237925	2553.165462
684.575963	2550.740667
684.913951	2550.055070
685.251889	2548.215049
685.589776	2548.802343
685.927614	2550.241593
686.265401	2550.297046
686.603137	2550.357539
686.940824	2548.593136
687.278460	2551.501881
687.616046	2549.593805
687.953582	2550.067673
688.291068	2552.132026
688.628504	2551.280071
688.965889	2551.408620
689.303224	2551.789227
689.640510	2551.537169
689.977745	2551.486758
690.314930	2550.324772
690.652065	2551.753939
690.989150	2551.602704
691.326185	2550.652447
691.663170	2550.770914
692.000105	2553.730071
692.336990	2550.055070
692.673825	2549.099772
693.010610	2550.055070
693.347345	2549.089689
693.684030	2549.230842
694.020665	2547.201777
694.357251	2547.360573
694.693786	2549.603887
695.030272	2549.273691
695.366707	2552.676470
695.703093	2549.412323
696.039429	2551.244782
696.375716	2547.688248
696.711952	2550.697817
697.048139	2551.832077
697.384276	2549.697148
697.720363	2553.230997
698.056400	2549.619010
698.392388	2551.504402
698.728326	2550.990204
699.064214	2550.284443
699.400053	2550.627241
699.735842	2546.974925
700.071581	2549.450132
700.407270	2550.748229
700.742910	2552.384083
701.078501	2548.913249
701.414042	2552.401727
701.749533	2549.286294
702.084974	2549.729916
702.420366	2553.576316
702.755709	2549.339226
703.091002	2551.605225
703.426246	2546.901828
703.761440	2550.276881
704.096584	2554.302242
704.431679	2551.723692
704.766725	2550.493651
705.101721	2550.251675
705.436668	2549.956768
705.771565	2551.280071
706.106413	2549.717313
706.441212	2552.840308
706.775961	2550.783517
707.110661	2554.012376
707.445311	2552.736964
707.779913	2549.089689
708.114465	2551.116233
708.448967	2553.992211
708.783421	2550.163455
709.117825	2553.291491
709.452180	2552.915925
709.786485	2551.509443
710.120742	2547.433670
710.454949	2548.923331
710.789107	2548.061294
711.123216	2548.525080
711.457275	2553.490617
711.791286	2554.234187
712.125247	2557.281564
712.459159	2550.160934
712.793023	2554.486244
713.126837	2549.745039
713.460602	2556.086811
713.794318	2555.043292
714.127985	2550.377704
714.461602	2554.140925
714.795171	2554.294681
715.128691	2550.980122
715.462162	2552.852911
715.795584	2552.144628
716.128957	2552.487427
716.462281	2552.610935
716.795556	2555.156718
717.128782	2551.948023
717.461960	2553.541028
717.795088	2553.485575
718.128167	2555.854918
718.461198	2552.031202
718.794180	2552.547921
719.127113	2551.809392
719.459997	2550.123126
719.792833	2549.359391
720.125619	2550.788558
720.458357	2552.179917
720.791046	2552.958775
721.123686	2553.387273
721.456278	2550.639844
721.788821	2550.889381
722.121315	2552.681511
722.453761	2549.843342
722.786158	2554.687891
723.118506	2550.574309
723.450805	2550.682694
723.783056	2553.072201
724.115259	2550.150852
724.447412	2552.920966
724.779518	2550.715461
725.111574	2553.699824
725.443582	2551.963147
725.775542	2550.589433
726.107453	2552.386604
726.439315	2551.063301
726.771129	2555.192006
727.102895	2551.234700
727.434612	2549.823177
727.766281	2549.775286
728.097901	2554.216543
728.429473	2551.975750
728.760996	2554.400545
729.092471	2552.610935
729.423897	2553.495658
729.755276	2552.184958
730.086606	2556.391801
730.417887	2553.672098
730.749120	2557.737789
731.080305	2553.538507
731.411442	2557.100083
731.742530	2552.744526
732.073570	2555.852397
732.404562	2555.073539
732.735506	2558.617470
733.066401	2556.762325
733.397249	2553.765359
733.728048	2555.035730
734.058798	2554.720658
734.389501	2556.270813
734.720156	2552.840308
735.050762	2554.309804
735.381320	2552.570606
735.711831	2553.903991
736.042293	2550.206305
736.372707	2552.777293
736.703073	2553.689742
737.033391	2552.338713
737.363661	2554.327448
737.693883	2551.695966
738.024056	2553.261244
738.354182	2557.941955
738.684260	2554.927345
739.014290	2554.234187
739.344272	2555.870041
739.674207	2553.465411
740.004093	2557.034548
740.333931	2555.680998
740.663722	2555.993549
740.993464	2557.435319
741.323159	2557.014383
741.652806	2554.871893
741.982405	2555.832232
742.311956	2556.074208
742.641460	2557.815927
742.970915	2555.552448
743.300323	2554.881975
743.629683	2551.151521
743.958996	2551.466593
744.288260	2550.702858
744.617477	2554.077911
744.946647	2552.661347
745.275768	2553.430123
745.604842	2554.080432
745.933869	2553.157900
746.262847	2552.265616
746.591778	2555.718807
746.920662	2556.081770
747.249498	2556.069167
747.578286	2553.830894
747.907027	2553.382232
748.235720	2557.062274
748.564365	2556.109496
748.892963	2557.274003
749.221514	2558.244425
749.550017	2556.376677
749.878473	2553.783003
750.206881	2557.334496
750.535242	2553.014228
750.863555	2552.477345
751.191821	2553.145297
751.520039	2555.118909
751.848210	2554.975236
752.176334	2556.001111
752.504411	2556.802655
752.832440	2557.142932
753.160421	2556.401883
753.488356	2554.771070
753.816243	2557.331976
754.144082	2555.088662
754.471875	2555.807027
754.799620	2556.265772
755.127318	2553.941800
755.454969	2558.325083
755.782572	2555.411296
756.110129	2555.481872
756.437638	2555.418858
756.765100	2555.557490
757.092515	2556.452294
757.419882	2558.998077
757.747203	2556.369115
758.074477	2558.496482
758.401703	2555.774259
758.728882	2559.129147
759.056014	2557.147974
759.383099	2558.302398
759.710138	2557.326935
760.037129	2555.154197
760.364073	2556.089331
760.690970	2555.008004
761.017820	2559.713921
761.344623	2560.258366
761.671379	2560.439847
761.998088	2561.962276
762.324751	2560.253324
762.651366	2564.256001
762.977935	2569.972669
763.304456	2574.111456
763.630931	2578.562795
763.957359	2577.436097
764.283740	2573.088102
764.610074	2573.922413
764.936362	2571.593400
765.262602	2564.603840
765.588796	2564.271124
765.914943	2559.517316
766.241044	2560.596123
766.567097	2559.330793
766.893104	2561.271638
767.219064	2556.900957
767.544978	2557.634445
767.870845	2555.391132
768.196665	2556.729558
768.522438	2559.262738
768.848165	2555.287788
769.173846	2556.248128
769.499479	2554.423230
769.825066	2556.454815
770.150607	2554.801317
770.476101	2554.640000
770.801548	2556.384239
771.126949	2552.691594
771.452303	2556.485062
771.777611	2554.365257
772.102872	2556.353992
772.428087	2555.330638
772.753256	2553.977088
773.078378	2555.554969
773.403453	2553.742674
773.728482	2554.453477
774.053465	2552.184958
774.378401	2553.525905
774.703291	2554.435833
775.028135	2555.751574
775.352932	2551.317879
775.677683	2553.551110
776.002388	2550.705379
776.327046	2549.561037
776.651658	2552.154711
776.976224	2550.539021
777.300743	2549.114895
777.625216	2552.109340
777.949643	2557.251317
778.274024	2554.647561
778.598359	2555.285267
778.922647	2557.798282
779.246889	2555.141594
779.571086	2551.978270
779.895236	2550.995245
780.219339	2552.197561
780.543397	2553.354505
780.867409	2556.785011
781.191374	2553.740154
781.515294	2553.057077
781.839167	2556.371636
782.162995	2554.128323
782.486776	2553.783003
782.810511	2556.190154
783.134201	2554.186296
783.457844	2552.570606
783.781441	2553.520863
784.104993	2554.347613
784.428498	2553.679660
784.751958	2552.789896
785.075372	2555.812068
785.398739	2554.279557
785.722061	2553.571275
786.045337	2550.982642
786.368568	2553.762839
786.691752	2551.101110
787.014891	2554.435833
787.337983	2555.038251
787.661030	2557.125288
787.984031	2555.983467
788.306987	2558.854404
788.629897	2559.136709
788.952760	2557.195865
789.275579	2557.755433
789.598351	2556.752243
789.921078	2556.031358
790.243759	2555.363405
790.566395	2557.672254
790.888984	2554.254351
791.211529	2552.532797
791.534027	2552.920966
791.856480	2552.089176
792.178888	2550.125646
792.501249	2547.370656
792.823566	2553.288970
793.145836	2545.132383
793.468062	2553.533466
793.790241	2552.129505
794.112375	2551.932900
794.434464	2550.622200
794.756507	2551.761501
795.078505	2552.154711
795.400457	2554.030020
795.722364	2553.803168
796.044226	2555.338199
796.366042	2554.524053
796.687812	2551.035575
797.009538	2555.738971
797.331218	2557.279044
797.652852	2553.770401
797.974442	2554.082952
798.295986	2559.865156
798.617484	2553.094886
798.938938	2554.637479
799.260346	2556.064126
799.581709	2554.942469
799.903026	2554.166131
800.224299	2552.832746
800.545526	2554.012376
800.866708	2553.651933
801.187845	2553.107489
801.508936	2555.544887
801.829983	2554.297201
802.150984	2551.585060
802.471940	2551.080945
802.792851	2553.490617
803.113717	2551.607746
803.434538	2550.501212
803.755314	2552.946172
804.076045	2553.750236
804.396731	2552.716799
804.717372	2555.514640
805.037967	2554.284598
805.358518	2554.685370
805.679024	2551.292673
805.999485	2548.469627
806.319901	2551.827036
806.640272	2552.646223
806.960598	2554.370298
807.280879	2553.672098
807.601115	2554.687891
807.921306	2553.984650
808.241453	2551.128836
808.561554	2549.845862
808.881611	2550.355019
809.201623	2548.121788
809.521590	2553.397355
809.841513	2554.181255
810.161390	2551.844680
810.481223	2556.001111
810.801011	2552.739485
811.120755	2553.752757
811.440453	2554.415668
811.760107	2552.056408
812.079716	2553.309135
812.399281	2554.067829
812.718801	2551.915256
813.038276	2551.345606
813.357707	2554.740823
813.677093	2552.333672
813.996434	2556.260731
814.315731	2553.046995
814.634983	2555.002963
814.954191	2552.152190
815.273354	2552.721841
815.592473	2552.132026
815.911547	2555.920453
816.230577	2556.986657
816.549562	2553.891388
816.868502	2555.229815
817.187399	2556.623694
817.506250	2555.741492
817.825058	2555.486913
818.143821	2553.926676
818.462539	2559.648386
818.781213	2557.082439
819.099843	2559.403890
819.418429	2561.531257
819.736970	2563.446895
820.055466	2563.262893
820.373919	2567.512586
820.692327	2571.053997
821.010691	2577.859554
821.329011	2590.386822
821.647286	2611.073196
821.965517	2633.811321
822.283704	2648.846562
822.601847	2670.730211
822.919945	2670.175684
823.237999	2662.339210
823.556010	2644.307003
823.873976	2629.995167
824.191897	2615.940430
824.509775	2597.898141
824.827609	2589.625607
825.145398	2583.732498
825.463144	2587.553693
825.780845	2587.778024
826.098502	2590.585947
826.416116	2595.370002
826.733685	2606.087495
827.051210	2608.426591
827.368692	2613.981942
827.686129	2611.358022
828.003522	2597.058789
828.320872	2587.707448
828.638177	2579.399627
828.955439	2572.853688
829.272656	2567.764644
829.589830	2565.796073
829.906960	2564.250959
830.224046	2560.127296
830.541088	2561.705177
830.858086	2557.757953
831.175041	2559.232491
831.491952	2556.056564
831.808819	2559.353478
832.125642	2561.969837
832.442421	2560.916236
832.759157	2561.730383
833.075849	2567.144582
833.392497	2579.021540
833.709101	2585.073445
834.025662	2583.732498
834.342179	2585.557396
834.658653	2581.259812
834.975083	2573.524162
835.291469	2576.553895
835.607811	2565.118038
835.924110	2560.974209
836.240366	2562.468912
836.556578	2558.322562
836.872746	2554.365257
837.188871	2556.011193
837.504952	2552.555483
837.820990	2555.048333
838.136984	2552.878116
838.452935	2553.049516
838.768842	2551.532128
839.084706	2551.867365
839.400526	2553.833415
839.716303	2557.072356
840.032037	2562.809189
840.347727	2560.893551
840.663373	2562.602502
840.978977	2557.788200
841.294537	2558.680484
841.610054	2555.307953
841.925527	2554.776111
842.240957	2555.108827
842.556344	2551.973229
842.871687	2551.764021
843.186987	2550.042467
843.502244	2550.748229
843.817458	2551.237221
844.132629	2548.852755
844.447756	2549.417364
844.762840	2548.935934
845.077881	2549.465255
845.392879	2549.034237
845.707833	2546.964843
846.022745	2549.132539
846.337613	2551.088507
846.652438	2548.988866
846.967221	2549.999618
847.281960	2547.131201
847.596656	2548.378887
847.911309	2550.768393
848.225919	2548.283105
848.540485	2549.553475
848.855009	2546.420398
849.169490	2545.155069
849.483928	2548.482230
849.798323	2547.428629
850.112675	2547.738660
850.426984	2549.644216
850.741251	2546.803526
851.055474	2548.736808
851.369654	2550.455842
851.683792	2547.262271
851.997887	2547.534493
852.311938	2548.509957
852.625947	2550.198743
852.939914	2547.496685
853.253837	2549.248486
853.567718	2547.337888
853.881555	2547.683207
854.195350	2547.663043
854.509103	2548.777138
854.822812	2549.727395
855.136479	2548.930893
855.450103	2547.637837
855.763685	2545.886036
856.077224	2542.367311
856.390720	2545.981818
856.704173	2542.445448
857.017584	2546.349822
857.330953	2545.427291
857.644278	2551.580019
857.957561	2549.699669
858.270802	2547.632796
858.584000	2547.698331
858.897155	2548.310831
859.210268	2547.027857
859.523339	2550.483568
859.836367	2550.594474
860.149352	2548.038609
860.462295	2546.581715
860.775195	2548.877961
861.088054	2550.574309
861.400869	2549.258568
861.713642	2546.758156
862.026373	2548.169679
862.339062	2551.015410
862.651708	2550.294525
862.964312	2548.479710
863.276873	2549.717313
863.589392	2544.908052
863.901869	2546.090203
864.214303	2551.514484
864.526696	2548.419216
864.839045	2548.033568
865.151353	2546.566592
865.463619	2546.448125
865.775842	2548.210008
866.088023	2550.400389
866.400162	2549.424926
866.712258	2548.051212
867.024313	2547.494164
867.336325	2547.975594
867.648296	2552.515153
867.960224	2548.746891
868.272110	2549.382076
868.583954	2550.634803
868.895755	2550.269319
869.207515	2547.353012
869.519233	2548.220090
869.830909	2547.680687
870.142542	2548.946016
870.454134	2548.749411
870.765684	2550.491130
871.077191	2550.165976
871.388657	2547.252189
871.700081	2544.408978
872.011463	2547.978115
872.322803	2547.632796
872.634101	2551.393497
872.945357	2549.530790
873.256571	2552.172355
873.567744	2548.492313
873.878874	2550.619679
874.189963	2551.506922
874.501010	2552.772252
874.812015	2548.325954
875.122979	2549.921480
875.433900	2550.581871
875.744780	2552.895760
876.055618	2549.576161
876.366415	2551.811912
876.677169	2550.700338
876.987882	2552.280740
877.298554	2549.326623
877.609183	2551.527087
877.919771	2549.911397
878.230317	2553.757798
878.540822	2555.449105
878.851285	2556.096893
879.161707	2556.724517
879.472087	2557.591595
879.782425	2560.391956
880.092722	2567.074006
880.402977	2578.235120
880.713191	2581.317786
881.023363	2588.753488
881.333494	2595.947214
881.643583	2598.180445
881.953631	2596.544591
882.263637	2595.596854
882.573602	2598.379571
882.883526	2592.088211
883.193408	2588.380442
883.503248	2582.590677
883.813048	2576.289235
884.122806	2576.619430
884.432522	2572.596590
884.742197	2567.827658
885.051831	2564.707184
885.361424	2563.487225
885.670975	2561.248952
885.980485	2556.366595
886.289954	2557.543704
886.599382	2556.883313
886.908768	2553.399876
887.218113	2550.672612
887.527417	2551.040616
887.836680	2547.872251
888.145901	2552.293343
888.455082	2552.114382
888.764221	2549.666901
889.073319	2550.024823
889.382376	2550.211346
889.691392	2551.005328
890.000366	2548.819987
890.309300	2548.726726
890.618193	2549.840821
890.927044	2549.059442
891.235855	2550.418033
891.544625	2548.472148
891.853353	2551.464073
892.162041	2549.876109
892.470687	2553.006666
892.779293	2550.055070
893.087858	2556.469938
893.396381	2557.074877
893.704864	2555.741492
894.013306	2560.407080
894.321707	2562.433623
894.630068	2562.763819
894.938387	2564.472770
895.246665	2567.494942
895.554903	2564.898748
895.863100	2566.481670
896.171256	2560.061761
896.479371	2558.856925
896.787446	2555.406255
897.095480	2554.531615
897.403473	2551.247303
897.711425	2553.059598
898.019336	2553.079762
898.327207	2552.686552
898.635038	2551.121274
898.942827	2551.673281
899.250576	2551.264947
899.558284	2550.644885
899.865952	2550.924669
900.173579	2549.019113
900.481165	2548.051212
900.788711	2549.997097
901.096216	2547.970553
901.403681	2546.725388
901.711105	2549.182951
902.018489	2548.212528
902.325832	2545.644061
902.633135	2543.032743
902.940397	2544.146838
903.247619	2546.611962
903.554800	2552.174875
903.861941	2558.299877
904.169041	2564.119889
904.476101	2564.790363
904.783121	2564.757595
905.090100	2563.444375
905.397039	2560.565876
905.703938	2557.760474
906.010796	2556.066646
906.317614	2554.884496
906.624391	2551.849721
906.931129	2551.416182
907.237826	2550.791079
907.544483	2547.617672
907.851099	2546.987528
908.157675	2544.577857
908.464211	2546.289328
908.770707	2545.838145
909.077163	2546.818649
909.383578	2544.164482
909.689954	2544.535007
909.996289	2545.550799
910.302584	2548.003321
910.608839	2545.114739
910.915054	2545.006355
911.221229	2545.543237
911.527363	2544.789585
911.833458	2546.795964
912.139513	2546.836293
912.445527	2544.174564
912.751502	2547.302600
913.057436	2544.925696
913.363331	2550.549103
913.669186	2546.289328
913.975000	2546.281767
914.280775	2547.191695
914.586510	2550.498692
914.892205	2550.660009
915.197859	2552.202602
915.503475	2554.640000
915.809050	2556.175031
916.114585	2557.455484
916.420081	2559.436657
916.725536	2558.282233
917.030952	2559.396328
917.336328	2554.902140
917.641665	2553.369629
917.946961	2550.279402
918.252218	2550.493651
918.557435	2546.054915
918.862612	2549.515667
919.167750	2547.426108
919.472848	2548.028526
919.777906	2545.903680
920.082925	2547.373176
920.387904	2546.453166
920.692843	2546.458207
920.997743	2545.455017
921.302603	2547.925183
921.607423	2543.718340
921.912204	2547.274874
922.216946	2544.499719
922.521647	2542.642053
922.826310	2543.448638
923.130932	2542.453010
923.435516	2545.303783
923.740059	2543.337733
924.044564	2543.844369
924.349028	2546.773279
924.653454	2546.642209
924.957840	2545.775131
925.262186	2543.504091
925.566493	2542.447969
925.870761	2541.797660
926.174989	2544.066179
926.479178	2540.895294
926.783328	2540.360931
927.087438	2543.834286
927.391509	2542.148020
927.695541	2542.649615
927.999533	2542.758000
928.303486	2543.612476
928.607400	2543.473844
928.911275	2543.259595
929.215110	2542.790768
929.518906	2542.228679
929.822663	2543.579708
930.126381	2541.507794
930.430060	2542.097609
930.733699	2541.543082
931.037299	2542.105171
931.340861	2542.271529
931.644383	2542.243802
931.947866	2541.777496
932.251309	2540.393699
932.554714	2539.501415
932.858080	2541.832948
933.161407	2540.928061
933.464694	2539.571991
933.767943	2538.266332
934.071153	2541.142310
934.374323	2542.858823
934.677455	2543.567105
934.980548	2540.975952
935.283602	2541.948895
935.586617	2543.471323
935.889593	2543.171375
936.192530	2540.257588
936.495428	2544.398896
936.798287	2543.451159
937.101108	2542.626930
937.403890	2544.013247
937.706632	2544.293031
938.009336	2542.931920
938.312002	2545.475182
938.614628	2542.717671
938.917216	2542.347146
939.219765	2545.888557
939.522275	2545.707075
939.824747	2542.430325
940.127179	2542.132897
940.429573	2542.216076
940.731929	2544.484595
941.034246	2542.702547
941.336524	2543.592311
941.638763	2545.636499
941.940964	2545.089534
942.243126	2541.210366
942.545250	2544.323278
942.847335	2541.001158
943.149381	2544.421581
943.451389	2540.527289
943.753359	2542.450490
944.055290	2545.044163
944.357182	2543.761190
944.659036	2541.212886
944.960851	2543.942671
945.262628	2541.212886
945.564367	2542.067362
945.866067	2540.817156
946.167729	2541.200283
946.469352	2541.590973
946.770937	2540.882691
947.072484	2542.720191
947.373992	2542.921837
947.675462	2543.166333
947.976893	2541.764893
948.278286	2536.605272
948.579641	2539.755993
948.880958	2537.593338
949.182236	2544.444266
949.483476	2541.800181
949.784678	2540.131559
950.085841	2541.069213
950.386967	2543.819163
950.688054	2541.565767
950.989103	2541.686755
951.290114	2543.234389
951.591087	2542.936961
951.892021	2540.199614
952.192917	2541.606096
952.493776	2541.502753
952.794596	2540.048380
953.095378	2541.933771
953.396122	2541.376724
953.696828	2541.837989
953.997496	2539.783719
954.298126	2544.799667
954.598718	2543.829245
954.899272	2545.177754
955.199788	2542.352187
955.500266	2539.715664
955.800706	2541.417053
956.101108	2541.742208
956.401472	2542.604245
956.701798	2540.572660
957.002087	2542.715150
957.302337	2541.631302
957.602550	2541.091899
957.902724	2540.000489
958.202861	2540.171888
958.502960	2540.146682
958.803022	2544.345963
959.103045	2541.606096
959.403031	2537.802546
959.702979	2540.434028
960.002889	2540.484440
960.302762	2542.117773
960.602596	2539.105684
960.902393	2543.025181
961.202153	2540.676003
961.501875	2541.215407
961.801559	2541.802701
962.101205	2540.938143
962.400814	2541.291024
962.700385	2540.267670
962.999918	2537.540406
963.299414	2537.411856
963.598873	2538.447813
963.898293	2535.352545
964.197677	2540.953267
964.497022	2539.937474
964.796331	2539.937474
965.095601	2538.702392
965.394835	2539.279604
965.694030	2538.858668
965.993189	2540.272711
966.292309	2540.328164
966.591393	2540.527289
966.890439	2543.272198
967.189447	2543.017619
967.488419	2540.449152
967.787353	2540.207176
968.086249	2541.036446
968.385108	2538.853626
968.683930	2542.798329
968.982714	2540.262629
969.281462	2540.829759
969.580172	2538.936805
969.878844	2542.644574
970.177480	2539.249357
970.476078	2541.926210
970.774639	2540.290355
971.073162	2539.826569
971.371649	2540.839841
971.670098	2539.660211
971.968510	2540.623071
972.266885	2539.390509
972.565223	2543.068031
972.863524	2539.834131
973.161788	2542.178267
973.460014	2542.702547
973.758204	2542.735315
974.056356	2541.974101
974.354471	2541.810263
974.652550	2541.195242
974.950591	2542.478216
975.248595	2543.448638
975.546563	2540.517207
975.844493	2540.086188
976.142386	2540.570139
976.440243	2538.989737
976.738062	2541.616179
977.035845	2539.158616
977.333590	2542.374872
977.631299	2540.829759
977.928971	2537.154758
978.226606	2538.926723
978.524204	2538.185673
978.821765	2534.114942
979.119290	2539.420756
979.416777	2539.100643
979.714228	2540.000489
980.011642	2540.003009
980.309020	2537.981507
980.606360	2542.286652
980.903664	2541.906045
981.200931	2540.759183
981.498162	2540.222300
981.795356	2541.432177
982.092513	2540.456713
982.389633	2540.739018
982.686717	2540.645757
982.983764	2540.837320
983.280775	2542.311858
983.577749	2540.872608
983.874686	2538.188194
984.171587	2539.209028
984.468451	2540.093750
984.765279	2538.987217
985.062070	2541.505273
985.358824	2541.432177
985.655543	2540.539892
985.952224	2541.046528
986.248869	2539.181301
986.545478	2541.268339
986.842050	2537.636188
987.138586	2540.290355
987.435086	2541.732125
987.731549	2538.674665
988.027975	2542.276570
988.324366	2539.773637
988.620719	2543.625078
988.917037	2537.396733
989.213318	2540.933102
989.509563	2537.845396
989.805772	2542.233720
990.101944	2539.123328
990.398080	2542.362269
990.694180	2539.125849
990.990244	2536.716177
991.286271	2542.674821
991.582262	2542.831097
991.878217	2538.389840
992.174136	2540.212217
992.470019	2540.741538
992.765865	2538.848585
993.061676	2536.519572
993.357450	2537.845396
993.653188	2532.358100
993.948890	2539.647608
994.244556	2538.130221
994.540186	2541.366642
994.835780	2538.470499
995.131337	2538.236085
995.426859	2541.260777
995.722345	2541.044008
996.017795	2540.507125
996.313208	2539.085519
996.608586	2539.425797
996.903928	2541.018802
997.199234	2540.209697
997.494504	2541.757331
997.789738	2538.256250
998.084936	2539.390509
998.380099	2538.059645
998.675225	2542.105171
998.970316	2537.810108
999.265371	2538.644418
999.560390	2539.478729
999.855373	2539.856816
1000.150320	2541.656508
1000.445232	2538.031918
1000.740108	2539.851775
1001.034948	2539.672814
1001.329752	2538.626774
1001.624521	2538.483102
1001.919254	2538.261291
1002.213951	2541.454862
1002.508613	2539.695499
1002.803239	2541.122146
1003.097829	2538.241126
1003.392384	2537.361445
1003.686903	2540.691127
1003.981386	2538.964532
1004.275834	2535.039993
1004.570246	2537.406815
1004.864623	2539.740869
1005.158964	2537.890766
1005.453270	2539.478729
1005.747540	2541.205325
1006.041775	2539.960160
1006.335974	2538.785571
1006.630138	2539.892104
1006.924266	2542.122815
1007.218359	2540.827238
1007.512416	2535.400436
1007.806438	2535.100487
1008.100425	2537.623585
1008.394376	2533.290713
1008.688292	2538.856147
1008.982172	2538.994779
1009.276017	2539.735828
1009.569827	2539.685417
1009.863602	2540.101312
1010.157341	2540.542413
1010.451045	2538.339429
1010.744714	2540.325643
1011.038347	2539.398071
1011.331945	2538.755324
1011.625508	2542.911755
1011.919036	2539.914789
1012.212528	2540.093750
1012.505986	2543.133566
1012.799408	2540.784388
1013.092795	2537.789943
1013.386147	2540.605427
1013.679464	2539.975283
1013.972745	2538.568801
1014.265992	2538.538554
1014.559204	2540.461754
1014.852380	2540.386137
1015.145521	2541.018802
1015.438628	2539.955118
1015.731699	2539.004861
1016.024736	2539.584594
1016.317737	2539.478729
1016.610703	2539.692978
1016.903635	2538.568801
1017.196531	2542.710109
1017.489393	2539.647608
1017.782219	2538.536034
1018.075011	2540.741538
1018.367768	2540.804553
1018.660490	2539.322454
1018.953177	2539.322454
1019.245829	2539.322454
