Dividing Wavelength (nm)	Counts (n)	Blue Motor Position (mm): 10.300000	Red Motor Position (mm): 0.000000	
326.493990	2162.160967
326.888308	2162.160967
327.282561	2162.160967
327.676750	2119.487600
328.070874	2116.193206
328.464933	2115.898298
328.858929	2119.240583
329.252859	2126.704011
329.646726	2135.246247
330.040528	2147.602115
330.434265	2159.519402
330.827938	2177.097906
331.221547	2195.939218
331.615091	2212.920345
332.008571	2230.151009
332.401986	2250.784452
332.795338	2267.531165
333.188625	2286.012035
333.581847	2302.012657
333.975006	2322.204999
334.368100	2341.873060
334.761129	2356.326048
335.154095	2373.551671
335.546996	2393.053375
335.939833	2417.540780
336.332606	2430.481422
336.725315	2448.097734
337.117960	2457.741461
337.510540	2470.961887
337.903056	2479.224338
338.295508	2489.145329
338.687896	2498.405928
339.080220	2507.205263
339.472480	2511.865809
339.864676	2520.014834
340.256807	2522.482479
340.648875	2527.947090
341.040879	2530.046731
341.432818	2531.717873
341.824694	2535.765920
342.216506	2536.345652
342.608253	2536.998482
342.999937	2536.290200
343.391557	2536.804397
343.783113	2536.292720
344.174605	2534.785415
344.566033	2536.355735
344.957397	2535.690302
345.348697	2533.184849
345.739934	2531.700229
346.131106	2529.041020
346.522215	2530.051772
346.913260	2526.845598
347.304241	2524.171266
347.695159	2522.963909
348.086012	2519.125071
348.476802	2519.661954
348.867528	2515.790347
349.258191	2514.119205
349.648789	2509.652743
350.039324	2507.268277
350.429796	2512.682476
350.820203	2509.599811
351.210548	2512.624503
351.600828	2508.841117
351.991045	2508.251302
352.381198	2505.292145
352.771288	2503.878101
353.161314	2504.178050
353.551276	2505.340036
353.941175	2504.437669
354.331010	2504.054541
354.720782	2503.764675
355.110490	2502.890035
355.500135	2501.672596
355.889717	2503.210148
356.279235	2502.448934
356.668689	2501.629746
357.058080	2502.486743
357.447408	2507.454800
357.836672	2501.002123
358.225873	2505.274501
358.615010	2505.082937
359.004084	2507.122083
359.393095	2505.985303
359.782043	2503.530261
360.170927	2504.808194
360.559748	2504.911537
360.948505	2509.751045
361.337199	2505.224089
361.725830	2509.748525
362.114398	2510.260202
362.502903	2511.069307
362.891344	2511.727177
363.279722	2509.927486
363.668037	2509.158710
364.056289	2511.157527
364.444478	2512.259019
364.832603	2511.026457
365.220665	2513.027795
365.608665	2514.918228
365.996601	2511.936385
366.384474	2512.932013
366.772284	2514.900584
367.160031	2514.555265
367.547715	2515.167765
367.935336	2516.160872
368.322893	2511.528052
368.710388	2512.299348
369.097820	2511.386900
369.485189	2511.684328
369.872495	2514.802281
370.259738	2516.334792
370.646918	2515.621469
371.034035	2515.205574
371.421090	2520.997859
371.808081	2518.389062
372.195010	2521.292767
372.581875	2518.958713
372.968678	2520.655061
373.355418	2518.406706
373.742096	2518.736902
374.128710	2519.414937
374.515262	2521.249917
374.901751	2519.815709
375.288177	2521.007942
375.674540	2518.270595
376.060841	2519.903929
376.447079	2518.918383
376.833254	2521.421316
377.219367	2521.086080
377.605417	2520.687828
377.991404	2519.165400
378.377329	2520.690349
378.763191	2521.643127
379.148991	2522.537932
379.534727	2520.143384
379.920402	2522.573220
380.306013	2522.789990
380.691563	2525.897861
381.077049	2523.296626
381.462474	2524.274609
381.847835	2522.071625
382.233134	2525.784435
382.618371	2524.211595
383.003545	2522.235463
383.388657	2522.633714
383.773706	2526.817872
384.158693	2524.473735
384.543618	2527.364837
384.928480	2525.343334
385.313280	2524.821575
385.698017	2526.507841
386.082692	2525.789476
386.467305	2524.612367
386.851856	2526.795186
387.236344	2526.613705
387.620770	2525.033303
388.005133	2520.735719
388.389435	2525.071112
388.773674	2520.728158
389.157851	2526.764939
389.541965	2526.170083
389.926018	2529.724097
390.310008	2526.152439
390.693936	2528.100845
391.077802	2528.988088
391.461606	2524.662778
391.845348	2528.718387
392.229027	2530.039169
392.612645	2527.609333
392.996200	2528.327697
393.379694	2530.530681
393.763125	2530.099663
394.146494	2528.804086
394.529801	2529.209899
394.913047	2531.160826
395.296230	2530.412214
395.679351	2530.691998
396.062410	2530.142512
396.445408	2530.628984
396.828343	2530.800383
397.211217	2530.765095
397.594028	2531.974972
397.976778	2532.191742
398.359466	2532.027904
398.742092	2532.219468
399.124656	2532.065713
399.507158	2531.339787
399.889598	2536.146527
400.271977	2533.615867
400.654294	2531.478418
401.036549	2531.629653
401.418742	2534.830786
401.800874	2534.498069
402.182944	2534.112421
402.564952	2532.078316
402.946898	2533.956145
403.328783	2531.856505
403.710606	2535.624767
404.092367	2535.070240
404.474067	2535.942360
404.855705	2536.522093
405.237282	2533.686444
405.618797	2535.813811
406.000250	2536.759027
406.381642	2532.847092
406.762972	2534.578728
407.144240	2530.455064
407.525447	2534.460261
407.906593	2533.217616
408.287677	2536.653163
408.668700	2536.524613
409.049661	2539.186343
409.430560	2537.621064
409.811399	2536.023018
410.192176	2535.680220
410.572891	2539.796322
410.953545	2536.920344
411.334138	2537.936136
411.714669	2538.127700
412.095139	2536.927906
412.475547	2535.004705
412.855894	2537.109387
413.236180	2535.413039
413.616405	2539.065355
413.996568	2536.569984
414.376670	2539.440921
414.756711	2539.982845
415.136691	2539.244316
415.516609	2539.508976
415.896466	2541.134748
416.276262	2536.446475
416.655997	2539.514018
417.035670	2538.954449
417.415283	2541.467465
417.794834	2536.764068
418.174324	2542.780685
418.553753	2538.994779
418.933121	2540.492001
419.312428	2542.833617
419.691674	2542.185829
420.070859	2540.827238
420.449983	2543.022661
420.829045	2541.832948
421.208047	2543.236910
421.586988	2541.969059
421.965867	2541.333874
422.344686	2540.887732
422.723444	2542.717671
423.102141	2540.978473
423.480777	2541.832948
423.859352	2540.088709
424.237866	2543.365459
424.616319	2541.996786
424.994712	2541.341436
425.373044	2541.943854
425.751314	2539.592155
426.129524	2538.586445
426.507673	2539.783719
426.885762	2535.365148
427.263789	2542.664739
427.641756	2542.942002
428.019662	2544.663556
428.397508	2540.910417
428.775292	2544.504760
429.153016	2543.665408
429.530679	2542.672300
429.908282	2543.105840
430.285824	2541.376724
430.663305	2542.853782
431.040726	2544.146838
431.418086	2544.025850
431.795385	2546.148176
432.172624	2543.859492
432.549802	2543.103319
432.926920	2544.323278
433.303977	2544.771941
433.680974	2546.059956
434.057910	2541.880839
434.434786	2544.958464
434.811601	2545.946530
435.188355	2545.084492
435.565050	2543.488967
435.941683	2544.887888
436.318257	2544.035933
436.694770	2547.506767
437.071222	2547.416026
437.447614	2547.713454
437.823946	2547.312682
438.200218	2543.320089
438.576429	2544.981149
438.952580	2545.555840
439.328670	2548.527601
439.704700	2543.436035
440.080670	2548.578012
440.456580	2547.542055
440.832429	2545.913762
441.208218	2547.204298
441.583947	2547.789072
441.959616	2545.714637
442.335224	2546.017106
442.710773	2545.187836
443.086261	2550.206305
443.461689	2547.751263
443.837057	2545.941489
444.212365	2548.484751
444.587612	2543.267157
444.962800	2546.352343
445.337927	2547.378218
445.712995	2542.029553
446.088002	2546.274205
446.462949	2547.363094
446.837837	2547.179092
447.212664	2545.381921
447.587431	2548.056253
447.962139	2550.095399
448.336786	2549.162786
448.711374	2547.968032
449.085901	2548.976263
449.460369	2544.973587
449.834776	2549.276212
450.209124	2549.903836
450.583412	2548.870399
450.957640	2550.476007
451.331808	2545.328988
451.705917	2551.025492
452.079965	2548.169679
452.453954	2547.519370
452.827883	2549.742519
453.201752	2548.199926
453.575562	2550.644885
453.949311	2549.505584
454.323001	2549.787889
454.696632	2552.058929
455.070202	2549.238403
455.443713	2550.506253
455.817164	2550.110523
456.190556	2552.137067
456.563888	2553.107489
456.937160	2550.140770
457.310373	2548.862837
457.683526	2551.917777
458.056619	2552.903322
458.429653	2551.080945
458.802628	2549.467776
459.175542	2548.630944
459.548398	2550.130688
459.921194	2549.187992
460.293930	2551.844680
460.666607	2552.822664
461.039224	2550.685214
461.411782	2548.842673
461.784280	2551.025492
462.156719	2550.596994
462.529099	2552.910884
462.901419	2551.305276
463.273680	2553.384752
463.645882	2547.458876
464.018024	2549.243444
464.390106	2547.244627
464.762130	2550.702858
465.134094	2553.122612
465.505999	2551.779145
465.877845	2554.100596
466.249631	2552.779814
466.621358	2551.625390
466.993026	2552.905843
467.364634	2559.618139
467.736184	2552.293342
468.107674	2552.016079
468.479105	2553.714948
468.850477	2551.146480
469.221790	2552.371480
469.593043	2555.096224
469.964238	2553.417520
470.335373	2553.659495
470.706449	2552.603373
471.077467	2551.002807
471.448425	2552.144628
471.819324	2554.178734
472.190164	2554.594629
472.560945	2553.969526
472.931667	2552.358877
473.302330	2553.604043
473.672934	2553.467931
474.043479	2552.542880
474.413965	2553.072201
474.784393	2555.423899
475.154761	2554.297201
475.525070	2550.962478
475.895321	2553.866182
476.265513	2555.348282
476.635645	2554.917263
477.005719	2555.706204
477.375734	2555.842315
477.745691	2553.934238
478.115588	2557.833571
478.485427	2556.301060
478.855207	2558.625032
479.224928	2556.167469
479.594591	2557.904147
479.964194	2556.290977
480.333739	2557.798283
480.703226	2556.908519
481.072653	2559.091338
481.442022	2555.328117
481.811333	2553.462890
482.180584	2551.834597
482.549777	2557.057233
482.918912	2551.201933
483.287988	2557.044630
483.657005	2557.561348
484.025964	2558.839281
484.394864	2558.448591
484.763706	2559.129147
485.132489	2558.718293
485.501213	2558.123437
485.869879	2559.983623
486.238487	2558.481359
486.607036	2557.836091
486.975527	2558.151163
487.343959	2558.478838
487.712333	2557.916750
488.080648	2556.827860
488.448905	2560.434806
488.817104	2558.105793
489.185244	2559.482028
489.553326	2558.128478
489.921350	2561.785835
490.289315	2557.611760
490.657222	2563.809858
491.025070	2560.520506
491.392861	2563.106617
491.760593	2564.334138
492.128267	2558.556976
492.495883	2561.352296
492.863440	2563.446895
493.230939	2560.487738
493.598380	2561.337172
493.965763	2559.093859
494.333088	2563.497307
494.700354	2560.422203
495.067563	2561.301884
495.434713	2560.661658
495.801805	2559.751730
496.168839	2562.819272
496.535815	2560.185269
496.902733	2561.236349
497.269593	2562.743654
497.636395	2560.898592
498.003139	2561.344734
498.369825	2562.589899
498.736453	2558.819116
499.103023	2562.156360
499.469535	2564.626525
499.835989	2562.806669
500.202385	2560.081925
500.568723	2556.056564
500.935003	2559.247614
501.301226	2556.515309
501.667390	2560.704508
502.033497	2563.958573
502.399546	2562.005125
502.765537	2561.135526
503.131470	2561.833726
503.497345	2565.420507
503.863163	2564.364385
504.228923	2563.588048
504.594625	2564.709704
504.960269	2560.248283
505.325856	2561.944632
505.691385	2560.560835
506.056856	2563.146947
506.422270	2562.405897
506.787625	2562.355486
507.152924	2563.890517
507.518164	2562.358006
507.883347	2563.411607
508.248472	2562.748696
508.613540	2560.815413
508.978550	2563.240208
509.343503	2561.543860
509.708398	2563.522513
510.073236	2562.814231
510.438016	2562.640311
510.802738	2561.306926
511.167403	2560.797769
511.532010	2564.175342
511.896561	2561.957234
512.261053	2564.182904
512.625488	2566.390929
512.989866	2563.056206
513.354186	2563.129303
513.718449	2564.349262
514.082655	2563.164591
514.446803	2563.121741
514.810894	2567.197514
515.174927	2566.519479
515.538904	2569.040056
515.902822	2563.252811
516.266684	2563.434293
516.630488	2568.346897
516.994235	2566.799263
517.357925	2566.582493
517.721558	2566.068295
518.085133	2568.546022
518.448651	2564.467729
518.812112	2562.370609
519.175516	2565.866649
519.538863	2561.755588
519.902152	2568.074675
520.265385	2568.046948
520.628560	2568.929150
520.991678	2568.029304
521.354739	2567.968810
521.717743	2569.702967
522.080690	2571.520303
522.443580	2571.918554
522.806413	2571.704305
523.169189	2572.024419
523.531908	2575.157496
523.894569	2572.498287
524.257174	2574.890315
524.619722	2570.325550
524.982213	2574.182032
525.344647	2574.560119
525.707025	2575.162537
526.069345	2575.633885
526.431608	2578.063721
526.793815	2576.006930
527.155964	2577.231931
527.518057	2577.461303
527.880093	2580.100347
528.242072	2579.697055
528.603995	2579.049267
528.965860	2580.128073
529.327669	2580.211252
529.689421	2580.191088
530.051117	2581.491706
530.412755	2584.143352
530.774337	2582.482292
531.135862	2584.554207
531.497331	2585.605287
531.858743	2586.558065
532.220098	2586.290884
532.581396	2587.667119
532.942638	2588.839187
533.303824	2586.482448
533.664953	2589.794486
534.026025	2590.356575
534.387040	2588.874475
534.747999	2589.759198
535.108902	2592.085690
535.469748	2588.690473
535.830537	2594.061823
536.191270	2595.478387
536.551947	2589.771801
536.912567	2592.249528
537.273131	2593.411514
537.633638	2593.000660
537.994089	2596.161463
538.354483	2599.849067
538.714821	2598.273707
539.075103	2600.481732
539.435328	2601.628595
539.795497	2600.869901
540.155609	2605.215376
540.515665	2601.220261
540.875665	2600.592637
541.235609	2603.645056
541.595496	2601.300920
541.955328	2600.600199
542.315102	2604.741507
542.674821	2605.303596
543.034483	2605.006168
543.394090	2604.635643
543.753640	2606.304265
544.113134	2608.671087
544.472571	2608.608072
544.831953	2609.631426
545.191278	2610.485902
545.550548	2607.448607
545.909761	2610.112857
546.268918	2614.039915
546.628019	2610.768207
546.987064	2612.593104
547.346053	2610.506067
547.704986	2610.213680
548.063863	2613.404730
548.422684	2611.111005
548.781449	2614.932200
549.140158	2614.546551
549.498811	2615.895060
549.857408	2612.046139
550.215949	2615.459000
550.574434	2614.710389
550.932864	2618.143415
551.291237	2615.239710
551.649555	2617.540997
552.007817	2619.126440
552.366022	2616.913373
552.724173	2616.535287
553.082267	2617.367077
553.440305	2619.438991
553.798288	2617.500667
554.156215	2618.652571
554.514086	2617.359515
554.871902	2614.160903
555.229661	2616.747015
555.587365	2615.769031
555.945014	2621.762963
556.302606	2618.879423
556.660143	2618.622324
557.017625	2622.229270
557.375050	2619.822119
557.732421	2620.202726
558.089735	2621.389918
558.446994	2618.168620
558.804197	2620.414454
559.161345	2623.610546
559.518437	2621.084928
559.875474	2620.628703
560.232455	2621.329424
560.589381	2620.575771
560.946251	2620.512757
561.303065	2622.917387
561.659825	2624.860752
562.016528	2622.468725
562.373177	2620.152314
562.729770	2619.643158
563.086307	2622.912346
563.442789	2623.665999
563.799216	2621.213477
564.155587	2622.519136
564.511904	2624.913684
564.868164	2621.846142
565.224370	2622.776235
565.580520	2620.177520
565.936615	2622.259517
566.292654	2622.821605
566.648638	2625.876545
567.004567	2619.849845
567.360441	2619.260030
567.716260	2621.689866
568.072023	2623.958386
568.427732	2622.625000
568.783385	2619.449073
569.138982	2623.003087
569.494525	2622.297325
569.850013	2625.105248
570.205445	2616.825153
570.560823	2619.222222
570.916145	2620.301028
571.271412	2620.603498
571.626625	2622.864455
571.981782	2621.102572
572.336884	2617.480503
572.691931	2614.526387
573.046923	2615.990842
573.401860	2615.499329
573.756743	2624.752367
574.111570	2621.379835
574.466342	2620.464866
574.821059	2619.328086
575.175722	2620.374125
575.530330	2622.027624
575.884882	2622.251955
576.239380	2623.056019
576.593823	2623.514764
576.948211	2621.664661
577.302544	2622.070473
577.656823	2618.965123
578.011047	2618.105606
578.365216	2619.832201
578.719330	2621.480658
579.073389	2620.676594
579.427394	2623.746657
579.781344	2621.858745
580.135239	2622.078035
580.489080	2620.860597
580.842866	2620.507716
581.196597	2625.281688
581.550273	2621.432767
581.903895	2623.023252
582.257463	2623.658437
582.610975	2624.107100
582.964434	2622.526698
583.317837	2623.048457
583.671186	2626.431072
584.024481	2628.387039
584.377721	2625.246400
584.730906	2623.756739
585.084037	2626.327728
585.437113	2627.446864
585.790135	2629.395270
586.143103	2628.210599
586.496016	2625.926956
586.848874	2629.042389
587.201679	2629.634725
587.554428	2627.580455
587.907124	2631.729324
588.259765	2630.274951
588.612352	2633.806280
588.964884	2628.243366
589.317362	2631.207565
589.669786	2632.072123
590.022155	2629.874180
590.374470	2633.193779
590.726731	2634.691002
591.078937	2629.319653
591.431090	2637.385499
591.783188	2637.534213
592.135232	2637.153606
592.487222	2638.870119
592.839157	2640.533699
593.191038	2639.475057
593.542866	2641.310037
593.894639	2639.399440
594.246358	2645.378248
594.598022	2642.804739
594.949633	2643.835655
595.301190	2642.693834
595.652692	2643.762558
596.004141	2646.474699
596.355535	2647.911428
596.706876	2646.638537
597.058162	2648.012251
597.409395	2650.381593
597.760573	2652.607263
598.111698	2650.653816
598.462768	2651.044505
598.813785	2653.532315
599.164748	2653.464259
599.515657	2654.671615
599.866511	2656.557007
600.217312	2657.537511
600.568060	2656.647748
600.918753	2662.992040
601.269392	2662.102276
601.619978	2662.061947
601.970510	2666.664520
602.320988	2667.897082
602.671412	2668.529747
603.021783	2670.326919
603.372100	2671.730880
603.722363	2670.820952
604.072572	2677.044256
604.422728	2677.258505
604.772830	2676.076355
605.122878	2676.056190
605.472872	2679.721109
605.822813	2683.098682
606.172701	2685.087417
606.522534	2688.207891
606.872314	2692.003880
607.222041	2692.971782
607.571714	2696.215764
607.921333	2696.508151
608.270899	2698.943028
608.620411	2703.391847
608.969870	2704.480736
609.319276	2714.595811
609.668627	2718.999259
610.017926	2725.290619
610.367171	2730.203223
610.716362	2733.522823
611.065500	2735.327556
611.414585	2737.364182
611.763616	2740.217476
612.112594	2741.079513
612.461518	2743.337950
612.810389	2749.541090
613.159207	2751.222314
613.507971	2754.002511
613.856682	2762.741351
614.205340	2765.695467
614.553945	2776.473454
614.902496	2773.592435
615.250994	2782.164917
615.599439	2784.332613
615.947830	2790.341668
616.296169	2796.254942
616.644454	2802.092598
616.992686	2806.128042
617.340864	2814.738332
617.688990	2821.402738
618.037063	2836.097701
618.385082	2841.199349
618.733048	2852.451204
619.080961	2855.443129
619.428821	2869.303782
619.776628	2878.398023
620.124382	2881.100082
620.472083	2891.336144
620.819731	2901.864594
621.167326	2897.022566
621.514868	2902.784605
621.862357	2905.141344
622.209793	2909.575039
622.557176	2908.889442
622.904506	2907.873650
623.251783	2912.410688
623.599007	2915.190884
623.946179	2922.503078
624.293297	2923.062646
624.640363	2929.870724
624.987376	2930.606733
625.334336	2931.403235
625.681243	2936.673762
626.028097	2941.230965
626.374899	2959.424489
626.721647	2958.161680
627.068343	2962.665951
627.414987	2973.459061
627.761577	2983.468272
628.108115	2995.642659
628.454600	2995.040241
628.801032	3004.883094
629.147412	3013.642098
629.493739	3024.157945
629.840014	3035.112373
630.186236	3045.235010
630.532405	3051.365053
630.878521	3069.939184
631.224585	3078.587283
631.570597	3091.538008
631.916556	3099.019080
632.262462	3111.717747
632.608316	3130.412866
632.954117	3138.524082
633.299866	3152.619148
633.645562	3161.068122
633.991206	3161.133657
634.336797	3159.560817
634.682336	3174.979186
635.027823	3177.020853
635.373257	3182.611493
635.718639	3182.326668
636.063968	3189.437215
636.409245	3188.837318
636.754470	3200.610933
637.099642	3206.597303
637.444762	3202.587065
637.789829	3221.312431
638.134845	3222.608008
638.479808	3233.449009
638.824719	3242.540730
639.169577	3246.079620
639.514383	3258.755601
639.859137	3263.234667
640.203839	3283.714354
640.548489	3283.185033
640.893086	3302.880821
641.237632	3291.334058
641.582125	3328.835202
641.926566	3332.232939
642.270955	3340.860874
642.615292	3352.163141
642.959576	3367.286603
643.303809	3390.233935
643.647990	3395.201992
643.992118	3424.506219
644.336195	3409.836462
644.680219	3443.259312
645.024192	3462.140953
645.368112	3492.987774
645.711981	3523.343082
646.055797	3549.259653
646.399562	3574.117583
646.743274	3616.236423
647.086935	3676.458047
647.430544	3697.262889
647.774101	3717.263667
648.117606	3770.203344
648.461059	3769.227881
648.804460	3801.461019
649.147810	3789.881488
649.491108	3774.127883
649.834354	3803.694250
650.177548	3787.552475
650.520690	3781.876136
650.863781	3787.403761
651.206820	3805.977893
651.549807	3804.581493
651.892742	3798.698466
652.235626	3804.478149
652.578458	3822.643947
652.921238	3807.263387
653.263967	3843.567256
653.606644	3841.059282
653.949269	3854.463710
654.291843	3861.997715
654.634365	3884.531672
654.976836	3892.315214
655.319255	3910.975045
655.661622	3931.303498
656.003938	3934.623097
656.346203	3944.501238
656.688416	3965.968992
657.030577	3976.936022
657.372687	3989.518742
657.714746	4002.464425
658.056753	4038.725445
658.398708	4043.612844
658.740612	4060.346954
659.082465	4094.883899
659.424266	4097.618725
659.766016	4128.682315
660.107715	4132.495948
660.449362	4154.913959
660.790958	4178.229295
661.132503	4195.172613
661.473996	4223.302252
661.815438	4248.568515
662.156829	4268.458388
662.498168	4286.848517
662.839456	4305.783091
663.180693	4326.535000
663.521879	4365.031772
663.863013	4384.142786
664.204097	4405.320673
664.545129	4446.854740
664.886110	4450.481850
665.227040	4498.430785
665.567918	4527.208212
665.908746	4560.144590
666.249522	4560.615938
666.590248	4596.191361
666.930922	4646.633146
667.271545	4659.964477
667.612118	4701.485941
667.952639	4708.420048
668.293109	4727.999890
668.633528	4741.971448
668.973896	4747.184001
669.314213	4814.725380
669.654480	4750.765741
669.994695	4778.850009
670.334859	4815.534485
670.674973	4823.691072
671.015035	4859.672308
671.355047	4869.563052
671.695008	4875.277199
672.034918	4902.159152
672.374777	4930.896250
672.714585	4937.512764
673.054342	4969.602229
673.394049	4982.825176
673.733705	5014.846585
674.073310	5028.561044
674.412864	5064.607814
674.752368	5049.156678
675.091820	5049.517120
675.431223	5098.232311
675.770574	5069.706942
676.109875	5068.517229
676.449125	5081.843519
676.788324	5079.141461
677.127473	5064.174275
677.466571	5070.737858
677.805619	5071.680553
678.144616	5072.887910
678.483562	5094.390951
678.822458	5069.563269
679.161303	5081.472995
679.500098	5107.853353
679.838842	5109.736224
680.177535	5135.839318
680.516179	5165.803937
680.854771	5170.963558
681.193314	5272.933497
681.531805	5311.851205
681.870247	5484.745138
682.208638	5610.773984
682.546978	5745.801290
682.885268	5801.803468
683.223508	5715.829109
683.561697	5702.941400
683.899836	5692.047466
684.237925	5637.741636
684.575963	5646.402339
684.913951	5662.718033
685.251889	5626.658660
685.589776	5726.108022
685.927614	5718.473195
686.265401	5702.462490
686.603137	5764.836687
686.940824	5832.778838
687.278460	5892.135903
687.616046	5948.866528
687.953582	6028.143714
688.291068	6006.002966
688.628504	6109.157577
688.965889	6133.949971
689.303224	6164.504405
689.640510	6152.236757
689.977745	6050.884359
690.314930	6000.041802
690.652065	6001.541545
690.989150	5905.605867
691.326185	5840.670764
691.663170	5791.237209
692.000105	5714.982196
692.336990	5716.441610
692.673825	5614.073419
693.010610	5602.980360
693.347345	5535.035688
693.684030	5463.915090
694.020665	5468.227797
694.357251	5409.357202
694.693786	5429.141211
695.030272	5342.178786
695.366707	5324.869985
695.703093	5309.078570
696.039429	5331.713351
696.375716	5341.044527
696.711952	5275.443992
697.048139	5316.403367
697.384276	5316.257173
697.720363	5323.917207
698.056400	5312.423376
698.392388	5319.856557
698.728326	5307.246111
699.064214	5294.116426
699.400053	5346.428479
699.735842	5268.000728
700.071581	5276.432058
700.407270	5260.854893
700.742910	5236.291870
701.078501	5229.534204
701.414042	5182.238098
701.749533	5162.829656
702.084974	5111.387202
702.420366	5168.064894
702.755709	5148.633767
703.091002	5102.623156
703.426246	5119.568994
703.761440	5110.457109
704.096584	5104.314463
704.431679	5086.035239
704.766725	5096.122588
705.101721	5084.666566
705.436668	5120.272235
705.771565	5083.560032
706.106413	5127.423112
706.441212	5177.660731
706.775961	5155.451927
707.110661	5178.943704
707.445311	5274.554228
707.779913	5229.501436
708.114465	5309.953210
708.448967	5345.296740
708.783421	5398.990070
709.117825	5513.633470
709.452180	5541.163211
709.786485	5579.707873
710.120742	5730.340071
710.454949	5739.910701
710.789107	5781.311177
711.123216	5879.901023
711.457275	5981.699563
711.791286	6078.270427
712.125247	6064.908849
712.459159	6102.722544
712.793023	6227.818776
713.126837	6023.846130
713.460602	6119.539833
713.794318	6027.828642
714.127985	6088.912303
714.461602	5970.934179
714.795171	5943.603564
715.128691	5849.825499
715.462162	5722.702723
715.795584	5734.020113
716.128957	5673.294374
716.462281	5564.372683
716.795556	5648.554911
717.128782	5546.043048
717.461960	5390.785592
717.795088	5443.846257
718.128167	5416.540847
718.461198	5344.056616
718.794180	5315.816072
719.127113	5342.226677
719.459997	5261.263226
719.792833	5126.238441
720.125619	5182.757337
720.458357	5100.737764
720.791046	5107.384525
721.123686	5142.055061
721.456278	5048.282038
721.788821	5062.409871
722.121315	5005.419627
722.453761	5058.001382
722.786158	5043.750040
723.118506	5053.436618
723.450805	5050.056524
723.783056	5101.277168
724.115259	5028.714799
724.447412	5035.091859
724.779518	5073.034103
725.111574	5081.616668
725.443582	5139.889885
725.775542	5125.988904
726.107453	5249.308130
726.439315	5210.327408
726.771129	5224.543461
727.102895	5332.754349
727.434612	5410.879631
727.766281	5418.302730
728.097901	5476.160053
728.429473	5467.580009
728.760996	5464.814936
729.092471	5468.147139
729.423897	5465.997087
729.755276	5496.339792
730.086606	5460.973577
730.417887	5518.021794
730.749120	5623.770078
731.080305	5776.534684
731.411442	5854.725501
731.742530	5850.034707
732.073570	5955.430111
732.404562	6023.004257
732.735506	5899.790896
733.066401	6014.436816
733.397249	5985.283824
733.728048	5860.631213
734.058798	5667.068549
734.389501	5559.661725
734.720156	5463.113547
735.050762	5305.776614
735.381320	5244.624898
735.711831	5232.508484
736.042293	5164.780583
736.372707	5197.633782
736.703073	5106.401500
737.033391	5133.651458
737.363661	5143.272500
737.693883	5156.586187
738.024056	5211.978385
738.354182	5258.966980
738.684260	5272.915853
739.014290	5339.532181
739.344272	5414.910033
739.674207	5421.105612
740.004093	5466.551613
740.333931	5484.432586
740.663722	5493.504142
740.993464	5566.215225
741.323159	5593.566005
741.652806	5402.768414
741.982405	5405.016769
742.311956	5503.127705
742.641460	5408.855608
742.970915	5260.980921
743.300323	5289.985200
743.629683	5255.697792
743.958996	5173.088404
744.288260	5124.181650
744.617477	5097.183751
744.946647	5123.223831
745.275768	5002.793186
745.604842	4987.168130
745.933869	4977.090863
746.262847	4942.349751
746.591778	4951.048262
746.920662	4925.126649
747.249498	4917.396040
747.578286	4957.359787
747.907027	5023.098954
748.235720	5061.777207
748.564365	5030.554820
748.892963	5040.453126
749.221514	5186.815466
749.550017	5078.594496
749.878473	4969.874451
750.206881	5019.643243
750.535242	4990.578470
750.863555	4945.540802
751.191821	4972.568948
751.520039	4979.545905
751.848210	4910.865225
752.176334	4927.125467
752.504411	4981.660669
752.832440	4923.299231
753.160421	4853.375907
753.488356	4904.241149
753.816243	4953.160506
754.144082	4834.345551
754.471875	4801.220129
754.799620	4849.106049
755.127318	4862.533162
755.454969	4823.227286
755.782572	4793.797030
756.110129	4844.490873
756.437638	4856.730794
756.765100	4797.129232
757.092515	4789.905259
757.419882	4823.464220
757.747203	4821.483047
758.074477	4879.937746
758.401703	4874.432806
758.728882	4819.869877
759.056014	4856.448490
759.383099	4980.682685
759.710138	4981.489270
760.037129	4959.414057
760.364073	4968.215912
760.690970	5046.752048
761.017820	5045.078384
761.344623	4993.857741
761.671379	5074.682560
761.998088	5173.221995
762.324751	5347.950907
762.651366	5781.233039
762.977935	6707.262754
763.304456	7884.031899
763.630931	8583.456707
763.957359	8376.875264
764.283740	7760.695029
764.610074	7198.712240
764.936362	6453.901923
765.262602	5986.665100
765.588796	5558.167023
765.914943	5282.685609
766.241044	5176.944887
766.567097	5035.908526
766.893104	4823.930527
767.219064	4679.743445
767.544978	4640.820696
767.870845	4595.455352
768.196665	4503.726517
768.522438	4443.073874
768.848165	4427.521915
769.173846	4383.482395
769.499479	4355.977859
769.825066	4307.381136
770.150607	4264.047378
770.476101	4243.136672
770.801548	4252.109926
771.126949	4200.009601
771.452303	4160.171882
771.777611	4124.586377
772.102872	4138.686485
772.428087	4115.560191
772.753256	4089.764607
773.078378	4054.458886
773.403453	4001.259590
773.728482	3994.454032
774.053465	3957.588074
774.378401	3947.256229
774.703291	3956.179071
775.028135	3902.765526
775.352932	3855.292980
775.677683	3849.251157
776.002388	3871.079353
776.327046	3885.663411
776.651658	3818.038853
776.976224	3761.467025
777.300743	3769.709311
777.625216	3791.718989
777.949643	3799.673930
778.274024	3755.941920
778.598359	3712.288048
778.922647	3728.323959
779.246889	3727.663568
779.571086	3731.454515
779.895236	3719.748956
780.219339	3701.936039
780.543397	3690.474976
780.867409	3736.142788
781.191374	3752.660129
781.515294	3702.926626
781.839167	3697.230122
782.162995	3715.889953
782.486776	3710.029611
782.810511	3715.965570
783.134201	3727.270358
783.457844	3691.841128
783.781441	3638.828354
784.104993	3643.551916
784.428498	3661.402641
784.751958	3668.659382
785.075372	3648.721619
785.398739	3613.675517
785.722061	3625.086169
786.045337	3659.834842
786.368568	3696.695759
786.691752	3624.665233
787.014891	3656.827794
787.337983	3756.262033
787.661030	3881.315416
787.984031	4015.762989
788.306987	4162.964682
788.629897	4231.852049
788.952760	4207.004202
789.275579	4157.298425
789.598351	4121.143269
789.921078	4018.235675
790.243759	3838.896627
790.566395	3813.164057
790.888984	3820.788803
791.211529	3724.182651
791.534027	3675.580887
791.856480	3675.855629
792.178888	3619.596352
792.501249	3567.990061
792.823566	3577.921134
793.145836	3613.047894
793.468062	3571.407963
793.790241	3522.095396
794.112375	3554.525139
794.434464	3607.449692
794.756507	3625.396200
795.078505	3616.448152
795.400457	3632.869711
795.722364	3741.438520
796.044226	3832.239783
796.366042	3891.937127
796.687812	3893.943507
797.009538	3903.347779
797.331218	3862.640462
797.652852	3836.998633
797.974442	3826.679391
798.295986	3834.576358
798.617484	3766.351903
798.938938	3687.362063
799.260346	3723.393710
799.581709	3727.552662
799.903026	3660.497754
800.224299	3630.255872
800.545526	3626.071715
800.866708	3592.537959
801.187845	3532.674257
801.508936	3567.536357
801.829983	3575.234199
802.150984	3501.472036
802.471940	3482.406392
802.792851	3496.483814
803.113717	3495.248731
803.434538	3504.108559
803.755314	3455.337916
804.076045	3423.016558
804.396731	3437.746810
804.717372	3464.134730
805.037967	3458.360088
805.358518	3446.520938
805.679024	3463.121458
805.999485	3473.148313
806.319901	3474.242243
806.640272	3493.784276
806.960598	3510.775485
807.280879	3483.288594
807.601115	3491.762773
807.921306	3506.424969
808.241453	3549.854510
808.561554	3531.592930
808.881611	3471.583034
809.201623	3498.094462
809.521590	3516.260260
809.841513	3491.581292
810.161390	3516.787061
810.481223	3503.864063
810.801011	3453.286167
811.120755	3441.371399
811.440453	3474.479177
811.760107	3487.802947
812.079716	3450.296762
812.399281	3414.376021
812.718801	3436.761264
813.038276	3412.339394
813.357707	3412.019281
813.677093	3432.488886
813.996434	3388.678739
814.315731	3391.927763
814.634983	3392.076477
814.954191	3401.841192
815.273354	3435.513579
815.592473	3434.603650
815.911547	3434.394443
816.230577	3465.352168
816.549562	3516.671114
816.868502	3557.577557
817.187399	3587.239707
817.506250	3582.354828
817.825058	3553.133780
818.143821	3632.216881
818.462539	3733.881831
818.781213	3779.111063
819.099843	3822.971622
819.418429	4029.800082
819.736970	4246.632712
820.055466	4464.150939
820.373919	4804.232218
820.692327	5194.427608
821.010691	5557.612496
821.329011	6714.143929
821.647286	8983.999066
821.965517	12676.031758
822.283704	15996.821278
822.601847	18104.643647
822.919945	16862.657095
823.237999	14911.113015
823.556010	12783.783901
823.873976	11008.763384
824.191897	9129.789235
824.509775	7871.300465
824.827609	6830.453431
825.145398	6315.229863
825.463144	6208.851435
825.780845	6320.318908
826.098502	6447.895389
826.416116	7150.511247
826.733685	8301.157133
827.051210	9355.448925
827.368692	9530.361840
827.686129	8466.312895
828.003522	7073.419402
828.320872	6142.494727
828.638177	5501.940513
828.955439	4990.034026
829.272656	4530.437071
829.589830	4250.532044
829.906960	4089.431891
830.224046	3919.718926
830.541088	3802.423879
830.858086	3761.527518
831.175041	3693.171993
831.491952	3671.381605
831.808819	3679.744880
832.125642	3742.706371
832.442421	3875.802914
832.759157	4114.277218
833.075849	4601.280406
833.392497	5371.004104
833.709101	6066.839611
834.025662	6418.883548
834.342179	6155.175749
834.658653	5553.866919
834.975083	4960.092092
835.291469	4422.382458
835.607811	4030.762942
835.924110	3906.644694
836.240366	3720.767269
836.556578	3522.720499
836.872746	3417.730908
837.188871	3391.534553
837.504952	3332.469873
837.820990	3251.889550
838.136984	3201.145295
838.452935	3225.262175
838.768842	3222.325703
839.084706	3244.320257
839.400526	3376.068293
839.716303	3666.355575
840.032037	4127.414465
840.347727	4404.950148
840.663373	4194.328220
840.978977	3846.647401
841.294537	3556.675191
841.610054	3338.015143
841.925527	3232.103021
842.240957	3168.246725
842.556344	3118.210753
842.871687	3070.166036
843.186987	3018.191740
843.502244	2981.414002
843.817458	2949.516101
844.132629	2917.340937
844.447756	2928.580189
844.762840	2915.664753
845.077881	2885.470762
845.392879	2867.980479
845.707833	2864.940663
846.022745	2862.268851
846.337613	2863.879500
846.652438	2854.003880
846.967221	2853.610670
847.281960	2839.442507
847.596656	2832.400015
847.911309	2831.490087
848.225919	2825.299550
848.540485	2822.781493
848.855009	2819.524908
849.169490	2814.166161
849.483928	2803.456230
849.798323	2802.236271
850.112675	2797.789973
850.426984	2807.710964
850.741251	2810.100471
851.055474	2798.452885
851.369654	2793.734365
851.683792	2797.053965
851.997887	2805.684420
852.311938	2806.430511
852.625947	2799.090591
852.939914	2803.211734
853.253837	2805.656694
853.567718	2790.855866
853.881555	2787.463169
854.195350	2802.596713
854.509103	2804.865232
854.822812	2794.513223
855.136479	2794.581279
855.450103	2791.538942
855.763685	2783.173147
856.077224	2780.667694
856.390720	2794.621608
856.704173	2804.285500
857.017584	2797.973975
857.330953	2794.155301
857.644278	2800.925571
857.957561	2806.992599
858.270802	2814.050215
858.584000	2813.296562
858.897155	2802.173256
859.210268	2798.024387
859.523339	2799.599747
859.836367	2799.330046
860.149352	2794.480456
860.462295	2787.957202
860.775195	2797.734520
861.088054	2799.393060
861.400869	2781.960750
861.713642	2775.656787
862.026373	2793.696556
862.339062	2795.231587
862.651708	2800.544964
862.964312	2802.977320
863.276873	2796.023049
863.589392	2802.558905
863.901869	2813.609114
864.214303	2834.623164
864.526696	2849.323168
864.839045	2846.341326
865.151353	2848.924917
865.463619	2845.116325
865.775842	2846.109433
866.088023	2860.925384
866.400162	2868.996271
866.712258	2844.869309
867.024313	2831.979078
867.336325	2838.545181
867.648296	2858.346834
867.960224	2850.255782
868.272110	2838.489729
868.583954	2845.678414
868.895755	2863.324973
869.207515	2846.832838
869.519233	2848.710668
869.830909	2860.527133
870.142542	2868.895448
870.454134	2867.239429
870.765684	2872.172198
871.077191	2870.801004
871.388657	2875.890049
871.700081	2888.112327
872.011463	2898.497103
872.322803	2902.567835
872.634101	2900.316960
872.945357	2915.931934
873.256571	2941.392282
873.567744	2935.055551
873.878874	2922.901329
874.189963	2947.993673
874.501010	2950.902418
874.812015	2937.462702
875.122979	2941.422528
875.433900	2937.182918
875.744780	2939.857250
876.055618	2948.863272
876.366415	2942.014864
876.677169	2957.488686
876.987882	2958.438943
877.298554	2946.481326
877.609183	2963.230560
877.919771	2986.767707
878.230317	3010.879546
878.540822	3062.127916
878.851285	3100.360027
879.161707	3132.421765
879.472087	3220.057184
879.782425	3418.605549
880.092722	3812.027277
880.402977	4295.662974
880.713191	4856.907235
881.023363	5865.334609
881.333494	7021.296392
881.643583	7554.186683
881.953631	7325.862742
882.263637	6809.094062
882.573602	6307.829450
882.883526	5772.136277
883.193408	5228.772989
883.503248	4780.417807
883.813048	4499.675950
884.122806	4240.820262
884.432522	3946.235395
884.742197	3727.381263
885.051831	3542.501987
885.361424	3406.655493
885.670975	3341.513703
885.980485	3266.647528
886.289954	3193.752443
886.599382	3154.156700
886.908768	3118.354426
887.218113	3073.389854
887.527417	3020.205681
887.836680	2976.564412
888.145901	2968.480922
888.455082	2965.625108
888.764221	2916.720875
889.073319	2887.537635
889.382376	2887.701473
889.691392	2892.011659
890.000366	2890.819426
890.309300	2880.169989
890.618193	2891.391597
890.927044	2907.634195
891.235855	2911.147879
891.544625	2892.916546
891.853353	2901.297464
892.162041	2920.864703
892.470687	2954.658078
892.779293	3005.074658
893.087858	3046.898590
893.396381	3108.882097
893.704864	3215.598283
894.013306	3429.375974
894.321707	3707.357800
894.630068	3907.602513
894.938387	3920.321344
895.246665	3875.185373
895.554903	3764.048095
895.863100	3579.010023
896.171256	3425.839604
896.479371	3295.061991
896.787446	3185.106864
897.095480	3087.560537
897.403473	3025.004859
897.711425	2988.973212
898.019336	2981.736636
898.327207	2957.531536
898.635038	2926.394849
898.942827	2909.201994
899.250576	2897.597258
899.558284	2869.686909
899.865952	2846.139680
900.173579	2830.002946
900.481165	2826.222081
900.788711	2811.552323
901.096216	2791.211267
901.403681	2777.706016
901.711105	2782.487551
902.018489	2782.739608
902.325832	2783.747839
902.633135	2793.479787
902.940397	2818.642706
903.247619	2890.524519
903.554800	3054.417471
903.861941	3360.949872
904.169041	3755.354626
904.476101	4054.315213
904.783121	4038.937173
905.090100	3816.846620
905.397039	3566.543249
905.703938	3326.387721
906.010796	3149.712923
906.317614	3048.647871
906.624391	2959.195116
906.931129	2893.135836
907.237826	2835.180211
907.544483	2790.041720
907.851099	2759.497368
908.157675	2741.787795
908.464211	2724.221894
908.770707	2713.448949
909.077163	2698.693491
909.383578	2684.437108
909.689954	2673.616272
909.996289	2673.218020
910.302584	2672.272804
910.608839	2673.903617
910.915054	2672.038390
911.221229	2661.870383
911.527363	2663.455826
911.833458	2672.073678
912.139513	2674.992507
912.445527	2678.070131
912.751502	2689.931966
913.057436	2695.361289
913.363331	2707.472661
913.669186	2726.923953
913.975000	2753.740371
914.280775	2805.490336
914.586510	2871.257229
914.892205	2943.887653
915.197859	3055.496278
915.503475	3227.954151
915.809050	3418.671084
916.114585	3558.535377
916.420081	3587.897577
916.725536	3544.019374
917.030952	3437.209927
917.336328	3319.675425
917.641665	3193.782690
917.946961	3098.618308
918.252218	3039.278886
918.557435	2967.202989
918.862612	2914.165010
919.167750	2863.753471
919.472848	2828.024293
919.777906	2805.717187
920.082925	2780.551747
920.387904	2753.886564
920.692843	2735.418297
920.997743	2727.665002
921.302603	2715.367108
921.607423	2707.608772
921.912204	2692.203006
922.216946	2683.673373
922.521647	2677.198011
922.826310	2669.031342
923.130932	2661.880465
923.435516	2657.252686
923.740059	2647.331695
924.044564	2639.374234
924.349028	2635.149747
924.653454	2628.419807
924.957840	2622.511574
925.262186	2619.418827
925.566493	2614.743156
925.870761	2612.802312
926.174989	2607.559512
926.479178	2601.605909
926.783328	2597.835126
927.087438	2597.018459
927.391509	2594.944025
927.695541	2592.388160
927.999533	2588.874475
928.303486	2587.273909
928.607400	2587.883889
928.911275	2589.655854
929.215110	2586.845411
929.518906	2582.651171
929.822663	2586.389187
930.126381	2585.020513
930.430060	2587.500761
930.733699	2584.365163
931.037299	2587.510843
931.340861	2587.924218
931.644383	2587.553693
931.947866	2587.243662
932.251309	2586.530339
932.554714	2586.298446
932.858080	2583.119998
933.161407	2579.573547
933.464694	2580.480954
933.767943	2574.063565
934.071153	2579.722261
934.374323	2580.105388
934.677455	2578.093968
934.980548	2576.470716
935.283602	2577.599935
935.586617	2576.306879
935.889593	2576.901735
936.192530	2577.869637
936.495428	2580.163362
936.798287	2583.500605
937.101108	2581.353074
937.403890	2586.401789
937.706632	2591.490834
938.009336	2595.680033
938.312002	2607.660335
938.614628	2611.660491
938.917216	2619.718775
939.219765	2621.445370
939.522275	2618.168620
939.824747	2614.170985
940.127179	2613.918928
940.429573	2611.995727
940.731929	2609.943978
941.034246	2604.907865
941.336524	2606.284100
941.638763	2600.252360
941.940964	2599.168512
942.243126	2596.045517
942.545250	2598.913933
942.847335	2594.820516
943.149381	2591.687439
943.451389	2584.337437
943.753359	2582.391552
944.055290	2586.285843
944.357182	2583.298959
944.659036	2582.532704
944.960851	2583.001531
945.262628	2579.250913
945.564367	2580.584298
945.866067	2580.745615
946.167729	2582.018506
946.469352	2578.845100
946.770937	2580.450707
947.072484	2579.626479
947.373992	2578.562795
947.675462	2576.495922
947.976893	2573.216652
948.278286	2572.659604
948.579641	2573.098184
948.880958	2567.812535
949.182236	2571.283369
949.483476	2573.672876
949.784678	2570.804459
950.085841	2571.157340
950.386967	2573.693041
950.688054	2572.674727
950.989103	2573.801425
951.290114	2576.019533
951.591087	2579.828125
951.892021	2578.474575
952.192917	2582.031109
952.493776	2586.336254
952.794596	2583.233424
953.095378	2582.673856
953.396122	2582.721747
953.696828	2580.765779
953.997496	2581.363156
954.298126	2580.327199
954.598718	2577.599935
954.899272	2573.841755
955.199788	2570.267577
955.500266	2568.760272
955.800706	2569.360169
956.101108	2564.631567
956.401472	2564.578634
956.701798	2561.788356
957.002087	2562.292471
957.302337	2558.224260
957.602550	2558.493962
957.902724	2558.458674
958.202861	2556.263251
958.502960	2553.087324
958.803022	2555.055895
959.103045	2554.604712
959.403031	2552.114382
959.702979	2551.365770
960.002889	2552.437015
960.302762	2552.389124
960.602596	2551.111192
960.902393	2551.116233
961.202153	2551.711089
961.501875	2550.778476
961.801559	2547.620193
962.101205	2551.078424
962.400814	2552.255534
962.700385	2549.114895
962.999918	2546.586756
963.299414	2544.421581
963.598873	2547.496685
963.898293	2543.567105
964.197677	2549.999617
964.497022	2548.351160
964.796331	2547.400903
965.095601	2546.047353
965.394835	2549.054401
965.694030	2549.130018
965.993189	2548.570450
966.292309	2548.560368
966.591393	2548.726726
966.890439	2549.137580
967.189447	2546.112888
967.488419	2547.668084
967.787353	2547.847045
968.086249	2547.219421
968.385108	2547.458876
968.683930	2547.998279
968.982714	2551.993394
969.281462	2547.428629
969.580172	2548.575492
969.878844	2549.361912
970.177480	2548.212528
970.476078	2550.193702
970.774639	2547.121119
971.073162	2547.363094
971.371649	2549.455173
971.670098	2547.416026
971.968510	2550.155893
972.266885	2548.182282
972.565223	2549.187992
972.863524	2547.617672
973.161788	2548.136911
973.460014	2550.846531
973.758204	2549.182951
974.056356	2549.704710
974.354471	2551.726213
974.652550	2551.879968
974.950591	2545.835624
975.248595	2548.419216
975.546563	2549.422405
975.844493	2548.464586
976.142386	2547.962991
976.440243	2549.941644
976.738062	2547.297559
977.035845	2550.788558
977.333590	2547.463917
977.631299	2549.545914
977.928971	2543.405788
978.226606	2541.424615
978.524204	2545.359235
978.821765	2542.982331
979.119290	2547.957950
979.416777	2547.146324
979.714228	2546.785882
980.011642	2547.471479
980.309020	2546.546427
980.606360	2546.836293
980.903664	2547.534493
981.200931	2548.015923
981.498162	2549.737477
981.795356	2549.714792
982.092513	2551.234700
982.389633	2551.975750
982.686717	2555.020607
982.983764	2557.952038
983.280775	2561.685012
983.577749	2564.835733
983.874686	2564.366906
984.171587	2560.790207
984.468451	2559.255176
984.765279	2555.754095
985.062070	2554.178734
985.358824	2554.130843
985.655543	2551.484237
985.952224	2548.915769
986.248869	2550.806202
986.545478	2547.030378
986.842050	2547.148845
987.138586	2548.076417
987.435086	2546.102806
987.731549	2545.215562
988.027975	2544.434184
988.324366	2546.974925
988.620719	2545.482744
988.917037	2544.860161
989.213318	2546.138094
989.509563	2544.383772
989.805772	2545.979297
990.101944	2545.016437
990.398080	2547.040460
990.694180	2545.432332
990.990244	2542.137938
991.286271	2548.139432
991.582262	2544.953423
991.878217	2547.761345
992.174136	2545.898639
992.470019	2543.549461
992.765865	2541.127187
993.061676	2541.974101
993.357450	2544.963505
993.653188	2539.100643
993.948890	2544.310675
994.244556	2545.155069
994.540186	2546.143135
994.835780	2546.080120
995.131337	2546.901828
995.426859	2546.833773
995.722345	2548.479710
996.017795	2546.357384
996.313208	2548.943496
996.608586	2547.247148
996.903928	2551.065822
997.199234	2547.978115
997.494504	2549.407282
997.789738	2548.565409
998.084936	2547.920142
998.380099	2550.337375
998.675225	2548.537683
998.970316	2546.304452
999.265371	2545.485264
999.560390	2544.439225
999.855373	2547.877292
1000.150320	2544.295552
1000.445232	2543.698175
1000.740108	2546.291849
1001.034948	2546.453166
1001.329752	2546.130532
1001.624521	2545.618855
1001.919254	2545.026519
1002.213951	2545.056766
1002.508613	2541.850592
1002.803239	2543.163813
1003.097829	2546.707744
1003.392384	2544.103988
1003.686903	2544.615665
1003.981386	2543.909904
1004.275834	2543.912424
1004.570246	2544.408978
1004.864623	2541.681714
1005.158964	2543.390665
1005.453270	2547.257230
1005.747540	2544.504760
1006.041775	2544.865202
1006.335974	2542.425284
1006.630138	2543.695655
1006.924266	2543.998124
1007.218359	2544.802188
1007.512416	2541.961498
1007.806438	2539.942516
1008.100425	2539.670293
1008.394376	2538.155427
1008.688292	2542.213555
1008.982172	2543.304965
1009.276017	2544.161961
1009.569827	2542.120294
1009.863602	2543.746066
1010.157341	2544.406457
1010.451045	2545.863351
1010.744714	2543.851930
1011.038347	2545.828063
1011.331945	2543.317568
1011.625508	2544.444266
1011.919036	2544.971067
1012.212528	2544.038453
1012.505986	2544.131714
1012.799408	2545.639019
1013.092795	2542.750438
1013.386147	2542.747918
1013.679464	2543.965356
1013.972745	2544.577857
1014.265992	2544.101467
1014.559204	2541.386806
1014.852380	2539.703061
1015.145521	2544.262784
1015.438628	2543.141128
1015.731699	2545.820501
1016.024736	2545.487785
1016.317737	2542.987372
1016.610703	2542.599204
1016.903635	2543.824204
1017.196531	2544.028371
1017.489393	2544.688762
1017.782219	2543.851930
1018.075011	2542.276570
1018.367768	2541.981662
1018.660490	2543.494008
1018.953177	2543.494008
1019.245829	2543.494008
