Dividing Wavelength (nm)	Counts (n)	Blue Motor Position (mm): 37.100000	Red Motor Position (mm): 0.000000	
326.493990	2237.962277
326.888308	2237.962277
327.282561	2237.962277
327.676750	2197.038190
328.070874	2194.883097
328.464933	2195.571214
328.858929	2200.632533
329.252859	2203.397605
329.646726	2210.190560
330.040528	2222.755636
330.434265	2237.969838
330.827938	2256.175966
331.221547	2270.586104
331.615091	2287.902467
332.008571	2307.993986
332.401986	2328.284630
332.795338	2345.250633
333.188625	2364.578417
333.581847	2385.695811
333.975006	2404.469068
334.368100	2423.161666
334.761129	2443.664039
335.154095	2459.135340
335.546996	2486.168527
335.939833	2526.401976
336.332606	2539.324974
336.725315	2551.837118
337.117960	2565.670044
337.510540	2576.700089
337.903056	2590.326328
338.295508	2597.000815
338.687896	2603.879470
339.080220	2612.890532
339.472480	2621.178189
339.864676	2626.547018
340.256807	2628.487862
340.648875	2630.947945
341.040879	2635.053965
341.432818	2639.981693
341.824694	2640.599234
342.216506	2641.310037
342.608253	2642.300624
342.999937	2644.266674
343.391557	2646.036119
343.783113	2641.806591
344.174605	2641.804070
344.566033	2641.582259
344.957397	2642.411529
345.348697	2638.103863
345.739934	2637.095632
346.131106	2635.369037
346.522215	2631.794859
346.913260	2630.998357
347.304241	2632.140178
347.695159	2629.254118
348.086012	2629.964920
348.476802	2625.072481
348.867528	2619.318003
349.258191	2616.968826
349.648789	2618.478651
350.039324	2615.547220
350.429796	2617.641820
350.820203	2617.911522
351.210548	2616.051336
351.600828	2614.576798
351.991045	2613.356839
352.381198	2612.325923
352.771288	2611.426077
353.161314	2609.656632
353.551276	2610.551437
353.941175	2611.065635
354.331010	2610.899277
354.720782	2608.897938
355.110490	2609.389451
355.500135	2610.301900
355.889717	2610.916921
356.279235	2606.730242
356.668689	2609.381889
357.058080	2612.255347
357.447408	2610.531272
357.836672	2611.267281
358.225873	2611.715943
358.615010	2607.788885
359.004084	2613.261057
359.393095	2613.578650
359.782043	2612.099071
360.170927	2613.671911
360.559748	2613.840790
360.948505	2614.871706
361.337199	2615.814402
361.725830	2615.547220
362.114398	2614.019751
362.502903	2616.618466
362.891344	2616.840276
363.279722	2618.093003
363.668037	2616.860441
364.056289	2617.571244
364.444478	2619.381018
364.832603	2620.384207
365.220665	2620.858076
365.608665	2620.071656
365.996601	2621.773045
366.384474	2622.856893
366.772284	2620.381687
367.160031	2623.199692
367.547715	2622.153652
367.935336	2624.457460
368.322893	2621.400000
368.710388	2621.079887
369.097820	2621.757922
369.485189	2621.505864
369.872495	2625.483335
370.259738	2625.410238
370.646918	2628.694550
371.034035	2629.670013
371.421090	2629.170939
371.808081	2626.592388
372.195010	2626.788993
372.581875	2628.044241
372.968678	2629.473408
373.355418	2628.956690
373.742096	2630.831999
374.128710	2629.672533
374.515262	2632.089767
374.901751	2632.437606
375.288177	2632.488018
375.674540	2632.576238
376.060841	2632.412401
376.447079	2631.767133
376.833254	2634.098667
377.219367	2635.157309
377.605417	2634.035652
377.991404	2634.910292
378.377329	2637.110756
378.763191	2634.428862
379.148991	2636.846095
379.534727	2637.085550
379.920402	2636.538585
380.306013	2636.145375
380.691563	2640.180819
381.077049	2638.849954
381.462474	2639.359111
381.847835	2640.344656
382.233134	2641.857002
382.618371	2641.431025
383.003545	2641.098309
383.388657	2643.356746
383.773706	2642.761889
384.158693	2645.685759
384.543618	2644.937147
384.928480	2645.900008
385.313280	2644.942188
385.698017	2645.761376
386.082692	2645.476551
386.467305	2647.316572
386.851856	2649.421254
387.236344	2648.849083
387.620770	2646.389000
388.005133	2646.993938
388.389435	2649.698517
388.773674	2645.058135
389.157851	2652.075421
389.541965	2651.311686
389.926018	2652.919814
390.310008	2654.366626
390.693936	2652.662716
391.077802	2655.548776
391.461606	2655.405103
391.845348	2657.779487
392.229027	2659.001967
392.612645	2656.380567
392.996200	2657.330824
393.379694	2659.916936
393.763125	2657.451812
394.146494	2659.795948
394.529801	2661.986330
394.913047	2667.219047
395.296230	2667.163595
395.679351	2669.059068
396.062410	2671.967814
396.445408	2675.287414
396.828343	2681.926614
397.211217	2686.652695
397.594028	2695.197451
397.976778	2706.943340
398.359466	2721.771894
398.742092	2734.304202
399.124656	2750.246851
399.507158	2774.512445
399.889598	2798.087401
400.271977	2840.680110
400.654294	2874.516335
401.036549	2914.948909
401.418742	2950.002572
401.800874	3018.504291
402.182944	3082.037953
402.564952	3154.023110
402.946898	3225.332751
403.328783	3260.363729
403.710606	3327.496775
404.092367	3463.605408
404.474067	3544.127759
404.855705	3591.103751
405.237282	3644.600476
405.618797	3802.638128
406.000250	3873.690671
406.381642	4025.399155
406.762972	4117.904328
407.144240	4220.643043
407.525447	4301.848470
407.906593	4403.548708
408.287677	4566.602308
408.668700	4607.186117
409.049661	4755.776647
409.430560	4857.527297
409.811399	4850.174774
410.192176	5099.028813
410.572891	5183.475702
410.953545	5403.764042
411.334138	5308.234177
411.714669	5505.711297
412.095139	5440.783756
412.475547	5685.501528
412.855894	5805.823788
413.236180	6013.189131
413.616405	5850.085119
413.996568	6085.877528
414.376670	6170.246279
414.756711	6143.346682
415.136691	6279.651920
415.516609	6504.343709
415.896466	6562.616927
416.276262	6777.848990
416.655997	6807.206150
417.035670	7028.371651
417.415283	7373.042901
417.794834	7459.148330
418.174324	7382.583285
418.553753	7343.317738
418.933121	7684.480345
419.312428	7810.098337
419.691674	7633.620144
420.070859	8115.294832
420.449983	7837.444076
420.829045	8204.132566
421.208047	8025.837036
421.586988	8324.162439
421.965867	8362.427317
422.344686	8489.436668
422.723444	8528.704735
423.102141	7934.420752
423.480777	8673.156478
423.859352	8213.718320
424.237866	8839.166716
424.616319	8713.921769
424.994712	9120.435374
425.373044	8707.370789
425.751314	9161.490531
426.129524	9032.487404
426.507673	9168.759875
426.885762	9329.560079
427.263789	9240.639167
427.641756	9159.474069
428.019662	9267.649669
428.397508	9503.323611
428.775292	9206.923930
429.153016	9581.242206
429.530679	9419.635416
429.908282	9464.655441
430.285824	9177.176081
430.663305	9864.499599
431.040726	9312.460486
431.418086	9300.538157
431.795385	9622.115881
432.172624	9703.071771
432.549802	9629.153332
432.926920	9708.110404
433.303977	9587.649512
433.680974	9789.305748
434.057910	9879.260098
434.434786	9938.110528
434.811601	9785.592939
435.188355	10354.880360
435.565050	10078.907434
435.941683	10009.029480
436.318257	10505.794862
436.694770	10630.664243
437.071222	10696.045488
437.447614	10546.010667
437.823946	10431.417678
438.200218	10583.058107
438.576429	10395.093644
438.952580	10634.049378
439.328670	10683.956801
439.704700	10472.684564
440.080670	10465.531167
440.456580	11022.465241
440.832429	10775.388208
441.208218	10383.055369
441.583947	10711.766326
441.959616	10856.316372
442.335224	10659.174489
442.710773	10794.955447
443.086261	11007.558549
443.461689	10288.881574
443.837057	10933.141036
444.212365	11222.301620
444.587612	10857.725374
444.962800	11092.023081
445.337927	10856.737308
445.712995	10445.016191
446.088002	11532.027592
446.462949	11188.835920
446.837837	11161.840542
447.212664	11152.189253
447.587431	11667.609425
447.962139	12394.264025
448.336786	14645.996214
448.711374	15205.153437
449.085901	13054.463615
449.460369	12673.029751
449.834776	12113.809513
450.209124	12994.857012
450.583412	13404.458324
450.957640	14347.627962
451.331808	13486.233401
451.705917	12473.538690
452.079965	11775.739654
452.453954	12689.209334
452.827883	12319.032366
453.201752	12601.644492
453.575562	12127.024898
453.949311	12547.033672
454.323001	12510.402128
454.696632	12738.892426
455.070202	13031.914534
455.443713	13251.648348
455.817164	13715.941138
456.190556	13711.225138
456.563888	14075.990428
456.937160	14251.513322
457.310373	13590.824740
457.683526	13670.676617
458.056619	13219.652144
458.429653	13373.898849
458.802628	12794.491311
459.175542	13175.365608
459.548398	14128.186535
459.921194	14461.825220
460.293930	14521.086504
460.666607	15396.009001
461.039224	16441.516582
461.411782	17138.549363
461.784280	17010.239394
462.156719	17076.394456
462.529099	16765.791324
462.901419	15695.508992
463.273680	15484.128370
463.645882	15354.961405
464.018024	15082.217338
464.390106	15306.344518
464.762130	16028.814961
465.134094	16791.347453
465.505999	18785.464077
465.877845	22042.142723
466.249631	24883.480704
466.621358	24567.014709
466.993026	23133.781903
467.364634	22578.299682
467.736184	21107.316195
468.107674	20300.083791
468.479105	20446.844383
468.850477	19894.401977
469.221790	19483.913422
469.593043	18805.379155
469.964238	18244.341582
470.335373	17894.195639
470.706449	18345.610801
471.077467	17908.111744
471.448425	19737.637216
471.819324	23782.558239
472.190164	25779.240810
472.560945	22228.189026
472.931667	19846.803402
473.302330	19227.916068
473.672934	18757.042052
474.043479	19082.423327
474.413965	18888.923677
474.784393	18501.379934
475.154761	19209.062153
475.525070	19189.073977
475.895321	18855.911682
476.265513	19449.270613
476.635645	20030.339211
477.005719	19811.263267
477.375734	19994.998202
477.745691	20491.685446
478.115588	21009.023777
478.485427	21537.135054
478.855207	22606.630966
479.224928	24369.829977
479.594591	26600.900996
479.964194	26607.494825
480.333739	26827.440368
480.703226	26408.578456
481.072653	26079.754073
481.442022	26660.835274
481.811333	27572.747237
482.180584	27500.154622
482.549777	26546.045680
482.918912	26191.551742
483.287988	26307.452910
483.657005	25987.314435
484.025964	25726.588479
484.394864	25646.691231
484.763706	25324.364896
485.132489	24759.301961
485.501213	24944.922287
485.869879	24852.575910
486.238487	24670.617982
486.607036	24820.052906
486.975527	24516.467060
487.343959	24837.901111
487.712333	24781.820795
488.080648	24441.336223
488.448905	24938.993890
488.817104	24677.196688
489.185244	25354.269020
489.553326	25324.528733
489.921350	26319.415568
490.289315	28619.447052
490.657222	30391.233667
491.025070	30887.139533
491.392861	30674.034837
491.760593	29825.391875
492.128267	28924.958619
492.495883	27877.623619
492.863440	27000.714908
493.230939	26132.081250
493.598380	25964.951877
493.965763	25570.937813
494.333088	25105.535969
494.700354	25052.644183
495.067563	24927.618526
495.434713	24674.499671
495.801805	24828.126314
496.168839	24629.764472
496.535815	24468.694565
496.902733	24685.421331
497.269593	24374.714855
497.636395	24547.497882
498.003139	24491.263811
498.369825	24248.552418
498.736453	24461.495797
499.103023	24330.246837
499.469535	24325.447658
499.835989	24551.863521
500.202385	24581.066926
500.568723	24088.556277
500.935003	24317.439785
501.301226	23953.196255
501.667390	24785.536126
502.033497	25023.239132
502.399546	24733.564350
502.765537	24298.704337
503.131470	24693.913154
503.497345	24824.968031
503.863163	24041.968454
504.228923	24641.878364
504.594625	24853.705128
504.960269	24388.855291
505.325856	24876.055084
505.691385	24289.287462
506.056856	24884.998091
506.422270	24863.018660
506.787625	24410.194495
507.152924	24846.660116
507.518164	24874.139446
507.883347	24673.786348
508.248472	24347.606050
508.613540	25144.577185
508.978550	24931.137252
509.343503	24931.364103
509.708398	25182.983215
510.073236	25335.823438
510.438016	25560.537912
510.802738	25205.459200
511.167403	25474.868544
511.532010	25184.467835
511.896561	25967.497659
512.261053	25921.623159
512.625488	25749.787869
512.989866	25648.110316
513.354186	25480.960778
513.718449	25603.864109
514.082655	25977.950492
514.446803	25707.641302
514.810894	26179.291656
515.174927	25667.967421
515.538904	25695.088829
515.902822	26197.535592
516.266684	25954.178931
516.630488	25855.876431
516.994235	25812.300697
517.357925	26142.055173
517.721558	26311.195967
518.085133	26407.920586
518.448651	26329.041651
518.812112	26053.643417
519.175516	26261.800221
519.538863	26425.562103
519.902152	26216.200464
520.265385	26489.879665
520.628560	26273.601562
520.991678	26287.353830
521.354739	26342.927510
521.717743	26410.738591
522.080690	26198.354779
522.443580	26530.831478
522.806413	26526.309563
523.169189	26619.583512
523.531908	26667.275348
523.894569	26283.462059
524.257174	26364.125562
524.619722	26532.590841
524.982213	26228.271507
525.344647	26277.027026
525.707025	26416.863593
526.069345	26393.744861
526.431608	26355.298501
526.793815	26534.612343
527.155964	26011.454000
527.518057	26182.717120
527.880093	26101.642763
528.242072	26335.050707
528.603995	26045.363322
528.965860	25838.365983
529.327669	25874.964760
529.689421	25875.524328
530.051117	25698.599992
530.412755	25887.217284
530.774337	25684.711614
531.135862	25571.731794
531.497331	25756.288437
531.858743	25315.943648
532.220098	25797.134386
532.581396	25483.763660
532.942638	25401.638222
533.303824	25511.421950
533.664953	25514.033268
534.026025	25179.088924
534.387040	25418.271509
534.747999	25476.128832
535.108902	25637.115560
535.469748	25141.683563
535.830537	25307.499715
536.191270	25424.777118
536.551947	25290.125379
536.912567	24930.237406
537.273131	25312.883668
537.633638	25000.042263
537.994089	25227.839402
538.354483	24737.141049
538.714821	25244.838173
539.075103	25284.005418
539.435328	25073.267543
539.795497	24632.758917
540.155609	25006.449569
540.515665	25322.108979
540.875665	24539.409351
541.235609	24867.669125
541.595496	24816.030065
541.955328	25167.176678
542.315102	25092.146664
542.674821	24627.558967
543.034483	24503.917107
543.394090	24676.115361
543.753640	24471.220183
544.113134	25091.163639
544.472571	24700.378434
544.831953	24999.230637
545.191278	24629.731704
545.550548	24543.306163
545.909761	24740.508539
546.268918	24967.360463
546.628019	24938.328458
546.987064	24629.663649
547.346053	24393.641867
547.704986	24495.871426
548.063863	24656.152392
548.422684	24672.521018
548.781449	24181.873076
549.140158	24605.577016
549.498811	24179.962479
549.857408	23921.124434
550.215949	24337.254040
550.574434	24031.051835
550.932864	24232.957608
551.291237	24394.188832
551.649555	24256.764458
552.007817	24312.302849
552.366022	24166.127032
552.724173	24206.042888
553.082267	24145.533918
553.440305	24647.894982
553.798288	23886.368199
554.156215	24402.841973
554.514086	24513.061760
554.871902	23888.591348
555.229661	24167.246168
555.587365	24003.751467
555.945014	23895.616196
556.302606	24131.753924
556.660143	24098.373924
557.017625	24363.147927
557.375050	23869.276167
557.732421	24267.166878
558.089735	24080.888682
558.446994	24120.847388
558.804197	24163.271218
559.161345	24084.470422
559.518437	23854.195555
559.875474	24042.777559
560.232455	24220.208530
560.589381	24031.853379
560.946251	24039.536097
561.303065	24336.548279
561.659825	24443.768580
562.016528	24035.583833
562.373177	23778.258134
562.729770	24140.492765
563.086307	24004.222814
563.442789	24162.646115
563.799216	24001.218287
564.155587	23998.445652
564.511904	23994.889118
564.868164	23929.379324
565.224370	23897.347832
565.580520	23830.270239
565.936615	23951.056285
566.292654	23641.632783
566.648638	23902.547782
567.004567	23749.059771
567.360441	23686.657848
567.716260	23408.749119
568.072023	23738.284305
568.427732	23506.066074
568.783385	23287.035501
569.138982	23519.457899
569.494525	23561.286873
569.850013	23306.388490
570.205445	23404.512029
570.560823	23221.137538
570.916145	22981.405467
571.271412	23173.589375
571.626625	22919.316095
571.981782	23020.912989
572.336884	22823.836641
572.691931	22983.091732
573.046923	22708.989074
573.401860	22594.698555
573.756743	22599.996808
574.111570	22514.733252
574.466342	22421.976021
574.821059	22519.033356
575.175722	22205.801262
575.530330	22201.385211
575.884882	22202.332948
576.239380	22120.187346
576.593823	22004.465139
576.948211	22000.210405
577.302544	21851.093075
577.656823	21700.735620
578.011047	21803.154222
578.365216	21680.124862
578.719330	21552.303886
579.073389	21436.420362
579.427394	21602.869180
579.781344	21365.050227
580.135239	21244.710322
580.489080	21208.139272
580.842866	20982.792133
581.196597	21178.030981
581.550273	21155.522229
581.903895	21029.339627
582.257463	21359.391531
582.610975	20875.899507
582.964434	21198.430010
583.317837	20890.365098
583.671186	20968.941563
584.024481	20956.847835
584.377721	20721.599870
584.730906	20794.076539
585.084037	20804.582304
585.437113	20711.434383
585.790135	20923.901374
586.143103	20387.240300
586.496016	20403.712270
586.848874	20634.269442
587.201679	20566.208823
587.554428	20237.520552
587.907124	20566.163453
588.259765	20338.951088
588.612352	20419.735578
588.964884	19980.976232
589.317362	20154.011318
589.669786	20221.461956
590.022155	20232.786908
590.374470	20453.312183
590.726731	20222.850794
591.078937	20006.643267
591.431090	20095.019735
591.783188	19856.560555
592.135232	19816.919442
592.487222	19919.184289
592.839157	19939.404357
593.191038	19808.536003
593.542866	19710.563699
593.894639	19411.114119
594.246358	19637.774478
594.598022	19523.297436
594.949633	19281.412793
595.301190	19254.490510
595.652692	19423.212888
596.004141	19654.145626
596.355535	18989.167022
596.706876	19000.436521
597.058162	18904.321882
597.409395	19131.027612
597.760573	19194.268887
598.111698	18967.152303
598.462768	18914.825126
598.813785	18875.927583
599.164748	18679.579682
599.515657	18736.824504
599.866511	18531.629378
600.217312	18880.966216
600.568060	18401.398730
600.918753	18705.564309
601.269392	18610.485627
601.619978	18404.816632
601.970510	18606.079659
602.320988	18543.886944
602.671412	18748.310773
603.021783	18671.264298
603.372100	18384.657058
603.722363	18535.067445
604.072572	18475.085276
604.422728	18622.264283
604.772830	18377.513743
605.122878	18343.823712
605.472872	18327.487853
605.822813	18308.071849
606.172701	18283.637376
606.522534	18468.088154
606.872314	18499.930603
607.222041	18323.049117
607.571714	18545.878199
607.921333	18360.872894
608.270899	18451.018807
608.620411	18619.214385
608.969870	18397.819511
609.319276	18393.925220
609.668627	18421.149971
610.017926	18565.258915
610.367171	18672.625410
610.716362	18717.388336
611.065500	18529.113842
611.414585	18681.475156
611.763616	18666.432352
612.112594	18596.899718
612.461518	18575.484896
612.810389	18763.840048
613.159207	18618.992574
613.507971	18528.957567
613.856682	18799.894380
614.205340	18719.576196
614.553945	18876.053612
614.902496	18619.244632
615.250994	18835.076593
615.599439	18784.556669
615.947830	18767.313403
616.296169	18835.300924
616.644454	18785.567421
616.992686	18763.600593
617.340864	18982.764756
617.688990	18729.386282
618.037063	18914.520136
618.385082	18754.851670
618.733048	19029.251757
619.080961	18911.210619
619.428821	18938.894115
619.776628	18816.431885
620.124382	18753.309077
620.472083	18804.433939
620.819731	18817.581268
621.167326	18520.067492
621.514868	18555.796670
621.862357	18326.698912
622.209793	18333.640581
622.557176	18159.793870
622.904506	17993.897059
623.251783	17913.901509
623.599007	17663.502357
623.946179	17600.848376
624.293297	17541.539201
624.640363	17287.001261
624.987376	17317.018812
625.334336	17109.189683
625.681243	16960.773072
626.028097	16973.058364
626.374899	16895.681694
626.721647	16761.420643
627.068343	16579.150164
627.414987	16527.778286
627.761577	16490.216649
628.108115	16515.230854
628.454600	16248.954587
628.801032	16346.649628
629.147412	16281.089423
629.493739	16294.153573
629.840014	16111.164729
630.186236	16205.192331
630.532405	15975.224975
630.878521	16178.038156
631.224585	16076.552167
631.570597	15890.105092
631.916556	15917.234061
632.262462	15895.294960
632.608316	15817.888043
632.954117	15758.047026
633.299866	15747.435397
633.645562	15665.130999
633.991206	15424.241983
634.336797	15287.147804
634.682336	15268.130051
635.027823	15141.881915
635.373257	15018.282905
635.718639	14926.879224
636.063968	14873.004413
636.409245	14627.780004
636.754470	14650.923942
637.099642	14496.589017
637.444762	14270.505869
637.789829	14307.477692
638.134845	14152.459690
638.479808	14171.734542
638.824719	14110.482002
639.169577	13966.420949
639.514383	14012.623124
639.859137	13844.538452
640.203839	13931.296709
640.548489	13769.233696
640.893086	13759.050565
641.237632	13625.931336
641.582125	13778.355663
641.926566	13603.074744
642.270955	13617.875572
642.615292	13574.561978
642.959576	13580.077000
643.303809	13613.202422
643.647990	13545.139284
643.992118	13603.599024
644.336195	13375.817008
644.680219	13600.007202
645.024192	13510.108306
645.368112	13746.971960
645.711981	13798.409373
646.055797	13977.738339
646.399562	13954.239001
646.743274	14221.699938
647.086935	14496.248739
647.430544	14462.911588
647.774101	14502.494728
648.117606	14638.091684
648.461059	14616.936482
648.804460	14605.677065
649.147810	14327.294468
649.491108	14240.516045
649.834354	14251.397376
650.177548	13936.027832
650.520690	13743.934665
650.863781	13668.821473
651.206820	13718.605387
651.549807	13544.698183
651.892742	13336.601873
652.235626	13272.828756
652.578458	13286.941466
652.921238	12974.503353
653.263967	13165.353876
653.606644	13005.282118
653.949269	12977.613745
654.291843	12781.033951
654.634365	12943.472531
654.976836	12797.785705
655.319255	12785.760033
655.661622	12750.711411
656.003938	12668.094461
656.346203	12595.998399
656.688416	12677.034947
657.030577	12631.898976
657.372687	12537.790716
657.714746	12520.912933
658.056753	12708.116181
658.398708	12524.666072
658.740612	12528.610775
659.082465	12625.342956
659.424266	12598.909666
659.766016	12628.294551
660.107715	12535.335674
660.449362	12618.897841
660.790958	12561.857185
661.132503	12500.100530
661.473996	12576.499216
661.815438	12587.224271
662.156829	12616.934311
662.498168	12588.814755
662.839456	12593.510590
663.180693	12601.636930
663.521879	12702.530583
663.863013	12666.546827
664.204097	12648.743992
664.545129	12774.883743
664.886110	12749.120927
665.227040	12836.993279
665.567918	12834.571005
665.908746	12863.837424
666.249522	12854.004653
666.590248	12904.080955
666.930922	13026.792722
667.271545	12989.258811
667.612118	13079.659302
667.952639	12980.008293
668.293109	12995.787105
668.633528	12948.100310
668.973896	12922.859253
669.314213	13001.851613
669.654480	12738.431160
669.994695	12819.583655
670.334859	12842.651975
670.674973	12788.542750
671.015035	12817.463849
671.355047	12766.031477
671.695008	12726.491187
672.034918	12740.298908
672.374777	12783.095783
672.714585	12707.017210
673.054342	12737.901839
673.394049	12683.291019
673.733705	12780.819702
674.073310	12687.553315
674.412864	12700.002444
674.752368	12558.159498
675.091820	12582.382243
675.431223	12574.898650
675.770574	12438.295983
676.109875	12357.017460
676.449125	12316.574803
676.788324	12264.411464
677.127473	12093.846544
677.466571	12088.835637
677.805619	11972.664767
678.144616	11899.328582
678.483562	11873.769932
678.822458	11744.643297
679.161303	11721.741335
679.500098	11709.985364
679.838842	11668.622697
680.177535	11698.612521
680.516179	11755.091088
680.854771	11699.172089
681.193314	11912.493555
681.531805	12081.354565
681.870247	12501.159172
682.208638	12914.188468
682.546978	13221.663565
682.885268	13268.682407
683.223508	12957.721352
683.561697	12805.201243
683.899836	12711.471069
684.237925	12502.379131
684.575963	12423.532964
684.913951	12339.242352
685.251889	12288.835854
685.589776	12384.990823
685.927614	12306.822691
686.265401	12279.353444
686.603137	12331.360507
686.940824	12481.959937
687.278460	12610.239659
687.616046	12644.595122
687.953582	12804.618989
688.291068	12736.656674
688.628504	12976.318169
688.965889	12984.263027
689.303224	12946.509826
689.640510	12842.387314
689.977745	12519.065350
690.314930	12305.459059
690.652065	12206.551621
690.989150	11916.191241
691.326185	11688.169771
691.663170	11489.087043
692.000105	11242.980433
692.336990	11121.859150
692.673825	10868.521005
693.010610	10757.900446
693.347345	10539.706704
693.684030	10352.241316
694.020665	10295.697214
694.357251	10094.711451
694.693786	10032.364981
695.030272	9869.704591
695.366707	9752.979194
695.703093	9687.424029
696.039429	9682.150982
696.375716	9596.101007
696.711952	9468.395977
697.048139	9511.994396
697.384276	9463.541346
697.720363	9488.311055
698.056400	9418.554089
698.392388	9372.026759
698.728326	9329.965892
699.064214	9274.309033
699.400053	9310.179363
699.735842	9125.297567
700.071581	9090.163245
700.407270	9016.305300
700.742910	8937.794370
701.078501	8842.294752
701.414042	8715.983601
701.749533	8654.584868
702.084974	8513.732508
702.420366	8634.619378
702.755709	8506.173298
703.091002	8370.861167
703.426246	8405.103205
703.761440	8358.618725
704.096584	8309.969070
704.431679	8248.494719
704.766725	8234.767658
705.101721	8184.230090
705.436668	8233.744303
705.771565	8115.751056
706.106413	8200.760034
706.441212	8243.413236
706.775961	8201.375054
707.110661	8245.747291
707.445311	8376.847538
707.779913	8273.289635
708.114465	8402.960714
708.448967	8441.911190
708.783421	8591.895599
709.117825	8772.830172
709.452180	8807.258732
709.786485	8898.422958
710.120742	9184.619345
710.454949	9180.823356
710.789107	9284.325806
711.123216	9496.964196
711.457275	9671.151185
711.791286	9819.386313
712.125247	9823.943517
712.459159	9809.230909
712.793023	10043.430314
713.126837	9628.371953
713.460602	9780.140931
713.794318	9614.196228
714.127985	9638.852512
714.461602	9305.153333
714.795171	9255.255992
715.128691	9009.250205
715.462162	8763.919933
715.795584	8702.727887
716.128957	8544.896922
716.462281	8379.829380
716.795556	8431.869211
717.128782	8218.083959
717.461960	7963.215823
717.795088	8031.500773
718.128167	7940.838141
718.461198	7776.236907
718.794180	7717.240283
719.127113	7706.923562
719.459997	7544.893315
719.792833	7321.860066
720.125619	7393.058803
720.458357	7237.645071
720.791046	7237.602221
721.123686	7225.707618
721.456278	7065.403967
721.788821	7081.817964
722.121315	6979.820298
722.453761	7054.235291
722.786158	6994.061558
723.118506	7004.559761
723.450805	6965.808411
723.783056	7025.316712
724.115259	6942.896367
724.447412	6939.662467
724.779518	6986.673747
725.111574	6986.333469
725.443582	7069.520069
725.775542	7047.061729
726.107453	7240.639516
726.439315	7152.016032
726.771129	7224.901034
727.102895	7389.900520
727.434612	7497.277097
727.766281	7537.497943
728.097901	7613.846218
728.429473	7613.745395
728.760996	7595.466171
729.092471	7567.898621
729.423897	7505.652974
729.755276	7514.588419
730.086606	7436.100174
730.417887	7532.741614
730.749120	7739.628047
731.080305	7936.716998
731.411442	8047.264461
731.742530	8036.912451
732.073570	8146.416395
732.404562	8234.339159
732.735506	8092.350020
733.066401	8226.855567
733.397249	8148.263978
733.728048	7917.351406
734.058798	7583.022083
734.389501	7356.265941
734.720156	7177.476379
735.050762	6945.762263
735.381320	6855.492842
735.711831	6796.128214
736.042293	6692.408994
736.372707	6707.948351
736.703073	6573.462969
737.033391	6610.407065
737.363661	6623.100691
737.693883	6656.347100
738.024056	6735.039512
738.354182	6774.685666
738.684260	6810.515667
739.014290	6932.199039
739.344272	7038.148969
739.674207	7071.748259
740.004093	7142.977243
740.333931	7159.187073
740.663722	7164.051786
740.993464	7239.601038
741.323159	7228.714667
741.652806	6973.879299
741.982405	7003.896849
742.311956	7048.805968
742.641460	6877.802468
742.970915	6686.062182
743.300323	6676.171438
743.629683	6631.658049
743.958996	6493.936247
744.288260	6402.197329
744.617477	6350.356623
744.946647	6350.006263
745.275768	6181.694739
745.604842	6138.807123
745.933869	6119.769205
746.262847	6084.355100
746.591778	6070.736423
746.920662	6029.255288
747.249498	6019.603999
747.578286	6074.605508
747.907027	6145.307691
748.235720	6205.131063
748.564365	6178.160890
748.892963	6216.322425
749.221514	6357.147058
749.550017	6180.988978
749.878473	6067.051339
750.206881	6123.207272
750.535242	6069.652574
750.863555	5998.161451
751.191821	6009.315004
751.520039	6009.093193
751.848210	5919.640439
752.176334	5947.961641
752.504411	5991.771789
752.832440	5911.985447
753.160421	5850.422876
753.488356	5896.088168
753.816243	5923.875008
754.144082	5776.501917
754.471875	5749.907309
754.799620	5788.225120
755.127318	5801.067459
755.454969	5753.516776
755.782572	5724.452003
756.110129	5771.818685
756.437638	5753.181539
756.765100	5690.610737
757.092515	5694.510070
757.419882	5741.395321
757.747203	5721.974276
758.074477	5785.069358
758.401703	5767.919352
758.728882	5723.564760
759.056014	5788.242764
759.383099	5904.045629
759.710138	5919.035500
760.037129	5909.474952
760.364073	5909.152318
760.690970	5991.938147
761.017820	5973.487524
761.344623	5936.798006
761.671379	6030.311410
761.998088	6155.039638
762.324751	6406.288225
762.651366	7024.111876
762.977935	8365.207513
763.304456	10004.063943
763.630931	10890.034129
763.957359	10460.192585
764.283740	9515.019088
764.610074	8661.574427
764.936362	7669.734970
765.262602	7070.283804
765.588796	6538.842845
765.914943	6200.273912
766.241044	6034.939189
766.567097	5825.204504
766.893104	5570.006173
767.219064	5393.598556
767.544978	5325.545499
767.870845	5250.923819
768.196665	5145.278879
768.522438	5074.415379
768.848165	5037.136047
769.173846	4970.098783
769.499479	4926.323923
769.825066	4876.734093
770.150607	4817.548426
770.476101	4790.416936
770.801548	4785.897542
771.126949	4707.855439
771.452303	4651.923837
771.777611	4612.431438
772.102872	4633.261486
772.428087	4597.106330
772.753256	4552.073703
773.078378	4504.714583
773.403453	4440.084470
773.728482	4424.708951
774.053465	4377.997619
774.378401	4363.451370
774.703291	4362.291905
775.028135	4291.320020
775.352932	4240.469901
775.677683	4229.613777
776.002388	4246.942743
776.327046	4260.279115
776.651658	4186.337991
776.976224	4127.195174
777.300743	4129.067963
777.625216	4149.860202
777.949643	4141.338132
778.274024	4098.818519
778.598359	4056.750091
778.922647	4081.887804
779.246889	4071.326587
779.571086	4067.555804
779.895236	4050.360428
780.219339	4035.481462
780.543397	4031.425854
780.867409	4085.678752
781.191374	4094.906584
781.515294	4036.126730
781.839167	4027.360164
782.162995	4049.276580
782.486776	4036.111607
782.810511	4047.073596
783.134201	4042.813821
783.457844	3994.864886
783.781441	3939.860856
784.104993	3944.995272
784.428498	3968.824806
784.751958	3958.203095
785.075372	3938.091411
785.398739	3900.993560
785.722061	3912.394130
786.045337	3958.586222
786.368568	3987.141838
786.691752	3901.669075
787.014891	3956.428608
787.337983	4083.342177
787.661030	4243.008122
787.984031	4400.609715
788.306987	4572.533226
788.629897	4654.449455
788.952760	4612.244915
789.275579	4541.729255
789.598351	4473.787104
789.921078	4332.324766
790.243759	4131.845639
790.566395	4117.559009
790.888984	4112.096919
791.211529	4006.199920
791.534027	3945.975776
791.856480	3929.339968
792.178888	3873.000033
792.501249	3822.845593
792.823566	3834.089887
793.145836	3863.068960
793.468062	3811.515600
793.790241	3765.517592
794.112375	3793.932055
794.434464	3861.791027
794.756507	3884.710633
795.078505	3860.329093
795.400457	3899.818971
795.722364	4040.522616
796.044226	4147.339625
796.366042	4216.474009
796.687812	4189.458466
797.009538	4197.204198
797.331218	4154.089730
797.652852	4137.421155
797.974442	4110.788739
798.295986	4109.614150
798.617484	4031.135988
798.938938	3941.779015
799.260346	3987.383814
799.581709	3981.004233
799.903026	3904.991195
800.224299	3869.932491
800.545526	3860.286243
800.866708	3824.897343
801.187845	3766.747633
801.508936	3799.457160
801.829983	3791.749236
802.150984	3714.927092
802.471940	3709.994323
802.792851	3715.532031
803.113717	3717.566136
803.434538	3714.155796
803.755314	3658.622445
804.076045	3635.823827
804.396731	3657.987260
804.717372	3680.992565
805.037967	3667.686440
805.358518	3656.815191
805.679024	3686.099254
805.999485	3698.225750
806.319901	3700.658106
806.640272	3711.673027
806.960598	3726.786407
807.280879	3697.774566
807.601115	3714.218810
807.921306	3727.711458
808.241453	3772.670989
808.561554	3746.865323
808.881611	3680.977442
809.201623	3720.091754
809.521590	3731.520050
809.841513	3702.495607
810.161390	3733.949886
810.481223	3705.890824
810.801011	3654.070283
811.120755	3650.627175
811.440453	3683.097247
811.760107	3684.748225
812.079716	3642.079899
812.399281	3612.140486
812.718801	3635.549084
813.038276	3607.555557
813.357707	3607.757203
813.677093	3621.015437
813.996434	3566.533167
814.315731	3579.320054
814.634983	3582.279211
814.954191	3600.031634
815.273354	3625.522229
815.592473	3620.274388
815.911547	3629.774442
816.230577	3671.986544
816.549562	3725.942013
816.868502	3762.175307
817.187399	3787.323103
817.506250	3783.501908
817.825058	3762.621449
818.143821	3854.700644
818.462539	3959.541521
818.781213	4001.766226
819.099843	4062.779311
819.418429	4317.745749
819.736970	4556.404054
820.055466	4806.828412
820.373919	5178.684085
820.692327	5586.702474
821.010691	6053.692281
821.329011	7482.302349
821.647286	10298.653851
821.965517	14944.404795
822.283704	18957.299368
822.601847	21033.548991
822.919945	19166.683693
823.237999	16552.225362
823.556010	14062.863263
823.873976	11936.827205
824.191897	9835.150002
824.509775	8489.035896
824.827609	7358.811724
825.145398	6824.071330
825.463144	6707.444236
825.780845	6813.333672
826.098502	7019.519385
826.416116	7934.458561
826.733685	9277.386658
827.051210	10373.157063
827.368692	10369.194717
827.686129	9083.093027
828.003522	7570.497336
828.320872	6553.557973
828.638177	5848.902968
828.955439	5279.965907
829.272656	4778.807159
829.589830	4502.834233
829.906960	4327.966688
830.224046	4140.168584
830.541088	4018.560830
830.858086	3968.063592
831.175041	3890.883526
831.491952	3876.269221
831.808819	3887.649626
832.125642	3962.722489
832.442421	4118.297538
832.759157	4400.902102
833.075849	4964.838339
833.392497	5840.385939
833.709101	6624.885259
834.025662	6947.541790
834.342179	6555.042593
834.658653	5888.191201
834.975083	5233.070573
835.291469	4653.350484
835.607811	4251.817539
835.924110	4110.004840
836.240366	3904.451792
836.556578	3702.278837
836.872746	3595.615584
837.188871	3553.222000
837.504952	3485.473934
837.820990	3403.227509
838.136984	3358.557845
838.452935	3382.710013
838.768842	3376.683313
839.084706	3397.851118
839.400526	3565.620718
839.716303	3915.103750
840.032037	4453.919917
840.347727	4699.499727
840.663373	4408.239501
840.978977	4020.680635
841.294537	3709.359138
841.610054	3484.712720
841.925527	3381.243037
842.240957	3308.476502
842.556344	3255.556989
842.871687	3197.238401
843.186987	3143.093888
843.502244	3107.425204
843.817458	3072.447158
844.132629	3043.664690
844.447756	3049.862789
844.762840	3037.383413
845.077881	3000.782115
845.392879	2988.864827
845.707833	2981.839979
846.022745	2982.838128
846.337613	2982.258395
846.652438	2970.787250
846.967221	2967.250880
847.281960	2953.357460
847.596656	2949.493416
847.911309	2952.737398
848.225919	2945.200873
848.540485	2937.084616
848.855009	2939.665686
849.169490	2928.895261
849.483928	2917.713982
849.798323	2921.633479
850.112675	2915.301790
850.426984	2926.861156
850.741251	2923.191196
851.055474	2912.801378
851.369654	2907.745100
851.683792	2913.290369
851.997887	2922.787903
852.311938	2918.671801
852.625947	2909.577560
852.939914	2915.886564
853.253837	2921.482244
853.567718	2903.500449
853.881555	2904.062537
854.195350	2918.248344
854.509103	2913.060997
854.822812	2906.144534
855.136479	2901.516755
855.450103	2905.491704
855.763685	2899.167577
856.077224	2896.432751
856.390720	2909.847261
856.704173	2920.441246
857.017584	2909.716191
857.330953	2907.709812
857.644278	2917.300607
857.957561	2926.919129
858.270802	2930.352155
858.584000	2928.053388
858.897155	2915.455545
859.210268	2914.838004
859.523339	2913.920514
859.836367	2911.775503
860.149352	2908.909607
860.462295	2902.865263
860.775195	2911.858682
861.088054	2908.158475
861.400869	2895.550549
861.713642	2893.103069
862.026373	2906.018505
862.339062	2909.822056
862.651708	2911.513363
862.964312	2917.913108
863.276873	2908.826428
863.589392	2918.666760
863.901869	2934.511107
864.214303	2954.690845
864.526696	2970.560398
864.839045	2965.365489
865.151353	2967.230716
865.463619	2962.928091
865.775842	2961.693008
866.088023	2985.802326
866.400162	2989.144611
866.712258	2960.800724
867.024313	2953.445680
867.336325	2961.103193
867.648296	2985.252841
867.960224	2975.641881
868.272110	2959.963892
868.583954	2961.695529
868.895755	2977.237406
869.207515	2965.705767
869.519233	2970.772126
869.830909	2981.900473
870.142542	2990.843480
870.454134	2991.445898
870.765684	2993.807679
871.077191	2994.273985
871.388657	3002.249091
871.700081	3017.516225
872.011463	3025.496372
872.322803	3029.138605
872.634101	3025.229191
872.945357	3044.725853
873.256571	3068.749472
873.567744	3061.427196
873.878874	3055.390414
874.189963	3076.850606
874.501010	3080.329002
874.812015	3069.336766
875.122979	3069.094791
875.433900	3067.053123
875.744780	3072.973959
876.055618	3079.046028
876.366415	3076.386820
876.677169	3087.469797
876.987882	3086.322934
877.298554	3079.116605
877.609183	3101.010336
877.919771	3125.013790
878.230317	3153.040085
878.540822	3206.219217
878.851285	3244.877305
879.161707	3289.181485
879.472087	3397.536046
879.782425	3634.024135
880.092722	4081.209769
880.402977	4618.778251
880.713191	5258.122587
881.023363	6444.580830
881.333494	7743.754232
881.643583	8273.236703
881.953631	7965.348231
882.263637	7309.040412
882.573602	6704.374173
882.883526	6122.133507
883.193408	5554.451692
883.503248	5096.725006
883.813048	4795.803409
884.122806	4473.663596
884.432522	4153.699041
884.742197	3915.459151
885.051831	3723.854976
885.361424	3593.324379
885.670975	3518.438039
885.980485	3426.890685
886.289954	3350.779344
886.599382	3308.453817
886.908768	3268.479987
887.218113	3226.295612
887.527417	3164.100376
887.836680	3117.512553
888.145901	3107.659618
888.455082	3097.728545
888.764221	3048.337840
889.073319	3017.821215
889.382376	3015.013292
889.691392	3020.248531
890.000366	3018.950433
890.309300	3003.983248
890.618193	3016.376924
890.927044	3036.589431
891.235855	3034.091539
891.544625	3021.720547
891.853353	3030.673637
892.162041	3050.402192
892.470687	3095.016404
892.779293	3144.263436
893.087858	3191.373018
893.396381	3264.600819
893.704864	3391.045561
894.013306	3637.557984
894.321707	3944.697843
894.630068	4145.839882
894.938387	4136.385198
895.246665	4093.270730
895.554903	3970.322028
895.863100	3766.639248
896.171256	3599.464505
896.479371	3456.169707
896.787446	3330.891992
897.095480	3228.576734
897.403473	3166.338648
897.711425	3127.264665
898.019336	3116.519446
898.327207	3087.358891
898.635038	3051.639796
898.942827	3039.450286
899.250576	3025.889582
899.558284	2996.444202
899.865952	2973.615337
900.173579	2955.099179
900.481165	2946.884619
900.788711	2933.460026
901.096216	2911.674680
901.403681	2897.874521
901.711105	2905.242167
902.018489	2902.842578
902.325832	2902.136817
902.633135	2913.920514
902.940397	2949.710185
903.247619	3032.586755
903.554800	3232.473546
903.861941	3592.275819
904.169041	4027.574413
904.476101	4322.048373
904.783121	4257.932458
905.090100	4010.227802
905.397039	3733.415524
905.703938	3480.921772
906.010796	3297.305305
906.317614	3183.907070
906.624391	3086.343099
906.931129	3015.303159
907.237826	2953.969960
907.544483	2906.015984
907.851099	2877.793085
908.157675	2854.936493
908.464211	2834.693740
908.770707	2819.426605
909.077163	2805.172743
909.383578	2790.981895
909.689954	2780.206428
909.996289	2778.421860
910.302584	2780.002262
910.608839	2781.663322
910.915054	2773.174019
911.221229	2769.564553
911.527363	2770.691251
911.833458	2780.629885
912.139513	2783.107612
912.445527	2786.480144
912.751502	2794.813172
913.057436	2803.736014
913.363331	2816.641368
913.669186	2839.792867
913.975000	2875.227137
914.280775	2936.149482
914.586510	3008.064062
914.892205	3090.978440
915.197859	3222.078687
915.503475	3420.135539
915.809050	3641.802635
916.114585	3786.491312
916.420081	3800.546049
916.725536	3737.947521
917.030952	3618.041157
917.336328	3489.768997
917.641665	3356.264120
917.946961	3253.255702
918.252218	3181.499919
918.557435	3101.927826
918.862612	3041.421377
919.167750	2992.015548
919.472848	2955.278140
919.777906	2926.314190
920.082925	2897.977865
920.387904	2867.738503
920.692843	2848.718230
920.997743	2835.399501
921.302603	2823.804847
921.607423	2815.146666
921.912204	2801.762402
922.216946	2791.743109
922.521647	2780.728188
922.826310	2774.590583
923.130932	2769.312495
923.435516	2756.538211
923.740059	2749.737695
924.044564	2742.473392
924.349028	2735.892166
924.653454	2729.711711
924.957840	2723.163252
925.262186	2719.062273
925.566493	2713.834597
925.870761	2708.039791
926.174989	2708.216231
926.479178	2702.640715
926.783328	2692.228212
927.087438	2695.348686
927.391509	2694.136288
927.695541	2690.330217
927.999533	2687.020700
928.303486	2682.965091
928.607400	2686.967767
928.911275	2684.999197
929.215110	2684.537931
929.518906	2682.413085
929.822663	2683.055832
930.126381	2681.845955
930.430060	2684.152283
930.733699	2682.831501
931.037299	2685.425174
931.340861	2684.356450
931.644383	2685.278981
931.947866	2684.522808
932.251309	2683.403672
932.554714	2680.250430
932.858080	2678.569205
933.161407	2679.980728
933.464694	2674.949657
933.767943	2671.299861
934.071153	2674.392609
934.374323	2674.248936
934.677455	2674.690037
934.980548	2671.675427
935.283602	2674.160716
935.586617	2671.907320
935.889593	2674.513597
936.192530	2671.259532
936.495428	2675.605007
936.798287	2676.474606
937.101108	2680.436953
937.403890	2682.138342
937.706632	2684.963909
938.009336	2693.506144
938.312002	2701.148533
938.614628	2713.537169
938.917216	2718.946327
939.219765	2719.745350
939.522275	2717.020606
939.824747	2715.639330
940.127179	2713.070862
940.429573	2712.498691
940.731929	2707.893597
941.034246	2702.023173
941.336524	2698.874973
941.638763	2699.623584
941.940964	2694.927749
942.243126	2694.980682
942.545250	2694.088397
942.847335	2691.358612
943.149381	2684.981553
943.451389	2682.297138
943.753359	2681.362004
944.055290	2678.753207
944.357182	2677.331602
944.659036	2678.584329
944.960851	2677.719771
945.262628	2673.102074
945.564367	2675.675583
945.866067	2676.373783
946.167729	2675.728515
946.469352	2679.060718
946.770937	2675.607527
947.072484	2675.148782
947.373992	2676.093999
947.675462	2671.017557
947.976893	2668.093687
948.278286	2666.717453
948.579641	2666.777946
948.880958	2665.371464
949.182236	2665.752072
949.483476	2664.622853
949.784678	2665.316012
950.085841	2664.698470
950.386967	2669.457320
950.688054	2669.056548
950.989103	2667.798780
951.290114	2667.622340
951.591087	2670.208452
951.892021	2671.821621
952.192917	2674.609379
952.493776	2678.959895
952.794596	2679.837055
953.095378	2679.884946
953.396122	2679.040553
953.696828	2675.587363
953.997496	2675.262208
954.298126	2674.642146
954.598718	2669.727021
954.899272	2670.178205
955.199788	2667.087977
955.500266	2663.286947
955.800706	2661.867862
956.101108	2658.742347
956.401472	2655.488282
956.701798	2654.318735
957.002087	2651.147849
957.302337	2651.278919
957.602550	2650.633651
957.902724	2649.595173
958.202861	2647.283804
958.502960	2644.916983
958.803022	2646.091572
959.103045	2644.816160
959.403031	2644.458238
959.702979	2644.375059
960.002889	2644.024698
960.302762	2642.426653
960.602596	2641.867085
960.902393	2642.232568
961.202153	2643.865902
961.501875	2642.167033
961.801559	2638.698719
962.101205	2640.135448
962.400814	2640.029584
962.700385	2642.277939
962.999918	2638.212248
963.299414	2638.819707
963.598873	2636.525982
963.898293	2634.199490
964.197677	2641.166364
964.497022	2639.563277
964.796331	2639.273411
965.095601	2637.415746
965.394835	2639.129738
965.694030	2637.584624
965.993189	2638.928092
966.292309	2640.785757
966.591393	2639.543113
966.890439	2639.936323
967.189447	2636.389871
967.488419	2638.285345
967.787353	2638.865078
968.086249	2639.792650
968.385108	2637.299799
968.683930	2637.375417
968.982714	2637.869450
969.281462	2638.645787
969.580172	2637.771147
969.878844	2637.385499
970.177480	2638.781898
970.476078	2637.370375
970.774639	2638.663431
971.073162	2637.720736
971.371649	2639.565798
971.670098	2638.242495
971.968510	2638.756693
972.266885	2639.296096
972.565223	2638.413894
972.863524	2637.473719
973.161788	2639.041518
973.460014	2639.391878
973.758204	2640.233751
974.056356	2639.177629
974.354471	2640.992444
974.652550	2639.830458
974.950591	2639.545633
975.248595	2637.645118
975.546563	2638.184522
975.844493	2638.484470
976.142386	2637.529172
976.440243	2638.726446
976.738062	2639.845582
977.035845	2636.939357
977.333590	2637.352731
977.631299	2639.096971
977.928971	2635.154788
978.226606	2630.133799
978.524204	2633.627319
978.821765	2633.365179
979.119290	2635.958852
979.416777	2636.783081
979.714228	2635.517751
980.011642	2635.343832
980.309020	2637.529172
980.606360	2633.750827
980.903664	2635.749644
981.200931	2637.572022
981.498162	2637.440952
981.795356	2637.738380
982.092513	2641.834317
982.389633	2643.775161
982.686717	2647.608959
982.983764	2649.592653
983.280775	2653.401245
983.577749	2654.258241
983.874686	2654.442243
984.171587	2650.000986
984.468451	2648.178609
984.765279	2643.797847
985.062070	2641.020171
985.358824	2642.330871
985.655543	2640.221148
985.952224	2640.001858
986.248869	2638.852475
986.545478	2635.973976
986.842050	2636.770478
987.138586	2634.060858
987.435086	2636.677217
987.731549	2633.617236
988.027975	2635.328708
988.324366	2631.943573
988.620719	2632.472894
988.917037	2632.840899
989.213318	2633.559263
989.509563	2632.591362
989.805772	2632.780405
990.101944	2632.586320
990.398080	2632.510703
990.694180	2632.094808
990.990244	2633.503810
991.286271	2629.564149
991.582262	2630.340486
991.878217	2632.722432
992.174136	2633.546660
992.470019	2629.551546
992.765865	2630.408542
993.061676	2627.461987
993.357450	2632.117493
993.653188	2628.661782
993.948890	2630.355610
994.244556	2632.412401
994.540186	2632.276289
994.835780	2632.162863
995.131337	2631.290744
995.426859	2633.879376
995.722345	2635.885756
996.017795	2637.448513
996.313208	2635.253091
996.608586	2635.051445
996.903928	2637.617392
997.199234	2636.720067
997.494504	2636.538585
997.789738	2637.413225
998.084936	2637.345170
998.380099	2636.825931
998.675225	2633.095477
998.970316	2633.224026
999.265371	2634.431383
999.560390	2634.703605
999.855373	2633.670168
1000.150320	2631.847791
1000.445232	2632.888790
1000.740108	2632.639252
1001.034948	2630.368213
1001.329752	2630.592544
1001.624521	2630.521968
1001.919254	2631.608337
1002.213951	2631.862915
1002.508613	2630.340486
1002.803239	2630.345527
1003.097829	2632.876187
1003.392384	2630.647997
1003.686903	2629.919550
1003.981386	2629.385188
1004.275834	2632.336783
1004.570246	2633.644963
1004.864623	2628.588685
1005.158964	2629.634725
1005.453270	2631.389046
1005.747540	2630.645476
1006.041775	2629.647328
1006.335974	2629.075157
1006.630138	2627.517440
1006.924266	2631.467184
1007.218359	2630.854684
1007.512416	2626.836884
1007.806438	2626.005094
1008.100425	2629.606998
1008.394376	2626.340331
1008.688292	2629.218830
1008.982172	2629.990126
1009.276017	2629.095321
1009.569827	2630.584982
1009.863602	2631.739407
1010.157341	2629.947276
1010.451045	2631.086577
1010.744714	2630.161525
1011.038347	2628.649179
1011.331945	2628.654220
1011.625508	2630.973151
1011.919036	2628.797893
1012.212528	2628.432410
1012.505986	2627.588016
1012.799408	2631.351238
1013.092795	2630.647997
1013.386147	2630.630353
1013.679464	2631.492390
1013.972745	2628.593727
1014.265992	2629.039869
1014.559204	2631.026083
1014.852380	2632.488018
1015.145521	2629.670013
1015.438628	2631.008439
1015.731699	2630.637914
1016.024736	2628.412245
1016.317737	2627.378808
1016.610703	2630.453912
1016.903635	2629.543984
1017.196531	2628.684467
1017.489393	2631.454581
1017.782219	2631.298306
1018.075011	2630.993316
1018.367768	2630.148922
1018.660490	2631.164715
1018.953177	2631.164715
1019.245829	2631.164715
