Dividing Wavelength (nm)	Counts (n)	Blue Motor Position (mm): 29.600000	Red Motor Position (mm): 0.000000	
326.493990	2213.331199
326.888308	2213.331199
327.282561	2213.331199
327.676750	2171.093892
328.070874	2168.225475
328.464933	2167.096257
328.858929	2172.913748
329.252859	2175.066321
329.646726	2188.533763
330.040528	2198.701771
330.434265	2210.790458
330.827938	2232.699312
331.221547	2244.757752
331.615091	2263.493200
332.008571	2283.713268
332.401986	2302.042904
332.795338	2319.568475
333.188625	2340.670745
333.581847	2357.384691
333.975006	2377.125849
334.368100	2393.393653
334.761129	2414.369894
335.154095	2433.097780
335.546996	2457.025617
335.939833	2497.216216
336.332606	2510.129132
336.725315	2521.980884
337.117960	2537.346321
337.510540	2544.779503
337.903056	2555.607901
338.295508	2568.500652
338.687896	2574.348391
339.080220	2582.933476
339.472480	2588.803899
339.864676	2593.693818
340.256807	2598.707246
340.648875	2603.985334
341.040879	2606.092536
341.432818	2611.854575
341.824694	2611.547065
342.216506	2612.255347
342.608253	2614.163424
342.999937	2614.052518
343.391557	2614.680142
343.783113	2612.966150
344.174605	2610.861468
344.566033	2610.269132
344.957397	2610.952209
345.348697	2609.886005
345.739934	2606.122783
346.131106	2605.694285
346.522215	2603.546754
346.913260	2602.107504
347.304241	2598.939139
347.695159	2598.445106
348.086012	2597.391505
348.476802	2596.322780
348.867528	2591.949579
349.258191	2588.977819
349.648789	2585.948086
350.039324	2583.929103
350.429796	2587.195771
350.820203	2583.432550
351.210548	2586.021182
351.600828	2583.450194
351.991045	2581.519432
352.381198	2581.612693
352.771288	2582.527663
353.161314	2580.057497
353.551276	2581.113619
353.941175	2581.370718
354.331010	2578.396437
354.720782	2579.598752
355.110490	2581.158989
355.500135	2578.467013
355.889717	2578.308217
356.279235	2579.175295
356.668689	2580.911973
357.058080	2579.628999
357.447408	2579.339133
357.836672	2580.612024
358.225873	2577.834348
358.615010	2583.561099
359.004084	2578.552713
359.393095	2580.637230
359.782043	2584.912128
360.170927	2584.468507
360.559748	2581.894998
360.948505	2585.685946
361.337199	2584.796182
361.725830	2585.038157
362.114398	2586.802561
362.502903	2587.964547
362.891344	2588.871955
363.279722	2585.575040
363.668037	2587.775504
364.056289	2588.849270
364.444478	2587.972109
364.832603	2588.640062
365.220665	2592.100814
365.608665	2592.735999
365.996601	2591.720207
366.384474	2590.187696
366.772284	2589.529825
367.160031	2589.804568
367.547715	2592.390680
367.935336	2591.712645
368.322893	2589.403797
368.710388	2591.019486
369.097820	2590.953951
369.485189	2589.718869
369.872495	2593.557707
370.259738	2593.172059
370.646918	2593.766915
371.034035	2594.724734
371.421090	2597.764550
371.808081	2593.066195
372.195010	2595.949735
372.581875	2596.287492
372.968678	2596.806731
373.355418	2596.857142
373.742096	2598.215733
374.128710	2599.284458
374.515262	2597.116762
374.901751	2598.671958
375.288177	2599.229005
375.674540	2599.163470
376.060841	2600.953080
376.447079	2601.169850
376.833254	2601.948708
377.219367	2599.017277
377.605417	2600.743872
377.991404	2597.991402
378.377329	2601.600868
378.763191	2600.569952
379.148991	2601.593307
379.534727	2602.593976
379.920402	2603.272011
380.306013	2604.194542
380.691563	2605.500201
381.077049	2602.651949
381.462474	2602.258739
381.847835	2603.191352
382.233134	2602.321753
382.618371	2604.126486
383.003545	2602.472988
383.388657	2601.994078
383.773706	2604.164295
384.158693	2604.058431
384.543618	2604.590272
384.928480	2606.820983
385.313280	2605.351487
385.698017	2605.328802
386.082692	2607.922475
386.467305	2605.585900
386.851856	2607.347784
387.236344	2608.734101
387.620770	2606.092536
388.005133	2604.164295
388.389435	2606.831065
388.773674	2602.757813
389.157851	2608.567743
389.541965	2610.869030
389.926018	2608.267794
390.310008	2609.875922
390.693936	2610.518669
391.077802	2611.446242
391.461606	2611.894904
391.845348	2611.040429
392.229027	2612.948506
392.612645	2611.315172
392.996200	2612.623351
393.379694	2613.767693
393.763125	2612.005810
394.146494	2614.329782
394.529801	2614.919597
394.913047	2614.783486
395.296230	2612.651077
395.679351	2615.179216
396.062410	2613.891201
396.445408	2615.201901
396.828343	2616.235338
397.211217	2617.329268
397.594028	2616.225256
397.976778	2614.967488
398.359466	2617.190637
398.742092	2619.612911
399.124656	2616.326079
399.507158	2616.351284
399.889598	2619.401182
400.271977	2616.356326
400.654294	2616.469752
401.036549	2618.410596
401.418742	2617.891357
401.800874	2618.841614
402.182944	2621.445370
402.564952	2619.633076
402.946898	2622.476286
403.328783	2621.712552
403.710606	2622.957717
404.092367	2620.943776
404.474067	2620.613580
404.855705	2623.779425
405.237282	2622.632562
405.618797	2623.164404
406.000250	2626.541977
406.381642	2624.507871
406.762972	2621.931842
407.144240	2621.435288
407.525447	2622.909826
407.906593	2622.012500
408.287677	2626.037862
408.668700	2627.832512
409.049661	2628.263531
409.430560	2628.273613
409.811399	2628.107255
410.192176	2629.125568
410.572891	2629.934673
410.953545	2631.883079
411.334138	2631.084057
411.714669	2632.974489
412.095139	2633.244191
412.475547	2631.920888
412.855894	2634.043214
413.236180	2634.784263
413.616405	2635.817700
413.996568	2635.041362
414.376670	2638.413894
414.756711	2636.241157
415.136691	2634.922895
415.516609	2636.105046
415.896466	2639.901035
416.276262	2638.645787
416.655997	2638.308030
417.035670	2640.644605
417.415283	2639.956487
417.794834	2639.308699
418.174324	2639.953967
418.553753	2639.790129
418.933121	2645.781541
419.312428	2645.849596
419.691674	2646.567961
420.070859	2645.274905
420.449983	2648.808753
420.829045	2646.419247
421.208047	2648.113074
421.586988	2651.140287
421.965867	2651.218425
422.344686	2654.227994
422.723444	2654.762356
423.102141	2651.853610
423.480777	2656.947696
423.859352	2657.897954
424.237866	2661.104128
424.616319	2662.669406
424.994712	2667.072854
425.373044	2668.688544
425.751314	2669.885818
426.129524	2676.320851
426.507673	2685.962057
426.885762	2691.371215
427.263789	2702.078626
427.641756	2714.472303
428.019662	2727.312122
428.397508	2743.327867
428.775292	2755.187182
429.153016	2776.720471
429.530679	2792.340486
429.908282	2819.686225
430.285824	2834.837413
430.663305	2887.315824
431.040726	2900.813514
431.418086	2935.484049
431.795385	2988.746360
432.172624	3033.111035
432.549802	3076.948908
432.926920	3130.990078
433.303977	3172.130934
433.680974	3249.283273
434.057910	3319.360353
434.434786	3394.856673
434.811601	3449.200311
435.188355	3585.187957
435.565050	3625.403762
435.941683	3696.529401
436.318257	3851.292824
436.694770	3951.773103
437.071222	4061.972726
437.447614	4129.919918
437.823946	4198.875341
438.200218	4332.218901
438.576429	4386.481881
438.952580	4536.655334
439.328670	4659.346936
439.704700	4715.162592
440.080670	4812.852591
440.456580	5076.883024
440.832429	5127.947392
441.208218	5109.272438
441.583947	5322.919058
441.959616	5491.538092
442.335224	5543.996339
442.710773	5711.549170
443.086261	5919.988278
443.461689	5747.638790
443.837057	6121.084947
444.212365	6375.930397
444.587612	6346.522826
444.962800	6588.959476
445.337927	6605.277691
445.712995	6509.745305
446.088002	7183.891247
446.462949	7134.286293
446.837837	7246.948520
447.212664	7391.977475
447.587431	7795.269783
447.962139	8337.203904
448.336786	9741.054344
448.711374	10305.850098
449.085901	9179.255557
449.460369	9062.683915
449.834776	8857.612297
450.209124	9542.382471
450.583412	9924.166696
450.957640	10721.619261
451.331808	10319.904835
451.705917	9733.323735
452.079965	9356.620993
452.453954	10147.187342
452.827883	9977.335746
453.201752	10312.254884
453.575562	10038.318584
453.949311	10473.183638
454.323001	10530.430981
454.696632	10815.689713
455.070202	11133.075718
455.443713	11436.722058
455.817164	11910.595561
456.190556	12014.622291
456.563888	12410.947724
456.937160	12677.750791
457.310373	12172.710355
457.683526	12322.180566
458.056619	12023.716532
458.429653	12194.906555
458.802628	11810.112762
459.175542	12166.925631
459.548398	13122.148667
459.921194	13482.984377
460.293930	13578.141197
460.666607	14461.500065
461.039224	15445.525734
461.411782	16147.629916
461.784280	16157.840773
462.156719	16259.984632
462.529099	16038.955242
462.901419	15060.578185
463.273680	14906.041614
463.645882	14813.901925
464.018024	14588.884982
464.390106	14831.256097
464.762130	15566.460494
465.134094	16295.481917
465.505999	18219.564311
465.877845	21406.027246
466.249631	24242.616459
466.621358	24054.203334
466.993026	22656.924038
467.364634	22140.752733
467.736184	20742.934033
468.107674	19955.064702
468.479105	20105.039028
468.850477	19579.743236
469.221790	19171.508077
469.593043	18518.519857
469.964238	17990.201893
470.335373	17661.122932
470.706449	18072.362619
471.077467	17621.227240
471.448425	19433.799312
471.819324	23379.054202
472.190164	25522.895616
472.560945	22050.657232
472.931667	19650.452980
473.302330	19009.833232
473.672934	18469.514801
474.043479	18868.837200
474.413965	18686.687709
474.784393	18319.172470
475.154761	18978.774683
475.525070	19003.793930
475.895321	18649.952821
476.265513	19235.492922
476.635645	19804.061979
477.005719	19597.435165
477.375734	19802.201793
477.745691	20277.801891
478.115588	20775.789753
478.485427	21283.998555
478.855207	22329.090241
479.224928	24085.405556
479.594591	26296.765664
479.964194	26390.778142
480.333739	26593.566117
480.703226	26144.976522
481.072653	25827.154457
481.442022	26368.876849
481.811333	27272.629705
482.180584	27222.896202
482.549777	26269.132579
482.918912	25903.051548
483.287988	26008.265470
483.657005	25718.129422
484.025964	25427.060761
484.394864	25386.885286
484.763706	25078.651495
485.132489	24494.202804
485.501213	24658.715818
485.869879	24590.161167
486.238487	24381.570824
486.607036	24535.068917
486.975527	24211.681419
487.343959	24550.225146
487.712333	24510.563868
488.080648	24171.662219
488.448905	24641.331399
488.817104	24394.471137
489.185244	25051.114193
489.553326	25033.860843
489.921350	25983.314279
490.289315	28262.142670
490.657222	30079.375288
491.025070	30562.703474
491.392861	30366.000172
491.760593	29526.527069
492.128267	28621.599624
492.495883	27597.935362
492.863440	26716.293008
493.230939	25829.402811
493.598380	25676.602918
493.965763	25280.375787
494.333088	24832.262581
494.700354	24759.296920
495.067563	24641.401975
495.434713	24394.488781
495.801805	24545.267172
496.168839	24365.981056
496.535815	24187.372975
496.902733	24389.682040
497.269593	24062.795981
497.636395	24260.608337
498.003139	24238.223094
498.369825	23996.698892
498.736453	24182.203272
499.103023	24065.787906
499.469535	24086.005453
499.835989	24299.289111
500.202385	24325.510673
500.568723	23809.392301
500.935003	24082.033024
501.301226	23679.648124
501.667390	24516.968654
502.033497	24759.007053
502.399546	24480.059847
502.765537	24060.592997
503.131470	24451.857111
503.497345	24578.256482
503.863163	23792.736328
504.228923	24403.356170
504.594625	24606.890236
504.960269	24118.135247
505.325856	24627.644667
505.691385	24026.106463
506.056856	24626.447392
506.422270	24602.128866
506.787625	24194.095353
507.152924	24600.868578
507.518164	24615.447595
507.883347	24420.075157
508.248472	24109.098979
508.613540	24902.579115
508.978550	24670.078579
509.343503	24669.420708
509.708398	24930.628095
510.073236	25082.697021
510.438016	25285.522805
510.802738	24980.475024
511.167403	25230.211265
511.532010	24923.605768
511.896561	25702.453955
512.261053	25673.028740
512.625488	25506.393399
512.989866	25410.044346
513.354186	25262.257880
513.718449	25352.111406
514.082655	25744.232517
514.446803	25471.274201
514.810894	25926.288747
515.174927	25414.064667
515.538904	25443.494923
515.902822	25943.859689
516.266684	25687.547263
516.630488	25583.974236
516.994235	25579.260757
517.357925	25864.610230
517.721558	26071.048000
518.085133	26154.776525
518.448651	26066.014408
518.812112	25785.058302
519.175516	25977.015358
519.538863	26149.934496
519.902152	25925.630877
520.265385	26222.547276
520.628560	26006.627095
520.991678	26024.061926
521.354739	26094.103717
521.717743	26156.896330
522.080690	25941.807939
522.443580	26280.291173
522.806413	26288.054550
523.169189	26371.785595
523.531908	26415.487357
523.894569	26026.360692
524.257174	26094.549860
524.619722	26300.740614
524.982213	25974.502342
525.344647	26045.693517
525.707025	26171.777816
526.069345	26159.487483
526.431608	26107.067045
526.793815	26299.467722
527.155964	25758.561997
527.518057	25927.944766
527.880093	25848.430647
528.242072	26095.001043
528.603995	25799.483563
528.965860	25586.383908
529.327669	25632.815455
529.689421	25628.618695
530.051117	25452.410203
530.412755	25635.000796
530.774337	25442.025426
531.135862	25303.232379
531.497331	25505.554047
531.858743	25062.250101
532.220098	25536.239551
532.581396	25212.010179
532.942638	25168.051318
533.303824	25250.915284
533.664953	25270.089313
534.026025	24931.081799
534.387040	25167.297665
534.747999	25230.372582
535.108902	25397.456585
535.469748	24887.894234
535.830537	25082.392032
536.191270	25189.025038
536.551947	25072.019857
536.912567	24747.571196
537.273131	25062.003085
537.633638	24774.579178
537.994089	24973.775331
538.354483	24529.042218
538.714821	25023.440778
539.075103	25066.885442
539.435328	24850.090621
539.795497	24413.330093
540.155609	24813.517050
540.515665	25105.765341
540.875665	24339.172199
541.235609	24628.839420
541.595496	24593.263997
541.955328	24959.856705
542.315102	24869.846903
542.674821	24423.848461
543.034483	24293.161588
543.394090	24460.941271
543.753640	24257.213120
544.113134	24887.107814
544.472571	24486.847760
544.831953	24777.349292
545.191278	24392.247988
545.550548	24317.328880
545.909761	24534.552199
546.268918	24753.330714
546.628019	24715.370826
546.987064	24421.521968
547.346053	24188.219889
547.704986	24301.950840
548.063863	24453.785353
548.422684	24452.295692
548.781449	24008.774976
549.140158	24409.372787
549.498811	23982.203054
549.857408	23720.098343
550.215949	24156.871473
550.574434	23833.599921
550.932864	24062.231372
551.291237	24200.167423
551.649555	24074.892230
552.007817	24129.157730
552.366022	24004.356405
552.724173	24042.810327
553.082267	23979.241377
553.440305	24456.729387
553.798288	23721.910637
554.156215	24237.852569
554.514086	24321.321474
554.871902	23698.688562
555.229661	23979.843794
555.587365	23844.798845
555.945014	23694.436349
556.302606	23961.365445
556.660143	23905.466611
557.017625	24149.874352
557.375050	23679.448998
557.732421	24076.323917
558.089735	23889.549167
558.446994	23939.718730
558.804197	23980.904957
559.161345	23927.582153
559.518437	23663.677749
559.875474	23869.944120
560.232455	24054.775505
560.589381	23884.845771
560.946251	23859.319888
561.303065	24169.968391
561.659825	24263.673359
562.016528	23858.087326
562.373177	23614.264359
562.729770	23963.001299
563.086307	23832.238810
563.442789	23999.363142
563.799216	23816.863291
564.155587	23837.622762
564.511904	23814.735924
564.868164	23741.339244
565.224370	23734.100147
565.580520	23632.120126
565.936615	23770.416620
566.292654	23446.003246
566.648638	23763.575774
567.004567	23580.624739
567.360441	23536.277709
567.716260	23261.159258
568.072023	23589.913065
568.427732	23339.768491
568.783385	23126.568012
569.138982	23358.854299
569.494525	23399.307038
569.850013	23141.671309
570.205445	23232.548189
570.560823	23039.154404
570.916145	22799.664309
571.271412	22985.070385
571.626625	22737.796748
571.981782	22842.864477
572.336884	22657.279439
572.691931	22779.474488
573.046923	22531.066591
573.401860	22406.270307
573.756743	22406.915574
574.111570	22323.257626
574.466342	22257.689859
574.821059	22345.123631
575.175722	22042.871170
575.530330	22032.640148
575.884882	22046.843599
576.239380	21973.426755
576.593823	21850.868743
576.948211	21833.038182
577.302544	21684.102333
577.656823	21540.321063
578.011047	21641.733955
578.365216	21517.673680
578.719330	21401.165053
579.073389	21296.820730
579.427394	21437.983120
579.781344	21212.351156
580.135239	21104.185638
580.489080	21069.217675
580.842866	20834.118424
581.196597	21023.199502
581.550273	21018.760766
581.903895	20890.901981
582.257463	21215.839634
582.610975	20739.274156
582.964434	21048.876619
583.317837	20756.913153
583.671186	20830.924853
584.024481	20810.798046
584.377721	20583.729354
584.730906	20640.132303
585.084037	20671.067344
585.437113	20567.794266
585.790135	20775.686410
586.143103	20238.901828
586.496016	20256.198027
586.848874	20502.738176
587.201679	20433.984399
587.554428	20101.583318
587.907124	20438.337436
588.259765	20208.145748
588.612352	20294.092380
588.964884	19852.527632
589.317362	20034.664521
589.669786	20077.791592
590.022155	20124.626432
590.374470	20307.138886
590.726731	20108.199832
591.078937	19871.704182
591.431090	19971.370314
591.783188	19707.423060
592.135232	19691.140133
592.487222	19785.177817
592.839157	19809.617331
593.191038	19688.196099
593.542866	19574.505477
593.894639	19286.806827
594.246358	19512.978194
594.598022	19409.884078
594.949633	19171.588735
595.301190	19136.514908
595.652692	19306.767276
596.004141	19540.732267
596.355535	18869.353918
596.706876	18878.044868
597.058162	18783.157749
597.409395	18999.761007
597.760573	19080.477441
598.111698	18859.334625
598.462768	18797.378844
598.813785	18750.135671
599.164748	18572.888702
599.515657	18611.219115
599.866511	18399.379748
600.217312	18757.531044
600.568060	18282.893806
600.918753	18594.220344
601.269392	18499.565119
601.619978	18275.500954
601.970510	18483.569538
602.320988	18433.389892
602.671412	18648.798396
603.021783	18550.553870
603.372100	18285.560577
603.722363	18417.724507
604.072572	18358.062451
604.422728	18497.266353
604.772830	18257.814066
605.122878	18206.512764
605.472872	18201.136373
605.822813	18183.280606
606.172701	18158.135331
606.522534	18351.266976
606.872314	18374.978043
607.222041	18210.906129
607.571714	18426.009643
607.921333	18248.578672
608.270899	18327.654211
608.620411	18511.873096
608.969870	18273.502137
609.319276	18280.466491
609.668627	18302.007341
610.017926	18441.488506
610.367171	18564.149862
610.716362	18602.525645
611.065500	18417.308612
611.414585	18551.403304
611.763616	18535.082568
612.112594	18488.429210
612.461518	18452.488304
612.810389	18644.780597
613.159207	18495.920365
613.507971	18402.762362
613.856682	18688.058902
614.205340	18612.076111
614.553945	18758.181353
614.902496	18502.925048
615.250994	18733.278052
615.599439	18679.519188
615.947830	18666.465120
616.296169	18717.388336
616.644454	18676.038271
616.992686	18654.182349
617.340864	18868.386017
617.688990	18624.573132
618.037063	18794.845664
618.385082	18645.201533
618.733048	18922.689326
619.080961	18794.916241
619.428821	18845.065639
619.776628	18729.051045
620.124382	18641.851686
620.472083	18680.718982
620.819731	18705.750832
621.167326	18394.288183
621.514868	18437.148073
621.862357	18204.607208
622.209793	18213.288074
622.557176	18050.912509
622.904506	17875.102269
623.251783	17785.689843
623.599007	17544.344603
623.946179	17497.229979
624.293297	17439.707893
624.640363	17189.575922
624.987376	17202.156121
625.334336	16996.431674
625.681243	16842.081625
626.028097	16858.503184
626.374899	16778.021163
626.721647	16645.839588
627.068343	16475.249463
627.414987	16410.042138
627.761577	16384.309568
628.108115	16432.991991
628.454600	16147.128321
628.801032	16241.632311
629.147412	16179.570666
629.493739	16192.546596
629.840014	16004.183883
630.186236	16104.563338
630.532405	15868.836464
630.878521	16062.903243
631.224585	15951.115656
631.570597	15781.596776
631.916556	15811.057279
632.262462	15792.324351
632.608316	15713.760489
632.954117	15655.704041
633.299866	15642.738193
633.645562	15566.773046
633.991206	15320.220294
634.336797	15191.254975
634.682336	15171.917109
635.027823	15048.781885
635.373257	14934.065388
635.718639	14830.194934
636.063968	14779.627120
636.409245	14529.575807
636.754470	14555.719231
637.099642	14398.415066
637.444762	14170.532227
637.789829	14216.351274
638.134845	14058.762284
638.479808	14085.281274
638.824719	14030.766237
639.169577	13888.361202
639.514383	13930.371658
639.859137	13751.375408
640.203839	13836.810363
640.548489	13668.045135
640.893086	13662.711594
641.237632	13528.165719
641.582125	13681.807485
641.926566	13510.693079
642.270955	13521.990305
642.615292	13483.354902
642.959576	13497.770082
643.303809	13533.559753
643.647990	13463.507879
643.992118	13520.977033
644.336195	13290.981951
644.680219	13502.690248
645.024192	13419.700253
645.368112	13660.420390
645.711981	13718.970871
646.055797	13897.599117
646.399562	13869.061145
646.743274	14136.837155
647.086935	14417.886523
647.430544	14368.896590
647.774101	14406.317075
648.117606	14557.345003
648.461059	14526.422565
648.804460	14517.040978
649.147810	14244.173402
649.491108	14134.742555
649.834354	14165.470908
650.177548	13859.132592
650.520690	13658.222447
650.863781	13584.820726
651.206820	13633.180515
651.549807	13457.377836
651.892742	13267.825411
652.235626	13200.314278
652.578458	13200.548692
652.921238	12886.638562
653.263967	13092.315119
653.606644	12906.092375
653.949269	12892.924881
654.291843	12691.719828
654.634365	12853.485414
654.976836	12703.571581
655.319255	12711.949979
655.661622	12661.820745
656.003938	12583.229157
656.346203	12510.429854
656.688416	12589.535640
657.030577	12544.964278
657.372687	12455.335083
657.714746	12441.892847
658.056753	12624.385137
658.398708	12442.827981
658.740612	12444.967951
659.082465	12549.705483
659.424266	12501.554902
659.766016	12536.525387
660.107715	12439.226076
660.449362	12525.044159
660.790958	12479.968682
661.132503	12427.202924
661.473996	12491.253305
661.815438	12507.435408
662.156829	12523.050383
662.498168	12500.960046
662.839456	12504.788803
663.180693	12517.467305
663.521879	12611.721758
663.863013	12580.118765
664.204097	12561.335425
664.545129	12683.495186
664.886110	12647.629897
665.227040	12742.033064
665.567918	12751.964138
665.908746	12782.763067
666.249522	12761.454110
666.590248	12815.858242
666.930922	12926.665324
667.271545	12910.969692
667.612118	12994.473884
667.952639	12897.885377
668.293109	12908.943148
668.633528	12860.230478
668.973896	12836.385820
669.314213	12913.286102
669.654480	12654.022080
669.994695	12721.545815
670.334859	12754.124272
670.674973	12691.066999
671.015035	12726.919685
671.355047	12676.223322
671.695008	12636.322589
672.034918	12650.410093
672.374777	12692.365096
672.714585	12614.038168
673.054342	12647.619815
673.394049	12586.843664
673.733705	12683.439733
674.073310	12595.738780
674.412864	12608.936521
674.752368	12473.251344
675.091820	12498.983914
675.431223	12485.198879
675.770574	12348.870955
676.109875	12270.140735
676.449125	12227.064076
676.788324	12181.073629
677.127473	12007.468893
677.466571	11999.203922
677.805619	11895.456976
678.144616	11816.144502
678.483562	11794.354115
678.822458	11663.914259
679.161303	11636.644137
679.500098	11630.274639
679.838842	11581.239336
680.177535	11608.111206
680.516179	11665.056080
680.854771	11617.031528
681.193314	11830.685710
681.531805	11981.494348
681.870247	12403.262485
682.208638	12814.484527
682.546978	13122.809058
682.885268	13168.565091
683.223508	12863.350952
683.561697	12708.406048
683.899836	12601.465531
684.237925	12405.142835
684.575963	12323.340032
684.913951	12244.997980
685.251889	12194.939323
685.589776	12298.068727
685.927614	12225.198849
686.265401	12186.250894
686.603137	12235.616393
686.940824	12384.033003
687.278460	12512.411027
687.616046	12560.206207
687.953582	12734.592321
688.291068	12656.855208
688.628504	12893.635684
688.965889	12899.314544
689.303224	12869.135676
689.640510	12753.395825
689.977745	12449.469701
690.314930	12216.959083
690.652065	12121.346038
690.989150	11839.482524
691.326185	11618.216199
691.663170	11412.111145
692.000105	11159.791312
692.336990	11053.317102
692.673825	10805.337703
693.010610	10684.932264
693.347345	10477.879473
693.684030	10270.239387
694.020665	10217.261901
694.357251	10021.397951
694.693786	9961.478796
695.030272	9796.665833
695.366707	9675.952884
695.703093	9614.891908
696.039429	9604.202141
696.375716	9531.493579
696.711952	9396.980471
697.048139	9442.055948
697.384276	9394.222960
697.720363	9413.923789
698.056400	9352.131846
698.392388	9298.516654
698.728326	9258.487372
699.064214	9201.532416
699.400053	9241.697809
699.735842	9062.192403
700.071581	9014.984518
700.407270	8941.083723
700.742910	8864.541363
701.078501	8771.411087
701.414042	8646.685379
701.749533	8576.983866
702.084974	8447.653064
702.420366	8562.598933
702.755709	8436.290303
703.091002	8304.466651
703.426246	8332.994540
703.761440	8287.344372
704.096584	8240.595231
704.431679	8173.079058
704.766725	8155.482910
705.101721	8110.359542
705.436668	8155.049371
705.771565	8045.600880
706.106413	8133.148078
706.441212	8174.946805
706.775961	8127.302860
707.110661	8165.960949
707.445311	8312.857651
707.779913	8210.002989
708.114465	8330.710898
708.448967	8373.175057
708.783421	8516.016151
709.117825	8705.276190
709.452180	8736.203669
709.786485	8822.135177
710.120742	9108.099670
710.454949	9107.093960
710.789107	9207.601965
711.123216	9414.863964
711.457275	9594.097148
711.791286	9745.402340
712.125247	9742.392771
712.459159	9729.797448
712.793023	9976.577052
713.126837	9556.036437
713.460602	9710.157112
713.794318	9532.095997
714.127985	9563.492303
714.461602	9241.992717
714.795171	9184.649592
715.128691	8947.241492
715.462162	8690.924025
715.795584	8636.091395
716.128957	8491.022110
716.462281	8321.641862
716.795556	8371.249336
717.128782	8162.575814
717.461960	7899.311637
717.795088	7975.395251
718.128167	7875.497226
718.461198	7707.036988
718.794180	7652.353071
719.127113	7647.722772
719.459997	7487.630849
719.792833	7257.434120
720.125619	7320.297309
720.458357	7179.601225
720.791046	7168.177971
721.123686	7167.167219
721.456278	7004.975656
721.788821	7026.080447
722.121315	6919.860815
722.453761	6988.400342
722.786158	6931.914213
723.118506	6940.211953
723.450805	6912.944352
723.783056	6977.035061
724.115259	6887.965434
724.447412	6879.894547
724.779518	6925.035559
725.111574	6931.372289
725.443582	7011.065370
725.775542	6991.661969
726.107453	7178.421595
726.439315	7096.830520
726.771129	7155.166753
727.102895	7324.882238
727.434612	7435.875843
727.766281	7464.330636
728.097901	7545.672174
728.429473	7536.923251
728.760996	7513.653285
729.092471	7491.459605
729.423897	7440.740556
729.755276	7450.653985
730.086606	7377.791668
730.417887	7481.672205
730.749120	7667.877305
731.080305	7863.259825
731.411442	7983.186354
731.742530	7985.853125
732.073570	8093.017973
732.404562	8176.466713
732.735506	8018.303032
733.066401	8168.824324
733.397249	8087.344154
733.728048	7856.219853
734.058798	7520.085797
734.389501	7296.092208
734.720156	7117.310208
735.050762	6889.094653
735.381320	6790.940867
735.711831	6738.028916
736.042293	6628.935826
736.372707	6648.198075
736.703073	6512.724627
737.033391	6553.021090
737.363661	6562.301855
737.693883	6593.927533
738.024056	6673.681108
738.354182	6718.260031
738.684260	6753.890907
739.014290	6874.772735
739.344272	6982.187120
739.674207	7007.876840
740.004093	7079.282264
740.333931	7089.956907
740.663722	7098.247085
740.993464	7171.192581
741.323159	7162.771333
741.652806	6913.173724
741.982405	6927.788029
742.311956	6986.671227
742.641460	6820.507234
742.970915	6625.941381
743.300323	6620.759075
743.629683	6564.814870
743.958996	6432.885353
744.288260	6342.653740
744.617477	6289.217510
744.946647	6299.249406
745.275768	6128.213138
745.604842	6085.449030
745.933869	6068.992183
746.262847	6027.455596
746.591778	6014.023442
746.920662	5972.494416
747.249498	5963.105267
747.578286	6014.661148
747.907027	6088.501449
748.235720	6150.731972
748.564365	6121.755420
748.892963	6153.250029
749.221514	6305.124871
749.550017	6135.303521
749.878473	6008.793245
750.206881	6062.393313
750.535242	6011.449933
750.863555	5938.287667
751.191821	5953.915244
751.520039	5961.678621
751.848210	5866.216811
752.176334	5887.745058
752.504411	5936.881185
752.832440	5863.784454
753.160421	5789.873577
753.488356	5840.045661
753.816243	5870.849631
754.144082	5720.681220
754.471875	5689.899935
754.799620	5738.302573
755.127318	5752.274131
755.454969	5703.062387
755.782572	5666.604763
756.110129	5715.277103
756.437638	5701.517274
756.765100	5637.771883
757.092515	5634.923631
757.419882	5690.540161
757.747203	5668.538045
758.074477	5730.955092
758.401703	5715.617381
758.728882	5668.747253
759.056014	5727.695986
759.383099	5852.618298
759.710138	5865.790833
760.037129	5849.374316
760.364073	5854.733063
760.690970	5939.205157
761.017820	5915.489049
761.344623	5871.898191
761.671379	5976.066074
761.998088	6094.946564
762.324751	6337.012689
762.651366	6935.276663
762.977935	8250.748115
763.304456	9882.612465
763.630931	10786.035125
763.957359	10390.198684
764.283740	9443.762379
764.610074	8609.406047
764.936362	7609.248685
765.262602	7014.420258
765.588796	6476.473690
765.914943	6140.934490
766.241044	5982.082691
766.567097	5777.931084
766.893104	5518.077247
767.219064	5341.404969
767.544978	5278.030104
767.870845	5200.096386
768.196665	5089.745528
768.522438	5021.614334
768.848165	4994.361856
769.173846	4923.132873
769.499479	4878.926995
769.825066	4829.072504
770.150607	4766.952886
770.476101	4743.655193
770.801548	4741.868104
771.126949	4665.633255
771.452303	4612.325574
771.777611	4568.570879
772.102872	4587.145010
772.428087	4548.617992
772.753256	4507.270448
773.078378	4464.090445
773.403453	4391.681832
773.728482	4380.480388
774.053465	4332.334848
774.378401	4319.258095
774.703291	4323.258250
775.028135	4250.025408
775.352932	4197.788972
775.677683	4186.343033
776.002388	4209.343297
776.327046	4220.340574
776.651658	4144.768637
776.976224	4083.576591
777.300743	4086.213114
777.625216	4107.771609
777.949643	4102.861525
778.274024	4056.588774
778.598359	4015.684851
778.922647	4039.277451
779.246889	4029.739588
779.571086	4027.511398
779.895236	4013.388606
780.219339	3994.287674
780.543397	3988.182837
780.867409	4043.368348
781.191374	4053.470820
781.515294	3991.562930
781.839167	3980.661435
782.162995	4005.537009
782.486776	3992.233404
782.810511	4002.169518
783.134201	3996.530987
783.457844	3951.349646
783.781441	3897.391656
784.104993	3904.267790
784.428498	3924.792847
784.751958	3920.449893
785.075372	3898.135226
785.398739	3861.496120
785.722061	3873.335270
786.045337	3916.507711
786.368568	3948.095581
786.691752	3861.821274
787.014891	3908.928336
787.337983	4038.496072
787.661030	4196.183365
787.984031	4358.531204
788.306987	4529.552348
788.629897	4612.476808
788.952760	4567.950817
789.275579	4500.391794
789.598351	4435.766722
789.921078	4293.528046
790.243759	4095.778704
790.566395	4074.895724
790.888984	4072.387750
791.211529	3963.314825
791.534027	3901.530443
791.856480	3895.284453
792.178888	3830.654341
792.501249	3780.068882
792.823566	3792.389462
793.145836	3822.573371
793.468062	3770.074795
793.790241	3725.281622
794.112375	3752.879419
794.434464	3817.002896
794.756507	3839.531812
795.078505	3823.974812
795.400457	3856.601159
795.722364	3997.710617
796.044226	4100.897995
796.366042	4173.609078
796.687812	4153.681397
797.009538	4160.053415
797.331218	4116.757465
797.652852	4088.955502
797.974442	4069.794076
798.295986	4071.308943
798.617484	3984.890963
798.938938	3903.191503
799.260346	3941.136268
799.581709	3935.996812
799.903026	3866.998539
800.224299	3826.881037
800.545526	3821.035819
800.866708	3784.469810
801.187845	3721.863720
801.508936	3759.823608
801.829983	3758.616252
802.150984	3674.698685
802.471940	3664.722241
802.792851	3675.134744
803.113717	3676.672296
803.434538	3679.311340
803.755314	3623.417547
804.076045	3596.069287
804.396731	3616.808594
804.717372	3643.546874
805.037967	3629.562714
805.358518	3617.524438
805.679024	3645.253305
805.999485	3661.402641
806.319901	3663.154442
806.640272	3674.764220
806.960598	3690.091848
807.280879	3666.191737
807.601115	3676.455527
807.921306	3694.414637
808.241453	3732.752612
808.561554	3707.892162
808.881611	3644.761793
809.201623	3680.743028
809.521590	3694.071839
809.841513	3667.716687
810.161390	3695.808516
810.481223	3671.966379
810.801011	3620.551651
811.120755	3609.940022
811.440453	3645.160044
811.760107	3647.940240
812.079716	3604.213272
812.399281	3574.213365
812.718801	3597.430399
813.038276	3571.410483
813.357707	3564.738516
813.677093	3584.532607
813.996434	3529.377343
814.315731	3541.750855
814.634983	3545.491391
814.954191	3561.134091
815.273354	3587.005293
815.592473	3582.969849
815.911547	3586.657453
816.230577	3629.217395
816.549562	3678.880322
816.868502	3722.723237
817.187399	3750.520159
817.506250	3742.471957
817.825058	3718.440777
818.143821	3809.294972
818.462539	3914.277001
818.781213	3957.063794
819.099843	4016.987990
819.418429	4257.982870
819.736970	4501.173172
820.055466	4750.823714
820.373919	5115.034476
820.692327	5526.715264
821.010691	5962.777592
821.329011	7347.653130
821.647286	10090.466800
821.965517	14658.866279
822.283704	18694.524182
822.601847	20845.758448
822.919945	19026.922743
823.237999	16445.284844
823.556010	13945.169965
823.873976	11850.996519
824.191897	9765.302294
824.509775	8408.914317
824.827609	7291.426621
825.145398	6743.788434
825.463144	6627.849458
825.780845	6740.254585
826.098502	6932.012516
826.416116	7810.118502
826.733685	9137.396336
827.051210	10252.653322
827.368692	10290.603128
827.686129	9034.534112
828.003522	7514.767380
828.320872	6499.935220
828.638177	5798.849352
828.955439	5240.428137
829.272656	4737.449533
829.589830	4457.781441
829.906960	4281.630923
830.224046	4096.071091
830.541088	3969.349086
830.858086	3923.933331
831.175041	3848.573122
831.491952	3830.606450
831.808819	3842.299406
832.125642	3917.326899
832.442421	4063.038930
832.759157	4340.602340
833.075849	4887.219693
833.392497	5758.825111
833.709101	6533.710951
834.025662	6869.416509
834.342179	6507.282702
834.658653	5838.026679
834.975083	5193.210170
835.291469	4615.188949
835.607811	4203.782904
835.924110	4069.479004
836.240366	3870.655896
836.556578	3665.049916
836.872746	3556.977660
837.188871	3513.071731
837.504952	3448.658387
837.820990	3364.806355
838.136984	3319.935044
838.452935	3344.286338
838.768842	3340.654187
839.084706	3363.445243
839.400526	3520.641023
839.716303	3861.544011
840.032037	4389.045308
840.347727	4653.345442
840.663373	4369.536043
840.978977	3986.453721
841.294537	3683.230837
841.610054	3453.155097
841.925527	3344.485464
842.240957	3275.860236
842.556344	3221.254458
842.871687	3159.293636
843.186987	3114.203035
843.502244	3075.824731
843.817458	3039.233516
844.132629	3010.778723
844.447756	3019.187368
844.762840	3005.830831
845.077881	2974.235399
845.392879	2956.677060
845.707833	2954.519446
846.022745	2950.854527
846.337613	2953.798561
846.652438	2940.966304
846.967221	2934.669903
847.281960	2921.578026
847.596656	2920.592481
847.911309	2919.402768
848.225919	2912.692993
848.540485	2906.744431
848.855009	2909.101171
849.169490	2898.456774
849.483928	2889.758263
849.798323	2888.712224
850.112675	2883.618138
850.426984	2898.247566
850.741251	2892.891340
851.055474	2881.185781
851.369654	2877.893908
851.683792	2883.121584
851.997887	2889.891854
852.311938	2892.780435
852.625947	2880.850544
852.939914	2885.138046
853.253837	2888.656771
853.567718	2871.640356
853.881555	2875.431304
854.195350	2891.880589
854.509103	2883.255175
854.822812	2878.829042
855.136479	2872.023484
855.450103	2875.267467
855.763685	2869.397043
856.077224	2864.197093
856.390720	2879.544886
856.704173	2887.373798
857.017584	2880.895915
857.330953	2875.635471
857.644278	2888.631565
857.957561	2900.289234
858.270802	2898.842423
858.584000	2901.113462
858.897155	2884.810371
859.210268	2884.664177
859.523339	2882.826677
859.836367	2880.772407
860.149352	2876.920965
860.462295	2872.157075
860.775195	2881.727705
861.088054	2880.664022
861.400869	2861.711804
861.713642	2859.806248
862.026373	2874.440717
862.339062	2878.516490
862.651708	2880.817777
862.964312	2888.845814
863.276873	2880.447252
863.589392	2889.886813
863.901869	2903.243350
864.214303	2924.542225
864.526696	2938.647373
864.839045	2933.996909
865.151353	2933.485232
865.463619	2931.738472
865.775842	2934.503545
866.088023	2952.127419
866.400162	2959.936166
866.712258	2928.108841
867.024313	2919.110382
867.336325	2929.522885
867.648296	2949.737912
867.960224	2942.297169
868.272110	2929.303595
868.583954	2933.207968
868.895755	2947.086265
869.207515	2934.730397
869.519233	2938.498659
869.830909	2949.924434
870.142542	2960.740230
870.454134	2954.705969
870.765684	2961.566979
871.077191	2961.945066
871.388657	2968.596868
871.700081	2983.624548
872.011463	2993.613594
872.322803	2994.059736
872.634101	2996.096363
872.945357	3011.781913
873.256571	3034.459543
873.567744	3027.608615
873.878874	3020.430012
874.189963	3045.330792
874.501010	3047.213662
874.812015	3039.702343
875.122979	3037.832075
875.433900	3033.897455
875.744780	3036.987682
876.055618	3046.028991
876.366415	3040.292158
876.677169	3053.547872
876.987882	3051.120557
877.298554	3044.458672
877.609183	3066.697722
877.919771	3088.483068
878.230317	3114.331585
878.540822	3167.273782
878.851285	3206.007488
879.161707	3247.738160
879.472087	3352.750435
879.782425	3578.856268
880.092722	4016.877084
880.402977	4544.948032
880.713191	5177.731307
881.023363	6337.136197
881.333494	7620.303936
881.643583	8164.854415
881.953631	7870.226699
882.263637	7237.259422
882.573602	6646.859649
882.883526	6070.975877
883.193408	5498.434391
883.503248	5038.436664
883.813048	4728.627513
884.122806	4428.136936
884.432522	4111.824696
884.742197	3877.839541
885.051831	3681.950384
885.361424	3549.209242
885.670975	3474.393478
885.980485	3388.575395
886.289954	3314.213335
886.599382	3271.204731
886.908768	3230.573031
887.218113	3184.743901
887.527417	3129.984368
887.836680	3082.995772
888.145901	3075.073599
888.455082	3063.788976
888.764221	3012.865761
889.073319	2982.984321
889.382376	2982.969198
889.691392	2988.312821
890.000366	2985.144456
890.309300	2975.341932
890.618193	2985.940958
890.927044	3003.660614
891.235855	3003.889986
891.544625	2989.563027
891.853353	3000.106600
892.162041	3016.669311
892.470687	3058.944428
892.779293	3110.311265
893.087858	3154.887668
893.396381	3228.919532
893.704864	3350.605424
894.013306	3590.403031
894.321707	3894.172879
894.630068	4096.645782
894.938387	4091.481120
895.246665	4049.871436
895.554903	3928.538425
895.863100	3726.821695
896.171256	3558.479924
896.479371	3418.661001
896.787446	3298.212713
897.095480	3195.990715
897.403473	3130.140643
897.711425	3092.127823
898.019336	3083.083993
898.327207	3056.459139
898.635038	3016.979342
898.942827	3001.770181
899.250576	2994.354644
899.558284	2962.146712
899.865952	2940.449586
900.173579	2921.431833
900.481165	2915.074938
900.788711	2902.706467
901.096216	2877.019268
901.403681	2864.035776
901.711105	2872.462064
902.018489	2870.425438
902.325832	2871.088350
902.633135	2880.331306
902.940397	2912.345153
903.247619	2994.994870
903.554800	3188.655837
903.861941	3528.913557
904.169041	3962.256182
904.476101	4261.536883
904.783121	4218.850913
905.090100	3975.307730
905.397039	3696.345399
905.703938	3446.551185
906.010796	3260.988832
906.317614	3147.968684
906.624391	3056.345713
906.931129	2982.949033
907.237826	2922.989549
907.544483	2875.771582
907.851099	2843.528362
908.157675	2823.603201
908.464211	2801.739717
908.770707	2792.481638
909.077163	2779.213321
909.383578	2762.360744
909.689954	2752.648961
909.996289	2748.507653
910.302584	2752.245669
910.608839	2753.352202
910.915054	2746.526480
911.221229	2737.333936
911.527363	2739.720922
911.833458	2749.878847
912.139513	2749.483116
912.445527	2753.377408
912.751502	2765.554315
913.057436	2772.301899
913.363331	2787.274126
913.669186	2807.710964
913.975000	2842.255471
914.280775	2903.175294
914.586510	2972.619709
914.892205	3052.927810
915.197859	3179.977490
915.503475	3377.351266
915.809050	3589.218359
916.114585	3737.085484
916.420081	3754.406889
916.725536	3694.167621
917.030952	3574.740166
917.336328	3447.113274
917.641665	3316.948161
917.946961	3215.192470
918.252218	3149.052532
918.557435	3069.281313
918.862612	3009.891480
919.167750	2959.258131
919.472848	2922.026689
919.777906	2894.607853
920.082925	2870.080119
920.387904	2838.222547
920.692843	2819.358550
920.997743	2809.626602
921.302603	2796.567493
921.607423	2784.579629
921.912204	2771.880963
922.216946	2760.109869
922.521647	2751.696183
922.826310	2743.728639
923.130932	2737.868298
923.435516	2725.512430
923.740059	2723.130485
924.044564	2714.041284
924.349028	2708.818649
924.653454	2701.874459
924.957840	2697.539067
925.262186	2690.504137
925.566493	2684.500123
925.870761	2681.863599
926.174989	2675.862106
926.479178	2675.171467
926.783328	2669.341373
927.087438	2668.156702
927.391509	2666.931702
927.695541	2662.752585
927.999533	2659.037255
928.303486	2657.897954
928.607400	2656.176400
928.911275	2657.514826
929.215110	2654.918632
929.518906	2654.336379
929.822663	2654.222953
930.126381	2653.013076
930.430060	2652.640030
930.733699	2656.181441
931.037299	2654.038951
931.340861	2659.962306
931.644383	2658.833088
931.947866	2656.088180
932.251309	2655.137922
932.554714	2654.785041
932.858080	2654.512819
933.161407	2651.341933
933.464694	2648.622231
933.767943	2645.761376
934.071153	2648.554175
934.374323	2649.363280
934.677455	2647.936634
934.980548	2645.900008
935.283602	2646.270532
935.586617	2645.869761
935.889593	2645.915131
936.192530	2644.881695
936.495428	2645.975625
936.798287	2647.301448
937.101108	2650.000986
937.403890	2657.487100
937.706632	2663.007163
938.009336	2665.719304
938.312002	2673.933864
938.614628	2683.771676
938.917216	2689.541277
939.219765	2690.005063
939.522275	2692.613860
939.824747	2686.546831
940.127179	2683.872499
940.429573	2682.660102
940.731929	2680.522652
941.034246	2676.701458
941.336524	2673.417146
941.638763	2669.817762
941.940964	2669.928667
942.243126	2668.796928
942.545250	2667.823986
942.847335	2666.964469
943.149381	2656.486431
943.451389	2654.233035
943.753359	2654.502737
944.055290	2651.069711
944.357182	2647.939154
944.659036	2648.869247
944.960851	2649.491830
945.262628	2649.600215
945.564367	2647.107364
945.866067	2651.324289
946.167729	2648.607107
946.469352	2648.970070
946.770937	2649.501912
947.072484	2646.421767
947.373992	2648.627272
947.675462	2643.371869
947.976893	2639.580921
948.278286	2640.906745
948.579641	2637.987917
948.880958	2636.238636
949.182236	2639.258287
949.483476	2638.837351
949.784678	2638.282824
950.085841	2637.496404
950.386967	2641.574698
950.688054	2640.780716
950.989103	2640.987403
951.290114	2641.335243
951.591087	2644.896818
951.892021	2645.398413
952.192917	2650.792447
952.493776	2651.654485
952.794596	2651.374701
953.095378	2650.182468
953.396122	2650.489978
953.696828	2649.708599
953.997496	2646.938485
954.298126	2644.775830
954.598718	2644.876653
954.899272	2642.378762
955.199788	2639.820376
955.500266	2631.648666
955.800706	2633.897020
956.101108	2632.891310
956.401472	2630.481639
956.701798	2624.467542
957.002087	2624.994343
957.302337	2624.563324
957.602550	2622.577109
957.902724	2623.545011
958.202861	2620.333796
958.502960	2619.953189
958.803022	2620.220370
959.103045	2619.078549
959.403031	2619.602829
959.702979	2616.252982
960.002889	2616.237858
960.302762	2614.869185
960.602596	2617.384721
960.902393	2616.502519
961.202153	2617.132663
961.501875	2616.502519
961.801559	2613.001438
962.101205	2613.681993
962.400814	2614.591922
962.700385	2613.729884
962.999918	2610.412805
963.299414	2609.681838
963.598873	2611.587394
963.898293	2607.773761
964.197677	2610.939606
964.497022	2611.516818
964.796331	2613.500512
965.095601	2607.882146
965.394835	2611.995727
965.694030	2610.516149
965.993189	2613.008999
966.292309	2612.557816
966.591393	2611.824328
966.890439	2611.443721
967.189447	2613.185440
967.488419	2610.468258
967.787353	2610.501025
968.086249	2608.111518
968.385108	2611.219390
968.683930	2610.448093
968.982714	2610.344750
969.281462	2610.402723
969.580172	2609.051694
969.878844	2609.689400
970.177480	2611.952878
970.476078	2607.433483
970.774639	2610.750562
971.073162	2609.911210
971.371649	2611.191663
971.670098	2611.234513
971.968510	2611.226952
972.266885	2611.216869
972.565223	2611.025305
972.863524	2611.153855
973.161788	2612.459514
973.460014	2611.693258
973.758204	2614.667539
974.056356	2610.601848
974.354471	2610.601848
974.652550	2611.461365
974.950591	2611.473968
975.248595	2609.843155
975.546563	2612.638475
975.844493	2610.349791
976.142386	2610.274173
976.440243	2612.749380
976.738062	2610.009513
977.035845	2613.470265
977.333590	2608.456837
977.631299	2609.185284
977.928971	2606.430294
978.226606	2606.115222
978.524204	2606.236209
978.821765	2605.656477
979.119290	2610.458176
979.416777	2609.666714
979.714228	2608.290479
980.011642	2607.740994
980.309020	2609.160078
980.606360	2610.614451
980.903664	2610.407764
981.200931	2608.197218
981.498162	2611.968001
981.795356	2610.891715
982.092513	2612.857765
982.389633	2613.339195
982.686717	2616.931017
982.983764	2621.415123
983.280775	2624.684312
983.577749	2625.775722
983.874686	2626.615074
984.171587	2623.454270
984.468451	2618.639968
984.765279	2619.416306
985.062070	2615.854731
985.358824	2615.438836
985.655543	2612.842641
985.952224	2610.291817
986.248869	2611.446242
986.545478	2611.862137
986.842050	2610.301900
987.138586	2609.089502
987.435086	2608.454317
987.731549	2607.551950
988.027975	2607.438524
988.324366	2605.923658
988.620719	2606.359717
988.917037	2605.444748
989.213318	2605.147320
989.509563	2605.094388
989.805772	2603.254367
990.101944	2603.385437
990.398080	2605.850561
990.694180	2604.164295
990.990244	2605.356528
991.286271	2607.667897
991.582262	2607.060438
991.878217	2604.905345
992.174136	2607.284769
992.470019	2602.553646
992.765865	2603.317381
993.061676	2599.488625
993.357450	2603.519027
993.653188	2599.952411
993.948890	2606.180757
994.244556	2605.986672
994.540186	2606.788216
994.835780	2606.886518
995.131337	2605.487598
995.426859	2605.774944
995.722345	2605.656477
996.017795	2606.463061
996.313208	2608.381220
996.608586	2612.121756
996.903928	2611.761314
997.199234	2609.843155
997.494504	2610.581684
997.789738	2609.207969
998.084936	2608.184615
998.380099	2609.344081
998.675225	2607.511621
998.970316	2604.118925
999.265371	2606.200921
999.560390	2608.547578
999.855373	2606.949533
1000.150320	2605.149841
1000.445232	2603.335025
1000.740108	2602.674634
1001.034948	2605.182608
1001.329752	2604.169336
1001.624521	2604.749069
1001.919254	2605.328802
1002.213951	2605.802670
1002.508613	2603.577001
1002.803239	2603.473657
1003.097829	2603.435848
1003.392384	2605.424583
1003.686903	2604.718822
1003.981386	2606.561364
1004.275834	2605.608586
1004.570246	2604.517176
1004.864623	2603.808894
1005.158964	2601.147164
1005.453270	2602.225971
1005.747540	2603.093050
1006.041775	2602.442741
1006.335974	2603.914758
1006.630138	2601.056424
1006.924266	2601.593307
1007.218359	2601.961311
1007.512416	2603.032556
1007.806438	2597.331011
1008.100425	2603.592124
1008.394376	2599.118100
1008.688292	2601.210179
1008.982172	2600.658173
1009.276017	2605.389295
1009.569827	2602.286465
1009.863602	2603.365272
1010.157341	2602.586414
1010.451045	2602.662031
1010.744714	2602.896445
1011.038347	2604.033225
1011.331945	2603.014912
1011.625508	2601.774788
1011.919036	2603.047679
1012.212528	2603.599686
1012.505986	2603.256887
1012.799408	2601.220261
1013.092795	2602.157916
1013.386147	2602.951897
1013.679464	2601.459716
1013.972745	2602.530961
1014.265992	2599.750765
1014.559204	2602.256218
1014.852380	2601.510128
1015.145521	2603.939964
1015.438628	2602.702360
1015.731699	2605.137238
1016.024736	2602.684716
1016.317737	2601.895776
1016.610703	2600.973245
1016.903635	2604.171857
1017.196531	2601.578183
1017.489393	2601.331167
1017.782219	2599.849067
1018.075011	2603.728235
1018.367768	2600.380909
1018.660490	2601.487442
1018.953177	2601.487442
1019.245829	2601.487442
