Dividing Wavelength (nm)	Counts (n)	Blue Motor Position (mm): 30.900000	Red Motor Position (mm): 0.000000	
326.493990	2214.455376
326.888308	2214.455376
327.282561	2214.455376
327.676750	2175.565395
328.070874	2170.327636
328.464933	2173.790909
328.858929	2175.134376
329.252859	2179.759635
329.646726	2188.357323
330.040528	2200.940043
330.434265	2213.908411
330.827938	2235.429097
331.221547	2248.536097
331.615091	2267.944539
332.008571	2285.971705
332.401986	2304.064407
332.795338	2320.012097
333.188625	2343.957578
333.581847	2360.573221
333.975006	2383.409648
334.368100	2397.366082
334.761129	2417.276119
335.154095	2434.902513
335.546996	2460.625001
335.939833	2498.728562
336.332606	2516.511233
336.725315	2525.867614
337.117960	2539.287166
337.510540	2548.845193
337.903056	2562.201730
338.295508	2569.791187
338.687896	2579.341653
339.080220	2585.612849
339.472480	2593.862697
339.864676	2596.826896
340.256807	2606.432814
340.648875	2605.948863
341.040879	2612.401540
341.432818	2613.992024
341.824694	2616.008486
342.216506	2617.722478
342.608253	2617.997221
342.999937	2618.806326
343.391557	2619.126440
343.783113	2617.127622
344.174605	2616.200050
344.566033	2616.815071
344.957397	2615.726181
345.348697	2615.143928
345.739934	2613.513115
346.131106	2613.752570
346.522215	2610.745521
346.913260	2607.501539
347.304241	2602.810745
347.695159	2602.878801
348.086012	2600.791763
348.476802	2598.621546
348.867528	2594.671802
349.258191	2591.901688
349.648789	2590.182655
350.039324	2586.512695
350.429796	2591.740371
350.820203	2589.819692
351.210548	2590.782552
351.600828	2589.887747
351.991045	2586.870617
352.381198	2588.362798
352.771288	2584.891964
353.161314	2584.183682
353.551276	2586.731985
353.941175	2586.084197
354.331010	2582.310893
354.720782	2585.499423
355.110490	2584.224011
355.500135	2585.494382
355.889717	2584.173599
356.279235	2584.405492
356.668689	2582.754515
357.058080	2581.337950
357.447408	2585.703590
357.836672	2583.498085
358.225873	2585.597725
358.615010	2586.270719
359.004084	2584.942375
359.393095	2586.979002
359.782043	2587.427664
360.170927	2587.369691
360.559748	2586.711820
360.948505	2586.873137
361.337199	2587.977150
361.725830	2590.094435
362.114398	2590.807758
362.502903	2587.722572
362.891344	2589.749116
363.279722	2593.650969
363.668037	2592.609970
364.056289	2592.849425
364.444478	2594.344127
364.832603	2594.586103
365.220665	2595.153232
365.608665	2594.074426
365.996601	2595.496031
366.384474	2593.333376
366.772284	2596.738675
367.160031	2597.870414
367.547715	2598.087184
367.935336	2596.446288
368.322893	2593.575351
368.710388	2592.546956
369.097820	2596.879828
369.485189	2592.882193
369.872495	2598.399736
370.259738	2600.237236
370.646918	2598.389653
371.034035	2600.143975
371.421090	2601.031218
371.808081	2599.405446
372.195010	2603.067844
372.581875	2602.157916
372.968678	2599.982658
373.355418	2601.396702
373.742096	2602.828389
374.128710	2603.955087
374.515262	2603.284614
374.901751	2602.566249
375.288177	2600.970724
375.674540	2601.643718
376.060841	2602.662031
376.447079	2602.914089
376.833254	2603.675303
377.219367	2604.144130
377.605417	2604.249995
377.991404	2604.418873
378.377329	2603.907196
378.763191	2606.417691
379.148991	2607.907352
379.534727	2605.424583
379.920402	2605.492639
380.306013	2605.790067
380.691563	2607.622527
381.077049	2606.168154
381.462474	2607.947681
381.847835	2608.134204
382.233134	2607.138576
382.618371	2607.325098
383.003545	2608.376179
383.388657	2608.187136
383.773706	2609.921293
384.158693	2610.584204
384.543618	2610.480861
384.928480	2613.039246
385.313280	2611.282404
385.698017	2608.413988
386.082692	2611.035388
386.467305	2611.935234
386.851856	2612.698968
387.236344	2614.508743
387.620770	2609.734770
388.005133	2608.298041
388.389435	2610.362394
388.773674	2607.526745
389.157851	2611.534462
389.541965	2615.043105
389.926018	2616.560492
390.310008	2614.239041
390.693936	2616.114350
391.077802	2619.557458
391.461606	2613.797940
391.845348	2616.752056
392.229027	2617.901439
392.612645	2617.689711
392.996200	2617.634258
393.379694	2619.537294
393.763125	2619.703652
394.146494	2618.753394
394.529801	2618.413116
394.913047	2619.517129
395.296230	2620.638786
395.679351	2619.973353
396.062410	2622.688015
396.445408	2624.197840
396.828343	2624.175155
397.211217	2622.771194
397.594028	2622.080556
397.976778	2624.447377
398.359466	2623.381173
398.742092	2622.456122
399.124656	2621.815895
399.507158	2623.665999
399.889598	2625.339662
400.271977	2624.109620
400.654294	2627.441823
401.036549	2626.022738
401.418742	2626.879734
401.800874	2627.235136
402.182944	2627.714045
402.564952	2627.141874
402.946898	2629.223871
403.328783	2628.634056
403.710606	2628.593727
404.092367	2630.451392
404.474067	2631.008439
404.855705	2629.985085
405.237282	2632.185549
405.618797	2630.945425
406.000250	2631.462143
406.381642	2634.280148
406.762972	2631.547843
407.144240	2634.302833
407.525447	2635.631177
407.906593	2632.452730
408.287677	2635.696712
408.668700	2638.681075
409.049661	2639.089409
409.430560	2638.360962
409.811399	2640.100160
410.192176	2640.495891
410.572891	2638.708802
410.953545	2639.648977
411.334138	2643.064359
411.714669	2643.719709
412.095139	2645.395892
412.475547	2646.094092
412.855894	2644.977477
413.236180	2642.073772
413.616405	2646.651140
413.996568	2644.632157
414.376670	2645.113588
414.756711	2647.072076
415.136691	2648.483599
415.516609	2650.817653
415.896466	2648.672642
416.276262	2651.110040
416.655997	2655.631955
417.035670	2655.941986
417.415283	2658.213026
417.794834	2660.466422
418.174324	2659.523726
418.553753	2663.221412
418.933121	2668.207113
419.312428	2672.716426
419.691674	2674.480829
420.070859	2682.786130
420.449983	2688.654033
420.829045	2701.125848
421.208047	2707.374358
421.586988	2723.185937
421.965867	2740.111611
422.344686	2759.368819
422.723444	2774.746859
423.102141	2781.539814
423.480777	2827.961279
423.859352	2836.543843
424.237866	2889.057543
424.616319	2921.212543
424.994712	2979.200935
425.373044	2999.713390
425.751314	3069.840882
426.129524	3113.719085
426.507673	3180.491688
426.885762	3252.363418
427.263789	3315.050166
427.641756	3374.447562
428.019662	3455.048050
428.397508	3557.340623
428.775292	3596.885954
429.153016	3736.288982
429.530679	3793.874082
429.908282	3887.178278
430.285824	3917.493257
430.663305	4141.610354
431.040726	4127.449753
431.418086	4211.107701
431.795385	4382.801839
432.172624	4501.042102
432.549802	4582.242488
432.926920	4711.729566
433.303977	4775.124596
433.680974	4937.545532
434.057910	5085.510959
434.434786	5211.660793
434.811601	5280.006236
435.188355	5590.621971
435.565050	5605.332058
435.941683	5694.484864
436.318257	6027.803436
436.694770	6196.896339
437.071222	6367.423450
437.447614	6417.938332
437.823946	6486.767726
438.200218	6702.534152
438.576429	6722.343366
438.952580	6963.983514
439.328670	7129.618185
439.704700	7129.429142
440.080670	7229.213741
440.456580	7694.270266
440.832429	7675.277718
441.208218	7536.436780
441.583947	7863.176646
441.959616	8077.009789
442.335224	8072.974345
442.710773	8279.638968
443.086261	8539.649080
443.461689	8136.737380
443.837057	8698.982309
444.212365	9028.998925
444.587612	8865.421045
444.962800	9157.870982
445.337927	9087.814067
445.712995	8821.741967
446.088002	9800.925608
446.462949	9595.367519
446.837837	9674.831227
447.212664	9775.417370
447.587431	10266.887020
447.962139	10937.662951
448.336786	12906.896439
448.711374	13550.987022
449.085901	11785.327929
449.460369	11519.747341
449.834776	11113.321956
450.209124	11925.386306
450.583412	12336.285715
450.957640	13309.268736
451.331808	12623.490332
451.705917	11735.682646
452.079965	11165.616366
452.453954	12040.594315
452.827883	11739.773542
453.201752	12047.810727
453.575562	11622.329781
453.949311	12055.140565
454.323001	12040.150694
454.696632	12281.178342
455.070202	12580.330493
455.443713	12865.059903
455.817164	13331.510307
456.190556	13372.787275
456.563888	13740.657915
456.937160	13954.150780
457.310373	13303.196667
457.683526	13393.645049
458.056619	12982.906957
458.429653	13109.903705
458.802628	12607.318310
459.175542	12944.987398
459.548398	13907.414243
459.921194	14237.473709
460.293930	14294.592503
460.666607	15196.601119
461.039224	16219.899897
461.411782	16910.916061
461.784280	16845.847367
462.156719	16884.505456
462.529099	16596.322855
462.901419	15526.894998
463.273680	15319.731302
463.645882	15186.430591
464.018024	14929.309060
464.390106	15148.523635
464.762130	15876.725870
465.134094	16610.286851
465.505999	18558.622236
465.877845	21809.906848
466.249631	24651.448995
466.621358	24384.429158
466.993026	22952.330612
467.364634	22403.764853
467.736184	20964.742282
468.107674	20156.652882
468.479105	20283.720206
468.850477	19744.614173
469.221790	19335.277521
469.593043	18668.380758
469.964238	18104.953678
470.335373	17778.541487
470.706449	18183.799845
471.077467	17729.087768
471.448425	19533.367141
471.819324	23516.002188
472.190164	25619.685770
472.560945	22149.085761
472.931667	19730.798890
473.302330	19087.870293
473.672934	18563.761693
474.043479	18938.667263
474.413965	18756.643801
474.784393	18391.709633
475.154761	19051.334531
475.525070	19069.475123
475.895321	18711.674188
476.265513	19301.277459
476.635645	19871.918431
477.005719	19668.598614
477.375734	19863.270331
477.745691	20345.998621
478.115588	20841.889363
478.485427	21351.602949
478.855207	22403.366602
479.224928	24157.796525
479.594591	26354.960744
479.964194	26462.702804
480.333739	26661.082291
480.703226	26211.423970
481.072653	25890.032769
481.442022	26450.336854
481.811333	27348.158792
482.180584	27287.105378
482.549777	26341.337026
482.918912	25968.936909
483.287988	26087.540135
483.657005	25787.949403
484.025964	25500.013819
484.394864	25439.913183
484.763706	25151.367619
485.132489	24565.162085
485.501213	24722.408277
485.869879	24653.606609
486.238487	24449.659168
486.607036	24608.687407
486.975527	24288.972389
487.343959	24626.618792
487.712333	24569.527724
488.080648	24231.982145
488.448905	24715.300250
488.817104	24461.558812
489.185244	25118.834533
489.553326	25103.665701
489.921350	26070.387609
490.289315	28339.534464
490.657222	30135.720264
491.025070	30633.158641
491.392861	30434.385944
491.760593	29592.198180
492.128267	28693.088227
492.495883	27663.316607
492.863440	26793.994832
493.230939	25915.730050
493.598380	25759.774394
493.965763	25350.478073
494.333088	24911.885085
494.700354	24835.977911
495.067563	24714.591968
495.434713	24463.792043
495.801805	24601.768424
496.168839	24429.431538
496.535815	24250.160546
496.902733	24450.909374
497.269593	24130.826352
497.636395	24334.057949
498.003139	24305.610718
498.369825	24058.132914
498.736453	24247.652572
499.103023	24127.771413
499.469535	24160.859026
499.835989	24353.814231
500.202385	24378.740216
500.568723	23882.448702
500.935003	24137.337002
501.301226	23744.621035
501.667390	24576.373611
502.033497	24815.137781
502.399546	24545.761205
502.765537	24122.697492
503.131470	24506.283929
503.497345	24647.632842
503.863163	23855.065154
504.228923	24468.871006
504.594625	24664.089688
504.960269	24189.581000
505.325856	24685.287740
505.691385	24079.920781
506.056856	24691.407701
506.422270	24647.950434
506.787625	24239.521191
507.152924	24648.648634
507.518164	24671.233003
507.883347	24482.913140
508.248472	24177.731768
508.613540	24958.493073
508.978550	24733.100564
509.343503	24730.738783
509.708398	24990.244780
510.073236	25143.397555
510.438016	25360.562901
510.802738	25036.721698
511.167403	25285.845439
511.532010	24969.838190
511.896561	25771.656394
512.261053	25739.095581
512.625488	25552.865276
512.989866	25455.437416
513.354186	25314.985829
513.718449	25407.218780
514.082655	25787.664578
514.446803	25522.935946
514.810894	25982.795041
515.174927	25463.846061
515.538904	25501.914334
515.902822	25990.762584
516.266684	25744.862661
516.630488	25652.491079
516.994235	25631.499714
517.357925	25918.928662
517.721558	26109.065862
518.085133	26197.638935
518.448651	26124.516999
518.812112	25842.978639
519.175516	26044.163527
519.538863	26214.327675
519.902152	25982.066594
520.265385	26272.139627
520.628560	26051.924383
520.991678	26076.898259
521.354739	26146.808981
521.717743	26218.957975
522.080690	26000.618040
522.443580	26333.835789
522.806413	26333.745048
523.169189	26426.192248
523.531908	26470.448537
523.894569	26082.846821
524.257174	26150.660423
524.619722	26343.313158
524.982213	26035.563318
525.344647	26092.477945
525.707025	26220.490486
526.069345	26215.686266
526.431608	26163.659038
526.793815	26361.579779
527.155964	25808.915562
527.518057	25981.575081
527.880093	25901.692958
528.242072	26128.345755
528.603995	25846.527611
528.965860	25648.158207
529.327669	25691.552459
529.689421	25680.933269
530.051117	25508.296435
530.412755	25692.608581
530.774337	25488.608208
531.135862	25366.753438
531.497331	25563.411370
531.858743	25112.538132
532.220098	25600.902431
532.581396	25264.299547
532.942638	25214.901281
533.303824	25309.014582
533.664953	25330.613406
534.026025	24988.195551
534.387040	25226.473250
534.747999	25294.531347
535.108902	25453.703259
535.469748	24930.141624
535.830537	25119.885613
536.191270	25250.869914
536.551947	25129.395750
536.912567	24786.909840
537.273131	25114.264727
537.633638	24824.675644
537.994089	25036.704054
538.354483	24580.411576
538.714821	25072.516411
539.075103	25122.582631
539.435328	24914.745940
539.795497	24466.973011
540.155609	24862.514545
540.515665	25154.233515
540.875665	24387.022832
541.235609	24676.548900
541.595496	24649.238449
541.955328	25002.187274
542.315102	24918.778863
542.674821	24462.766168
543.034483	24346.325597
543.394090	24512.698797
543.753640	24307.339833
544.113134	24941.191833
544.472571	24537.082858
544.831953	24830.165461
545.191278	24446.813437
545.550548	24372.156469
545.909761	24568.053187
546.268918	24795.338649
546.628019	24756.458750
546.987064	24466.027795
547.346053	24231.596497
547.704986	24347.260731
548.063863	24502.739998
548.422684	24502.858465
548.781449	24052.315422
549.140158	24461.309275
549.498811	24024.427759
549.857408	23760.009158
550.215949	24203.862589
550.574434	23876.008628
550.932864	24093.451237
551.291237	24258.672534
551.649555	24120.587769
552.007817	24171.047198
552.366022	24031.407237
552.724173	24088.279014
553.082267	24015.827551
553.440305	24504.121274
553.798288	23744.099276
554.156215	24277.203816
554.514086	24368.635223
554.871902	23748.943825
555.229661	24020.911554
555.587365	23883.386357
555.945014	23761.203911
556.302606	23994.458099
556.660143	23937.452732
557.017625	24197.314130
557.375050	23728.590166
557.732421	24109.161993
558.089735	23931.088275
558.446994	23992.764272
558.804197	24018.179249
559.161345	23965.128666
559.518437	23712.723134
559.875474	23905.985849
560.232455	24084.495628
560.589381	23910.737137
560.946251	23898.464448
561.303065	24221.136103
561.659825	24308.005266
562.016528	23916.516820
562.373177	23650.784998
562.729770	23999.622762
563.086307	23868.109140
563.442789	24040.942579
563.799216	23862.372307
564.155587	23861.951371
564.511904	23861.217883
564.868164	23791.796153
565.224370	23762.837245
565.580520	23684.159957
565.936615	23810.576972
566.292654	23497.586853
566.648638	23795.773623
567.004567	23626.801708
567.360441	23569.370363
567.716260	23296.989259
568.072023	23628.883705
568.427732	23381.741138
568.783385	23164.217870
569.138982	23405.295929
569.494525	23435.058901
569.850013	23182.487011
570.205445	23278.218523
570.560823	23087.007557
570.916145	22833.808044
571.271412	23025.049256
571.626625	22773.518364
571.981782	22889.865674
572.336884	22692.494419
572.691931	22830.720337
573.046923	22566.478176
573.401860	22440.719031
573.756743	22444.288168
574.111570	22364.050643
574.466342	22277.340276
574.821059	22379.809290
575.175722	22087.072007
575.530330	22082.595462
575.884882	22095.457966
576.239380	22005.339779
576.593823	21900.856825
576.948211	21870.307433
577.302544	21710.805325
577.656823	21583.806057
578.011047	21680.006395
578.365216	21549.092671
578.719330	21436.788366
579.073389	21322.439874
579.427394	21473.934108
579.781344	21251.876323
580.135239	21126.447374
580.489080	21102.385947
580.842866	20865.378619
581.196597	21056.738298
581.550273	21029.468177
581.903895	20912.863768
582.257463	21239.979200
582.610975	20773.180956
582.964434	21079.244530
583.317837	20786.265271
583.671186	20877.837831
584.024481	20836.833085
584.377721	20610.893611
584.730906	20673.033394
585.084037	20695.096004
585.437113	20606.056624
585.790135	20805.600617
586.143103	20262.370919
586.496016	20274.817528
586.848874	20528.977382
587.201679	20451.557862
587.554428	20128.745054
587.907124	20453.032399
588.259765	20242.859133
588.612352	20326.030610
588.964884	19881.100892
589.317362	20053.808302
589.669786	20106.896694
590.022155	20150.071656
590.374470	20339.482929
590.726731	20136.321909
591.078937	19901.809952
591.431090	19989.604167
591.783188	19742.401106
592.135232	19712.393638
592.487222	19813.436005
592.839157	19834.984417
593.191038	19717.341530
593.542866	19605.858933
593.894639	19313.832453
594.246358	19541.453152
594.598022	19450.777918
594.949633	19197.447334
595.301190	19162.988527
595.652692	19329.341563
596.004141	19578.808102
596.355535	18895.111694
596.706876	18917.839736
597.058162	18791.221075
597.409395	19028.793012
597.760573	19097.372868
598.111698	18882.501248
598.462768	18816.439447
598.813785	18777.980484
599.164748	18595.977186
599.515657	18629.533627
599.866511	18421.802800
600.217312	18785.869890
600.568060	18305.208474
600.918753	18627.534809
601.269392	18519.840640
601.619978	18299.663204
601.970510	18518.126648
602.320988	18456.400239
602.671412	18660.970262
603.021783	18572.250996
603.372100	18296.827555
603.722363	18445.760884
604.072572	18375.096510
604.422728	18526.484881
604.772830	18287.569476
605.122878	18236.873113
605.472872	18222.064723
605.822813	18214.354278
606.172701	18177.427827
606.522534	18380.445174
606.872314	18403.715140
607.222041	18236.812619
607.571714	18444.487993
607.921333	18279.942211
608.270899	18357.903655
608.620411	18541.447025
608.969870	18301.039439
609.319276	18302.307290
609.668627	18338.059153
610.017926	18466.626220
610.367171	18581.574610
610.716362	18632.288618
611.065500	18442.234597
611.414585	18571.774607
611.763616	18551.340290
612.112594	18500.457403
612.461518	18474.679463
612.810389	18659.135282
613.159207	18521.174025
613.507971	18440.079504
613.856682	18715.752481
614.205340	18638.287591
614.553945	18778.368653
614.902496	18517.080608
615.250994	18761.354759
615.599439	18698.347897
615.947830	18690.912196
616.296169	18746.455629
616.644454	18704.132622
616.992686	18671.705399
617.340864	18885.536022
617.688990	18642.091141
618.037063	18815.388366
618.385082	18664.557043
618.733048	18942.259085
619.080961	18809.628848
619.428821	18846.719138
619.776628	18739.468589
620.124382	18661.628133
620.472083	18699.146920
620.819731	18724.934943
621.167326	18419.819106
621.514868	18460.614644
621.862357	18233.971929
622.209793	18235.635509
622.557176	18073.595181
622.904506	17905.525632
623.251783	17810.509964
623.599007	17570.253613
623.946179	17510.954521
624.293297	17453.510572
624.640363	17206.728448
624.987376	17234.671563
625.334336	17022.423863
625.681243	16866.274123
626.028097	16891.111888
626.374899	16807.128785
626.721647	16661.278122
627.068343	16495.512381
627.414987	16440.321828
627.761577	16403.977630
628.108115	16448.617047
628.454600	16175.867939
628.801032	16283.849454
629.147412	16200.246959
629.493739	16209.915892
629.840014	16029.845877
630.186236	16120.868950
630.532405	15887.458486
630.878521	16081.280769
631.224585	15975.232536
631.570597	15804.728110
631.916556	15829.918756
632.262462	15817.600697
632.608316	15725.085441
632.954117	15670.656103
633.299866	15664.513457
633.645562	15582.937506
633.991206	15341.947667
634.336797	15211.527976
634.682336	15187.025447
635.027823	15073.949846
635.373257	14942.438745
635.718639	14843.488457
636.063968	14800.101766
636.409245	14547.421491
636.754470	14572.652466
637.099642	14427.696608
637.444762	14185.721223
637.789829	14237.826590
638.134845	14086.123147
638.479808	14104.780457
638.824719	14052.218867
639.169577	13908.291404
639.514383	13948.963433
639.859137	13771.968522
640.203839	13848.031971
640.548489	13692.819886
640.893086	13680.433771
641.237632	13549.509964
641.582125	13699.819528
641.926566	13531.901214
642.270955	13548.847052
642.615292	13507.761648
642.959576	13515.799768
643.303809	13550.795458
643.647990	13473.358294
643.992118	13537.380948
644.336195	13303.292448
644.680219	13521.367723
645.024192	13439.733798
645.368112	13682.319162
645.711981	13742.704623
646.055797	13922.633487
646.399562	13887.484041
646.743274	14161.674920
647.086935	14435.681796
647.430544	14397.114448
647.774101	14429.957566
648.117606	14578.762345
648.461059	14547.920566
648.804460	14536.983782
649.147810	14261.290640
649.491108	14155.060926
649.834354	14176.382486
650.177548	13872.378224
650.520690	13683.884440
650.863781	13609.514818
651.206820	13654.476869
651.549807	13478.200322
651.892742	13281.300415
652.235626	13219.369840
652.578458	13226.303947
652.921238	12913.502871
653.263967	13106.793313
653.606644	12940.543621
653.949269	12912.476997
654.291843	12704.831870
654.634365	12875.721944
654.976836	12727.673338
655.319255	12732.807753
655.661622	12691.228316
656.003938	12608.293773
656.346203	12537.513453
656.688416	12610.567334
657.030577	12564.019840
657.372687	12484.646873
657.714746	12461.049231
658.056753	12652.570228
658.398708	12463.577370
658.740612	12462.173409
659.082465	12566.684090
659.424266	12532.066486
659.766016	12568.503946
660.107715	12470.372845
660.449362	12543.807333
660.790958	12505.234945
661.132503	12445.335955
661.473996	12512.085873
661.815438	12523.793953
662.156829	12544.439998
662.498168	12525.260928
662.839456	12524.497194
663.180693	12541.521170
663.521879	12632.314872
663.863013	12606.736057
664.204097	12585.837954
664.545129	12702.434801
664.886110	12677.488651
665.227040	12771.100357
665.567918	12773.061366
665.908746	12802.889874
666.249522	12783.070577
666.590248	12836.799195
666.930922	12949.872276
667.271545	12927.567691
667.612118	13009.972912
667.952639	12921.127617
668.293109	12928.359152
668.633528	12887.808110
668.973896	12854.465919
669.314213	12935.971294
669.654480	12673.677539
669.994695	12751.923808
670.334859	12770.334102
670.674973	12716.799569
671.015035	12760.082916
671.355047	12701.814739
671.695008	12669.861385
672.034918	12667.202177
672.374777	12715.509033
672.714585	12627.918985
673.054342	12669.836180
673.394049	12607.782096
673.733705	12709.497457
674.073310	12622.955969
674.412864	12630.996610
674.752368	12505.003052
675.091820	12526.062472
675.431223	12506.533042
675.770574	12377.913043
676.109875	12303.906384
676.449125	12262.296700
676.788324	12205.102289
677.127473	12033.544262
677.466571	12020.913651
677.805619	11925.096440
678.144616	11846.847650
678.483562	11815.988226
678.822458	11688.046262
679.161303	11664.645226
679.500098	11650.769450
679.838842	11608.121289
680.177535	11630.945113
680.516179	11690.095491
680.854771	11643.611012
681.193314	11853.363341
681.531805	12017.089936
681.870247	12428.848861
682.208638	12841.815143
682.546978	13155.246363
682.885268	13199.956356
683.223508	12892.435889
683.561697	12738.126170
683.899836	12643.599494
684.237925	12435.150303
684.575963	12355.096780
684.913951	12271.058225
685.251889	12223.562994
685.589776	12322.301554
685.927614	12237.559758
686.265401	12209.210829
686.603137	12259.007347
686.940824	12407.655850
687.278460	12539.323227
687.616046	12587.851895
687.953582	12748.311822
688.291068	12671.469513
688.628504	12905.850400
688.965889	12915.234508
689.303224	12890.847926
689.640510	12787.151391
689.977745	12467.302783
690.314930	12242.248031
690.652065	12158.559836
690.989150	11864.723581
691.326185	11643.089252
691.663170	11427.955491
692.000105	11192.125273
692.336990	11081.696278
692.673825	10821.623151
693.010610	10709.681809
693.347345	10497.850004
693.684030	10297.650661
694.020665	10238.681764
694.357251	10045.630778
694.693786	9984.854627
695.030272	9821.866561
695.366707	9704.074960
695.703093	9635.104414
696.039429	9633.884455
696.375716	9552.190036
696.711952	9419.267412
697.048139	9469.010998
697.384276	9413.880939
697.720363	9432.835678
698.056400	9370.048107
698.392388	9322.061363
698.728326	9286.538873
699.064214	9223.355571
699.400053	9268.637735
699.735842	9083.065300
700.071581	9041.921923
700.407270	8966.518865
700.742910	8884.469045
701.078501	8795.331362
701.414042	8674.555398
701.749533	8604.863967
702.084974	8464.009088
702.420366	8579.461593
702.755709	8460.419786
703.091002	8329.266607
703.426246	8356.672840
703.761440	8312.766910
704.096584	8264.321422
704.431679	8193.354579
704.766725	8183.521808
705.101721	8133.178325
705.436668	8178.273967
705.771565	8072.026608
706.106413	8149.688104
706.441212	8199.466978
706.775961	8157.557345
707.110661	8191.590175
707.445311	8333.977565
707.779913	8227.291626
708.114465	8363.183490
708.448967	8392.777584
708.783421	8542.819966
709.117825	8721.697749
709.452180	8762.374819
709.786485	8845.281635
710.120742	9138.134865
710.454949	9122.711455
710.789107	9228.235408
711.123216	9445.541906
711.457275	9612.547771
711.791286	9764.619218
712.125247	9766.565103
712.459159	9755.996324
712.793023	10002.362554
713.126837	9583.193132
713.460602	9729.270647
713.794318	9554.382938
714.127985	9580.906969
714.461602	9263.825954
714.795171	9212.151606
715.128691	8966.191190
715.462162	8714.055359
715.795584	8654.753746
716.128957	8507.715891
716.462281	8340.117691
716.795556	8391.353458
717.128782	8183.882251
717.461960	7919.393073
717.795088	7989.936459
718.128167	7901.123931
718.461198	7725.908547
718.794180	7672.583222
719.127113	7664.701378
719.459997	7509.955599
719.792833	7280.930938
720.125619	7343.405958
720.458357	7203.521500
720.791046	7192.100766
721.123686	7185.002822
721.456278	7030.804008
721.788821	7049.852008
722.121315	6941.202539
722.453761	7008.103692
722.786158	6953.069416
723.118506	6956.361289
723.450805	6931.402536
723.783056	6996.193966
724.115259	6906.053094
724.447412	6896.807618
724.779518	6949.245700
725.111574	6944.033147
725.443582	7030.982969
725.775542	7013.394383
726.107453	7205.464865
726.439315	7110.126564
726.771129	7172.049577
727.102895	7344.361257
727.434612	7450.732123
727.766281	7481.019376
728.097901	7567.512973
728.429473	7557.662558
728.760996	7535.978035
729.092471	7509.572471
729.423897	7461.452137
729.755276	7471.821790
730.086606	7391.735500
730.417887	7496.987230
730.749120	7693.032662
731.080305	7887.200264
731.411442	8007.512442
731.742530	8001.619333
732.073570	8112.355839
732.404562	8199.895476
732.735506	8046.160448
733.066401	8189.001542
733.397249	8119.899926
733.728048	7883.127012
734.058798	7540.557923
734.389501	7318.835374
734.720156	7140.895246
735.050762	6906.993269
735.381320	6809.036088
735.711831	6762.609582
736.042293	6652.210833
736.372707	6669.287742
736.703073	6530.829931
737.033391	6568.167237
737.363661	6585.294557
737.693883	6613.661130
738.024056	6696.477205
738.354182	6736.932465
738.684260	6772.964112
739.014290	6889.107256
739.344272	6995.334449
739.674207	7024.230343
740.004093	7097.473267
740.333931	7109.030113
740.663722	7118.504961
740.993464	7199.415481
741.323159	7183.891247
741.652806	6933.406395
741.982405	6952.499765
742.311956	7002.145048
742.641460	6844.084711
742.970915	6645.140615
743.300323	6637.246168
743.629683	6587.666420
743.958996	6455.260514
744.288260	6362.387337
744.617477	6312.792466
744.946647	6321.440565
745.275768	6149.559904
745.604842	6106.389983
745.933869	6090.245688
746.262847	6051.065840
746.591778	6035.715527
746.920662	5992.540565
747.249498	5979.680581
747.578286	6032.398448
747.907027	6109.873420
748.235720	6166.757800
748.564365	6134.393593
748.892963	6171.302401
749.221514	6318.819165
749.550017	6152.629967
749.878473	6027.110277
750.206881	6083.861067
750.535242	6022.893352
750.863555	5961.214835
751.191821	5975.854345
751.520039	5975.193954
751.848210	5883.540736
752.176334	5906.435136
752.504411	5955.155368
752.832440	5877.589654
753.160421	5806.509385
753.488356	5856.192477
753.816243	5889.138938
754.144082	5740.898767
754.471875	5708.761412
754.799620	5751.916209
755.127318	5761.091109
755.454969	5720.540068
755.782572	5685.607392
756.110129	5725.755141
756.437638	5712.252411
756.765100	5652.728987
757.092515	5651.884593
757.419882	5703.148087
757.747203	5682.562535
758.074477	5748.183235
758.401703	5729.543568
758.728882	5685.499007
759.056014	5738.451287
759.383099	5869.070104
759.710138	5881.851950
760.037129	5869.962388
760.364073	5869.591863
760.690970	5952.201252
761.017820	5936.230876
761.344623	5894.812756
761.671379	5991.706254
761.998088	6113.732424
762.324751	6356.216965
762.651366	6963.156764
762.977935	8280.495964
763.304456	9912.065406
763.630931	10813.401029
763.957359	10410.748948
764.283740	9476.182039
764.610074	8632.925550
764.936362	7634.091492
765.262602	7032.356683
765.588796	6493.268294
765.914943	6159.359907
766.241044	5992.462427
766.567097	5790.866684
766.893104	5533.301532
767.219064	5357.655129
767.544978	5293.592146
767.870845	5218.547009
768.196665	5109.307726
768.522438	5039.086973
768.848165	5002.687322
769.173846	4940.252631
769.499479	4895.356115
769.825066	4838.968289
770.150607	4777.118372
770.476101	4755.819497
770.801548	4753.407305
771.126949	4673.908309
771.452303	4621.800422
771.777611	4585.161316
772.102872	4597.577678
772.428087	4562.249272
772.753256	4522.499774
773.078378	4474.933967
773.403453	4405.091301
773.728482	4394.613263
774.053465	4346.823124
774.378401	4333.456505
774.703291	4335.861135
775.028135	4261.670474
775.352932	4212.710788
775.677683	4199.787790
776.002388	4221.419381
776.327046	4233.545877
776.651658	4152.214421
776.976224	4093.122016
777.300743	4097.084363
777.625216	4117.823669
777.949643	4115.524903
778.274024	4072.196186
778.598359	4025.835215
778.922647	4049.838669
779.246889	4041.470353
779.571086	4034.017007
779.895236	4019.301879
780.219339	4005.789066
780.543397	3998.285309
780.867409	4045.649470
781.191374	4065.544383
781.515294	4003.770084
781.839167	3996.614166
782.162995	4015.624357
782.486776	4004.405270
782.810511	4011.687216
783.134201	4009.685878
783.457844	3963.909681
783.781441	3909.918923
784.104993	3918.080551
784.428498	3936.347172
784.751958	3929.418106
785.075372	3909.460178
785.398739	3874.010784
785.722061	3883.717526
786.045337	3927.139505
786.368568	3959.881799
786.691752	3870.844940
787.014891	3921.586674
787.337983	4050.012588
787.661030	4204.902040
787.984031	4370.219119
788.306987	4542.858474
788.629897	4624.618427
788.952760	4574.831992
789.275579	4514.265049
789.598351	4444.810552
789.921078	4306.934994
790.243759	4105.117441
790.566395	4087.281839
790.888984	4081.527362
791.211529	3976.081547
791.534027	3916.893359
791.856480	3905.366761
792.178888	3841.344107
792.501249	3792.386942
792.823566	3805.498983
793.145836	3833.358920
793.468062	3780.900673
793.790241	3732.533322
794.112375	3762.916356
794.434464	3830.021676
794.756507	3852.782485
795.078505	3831.655010
795.400457	3866.159187
795.722364	4003.941483
796.044226	4112.797639
796.366042	4184.500491
796.687812	4163.715813
797.009538	4169.140095
797.331218	4125.602170
797.652852	4102.818675
797.974442	4078.401846
798.295986	4079.289089
798.617484	3997.849249
798.938938	3910.612082
799.260346	3954.979277
799.581709	3950.792598
799.903026	3874.502297
800.224299	3839.746062
800.545526	3830.997139
800.866708	3793.800985
801.187845	3733.017273
801.508936	3766.326697
801.829983	3765.063888
802.150984	3689.386086
802.471940	3679.258408
802.792851	3686.298380
803.113717	3685.448945
803.434538	3691.982281
803.755314	3632.287457
804.076045	3605.854167
804.396731	3624.077938
804.717372	3650.516270
805.037967	3635.057571
805.358518	3624.095582
805.679024	3651.557268
805.999485	3663.880368
806.319901	3671.386647
806.640272	3682.182277
806.960598	3698.472766
807.280879	3671.268179
807.601115	3685.645550
807.921306	3699.544011
808.241453	3742.686206
808.561554	3714.727967
808.881611	3654.728154
809.201623	3689.348278
809.521590	3702.533416
809.841513	3671.742048
810.161390	3701.053837
810.481223	3680.879139
810.801011	3627.175727
811.120755	3619.815643
811.440453	3655.184378
811.760107	3657.629338
812.079716	3614.240127
812.399281	3581.979262
812.718801	3605.823920
813.038276	3580.562698
813.357707	3574.092377
813.677093	3593.072322
813.996434	3537.801111
814.315731	3553.234603
814.634983	3554.058832
814.954191	3565.953434
815.273354	3596.177672
815.592473	3594.221705
815.911547	3599.227570
816.230577	3639.609733
816.549562	3690.114533
816.868502	3733.413003
817.187399	3756.662805
817.506250	3756.136004
817.825058	3726.337744
818.143821	3820.095644
818.462539	3920.107095
818.781213	3968.814723
819.099843	4024.585008
819.418429	4273.358389
819.736970	4514.466695
820.055466	4766.726034
820.373919	5128.922855
820.692327	5541.546339
821.010691	5987.476726
821.329011	7378.734364
821.647286	10138.294747
821.965517	14712.146234
822.283704	18739.755935
822.601847	20876.910258
822.919945	19062.556139
823.237999	16481.137531
823.556010	13992.997912
823.873976	11894.718447
824.191897	9793.104258
824.509775	8445.432436
824.827609	7313.965619
825.145398	6768.853051
825.463144	6653.014898
825.780845	6763.516990
826.098502	6959.282638
826.416116	7845.696445
826.733685	9173.017129
827.051210	10282.761613
827.368692	10311.977620
827.686129	9051.240496
828.003522	7534.387551
828.320872	6519.300812
828.638177	5814.393749
828.955439	5253.920785
829.272656	4751.857150
829.589830	4466.951300
829.906960	4294.876554
830.224046	4106.095425
830.541088	3980.863081
830.858086	3933.413221
831.175041	3858.902446
831.491952	3846.216383
831.808819	3857.725337
832.125642	3925.044905
832.442421	4073.615271
832.759157	4354.720092
833.075849	4906.514709
833.392497	5778.266320
833.709101	6549.779628
834.025662	6889.434931
834.342179	6517.281830
834.658653	5852.031004
834.975083	5204.051171
835.291469	4629.503305
835.607811	4217.411664
835.924110	4077.310437
836.240366	3879.520765
836.556578	3672.558715
836.872746	3564.332703
837.188871	3522.743184
837.504952	3456.502423
837.820990	3373.184753
838.136984	3327.852177
838.452935	3354.219932
838.768842	3344.160309
839.084706	3372.499156
839.400526	3531.169473
839.716303	3869.294785
840.032037	4394.951020
840.347727	4661.297863
840.663373	4380.722363
840.978977	3992.298939
841.294537	3690.842980
841.610054	3461.530974
841.925527	3352.659695
842.240957	3283.467338
842.556344	3229.988257
842.871687	3172.375430
843.186987	3118.770321
843.502244	3082.705906
843.817458	3047.836245
844.132629	3016.389527
844.447756	3025.451001
844.762840	3010.448528
845.077881	2979.669763
845.392879	2963.182669
845.707833	2958.806948
846.022745	2956.538428
846.337613	2958.386011
846.652438	2945.301696
846.967221	2941.488063
847.281960	2931.574634
847.596656	2926.256217
847.911309	2924.590116
848.225919	2916.350350
848.540485	2912.690472
848.855009	2912.660225
849.169490	2903.245870
849.483928	2893.599623
849.798323	2892.803120
850.112675	2889.637276
850.426984	2904.138155
850.741251	2899.860736
851.055474	2886.978067
851.369654	2882.614948
851.683792	2888.855897
851.997887	2896.399983
852.311938	2897.796383
852.625947	2887.250289
852.939914	2890.282543
853.253837	2895.459808
853.567718	2878.221583
853.881555	2875.537168
854.195350	2892.949314
854.509103	2888.445043
854.822812	2879.733929
855.136479	2878.655122
855.450103	2883.429095
855.763685	2874.438197
856.077224	2869.674306
856.390720	2883.655947
856.704173	2895.855539
857.017584	2885.538818
857.330953	2881.853734
857.644278	2893.385373
857.957561	2902.139337
858.270802	2904.493556
858.584000	2902.872825
858.897155	2890.002759
859.210268	2889.067625
859.523339	2888.261041
859.836367	2888.392111
860.149352	2881.042108
860.462295	2877.954402
860.775195	2887.114178
861.088054	2884.119733
861.400869	2867.105838
861.713642	2867.698174
862.026373	2882.141080
862.339062	2882.022613
862.651708	2888.775238
862.964312	2892.167935
863.276873	2886.090824
863.589392	2897.435941
863.901869	2906.084040
864.214303	2929.623708
864.526696	2943.348249
864.839045	2942.168619
865.151353	2939.834565
865.463619	2936.406580
865.775842	2937.124945
866.088023	2959.696711
866.400162	2965.965386
866.712258	2935.859615
867.024313	2926.097421
867.336325	2932.935746
867.648296	2955.005918
867.960224	2950.126081
868.272110	2934.324584
868.583954	2939.675769
868.895755	2953.286884
869.207515	2940.817590
869.519233	2943.524690
869.830909	2956.611525
870.142542	2965.579738
870.454134	2964.808441
870.765684	2966.227526
871.077191	2968.284317
871.388657	2974.817652
871.700081	2989.298367
872.011463	2998.546363
872.322803	3001.316477
872.634101	3000.199862
872.945357	3015.996317
873.256571	3043.452962
873.567744	3035.571118
873.878874	3027.389325
874.189963	3052.474107
874.501010	3050.825649
874.812015	3040.887014
875.122979	3044.617468
875.433900	3037.890048
875.744780	3047.125442
876.055618	3050.976884
876.366415	3048.841955
876.677169	3061.344017
876.987882	3059.309911
877.298554	3051.985115
877.609183	3071.038156
877.919771	3097.337855
878.230317	3120.194447
878.540822	3175.057324
878.851285	3214.239692
879.161707	3261.109820
879.472087	3360.536498
879.782425	3590.967640
880.092722	4032.713869
880.402977	4565.084921
880.713191	5193.104305
881.023363	6353.600606
881.333494	7637.574929
881.643583	8187.043054
881.953631	7881.801189
882.263637	7254.306084
882.573602	6671.616755
882.883526	6087.594041
883.193408	5512.640362
883.503248	5052.937543
883.813048	4749.064351
884.122806	4440.119758
884.432522	4125.710555
884.742197	3888.950244
885.051831	3692.551931
885.361424	3558.016138
885.670975	3487.790344
885.980485	3402.128537
886.289954	3322.185920
886.599382	3275.033487
886.908768	3236.874473
887.218113	3194.367464
887.527417	3137.697333
887.836680	3087.379056
888.145901	3081.438056
888.455082	3068.215109
888.764221	3021.113088
889.073319	2991.229128
889.382376	2990.402379
889.691392	2992.333141
890.000366	2991.574448
890.309300	2978.601038
890.618193	2991.403048
890.927044	3007.144051
891.235855	3006.551716
891.544625	2994.820951
891.853353	3006.856705
892.162041	3022.993439
892.470687	3064.643452
892.779293	3116.897532
893.087858	3165.012825
893.396381	3234.419431
893.704864	3355.744881
894.013306	3599.918208
894.321707	3902.306781
894.630068	4105.929067
894.938387	4103.083336
895.246665	4058.804361
895.554903	3935.744754
895.863100	3735.774784
896.171256	3568.302612
896.479371	3425.267433
896.787446	3302.895944
897.095480	3203.340718
897.403473	3135.892600
897.711425	3100.775922
898.019336	3089.912236
898.327207	3063.302505
898.635038	3023.835312
898.942827	3012.278466
899.250576	3000.451919
899.558284	2968.914461
899.865952	2948.621296
900.173579	2927.720672
900.481165	2922.041813
900.788711	2906.643608
901.096216	2882.657798
901.403681	2870.891745
901.711105	2879.307951
902.018489	2877.520862
902.325832	2877.319216
902.633135	2885.238869
902.940397	2922.253541
903.247619	3003.312774
903.554800	3197.664378
903.861941	3542.663304
904.169041	3971.862101
904.476101	4273.865025
904.783121	4224.917942
905.090100	3979.307885
905.397039	3706.173129
905.703938	3456.441929
906.010796	3268.863115
906.317614	3159.439829
906.624391	3060.567679
906.931129	2987.400372
907.237826	2928.285282
907.544483	2878.201418
907.851099	2849.058508
908.157675	2828.488079
908.464211	2811.307827
908.770707	2797.527833
909.077163	2781.693569
909.383578	2763.573141
909.689954	2758.506782
909.996289	2756.623911
910.302584	2755.288005
910.608839	2758.151380
910.915054	2747.506984
911.221229	2744.792323
911.527363	2746.254257
911.833458	2752.177613
912.139513	2756.263468
912.445527	2761.102976
912.751502	2769.428442
913.057436	2779.193157
913.363331	2792.307718
913.669186	2815.156748
913.975000	2847.195801
914.280775	2909.358269
914.586510	2979.576501
914.892205	3057.784962
915.197859	3189.676670
915.503475	3381.207749
915.809050	3598.242025
916.114585	3743.767533
916.420081	3762.170266
916.725536	3703.962583
917.030952	3586.092844
917.336328	3455.758853
917.641665	3324.401507
917.946961	3221.589695
918.252218	3151.346257
918.557435	3074.224165
918.862612	3015.892974
919.167750	2963.747278
919.472848	2924.776638
919.777906	2898.081208
920.082925	2870.856457
920.387904	2844.617251
920.692843	2824.757626
920.997743	2812.696665
921.302603	2800.766774
921.607423	2790.767646
921.912204	2775.639143
922.216946	2766.829727
922.521647	2754.037799
922.826310	2749.190729
923.130932	2741.775192
923.435516	2732.393605
923.740059	2725.557800
924.044564	2716.939948
924.349028	2713.005327
924.653454	2707.359235
924.957840	2700.609130
925.262186	2694.254755
925.566493	2690.703262
925.870761	2688.026410
926.174989	2683.433919
926.479178	2678.511232
926.783328	2672.187104
927.087438	2670.959583
927.391509	2671.166271
927.695541	2667.002278
927.999533	2663.113027
928.303486	2659.654796
928.607400	2657.812254
928.911275	2661.502379
929.215110	2661.109169
929.518906	2659.135557
929.822663	2658.961637
930.126381	2657.875269
930.430060	2657.998777
930.733699	2659.206133
931.037299	2659.304436
931.340861	2664.340548
931.644383	2661.358706
931.947866	2661.162101
932.251309	2660.786535
932.554714	2656.698159
932.858080	2655.021976
933.161407	2653.746564
933.464694	2652.892088
933.767943	2647.671973
934.071153	2650.653816
934.374323	2651.785555
934.677455	2651.493168
934.980548	2649.834628
935.283602	2649.086017
935.586617	2651.462921
935.889593	2652.607263
936.192530	2651.467962
936.495428	2650.784886
936.798287	2654.104486
937.101108	2655.828560
937.403890	2660.254693
937.706632	2664.201917
938.009336	2671.609892
938.312002	2680.573064
938.614628	2688.127233
938.917216	2693.186031
939.219765	2695.557894
939.522275	2692.903726
939.824747	2692.780218
940.127179	2690.247038
940.429573	2686.803930
940.731929	2681.523321
941.034246	2677.646674
941.336524	2677.518125
941.638763	2674.838751
941.940964	2672.600479
942.243126	2670.687361
942.545250	2670.440345
942.847335	2665.447082
943.149381	2665.280724
943.451389	2657.681184
943.753359	2655.251348
944.055290	2657.693787
944.357182	2654.903508
944.659036	2653.499547
944.960851	2652.733292
945.262628	2650.134577
945.564367	2650.880668
945.866067	2653.489465
946.167729	2651.634320
946.469352	2654.835453
946.770937	2651.049546
947.072484	2652.498878
947.373992	2649.675832
947.675462	2649.759011
947.976893	2645.002682
948.278286	2642.875315
948.579641	2643.591159
948.880958	2639.326343
949.182236	2642.474544
949.483476	2642.683752
949.784678	2642.963536
950.085841	2641.544451
950.386967	2641.229379
950.688054	2644.115439
950.989103	2644.145686
951.290114	2647.298928
951.591087	2647.528300
951.892021	2649.454021
952.192917	2654.311173
952.493776	2656.879641
952.794596	2654.694301
953.095378	2656.811585
953.396122	2654.459887
953.696828	2654.341420
953.997496	2650.575678
954.298126	2647.593835
954.598718	2646.036119
954.899272	2644.286838
955.199788	2641.269708
955.500266	2636.931795
955.800706	2636.591517
956.101108	2636.226033
956.401472	2634.055817
956.701798	2631.026083
957.002087	2626.327728
957.302337	2628.863428
957.602550	2630.206896
957.902724	2626.380660
958.202861	2624.651544
958.502960	2624.172635
958.803022	2624.056688
959.103045	2619.907818
959.403031	2622.259517
959.702979	2619.585185
960.002889	2621.883951
960.302762	2619.675925
960.602596	2619.691049
960.902393	2618.874382
961.202153	2617.314145
961.501875	2619.885133
961.801559	2616.184926
962.101205	2617.009155
962.400814	2617.788013
962.700385	2618.307252
962.999918	2612.121756
963.299414	2611.927672
963.598873	2613.946654
963.898293	2609.583535
964.197677	2616.189967
964.497022	2617.354474
964.796331	2613.432456
965.095601	2615.154010
965.394835	2616.570575
965.694030	2616.222735
965.993189	2615.534617
966.292309	2614.337343
966.591393	2615.048146
966.890439	2614.218876
967.189447	2614.806171
967.488419	2614.997735
967.787353	2614.929679
968.086249	2617.178034
968.385108	2612.772065
968.683930	2615.877416
968.982714	2614.135697
969.281462	2613.994545
969.580172	2617.420009
969.878844	2617.394803
970.177480	2616.222735
970.476078	2616.492437
970.774639	2613.366921
971.073162	2614.493619
971.371649	2615.499329
971.670098	2614.758280
971.968510	2613.301386
972.266885	2616.421861
972.565223	2616.104268
972.863524	2614.634772
973.161788	2615.829525
973.460014	2615.264916
973.758204	2613.671911
974.056356	2608.751745
974.354471	2615.965636
974.652550	2614.375152
974.950591	2614.919597
975.248595	2615.335492
975.546563	2614.849021
975.844493	2613.487909
976.142386	2611.408433
976.440243	2613.876078
976.738062	2615.703496
977.035845	2615.501850
977.333590	2616.691562
977.631299	2613.414812
977.928971	2609.956581
978.226606	2608.867692
978.524204	2610.533793
978.821765	2608.192177
979.119290	2613.455142
979.416777	2612.767024
979.714228	2611.940275
980.011642	2613.679473
980.309020	2612.890532
980.606360	2613.278701
980.903664	2610.899277
981.200931	2614.591922
981.498162	2614.102930
981.795356	2617.251130
982.092513	2616.056377
982.389633	2619.272633
982.686717	2621.858745
982.983764	2626.945269
983.280775	2627.945938
983.577749	2630.564818
983.874686	2630.249746
984.171587	2627.242697
984.468451	2625.327059
984.765279	2622.877058
985.062070	2618.130812
985.358824	2619.817078
985.655543	2616.449587
985.952224	2617.301542
986.248869	2614.465893
986.545478	2612.182250
986.842050	2615.050667
987.138586	2610.831221
987.435086	2611.910028
987.731549	2613.956736
988.027975	2612.827518
988.324366	2611.453803
988.620719	2608.829883
988.917037	2613.694596
989.213318	2609.321395
989.509563	2612.129318
989.805772	2610.311982
990.101944	2606.815942
990.398080	2609.475151
990.694180	2611.476489
990.990244	2609.689400
991.286271	2613.553444
991.582262	2609.858278
991.878217	2611.726026
992.174136	2611.045470
992.470019	2607.347784
992.765865	2606.329471
993.061676	2605.991713
993.357450	2605.114552
993.653188	2609.144955
993.948890	2608.610593
994.244556	2609.134873
994.540186	2609.679317
994.835780	2613.175357
995.131337	2610.168309
995.426859	2609.573453
995.722345	2612.497322
996.017795	2615.005296
996.313208	2611.418515
996.608586	2613.147631
996.903928	2613.603856
997.199234	2616.343723
997.494504	2613.278701
997.789738	2616.525204
998.084936	2613.722323
998.380099	2610.949688
998.675225	2609.928854
998.970316	2610.692589
999.265371	2609.197887
999.560390	2609.974225
999.855373	2609.911210
1000.150320	2610.372476
1000.445232	2610.669904
1000.740108	2608.018257
1001.034948	2608.655963
1001.329752	2608.124121
1001.624521	2608.494646
1001.919254	2608.071189
1002.213951	2608.688731
1002.508613	2605.704367
1002.803239	2608.177053
1003.097829	2607.652773
1003.392384	2609.215531
1003.686903	2605.096908
1003.981386	2606.241250
1004.275834	2606.979779
1004.570246	2606.387444
1004.864623	2607.395675
1005.158964	2606.228647
1005.453270	2608.051025
1005.747540	2608.199739
1006.041775	2606.533637
1006.335974	2606.326950
1006.630138	2608.877774
1006.924266	2608.282918
1007.218359	2607.231837
1007.512416	2604.711260
1007.806438	2601.825200
1008.100425	2604.091198
1008.394376	2601.442072
1008.688292	2608.303082
1008.982172	2608.189656
1009.276017	2608.161930
1009.569827	2603.955087
1009.863602	2606.652104
1010.157341	2609.185284
1010.451045	2605.117073
1010.744714	2606.697475
1011.038347	2604.875098
1011.331945	2605.056579
1011.625508	2605.938781
1011.919036	2606.573967
1012.212528	2605.457351
1012.505986	2605.548092
1012.799408	2608.545058
1013.092795	2606.883997
1013.386147	2603.408122
1013.679464	2606.823504
1013.972745	2605.069182
1014.265992	2605.384254
1014.559204	2604.703698
1014.852380	2606.631940
1015.145521	2605.061620
1015.438628	2607.239399
1015.731699	2606.296703
1016.024736	2607.156220
1016.317737	2606.231168
1016.610703	2605.490118
1016.903635	2606.752927
1017.196531	2607.476333
1017.489393	2604.043307
1017.782219	2606.931888
1018.075011	2606.258894
1018.367768	2603.362752
1018.660490	2607.292331
1018.953177	2607.292331
1019.245829	2607.292331
