Dividing Wavelength (nm)	Counts (n)	Blue Motor Position (mm): 10.600000	Red Motor Position (mm): 0.000000	
326.493990	2161.119969
326.888308	2161.119969
327.282561	2161.119969
327.676750	2118.887702
328.070874	2116.959461
328.464933	2117.370315
328.858929	2120.059771
329.252859	2125.385750
329.646726	2135.228603
330.040528	2145.603297
330.434265	2160.315905
330.827938	2178.479182
331.221547	2195.354444
331.615091	2213.399255
332.008571	2229.604044
332.401986	2251.795203
332.795338	2269.156937
333.188625	2287.547066
333.581847	2304.276135
333.975006	2323.745071
334.368100	2341.999089
334.761129	2359.945597
335.154095	2375.084182
335.546996	2395.669734
335.939833	2421.649320
336.332606	2433.594334
336.725315	2449.136211
337.117960	2461.623149
337.510540	2470.470374
337.903056	2480.915645
338.295508	2490.463591
338.687896	2500.503048
339.080220	2507.747187
339.472480	2511.434791
339.864676	2521.000380
340.256807	2523.904085
340.648875	2528.831812
341.040879	2532.453882
341.432818	2533.303316
341.824694	2538.089892
342.216506	2538.203317
342.608253	2541.162475
342.999937	2536.796836
343.391557	2538.614172
343.783113	2540.141641
344.174605	2539.957639
344.566033	2536.491846
344.957397	2537.553009
345.348697	2534.414890
345.739934	2532.789118
346.131106	2531.198634
346.522215	2529.051103
346.913260	2529.298119
347.304241	2524.632531
347.695159	2522.253107
348.086012	2523.621780
348.476802	2520.123219
348.867528	2515.727333
349.258191	2512.596777
349.648789	2514.698938
350.039324	2507.658966
350.429796	2510.139214
350.820203	2512.816067
351.210548	2507.621158
351.600828	2509.015037
351.991045	2506.328102
352.381198	2505.435817
352.771288	2506.139058
353.161314	2506.330622
353.551276	2505.234171
353.941175	2503.202586
354.331010	2504.745179
354.720782	2504.982114
355.110490	2506.451610
355.500135	2503.011023
355.889717	2504.987155
356.279235	2502.562360
356.668689	2502.670745
357.058080	2502.713594
357.447408	2502.874911
357.836672	2503.941115
358.225873	2504.672083
358.615010	2505.778616
359.004084	2507.033863
359.393095	2508.626868
359.782043	2509.231806
360.170927	2508.679800
360.559748	2508.689882
360.948505	2508.596621
361.337199	2512.150634
361.725830	2507.512773
362.114398	2511.013854
362.502903	2510.648371
362.891344	2512.019564
363.279722	2509.889677
363.668037	2513.889833
364.056289	2510.050994
364.444478	2513.564678
364.832603	2512.059894
365.220665	2515.150121
365.608665	2512.868999
365.996601	2515.984432
366.384474	2514.174658
366.772284	2514.388907
367.160031	2514.366222
367.547715	2516.299504
367.935336	2518.633558
368.322893	2516.211284
368.710388	2514.348578
369.097820	2517.842097
369.485189	2511.497805
369.872495	2518.568023
370.259738	2518.759587
370.646918	2516.733043
371.034035	2518.157169
371.421090	2517.663136
371.808081	2517.421161
372.195010	2521.721265
372.581875	2518.411747
372.968678	2518.898219
373.355418	2517.113650
373.742096	2522.863086
374.128710	2520.118178
374.515262	2520.307221
374.901751	2521.149094
375.288177	2524.103210
375.674540	2521.393590
376.060841	2521.708662
376.447079	2521.242355
376.833254	2522.805113
377.219367	2521.156656
377.605417	2522.185051
377.991404	2523.969620
378.377329	2523.026924
378.763191	2527.246370
379.148991	2524.395597
379.534727	2523.296626
379.920402	2523.649506
380.306013	2525.474404
380.691563	2525.471883
381.077049	2522.545494
381.462474	2524.267048
381.847835	2523.601615
382.233134	2524.503982
382.618371	2521.519619
383.003545	2523.710000
383.388657	2523.485669
383.773706	2527.430372
384.158693	2525.615556
384.543618	2526.303674
384.928480	2526.739734
385.313280	2527.004394
385.698017	2525.615556
386.082692	2526.233098
386.467305	2528.355423
386.851856	2528.970444
387.236344	2526.691843
387.620770	2523.785618
388.005133	2521.930473
388.389435	2525.943231
388.773674	2522.603467
389.157851	2527.122861
389.541965	2525.764270
389.926018	2529.023376
390.310008	2531.470857
390.693936	2529.179652
391.077802	2529.217461
391.461606	2530.344159
391.845348	2528.783922
392.229027	2527.924405
392.612645	2529.217461
392.996200	2530.835671
393.379694	2528.541946
393.763125	2529.199817
394.146494	2530.797862
394.529801	2531.770805
394.913047	2533.119314
395.296230	2533.560415
395.679351	2534.419932
396.062410	2528.539426
396.445408	2532.874818
396.828343	2531.276772
397.211217	2532.461443
397.594028	2533.250384
397.976778	2534.251053
398.359466	2535.103008
398.742092	2532.365661
399.124656	2532.330373
399.507158	2535.894469
399.889598	2536.050745
400.271977	2535.420601
400.654294	2532.859694
401.036549	2533.399098
401.418742	2535.544109
401.800874	2535.581917
402.182944	2534.669469
402.564952	2536.600231
402.946898	2538.500746
403.328783	2536.287679
403.710606	2535.211393
404.092367	2538.616692
404.474067	2535.788605
404.855705	2536.693492
405.237282	2536.328008
405.618797	2536.199459
406.000250	2535.909592
406.381642	2535.685261
406.762972	2535.302133
407.144240	2532.975641
407.525447	2537.358924
407.906593	2533.799870
408.287677	2537.701723
408.668700	2533.809952
409.049661	2540.363452
409.430560	2538.190715
409.811399	2539.594676
410.192176	2536.935467
410.572891	2537.242978
410.953545	2539.534182
411.334138	2539.662732
411.714669	2537.943698
412.095139	2538.384799
412.475547	2537.454706
412.855894	2540.166847
413.236180	2540.076106
413.616405	2538.120138
413.996568	2539.559388
414.376670	2540.875129
414.756711	2538.430169
415.136691	2540.035777
415.516609	2541.664070
415.896466	2541.124666
416.276262	2540.146682
416.655997	2541.333874
417.035670	2540.151723
417.415283	2541.769934
417.794834	2541.437218
418.174324	2543.143648
418.553753	2540.923020
418.933121	2541.870757
419.312428	2542.208514
419.691674	2539.773637
420.070859	2538.871270
420.449983	2542.788247
420.829045	2539.990407
421.208047	2544.587939
421.586988	2542.750438
421.965867	2543.993083
422.344686	2541.565767
422.723444	2541.434697
423.102141	2543.667928
423.480777	2541.107022
423.859352	2544.882846
424.237866	2542.780685
424.616319	2543.746066
424.994712	2543.930068
425.373044	2544.114070
425.751314	2541.079296
426.129524	2538.097453
426.507673	2540.204656
426.885762	2537.303472
427.263789	2545.238248
427.641756	2545.003834
428.019662	2545.056766
428.397508	2546.458207
428.775292	2546.049873
429.153016	2545.011396
429.530679	2543.060469
429.908282	2542.442928
430.285824	2543.065510
430.663305	2546.279246
431.040726	2543.483926
431.418086	2545.760007
431.795385	2545.107178
432.172624	2545.208001
432.549802	2544.164482
432.926920	2545.644061
433.303977	2545.233207
433.680974	2546.425439
434.057910	2546.705223
434.434786	2543.872095
434.811601	2543.214224
435.188355	2542.924358
435.565050	2545.392003
435.941683	2547.572302
436.318257	2545.399565
436.694770	2544.663556
437.071222	2546.364946
437.447614	2548.212528
437.823946	2549.583722
438.200218	2548.441901
438.576429	2545.192877
438.952580	2546.485933
439.328670	2544.615665
439.704700	2547.247147
440.080670	2545.996941
440.456580	2547.521890
440.832429	2548.905687
441.208218	2549.792930
441.583947	2546.780841
441.959616	2549.354350
442.335224	2546.632127
442.710773	2546.039791
443.086261	2547.189174
443.461689	2547.537014
443.837057	2548.028526
444.212365	2546.334699
444.587612	2547.113557
444.962800	2545.245809
445.337927	2547.363094
445.712995	2544.683721
446.088002	2547.753783
446.462949	2548.978784
446.837837	2548.187323
447.212664	2547.816798
447.587431	2549.659340
447.962139	2548.643547
448.336786	2553.162942
448.711374	2545.891077
449.085901	2550.481048
449.460369	2551.353167
449.834776	2548.262940
450.209124	2550.037426
450.583412	2551.327962
450.957640	2547.259750
451.331808	2550.029864
451.705917	2548.618341
452.079965	2552.363919
452.453954	2547.100954
452.827883	2548.010882
453.201752	2551.781665
453.575562	2550.556665
453.949311	2553.374670
454.323001	2552.585729
454.696632	2549.419885
455.070202	2549.306459
455.443713	2550.871737
455.817164	2551.297715
456.190556	2549.843342
456.563888	2550.448280
456.937160	2548.900646
457.310373	2549.223280
457.683526	2550.617159
458.056619	2549.929041
458.429653	2550.481048
458.802628	2552.169834
459.175542	2551.106151
459.548398	2554.405586
459.921194	2552.978939
460.293930	2550.710420
460.666607	2551.388455
461.039224	2550.660009
461.411782	2550.624721
461.784280	2549.490461
462.156719	2552.346275
462.529099	2554.027499
462.901419	2550.760832
463.273680	2550.712941
463.645882	2548.121788
464.018024	2549.561037
464.390106	2548.814946
464.762130	2553.762839
465.134094	2551.839639
465.505999	2550.743188
465.877845	2551.118754
466.249631	2554.483724
466.621358	2552.978939
466.993026	2554.297201
467.364634	2557.994888
467.736184	2552.525236
468.107674	2554.526574
468.479105	2555.287788
468.850477	2557.032027
469.221790	2553.586398
469.593043	2553.631769
469.964238	2553.694783
470.335373	2554.042623
470.706449	2554.881975
471.077467	2555.002963
471.448425	2553.888868
471.819324	2554.269475
472.190164	2556.227963
472.560945	2555.091183
472.931667	2554.382901
473.302330	2555.149156
473.672934	2553.972047
474.043479	2555.338199
474.413965	2559.043448
474.784393	2555.459187
475.154761	2556.245607
475.525070	2557.601677
475.895321	2556.142263
476.265513	2555.756615
476.635645	2557.316852
477.005719	2556.439692
477.375734	2556.709393
477.745691	2556.230484
478.115588	2559.378684
478.485427	2558.241904
478.855207	2557.387428
479.224928	2558.065464
479.594591	2555.136553
479.964194	2559.219888
480.333739	2557.019424
480.703226	2557.687377
481.072653	2560.994374
481.442022	2558.622511
481.811333	2560.638973
482.180584	2555.801986
482.549777	2557.127809
482.918912	2554.584547
483.287988	2558.340207
483.657005	2560.870866
484.025964	2559.295505
484.394864	2560.250804
484.763706	2560.419682
485.132489	2558.914898
485.501213	2559.908005
485.869879	2562.012687
486.238487	2564.419838
486.607036	2558.546894
486.975527	2562.194169
487.343959	2556.850546
487.712333	2562.952862
488.080648	2562.073181
488.448905	2563.424210
488.817104	2561.158212
489.185244	2561.909343
489.553326	2563.068809
489.921350	2561.896741
490.289315	2564.485373
490.657222	2564.281206
491.025070	2564.792883
491.392861	2564.739951
491.760593	2561.866494
492.128267	2562.320197
492.495883	2565.549057
492.863440	2562.441185
493.230939	2562.153839
493.598380	2564.248439
493.965763	2562.121072
494.333088	2563.996381
494.700354	2561.707697
495.067563	2561.193500
495.434713	2563.338511
495.801805	2565.034859
496.168839	2563.643500
496.535815	2559.963458
496.902733	2565.417987
497.269593	2563.782132
497.636395	2563.782132
498.003139	2563.257852
498.369825	2561.158212
498.736453	2560.520506
499.103023	2562.461350
499.469535	2567.855384
499.835989	2565.302040
500.202385	2561.745506
500.568723	2556.996739
500.935003	2561.460681
501.301226	2556.268292
501.667390	2564.238357
502.033497	2565.269272
502.399546	2563.298181
502.765537	2561.833726
503.131470	2563.441854
503.497345	2564.129972
503.863163	2565.851526
504.228923	2566.673234
504.594625	2565.743141
504.960269	2567.056362
505.325856	2562.184086
505.691385	2561.926987
506.056856	2561.735424
506.422270	2564.850857
506.787625	2564.450085
507.152924	2562.564693
507.518164	2564.901268
507.883347	2564.971844
508.248472	2564.132492
508.613540	2567.520148
508.978550	2563.083932
509.343503	2565.360013
509.708398	2564.497976
510.073236	2564.094684
510.438016	2566.826989
510.802738	2565.569221
511.167403	2564.981927
511.532010	2564.440003
511.896561	2566.411094
512.261053	2566.118707
512.625488	2565.014694
512.989866	2568.311609
513.354186	2568.203224
513.718449	2566.733728
514.082655	2565.864129
514.446803	2565.785991
514.810894	2566.015363
515.174927	2568.969479
515.538904	2567.021073
515.902822	2567.447051
516.266684	2568.835889
516.630488	2567.744479
516.994235	2568.082236
517.357925	2567.023594
517.721558	2572.452917
518.085133	2569.302196
518.448651	2564.374468
518.812112	2567.527709
519.175516	2567.671382
519.538863	2565.914540
519.902152	2571.910993
520.265385	2572.266394
520.628560	2569.410580
520.991678	2574.517269
521.354739	2571.913513
521.717743	2575.333936
522.080690	2572.236147
522.443580	2575.301169
522.806413	2578.134297
523.169189	2576.024574
523.531908	2575.923751
523.894569	2575.117167
524.257174	2576.526169
524.619722	2577.312589
524.982213	2576.659760
525.344647	2582.086562
525.707025	2580.349884
526.069345	2583.011613
526.431608	2580.644792
526.793815	2580.576736
527.155964	2585.580081
527.518057	2582.404154
527.880093	2583.392221
528.242072	2584.702921
528.603995	2586.260637
528.965860	2583.687128
529.327669	2588.395566
529.689421	2584.145873
530.051117	2586.558065
530.412755	2591.183324
530.774337	2589.769280
531.135862	2587.021851
531.497331	2589.945721
531.858743	2589.749116
532.220098	2590.354054
532.581396	2590.238107
532.942638	2591.798345
533.303824	2592.907398
533.664953	2595.022162
534.026025	2591.652151
534.387040	2594.187852
534.747999	2597.167173
535.108902	2597.623398
535.469748	2598.190528
535.830537	2598.016608
536.191270	2599.642380
536.551947	2593.582913
536.912567	2597.462081
537.273131	2599.856629
537.633638	2596.408480
537.994089	2602.402412
538.354483	2602.273862
538.714821	2605.895931
539.075103	2605.066662
539.435328	2602.367124
539.795497	2604.083637
540.155609	2607.723350
540.515665	2603.140941
540.875665	2606.263936
541.235609	2608.799636
541.595496	2606.936930
541.955328	2608.913062
542.315102	2610.964812
542.674821	2608.764348
543.034483	2609.581015
543.394090	2611.378186
543.753640	2612.071345
544.113134	2616.023609
544.472571	2612.038577
544.831953	2615.269957
545.191278	2613.074534
545.550548	2616.714247
545.909761	2615.063270
546.268918	2615.489247
546.628019	2617.483023
546.987064	2620.187602
547.346053	2618.156017
547.704986	2618.750874
548.063863	2621.384877
548.422684	2617.016717
548.781449	2618.957561
549.140158	2619.517129
549.498811	2622.312449
549.857408	2618.816409
550.215949	2621.624331
550.574434	2622.108282
550.932864	2622.143570
551.291237	2621.919239
551.649555	2622.468725
552.007817	2624.444857
552.366022	2623.824795
552.724173	2623.877727
553.082267	2621.248765
553.440305	2621.553755
553.798288	2624.717079
554.156215	2626.602471
554.514086	2624.563324
554.871902	2618.927314
555.229661	2619.554938
555.587365	2619.557458
555.945014	2622.587192
556.302606	2623.900412
556.660143	2625.216153
557.017625	2626.635238
557.375050	2627.099024
557.732421	2625.090125
558.089735	2626.436113
558.446994	2624.901081
558.804197	2628.664303
559.161345	2628.616412
559.518437	2622.430916
559.875474	2629.770836
560.232455	2627.459467
560.589381	2628.102214
560.946251	2628.684467
561.303065	2625.727831
561.659825	2628.102214
562.016528	2626.209261
562.373177	2626.607512
562.729770	2625.516102
563.086307	2628.291257
563.442789	2627.857718
563.799216	2627.630866
564.155587	2627.651031
564.511904	2628.011473
564.868164	2627.202368
565.224370	2628.964251
565.580520	2624.928808
565.936615	2628.560959
566.292654	2627.676237
566.648638	2629.037348
567.004567	2627.058695
567.360441	2630.519447
567.716260	2628.460136
568.072023	2627.764457
568.427732	2627.116668
568.783385	2624.654065
569.138982	2628.505506
569.494525	2628.603809
569.850013	2630.882410
570.205445	2627.774539
570.560823	2628.452574
570.916145	2626.274796
571.271412	2625.291771
571.626625	2630.098511
571.981782	2629.743110
572.336884	2627.769498
572.691931	2627.030969
573.046923	2625.233797
573.401860	2628.011473
573.756743	2629.090280
574.111570	2629.433079
574.466342	2629.652369
574.821059	2629.304529
575.175722	2630.025414
575.530330	2628.999539
575.884882	2629.460805
576.239380	2632.666979
576.593823	2632.974489
576.948211	2631.094139
577.302544	2629.985085
577.656823	2629.866618
578.011047	2630.983233
578.365216	2628.528192
578.719330	2632.157822
579.073389	2631.530199
579.427394	2632.810652
579.781344	2632.823255
580.135239	2631.711680
580.489080	2632.286372
580.842866	2628.807976
581.196597	2636.573873
581.550273	2634.504479
581.903895	2635.943729
582.257463	2636.838534
582.610975	2633.118162
582.964434	2637.433390
583.317837	2634.842237
583.671186	2638.464306
584.024481	2641.075623
584.377721	2638.567649
584.730906	2636.493215
585.084037	2638.469347
585.437113	2638.623102
585.790135	2642.587970
586.143103	2642.451858
586.496016	2644.707775
586.848874	2645.857158
587.201679	2642.237609
587.554428	2643.490336
587.907124	2645.930255
588.259765	2647.125008
588.612352	2650.671460
588.964884	2649.038126
589.317362	2648.133239
589.669786	2650.036274
590.022155	2650.076604
590.374470	2651.117602
590.726731	2651.866213
591.078937	2649.590132
591.431090	2657.028355
591.783188	2657.839981
592.135232	2657.010711
592.487222	2661.068840
592.839157	2662.601350
593.191038	2663.095383
593.542866	2663.191165
593.894639	2664.244767
594.246358	2667.667710
594.598022	2665.633604
594.949633	2668.229799
595.301190	2669.076712
595.652692	2670.276507
596.004141	2674.218689
596.355535	2672.474450
596.706876	2671.481343
597.058162	2675.456293
597.409395	2676.782116
597.760573	2678.859072
598.111698	2678.112981
598.462768	2681.823270
598.813785	2681.659432
599.164748	2682.430729
599.515657	2687.066070
599.866511	2682.705472
600.217312	2690.733509
600.568060	2690.546987
600.918753	2695.237780
601.269392	2696.412369
601.619978	2694.869776
601.970510	2700.067206
602.320988	2702.570139
602.671412	2708.286807
603.021783	2707.545757
603.372100	2710.346118
603.722363	2713.012889
604.072572	2716.748384
604.422728	2718.356512
604.772830	2720.869527
605.122878	2720.874568
605.472872	2723.576627
605.822813	2730.939232
606.172701	2732.285220
606.522534	2738.614389
606.872314	2741.744945
607.222041	2744.474730
607.571714	2745.798033
607.921333	2747.958167
608.270899	2757.392687
608.620411	2760.803027
608.969870	2760.624066
609.319276	2771.659152
609.668627	2780.206428
610.017926	2787.911832
610.367171	2798.926753
610.716362	2805.097126
611.065500	2803.115952
611.414585	2810.914617
611.763616	2813.233548
612.112594	2815.993580
612.461518	2819.716472
612.810389	2828.236022
613.159207	2829.743327
613.507971	2835.041579
613.856682	2850.684280
614.205340	2853.978674
614.553945	2870.052393
614.902496	2866.153060
615.250994	2882.486399
615.599439	2887.434291
615.947830	2894.628018
616.296169	2900.758061
616.644454	2913.360946
616.992686	2918.560896
617.340864	2937.404729
617.688990	2944.422015
618.037063	2964.672330
618.385082	2968.990078
618.733048	2985.895588
619.080961	2994.032010
619.428821	3011.015657
619.776628	3027.190199
620.124382	3027.409490
620.472083	3042.966490
620.819731	3056.212122
621.167326	3050.245917
621.514868	3056.996022
621.862357	3058.425189
622.209793	3068.399112
622.557176	3069.087229
622.904506	3067.446333
623.251783	3073.410018
623.599007	3081.503591
623.946179	3082.143818
624.293297	3093.252000
624.640363	3096.117896
624.987376	3101.970676
625.334336	3099.828185
625.681243	3110.351594
626.028097	3116.222017
626.374899	3135.622898
626.721647	3138.546767
627.068343	3141.377375
627.414987	3154.242400
627.761577	3174.797705
628.108115	3191.005014
628.454600	3185.626103
628.801032	3201.142775
629.147412	3216.230948
629.493739	3234.197620
629.840014	3242.001327
630.186236	3257.253337
630.532405	3267.098711
630.878521	3294.227680
631.224585	3304.652787
631.570597	3320.797082
631.916556	3329.157835
632.262462	3344.094774
632.608316	3370.480173
632.954117	3376.809342
633.299866	3400.265831
633.645562	3409.024836
633.991206	3407.993920
634.336797	3403.227509
634.682336	3422.772062
635.027823	3421.952875
635.373257	3439.095318
635.718639	3434.848146
636.063968	3444.335598
636.409245	3442.573715
636.754470	3459.738843
637.099642	3464.507775
637.444762	3460.066518
637.789829	3482.673573
638.134845	3484.926969
638.479808	3499.785770
638.824719	3512.189529
639.169577	3514.359745
639.514383	3534.463867
639.859137	3535.925802
640.203839	3559.450346
640.548489	3556.954975
640.893086	3585.689552
641.237632	3577.737132
641.582125	3618.494860
641.926566	3617.252216
642.270955	3632.988178
642.615292	3646.906803
642.959576	3664.671830
643.303809	3695.702652
643.647990	3701.038713
643.992118	3732.611460
644.336195	3720.878174
644.680219	3760.209257
645.024192	3783.290180
645.368112	3823.475737
645.711981	3862.509392
646.055797	3898.712438
646.399562	3925.309566
646.743274	3972.235146
647.086935	4046.645098
647.430544	4076.138368
647.774101	4090.500616
648.117606	4154.926562
648.461059	4156.867406
648.804460	4196.132953
649.147810	4173.407432
649.491108	4157.641223
649.834354	4195.313766
650.177548	4170.919622
650.520690	4156.907735
650.863781	4164.585413
651.206820	4183.209955
651.549807	4181.833720
651.892742	4178.652752
652.235626	4183.817414
652.578458	4204.155950
652.921238	4178.768699
653.263967	4229.124785
653.606644	4222.026840
653.949269	4237.914036
654.291843	4243.255139
654.634365	4272.574490
654.976836	4285.779792
655.319255	4306.375426
655.661622	4324.979804
656.003938	4329.015248
656.346203	4338.013708
656.688416	4369.294067
657.030577	4380.170357
657.372687	4394.880444
657.714746	4404.357813
658.056753	4451.724494
658.398708	4454.663487
658.740612	4473.787104
659.082465	4515.631202
659.424266	4517.289741
659.766016	4548.585224
660.107715	4559.562337
660.449362	4580.352055
660.790958	4615.738435
661.132503	4625.873675
661.473996	4656.455834
661.815438	4686.060010
662.156829	4706.022980
662.498168	4725.844797
662.839456	4744.154267
663.180693	4766.302577
663.521879	4817.369465
663.863013	4832.349254
664.204097	4861.227504
664.545129	4908.145523
664.886110	4912.002005
665.227040	4966.456549
665.567918	4995.218852
665.908746	5028.934089
666.249522	5035.918608
666.590248	5077.112397
666.930922	5126.813132
667.271545	5144.026152
667.612118	5195.834090
667.952639	5199.549421
668.293109	5213.652048
668.633528	5238.867900
668.973896	5240.060133
669.314213	5315.022091
669.654480	5245.587758
669.994695	5278.962717
670.334859	5321.200025
670.674973	5326.707485
671.015035	5365.791551
671.355047	5373.360843
671.695008	5383.150764
672.034918	5412.167646
672.374777	5447.710301
672.714585	5448.600065
673.054342	5490.136652
673.394049	5501.292725
673.733705	5538.579620
674.073310	5548.813162
674.412864	5590.866467
674.752368	5569.618004
675.091820	5580.837092
675.431223	5625.763855
675.770574	5595.300162
676.109875	5595.774031
676.449125	5603.156800
676.788324	5606.103355
677.127473	5580.254838
677.466571	5599.491882
677.805619	5598.531542
678.144616	5591.620120
678.483562	5609.649807
678.822458	5576.408438
679.161303	5598.607159
679.500098	5622.038442
679.838842	5619.926199
680.177535	5647.644983
680.516179	5677.980126
680.854771	5688.165778
681.193314	5800.437315
681.531805	5850.800963
681.870247	6045.505448
682.208638	6201.057811
682.546978	6353.449371
682.885268	6417.472025
683.223508	6313.765408
683.561697	6287.720287
683.899836	6271.772597
684.237925	6207.374377
684.575963	6211.576179
684.913951	6222.936419
685.251889	6187.522313
685.589776	6289.714063
685.927614	6279.104955
686.265401	6258.443786
686.603137	6327.535320
686.940824	6413.398773
687.278460	6468.170909
687.616046	6525.957656
687.953582	6618.561132
688.291068	6590.297903
688.628504	6700.409305
688.965889	6719.177521
689.303224	6756.797132
689.640510	6739.352219
689.977745	6631.310210
690.314930	6562.372431
690.652065	6557.550567
690.989150	6449.987467
691.326185	6372.028544
691.663170	6311.310366
692.000105	6226.981945
692.336990	6224.491615
692.673825	6111.032886
693.010610	6084.017342
693.347345	6012.095200
693.684030	5932.744918
694.020665	5935.472183
694.357251	5864.921234
694.693786	5880.344645
695.030272	5790.639833
695.366707	5761.229741
695.703093	5747.137195
696.039429	5768.428509
696.375716	5771.334734
696.711952	5701.539959
697.048139	5740.699642
697.384276	5744.213326
697.720363	5750.718935
698.056400	5732.384259
698.392388	5741.211319
698.728326	5729.840997
699.064214	5711.279468
699.400053	5764.650164
699.735842	5680.415004
700.071581	5686.620664
700.407270	5664.616027
700.742910	5641.351102
701.078501	5622.976097
701.414042	5570.719496
701.749533	5548.997164
702.084974	5484.193131
702.420366	5551.338780
702.755709	5521.152351
703.091002	5471.128981
703.426246	5493.431046
703.761440	5478.047965
704.096584	5467.206963
704.431679	5447.130568
704.766725	5455.778668
705.101721	5443.500938
705.436668	5480.629036
705.771565	5439.024393
706.106413	5486.607844
706.441212	5541.884096
706.775961	5513.845198
707.110661	5542.937697
707.445311	5649.946270
707.779913	5591.922589
708.114465	5682.186969
708.448967	5716.537392
708.783421	5783.519203
709.117825	5903.503705
709.452180	5935.504950
709.786485	5980.857691
710.120742	6144.014635
710.454949	6154.389329
710.789107	6204.924376
711.123216	6314.002343
711.457275	6423.297078
711.791286	6527.495208
712.125247	6510.864441
712.459159	6544.241921
712.793023	6692.489653
713.126837	6459.716894
713.460602	6557.578293
713.794318	6464.715198
714.127985	6521.634867
714.461602	6380.790069
714.795171	6357.631008
715.128691	6246.413072
715.462162	6109.906188
715.795584	6114.332321
716.128957	6048.056271
716.462281	5936.629127
716.795556	6022.101891
717.128782	5903.012193
717.461960	5733.992387
717.795088	5797.178209
718.128167	5763.523466
718.461198	5675.078942
718.794180	5645.076515
719.127113	5664.641233
719.459997	5580.527061
719.792833	5434.542807
720.125619	5490.106405
720.458357	5403.496861
720.791046	5406.367798
721.123686	5440.297284
721.456278	5340.842881
721.788821	5350.428635
722.121315	5284.772647
722.453761	5337.422458
722.786158	5323.153472
723.118506	5333.240821
723.450805	5331.294935
723.783056	5382.623964
724.115259	5306.482376
724.447412	5310.669054
724.779518	5345.929405
725.111574	5359.918607
725.443582	5421.266928
725.775542	5403.438888
726.107453	5537.389907
726.439315	5485.531558
726.771129	5511.755640
727.102895	5626.078927
727.434612	5713.432041
727.766281	5723.519390
728.097901	5788.202435
728.429473	5779.755981
728.760996	5770.399600
729.092471	5771.755670
729.423897	5769.106544
729.755276	5801.972346
730.086606	5757.862250
730.417887	5822.535213
730.749120	5939.681546
731.080305	6092.955308
731.411442	6192.114804
731.742530	6188.986768
732.073570	6293.714219
732.404562	6367.657863
732.735506	6237.389407
733.066401	6355.765782
733.397249	6326.680844
733.728048	6190.920051
734.058798	5976.214788
734.389501	5856.540316
734.720156	5743.038737
735.050762	5569.179423
735.381320	5509.890413
735.711831	5488.906610
736.042293	5414.035393
736.372707	5444.887255
736.703073	5345.127861
737.033391	5377.620618
737.363661	5387.965066
737.693883	5404.613477
738.024056	5464.232683
738.354182	5507.246328
738.684260	5527.264750
739.014290	5600.631182
739.344272	5679.888203
739.674207	5687.752403
740.004093	5734.617490
740.333931	5759.170430
740.663722	5764.088075
740.993464	5842.046999
741.323159	5862.693044
741.652806	5666.098127
741.982405	5663.786758
742.311956	5759.268732
742.641460	5653.235623
742.970915	5499.356922
743.300323	5524.381210
743.629683	5485.917206
743.958996	5401.747581
744.288260	5344.230536
744.617477	5310.943797
744.946647	5337.845915
745.275768	5208.363878
745.604842	5186.679355
745.933869	5176.927243
746.262847	5142.450792
746.591778	5143.663189
746.920662	5123.619561
747.249498	5112.297130
747.578286	5152.407070
747.907027	5218.483994
748.235720	5264.348412
748.564365	5232.014451
748.892963	5245.391153
749.221514	5396.509822
749.550017	5278.869456
749.878473	5168.571530
750.206881	5222.426177
750.535242	5181.176935
750.863555	5133.495182
751.191821	5162.940561
751.520039	5168.372405
751.848210	5099.681642
752.176334	5110.409218
752.504411	5171.444988
752.832440	5107.858394
753.160421	5032.064646
753.488356	5083.116411
753.816243	5137.303773
754.144082	5010.697715
754.471875	4974.613136
754.799620	5023.663563
755.127318	5035.764853
755.454969	4995.249099
755.782572	4968.135253
756.110129	5012.230226
756.437638	5024.273543
756.765100	4964.016631
757.092515	4956.374241
757.419882	4998.135160
757.747203	4985.383561
758.074477	5044.571748
758.401703	5046.633580
758.728882	4991.453110
759.056014	5023.421588
759.383099	5157.012164
759.710138	5153.831196
760.037129	5138.312004
760.364073	5141.467767
760.690970	5225.314758
761.017820	5223.688986
761.344623	5173.375750
761.671379	5257.583184
761.998088	5358.224779
762.324751	5547.182349
762.651366	6010.605539
762.977935	7004.582446
763.304456	8279.699462
763.630931	9035.534781
763.957359	8820.436308
764.283740	8129.621791
764.610074	7514.616145
764.936362	6708.507919
765.262602	6208.974943
765.588796	5753.158854
765.914943	5462.800995
766.241044	5347.204817
766.567097	5190.964336
766.893104	4972.989884
767.219064	4815.836954
767.544978	4770.446405
767.870845	4718.847675
768.196665	4625.742605
768.522438	4563.466711
768.848165	4549.606058
769.173846	4498.098069
769.499479	4463.044405
769.825066	4417.840379
770.150607	4372.089387
770.476101	4348.116180
770.801548	4352.799412
771.126949	4292.653405
771.452303	4257.584619
771.777611	4217.658680
772.102872	4231.168973
772.428087	4202.409190
772.753256	4175.615457
773.078378	4144.032628
773.403453	4083.979883
773.728482	4075.233481
774.053465	4037.008932
774.378401	4024.156510
774.703291	4033.175135
775.028135	3974.801094
775.352932	3929.345009
775.677683	3917.783123
776.002388	3941.229530
776.327046	3956.899956
776.651658	3884.619893
776.976224	3825.988753
777.300743	3833.157273
777.625216	3858.766335
777.949643	3859.739278
778.274024	3817.703616
778.598359	3770.205865
778.922647	3790.975419
779.246889	3787.678504
779.571086	3788.764873
779.895236	3778.879170
780.219339	3758.875872
780.543397	3750.565529
780.867409	3794.852066
781.191374	3812.246567
781.515294	3762.036675
781.839167	3755.765480
782.162995	3773.510341
782.486776	3763.092797
782.810511	3774.140485
783.134201	3778.433028
783.457844	3745.496649
783.781441	3688.458514
784.104993	3695.332127
784.428498	3715.469016
784.751958	3715.106053
785.075372	3702.556101
785.398739	3664.901202
785.722061	3670.466636
786.045337	3710.296792
786.368568	3749.302720
786.691752	3669.009742
787.014891	3708.734035
787.337983	3808.705157
787.661030	3947.286476
787.984031	4083.080037
788.306987	4241.964603
788.629897	4316.954288
788.952760	4283.314668
789.275579	4231.085793
789.598351	4189.155996
789.921078	4072.657452
790.243759	3897.731934
790.566395	3868.019373
790.888984	3873.121021
791.211529	3770.301647
791.534027	3719.557392
791.856480	3718.365159
792.178888	3658.899708
792.501249	3607.011112
792.823566	3619.745067
793.145836	3650.937206
793.468062	3607.235443
793.790241	3558.747105
794.112375	3588.031168
794.434464	3646.470744
794.756507	3667.343641
795.078505	3652.300838
795.400457	3676.430321
795.722364	3788.865696
796.044226	3878.885580
796.366042	3947.909058
796.687812	3944.733132
797.009538	3956.118577
797.331218	3913.974531
797.652852	3889.547620
797.974442	3876.589334
798.295986	3881.179305
798.617484	3811.944098
798.938938	3729.856469
799.260346	3762.402159
799.581709	3764.897530
799.903026	3698.931511
800.224299	3666.186696
800.545526	3659.340809
800.866708	3628.804020
801.187845	3565.151891
801.508936	3598.496603
801.829983	3605.680247
802.150984	3528.414482
802.471940	3513.170033
802.792851	3530.521685
803.113717	3526.897095
803.434538	3532.722148
803.755314	3486.073831
804.076045	3451.826753
804.396731	3468.139926
804.717372	3498.399452
805.037967	3483.225579
805.358518	3474.441369
805.679024	3495.752847
805.999485	3505.376409
806.319901	3507.309692
806.640272	3523.401055
806.960598	3540.863612
807.280879	3512.862523
807.601115	3517.893594
807.921306	3538.844630
808.241453	3578.770568
808.561554	3564.078125
808.881611	3500.511696
809.201623	3525.034389
809.521590	3543.593397
809.841513	3516.381248
810.161390	3545.297307
810.481223	3533.553939
810.801011	3478.769199
811.120755	3465.750419
811.440453	3501.933301
811.760107	3510.795650
812.079716	3475.973879
812.399281	3439.357458
812.718801	3460.026189
813.038276	3438.031635
813.357707	3432.713218
813.677093	3454.851445
813.996434	3405.856471
814.315731	3410.045669
814.634983	3415.585898
814.954191	3425.330448
815.273354	3457.369501
815.592473	3456.600725
815.911547	3456.699028
816.230577	3484.967298
816.549562	3539.043755
816.868502	3581.371803
817.187399	3607.537912
817.506250	3602.249742
817.825058	3571.597006
818.143821	3658.529184
818.462539	3761.323352
818.781213	3799.689053
819.099843	3851.965818
819.418429	4060.689752
819.736970	4286.936737
820.055466	4512.016694
820.373919	4855.745249
820.692327	5252.385754
821.010691	5622.673627
821.329011	6813.162273
821.647286	9179.895783
821.965517	13104.010596
822.283704	16626.806712
822.601847	18832.384617
822.919945	17430.689269
823.237999	15315.259798
823.556010	13084.143408
823.873976	11221.043852
824.191897	9275.304661
824.509775	7980.454049
824.827609	6923.979437
825.145398	6390.307768
825.463144	6285.270286
825.780845	6392.757768
826.098502	6532.596856
826.416116	7267.990296
826.733685	8466.960683
827.051210	9539.388026
827.368692	9704.533705
827.686129	8603.311292
828.003522	7172.856162
828.320872	6211.203133
828.638177	5557.945212
828.955439	5033.362743
829.272656	4565.747833
829.589830	4279.576652
829.906960	4116.472640
830.224046	3947.641877
830.541088	3821.270233
830.858086	3779.148872
831.175041	3713.472719
831.491952	3688.435829
831.808819	3699.722972
832.125642	3759.097682
832.442421	3896.373343
832.759157	4141.156650
833.075849	4639.310870
833.392497	5429.400830
833.709101	6146.774667
834.025662	6506.279512
834.342179	6220.574638
834.658653	5606.425989
834.975083	5002.037013
835.291469	4453.826656
835.607811	4054.474010
835.924110	3926.204371
836.240366	3740.412646
836.556578	3536.906306
836.872746	3429.970830
837.188871	3397.515882
837.504952	3341.049917
837.820990	3261.243411
838.136984	3211.000751
838.452935	3234.222826
838.768842	3231.195613
839.084706	3250.382245
839.400526	3387.191598
839.716303	3688.738298
840.032037	4155.718023
840.347727	4443.855253
840.663373	4217.767065
840.978977	3861.753219
841.294537	3567.957293
841.610054	3347.747090
841.925527	3240.017632
842.240957	3174.394412
842.556344	3124.101341
842.871687	3067.879873
843.186987	3022.116278
843.502244	2989.744509
843.817458	2954.723613
844.132629	2920.564754
844.447756	2928.479366
844.762840	2921.908222
845.077881	2889.793551
845.392879	2871.063144
845.707833	2868.857639
846.022745	2864.933101
846.337613	2867.494007
846.652438	2856.557224
846.967221	2857.008407
847.281960	2842.421829
847.596656	2836.294306
847.911309	2832.054696
848.225919	2828.367092
848.540485	2824.419868
848.855009	2824.986998
849.169490	2817.470638
849.483928	2807.700882
849.798323	2805.807928
850.112675	2801.666620
850.426984	2813.246151
850.741251	2812.759679
851.055474	2800.897844
851.369654	2797.043882
851.683792	2799.642597
851.997887	2807.257260
852.311938	2809.412353
852.625947	2802.384985
852.939914	2807.602579
853.253837	2809.924030
853.567718	2793.802420
853.881555	2789.628345
854.195350	2808.348670
854.509103	2805.092084
854.822812	2798.772998
855.136479	2795.244190
855.450103	2793.033644
855.763685	2790.203037
856.077224	2781.756583
856.390720	2796.471711
856.704173	2808.711633
857.017584	2803.294913
857.330953	2794.588840
857.644278	2805.583597
857.957561	2813.702375
858.270802	2816.971563
858.584000	2817.863848
858.897155	2804.361117
859.210268	2801.875828
859.523339	2804.252732
859.836367	2801.018832
860.149352	2795.085394
860.462295	2790.049281
860.775195	2802.072433
861.088054	2799.587144
861.400869	2786.979219
861.713642	2779.525873
862.026373	2795.166052
862.339062	2795.118162
862.651708	2799.786270
862.964312	2807.647949
863.276873	2798.057154
863.589392	2806.579225
863.901869	2819.025834
864.214303	2837.012671
864.526696	2855.362471
864.839045	2851.546317
865.151353	2850.157479
865.463619	2844.743280
865.775842	2849.895339
866.088023	2865.822865
866.400162	2875.267467
866.712258	2849.078672
867.024313	2835.074347
867.336325	2844.105574
867.648296	2864.000488
867.960224	2854.976822
868.272110	2844.284535
868.583954	2846.691686
868.895755	2866.642052
869.207515	2851.324506
869.519233	2850.454907
869.830909	2860.612832
870.142542	2871.768906
870.454134	2874.080275
870.765684	2873.296375
871.077191	2875.179246
871.388657	2879.325595
871.700081	2894.786814
872.011463	2905.375758
872.322803	2904.785943
872.634101	2902.890469
872.945357	2919.233890
873.256571	2946.357818
873.567744	2940.696602
873.878874	2928.398708
874.189963	2952.419806
874.501010	2953.536421
874.812015	2943.524690
875.122979	2943.149124
875.433900	2943.537293
875.744780	2945.152982
876.055618	2953.569189
876.366415	2949.909311
876.677169	2960.513378
876.987882	2962.865076
877.298554	2949.551389
877.609183	2972.153402
877.919771	2989.507574
878.230317	3015.499764
878.540822	3062.495920
878.851285	3104.781119
879.161707	3139.053403
879.472087	3225.907443
879.782425	3424.435643
880.092722	3819.931806
880.402977	4313.632167
880.713191	4882.614599
881.023363	5921.109935
881.333494	7096.785150
881.643583	7656.728793
881.953631	7399.723208
882.263637	6873.893053
882.573602	6347.851170
882.883526	5806.385877
883.193408	5253.028501
883.503248	4800.917660
883.813048	4518.880225
884.122806	4255.943723
884.432522	3960.895071
884.742197	3735.081625
885.051831	3551.019016
885.361424	3413.904673
885.670975	3348.881350
885.980485	3274.093312
886.289954	3200.767209
886.599382	3159.523008
886.908768	3122.752832
887.218113	3078.980493
887.527417	3028.947042
887.836680	2979.694968
888.145901	2973.486788
888.455082	2967.886066
888.764221	2923.095414
889.073319	2893.045096
889.382376	2891.396638
889.691392	2894.993502
890.000366	2894.335631
890.309300	2880.984135
890.618193	2892.089797
890.927044	2911.034453
891.235855	2913.590318
891.544625	2894.086094
891.853353	2904.259142
892.162041	2923.899478
892.470687	2958.620425
892.779293	3009.100019
893.087858	3050.475289
893.396381	3116.443828
893.704864	3221.095662
894.013306	3438.694547
894.321707	3717.487998
894.630068	3922.088268
894.938387	3927.953651
895.246665	3880.627299
895.554903	3775.035290
895.863100	3590.098041
896.171256	3431.095007
896.479371	3300.128351
896.787446	3188.817153
897.095480	3092.286619
897.403473	3029.919984
897.711425	2989.608397
898.019336	2984.605052
898.327207	2957.730661
898.635038	2925.300918
898.942827	2910.298445
899.250576	2900.788308
899.558284	2871.380737
899.865952	2852.846935
900.173579	2833.602330
900.481165	2830.829695
900.788711	2819.900474
901.096216	2795.523974
901.403681	2781.033178
901.711105	2785.464352
902.018489	2786.974177
902.325832	2785.613066
902.633135	2792.635393
902.940397	2820.719661
903.247619	2891.913357
903.554800	3059.501475
903.861941	3370.931357
904.169041	3766.309053
904.476101	4069.347934
904.783121	4053.085172
905.090100	3829.472190
905.397039	3567.485945
905.703938	3331.809482
906.010796	3154.565034
906.317614	3049.933365
906.624391	2960.742751
906.931129	2894.386042
907.237826	2836.758092
907.544483	2791.319652
907.851099	2763.205137
908.157675	2744.227713
908.464211	2723.881617
908.770707	2716.098075
909.077163	2703.790098
909.383578	2686.660257
909.689954	2677.225738
909.996289	2673.553257
910.302584	2675.267249
910.608839	2678.914524
910.915054	2673.346570
911.221229	2662.916422
911.527363	2666.871208
911.833458	2670.705005
912.139513	2674.932013
912.445527	2678.690193
912.751502	2689.014476
913.057436	2695.971268
913.363331	2709.224462
913.669186	2724.627707
913.975000	2753.241297
914.280775	2808.421767
914.586510	2875.791747
914.892205	2948.772531
915.197859	3061.676733
915.503475	3236.433372
915.809050	3427.236004
916.114585	3568.474011
916.420081	3598.380657
916.725536	3548.513563
917.030952	3440.501800
917.336328	3323.173986
917.641665	3200.023638
917.946961	3098.918257
918.252218	3041.897766
918.557435	2968.307002
918.862612	2915.498395
919.167750	2867.083153
919.472848	2833.748523
919.777906	2807.355562
920.082925	2784.511574
920.387904	2753.843714
920.692843	2740.459451
920.997743	2728.365723
921.302603	2716.304762
921.607423	2705.985520
921.912204	2697.518902
922.216946	2687.098837
922.521647	2678.135666
922.826310	2671.529234
923.130932	2664.131341
923.435516	2655.989877
923.740059	2651.437715
924.044564	2642.149389
924.349028	2637.773668
924.653454	2630.993316
924.957840	2627.066257
925.262186	2618.410596
925.566493	2615.695934
925.870761	2614.188629
926.174989	2608.580346
926.479178	2602.909048
926.783328	2599.453337
927.087438	2596.131216
927.391509	2600.438882
927.695541	2596.282451
927.999533	2592.113417
928.303486	2589.925556
928.607400	2591.546287
928.911275	2586.936152
929.215110	2588.584609
929.518906	2585.922880
929.822663	2586.525298
930.126381	2582.295770
930.430060	2586.245514
930.733699	2585.035637
931.037299	2587.087386
931.340861	2591.800865
931.644383	2588.496389
931.947866	2588.970257
932.251309	2587.944383
932.554714	2586.255596
932.858080	2584.418095
933.161407	2582.746953
933.464694	2582.930955
933.767943	2578.134297
934.071153	2580.838876
934.374323	2578.005748
934.677455	2578.353587
934.980548	2580.624627
935.283602	2576.909297
935.586617	2575.757393
935.889593	2577.738567
936.192530	2579.802919
936.495428	2577.610017
936.798287	2581.017837
937.101108	2583.712334
937.403890	2587.888930
937.706632	2589.910432
938.009336	2598.195569
938.312002	2606.415170
938.614628	2613.135028
938.917216	2618.062756
939.219765	2619.466717
939.522275	2619.514608
939.824747	2618.380349
940.127179	2615.489247
940.429573	2610.861468
940.731929	2608.592949
941.034246	2607.884667
941.336524	2603.849223
941.638763	2601.570621
941.940964	2601.454675
942.243126	2600.529623
942.545250	2597.341093
942.847335	2595.806062
943.149381	2590.268354
943.451389	2587.178127
943.753359	2583.578743
944.055290	2584.024885
944.357182	2583.430029
944.659036	2582.860379
944.960851	2583.913980
945.262628	2581.418609
945.564367	2583.263671
945.866067	2581.131263
946.167729	2582.177302
946.469352	2584.176120
946.770937	2584.372725
947.072484	2577.509194
947.373992	2582.948599
947.675462	2578.668659
947.976893	2573.902248
948.278286	2572.909141
948.579641	2571.737073
948.880958	2571.545509
949.182236	2573.090623
949.483476	2574.620613
949.784678	2570.663307
950.085841	2575.540623
950.386967	2575.341498
950.688054	2573.294789
950.989103	2573.309913
951.290114	2573.914851
951.591087	2578.973649
951.892021	2577.547003
952.192917	2579.921386
952.493776	2584.690318
952.794596	2586.437077
953.095378	2583.777869
953.396122	2584.080338
953.696828	2580.596901
953.997496	2578.461972
954.298126	2581.471541
954.598718	2577.005079
954.899272	2574.832341
955.199788	2573.004923
955.500266	2572.886456
955.800706	2569.692885
956.101108	2566.421176
956.401472	2565.811197
956.701798	2561.919426
957.002087	2562.983109
957.302337	2560.059240
957.602550	2559.668551
957.902724	2555.728889
958.202861	2555.822150
958.502960	2556.835422
958.803022	2554.385421
959.103045	2553.838456
959.403031	2554.264434
959.702979	2553.107489
960.002889	2553.183106
960.302762	2552.752087
960.602596	2552.096737
960.902393	2552.303425
961.202153	2553.956923
961.501875	2550.203784
961.801559	2550.155893
962.101205	2551.771583
962.400814	2552.726882
962.700385	2551.459032
962.999918	2547.443753
963.299414	2546.392672
963.598873	2545.419729
963.898293	2545.621375
964.197677	2551.945503
964.497022	2549.205636
964.796331	2548.351160
965.095601	2550.455842
965.394835	2549.051881
965.694030	2549.808054
965.993189	2550.455842
966.292309	2547.136242
966.591393	2545.737322
966.890439	2547.693290
967.189447	2549.102292
967.488419	2548.547765
967.787353	2548.656150
968.086249	2548.346119
968.385108	2549.351829
968.683930	2550.004659
968.982714	2548.265461
969.281462	2547.554658
969.580172	2546.480892
969.878844	2550.604556
970.177480	2547.068187
970.476078	2549.243444
970.774639	2550.816284
971.073162	2551.695966
971.371649	2550.004659
971.670098	2551.532128
971.968510	2548.653629
972.266885	2551.821995
972.565223	2549.805533
972.863524	2551.519525
973.161788	2551.562375
973.460014	2552.195040
973.758204	2548.953578
974.056356	2549.248486
974.354471	2548.530121
974.652550	2549.175389
974.950591	2550.392827
975.248595	2551.622869
975.546563	2551.222097
975.844493	2548.189843
976.142386	2548.434339
976.440243	2551.554813
976.738062	2548.094061
977.035845	2546.962322
977.333590	2546.584236
977.631299	2549.261088
977.928971	2543.141128
978.226606	2545.036602
978.524204	2547.726057
978.821765	2543.234389
979.119290	2546.092723
979.416777	2545.386962
979.714228	2546.173382
980.011642	2548.056253
980.309020	2547.935265
980.606360	2548.888043
980.903664	2547.652960
981.200931	2546.957281
981.498162	2549.447611
981.795356	2548.956099
982.092513	2553.334341
982.389633	2553.919115
982.686717	2555.892726
982.983764	2559.948335
983.280775	2563.698953
983.577749	2564.419838
983.874686	2562.766340
984.171587	2561.372461
984.468451	2557.881462
984.765279	2556.767367
985.062070	2555.817109
985.358824	2555.771739
985.655543	2552.096738
985.952224	2550.481048
986.248869	2550.768393
986.545478	2551.799309
986.842050	2548.935934
987.138586	2548.704041
987.435086	2548.177240
987.731549	2547.587425
988.027975	2548.056253
988.324366	2545.452497
988.620719	2547.481561
988.917037	2542.510983
989.213318	2548.893084
989.509563	2545.767569
989.805772	2549.109854
990.101944	2543.229348
990.398080	2547.879812
990.694180	2546.153217
990.990244	2545.616334
991.286271	2545.107178
991.582262	2545.308824
991.878217	2544.580377
992.174136	2546.884184
992.470019	2545.891077
992.765865	2543.587270
993.061676	2541.618699
993.357450	2541.696837
993.653188	2542.074924
993.948890	2546.571633
994.244556	2546.349822
994.540186	2546.541386
994.835780	2548.482230
995.131337	2545.944009
995.426859	2547.390820
995.722345	2548.431819
996.017795	2548.676315
996.313208	2551.706048
996.608586	2548.451983
996.903928	2549.649257
997.199234	2548.895605
997.494504	2549.374514
997.789738	2548.802343
998.084936	2551.002807
998.380099	2549.238403
998.675225	2549.520708
998.970316	2547.181612
999.265371	2546.982487
999.560390	2549.545914
999.855373	2547.547096
1000.150320	2546.201108
1000.445232	2546.420398
1000.740108	2544.648433
1001.034948	2545.636499
1001.329752	2544.018288
1001.624521	2545.523073
1001.919254	2547.080789
1002.213951	2542.158103
1002.508613	2542.359749
1002.803239	2545.041643
1003.097829	2549.891233
1003.392384	2543.403268
1003.686903	2543.849410
1003.981386	2547.486602
1004.275834	2545.359235
1004.570246	2544.431663
1004.864623	2545.016437
1005.158964	2545.245809
1005.453270	2544.729091
1005.747540	2544.182126
1006.041775	2545.117260
1006.335974	2544.046015
1006.630138	2542.999975
1006.924266	2544.950902
1007.218359	2542.863864
1007.512416	2543.614996
1007.806438	2541.475026
1008.100425	2538.974614
1008.394376	2541.676673
1008.688292	2541.497712
1008.982172	2545.598690
1009.276017	2545.245809
1009.569827	2544.567774
1009.863602	2546.619524
1010.157341	2545.412167
1010.451045	2542.939482
1010.744714	2545.429812
1011.038347	2548.134391
1011.331945	2546.327137
1011.625508	2543.798998
1011.919036	2541.769934
1012.212528	2544.308155
1012.505986	2544.842517
1012.799408	2543.698175
1013.092795	2543.919986
1013.386147	2542.218597
1013.679464	2546.627086
1013.972745	2544.618186
1014.265992	2545.124822
1014.559204	2544.056097
1014.852380	2543.451159
1015.145521	2546.813608
1015.438628	2542.052238
1015.731699	2543.670449
1016.024736	2544.174564
1016.317737	2545.210521
1016.610703	2542.637012
1016.903635	2547.133722
1017.196531	2543.070552
1017.489393	2546.044832
1017.782219	2542.314378
1018.075011	2545.139945
1018.367768	2542.654656
1018.660490	2541.530479
1018.953177	2541.530479
1019.245829	2541.530479
