Dividing Wavelength (nm)	Counts (n)	Blue Motor Position (mm): 1.600000	Red Motor Position (mm): 0.000000	
326.493990	2164.729435
326.888308	2164.729435
327.282561	2164.729435
327.676750	2122.988681
328.070874	2119.797631
328.464933	2120.480707
328.858929	2124.735441
329.252859	2130.570576
329.646726	2135.649539
330.040528	2147.743267
330.434265	2162.959990
330.827938	2182.486899
331.221547	2196.587007
331.615091	2216.650799
332.008571	2233.866339
332.401986	2252.024575
332.795338	2271.906886
333.188625	2291.670730
333.581847	2306.584983
333.975006	2327.087356
334.368100	2347.680470
334.761129	2362.670341
335.154095	2382.053577
335.546996	2395.783160
335.939833	2411.877043
336.332606	2429.604261
336.725315	2438.905190
337.117960	2454.600822
337.510540	2465.439303
337.903056	2476.345839
338.295508	2482.722899
338.687896	2494.040289
339.080220	2501.707884
339.472480	2506.658297
339.864676	2511.543175
340.256807	2518.880575
340.648875	2522.638755
341.040879	2524.065402
341.432818	2527.584127
341.824694	2532.214427
342.216506	2528.925074
342.608253	2533.361289
342.999937	2534.069571
343.391557	2533.313398
343.783113	2531.458254
344.174605	2531.107893
344.566033	2529.928263
344.957397	2530.767616
345.348697	2528.799045
345.739934	2526.812830
346.131106	2524.970289
346.522215	2523.228570
346.913260	2521.320493
347.304241	2519.369567
347.695159	2518.303363
348.086012	2515.994514
348.476802	2512.405213
348.867528	2510.804646
349.258191	2508.735253
349.648789	2503.835251
350.039324	2502.390961
350.429796	2502.562360
350.820203	2505.075375
351.210548	2502.746362
351.600828	2503.063955
351.991045	2503.116887
352.381198	2502.315343
352.771288	2500.787874
353.161314	2498.746206
353.551276	2497.503562
353.941175	2496.893582
354.331010	2498.259735
354.720782	2500.215703
355.110490	2496.923829
355.500135	2496.442399
355.889717	2496.878459
356.279235	2498.068171
356.668689	2498.569766
357.058080	2496.482728
357.447408	2497.793428
357.836672	2497.241422
358.225873	2499.882987
358.615010	2497.044817
359.004084	2501.034890
359.393095	2500.976917
359.782043	2503.873060
360.170927	2498.821824
360.559748	2502.259891
360.948505	2499.789725
361.337199	2504.538492
361.725830	2501.344921
362.114398	2504.109994
362.502903	2503.999089
362.891344	2501.891886
363.279722	2504.606548
363.668037	2504.490601
364.056289	2504.714933
364.444478	2505.634943
364.832603	2505.871877
365.220665	2508.221055
365.608665	2506.479336
365.996601	2507.916065
366.384474	2509.161230
366.772284	2508.818432
367.160031	2510.799605
367.547715	2510.638288
367.935336	2510.056035
368.322893	2506.746518
368.710388	2503.437000
369.097820	2506.307937
369.485189	2506.229799
369.872495	2511.069307
370.259738	2512.034688
370.646918	2513.413443
371.034035	2511.437311
371.421090	2511.344050
371.808081	2513.471417
372.195010	2513.915038
372.581875	2512.173320
372.968678	2514.860255
373.355418	2513.287415
373.742096	2515.014010
374.128710	2512.397651
374.515262	2513.632734
374.901751	2511.732219
375.288177	2514.396468
375.674540	2514.502333
376.060841	2514.719102
376.447079	2516.843949
376.833254	2515.550893
377.219367	2513.536952
377.605417	2515.694566
377.991404	2515.054339
378.377329	2515.248423
378.763191	2519.790503
379.148991	2516.291942
379.534727	2517.254803
379.920402	2513.357991
380.306013	2518.205060
380.691563	2518.537776
381.077049	2516.486027
381.462474	2517.388393
381.847835	2517.302694
382.233134	2515.538290
382.618371	2516.808661
383.003545	2516.848990
383.388657	2520.970133
383.773706	2516.763290
384.158693	2521.834691
384.543618	2518.704134
384.928480	2519.530884
385.313280	2520.027437
385.698017	2520.357633
386.082692	2521.333096
386.467305	2520.387880
386.851856	2519.404855
387.236344	2521.688497
387.620770	2519.546007
388.005133	2517.985770
388.389435	2517.446367
388.773674	2516.813702
389.157851	2523.558766
389.541965	2521.532222
389.926018	2521.736388
390.310008	2519.427540
390.693936	2521.741430
391.077802	2521.817047
391.461606	2523.848632
391.845348	2522.626152
392.229027	2523.042047
392.612645	2522.316121
392.996200	2521.885102
393.379694	2524.256965
393.763125	2525.101359
394.146494	2524.821575
394.529801	2525.872655
394.913047	2523.568848
395.296230	2525.799558
395.679351	2526.160001
396.062410	2526.853160
396.445408	2526.613705
396.828343	2525.151770
397.211217	2527.387522
397.594028	2528.438602
397.976778	2527.652182
398.359466	2529.038500
398.742092	2528.887265
399.124656	2523.946934
399.507158	2524.665299
399.889598	2528.501617
400.271977	2527.581606
400.654294	2526.974147
401.036549	2527.800897
401.418742	2530.770136
401.800874	2528.022707
402.182944	2528.095804
402.564952	2527.979857
402.946898	2527.964734
403.328783	2531.682585
403.710606	2528.229395
404.092367	2529.882893
404.474067	2531.528830
404.855705	2528.781401
405.237282	2528.259642
405.618797	2530.124868
406.000250	2531.062523
406.381642	2528.451205
406.762972	2528.090763
407.144240	2525.063550
407.525447	2528.184024
407.906593	2526.502799
408.287677	2531.402801
408.668700	2529.358613
409.049661	2531.954807
409.430560	2530.356762
409.811399	2530.994468
410.192176	2530.356762
410.572891	2533.217616
410.953545	2533.136958
411.334138	2532.164015
411.714669	2529.698891
412.095139	2534.094777
412.475547	2532.728624
412.855894	2533.328522
413.236180	2532.431196
413.616405	2531.324663
413.996568	2530.313912
414.376670	2532.027904
414.756711	2531.445651
415.136691	2533.454551
415.516609	2534.893800
415.896466	2535.891948
416.276262	2532.826927
416.655997	2535.173584
417.035670	2535.160981
417.415283	2537.336239
417.794834	2534.180477
418.174324	2533.666279
418.553753	2534.203162
418.933121	2535.773481
419.312428	2535.579397
419.691674	2534.563604
420.070859	2536.144006
420.449983	2535.886907
420.829045	2536.264994
421.208047	2533.835158
421.586988	2534.616537
421.965867	2536.282638
422.344686	2534.485467
422.723444	2537.232895
423.102141	2537.671476
423.480777	2536.960673
423.859352	2536.943029
424.237866	2537.726928
424.616319	2537.331198
424.994712	2536.252391
425.373044	2537.353883
425.751314	2534.825744
426.129524	2533.663758
426.507673	2536.771630
426.885762	2531.438089
427.263789	2538.543595
427.641756	2537.532844
428.019662	2538.369676
428.397508	2539.645088
428.775292	2539.057793
429.153016	2538.309182
429.530679	2540.585263
429.908282	2539.113246
430.285824	2538.752803
430.663305	2539.622402
431.040726	2538.271373
431.418086	2539.912269
431.795385	2539.556867
432.172624	2539.428318
432.549802	2539.440921
432.926920	2540.083668
433.303977	2538.311702
433.680974	2539.718184
434.057910	2539.088040
434.434786	2539.387989
434.811601	2539.745911
435.188355	2537.409336
435.565050	2540.358411
435.941683	2542.304296
436.318257	2540.282793
436.694770	2541.616179
437.071222	2539.695499
437.447614	2542.843700
437.823946	2539.755993
438.200218	2541.396888
438.576429	2542.606765
438.952580	2538.286497
439.328670	2543.257074
439.704700	2540.817156
440.080670	2544.663556
440.456580	2542.463093
440.832429	2542.256405
441.208218	2540.431507
441.583947	2542.095088
441.959616	2542.758000
442.335224	2542.342105
442.710773	2540.688606
443.086261	2542.972249
443.461689	2539.526620
443.837057	2543.436035
444.212365	2541.747249
444.587612	2539.380427
444.962800	2537.013605
445.337927	2541.051569
445.712995	2537.031249
446.088002	2542.662218
446.462949	2541.535520
446.837837	2542.954605
447.212664	2541.041487
447.587431	2540.176929
447.962139	2542.909235
448.336786	2543.892260
448.711374	2542.412681
449.085901	2544.247661
449.460369	2543.093237
449.834776	2545.056766
450.209124	2542.034594
450.583412	2544.179605
450.957640	2542.672300
451.331808	2545.250851
451.705917	2544.272867
452.079965	2543.488967
452.453954	2544.688762
452.827883	2544.935778
453.201752	2546.533824
453.575562	2544.537527
453.949311	2545.611293
454.323001	2543.380583
454.696632	2542.919317
455.070202	2545.717157
455.443713	2547.277394
455.817164	2544.212373
456.190556	2547.153886
456.563888	2543.693134
456.937160	2542.957126
457.310373	2549.107333
457.683526	2543.380582
458.056619	2545.538196
458.429653	2546.075079
458.802628	2544.857641
459.175542	2546.770758
459.548398	2549.523228
459.921194	2546.823691
460.293930	2547.511808
460.666607	2547.453835
461.039224	2545.507949
461.411782	2546.488454
461.784280	2545.777651
462.156719	2546.609442
462.529099	2546.344781
462.901419	2544.698844
463.273680	2543.993083
463.645882	2541.764893
464.018024	2546.879143
464.390106	2543.120963
464.762130	2547.068187
465.134094	2545.878474
465.505999	2545.543237
465.877845	2546.559030
466.249631	2546.246478
466.621358	2545.891077
466.993026	2548.041129
467.364634	2551.809392
467.736184	2549.049360
468.107674	2548.671273
468.479105	2549.911397
468.850477	2547.620193
469.221790	2548.197405
469.593043	2546.896787
469.964238	2548.956099
470.335373	2546.183464
470.706449	2547.761345
471.077467	2547.486602
471.448425	2547.320244
471.819324	2545.860830
472.190164	2550.004659
472.560945	2550.531459
472.931667	2547.708413
473.302330	2545.482744
473.672934	2548.547765
474.043479	2547.582384
474.413965	2548.681356
474.784393	2545.863351
475.154761	2549.629093
475.525070	2548.230172
475.895321	2548.068856
476.265513	2550.052550
476.635645	2550.029864
477.005719	2548.502395
477.375734	2546.080120
477.745691	2549.034237
478.115588	2548.000800
478.485427	2549.021634
478.855207	2551.128836
479.224928	2547.993238
479.594591	2550.297046
479.964194	2551.252344
480.333739	2549.656819
480.703226	2546.644730
481.072653	2549.646737
481.442022	2550.929710
481.811333	2547.973074
482.180584	2544.048535
482.549777	2548.507436
482.918912	2543.980480
483.287988	2550.728064
483.657005	2549.485420
484.025964	2550.357539
484.394864	2551.469114
484.763706	2552.169834
485.132489	2550.123126
485.501213	2550.470965
485.869879	2548.119267
486.238487	2551.517005
486.607036	2550.095399
486.975527	2549.999617
487.343959	2549.979453
487.712333	2549.598846
488.080648	2552.051367
488.448905	2549.019113
488.817104	2552.253013
489.185244	2551.890050
489.553326	2551.083466
489.921350	2550.977601
490.289315	2548.109185
490.657222	2550.665050
491.025070	2550.208825
491.392861	2550.677653
491.760593	2553.324258
492.128267	2548.958619
492.495883	2552.734443
492.863440	2550.155893
493.230939	2550.080276
493.598380	2549.175389
493.965763	2552.721841
494.333088	2550.085317
494.700354	2549.072045
495.067563	2551.075904
495.434713	2550.778476
495.801805	2550.896943
496.168839	2551.146480
496.535815	2553.195709
496.902733	2548.522559
497.269593	2551.196892
497.636395	2549.127498
498.003139	2550.501212
498.369825	2551.101110
498.736453	2552.931048
499.103023	2550.518856
499.469535	2554.481203
499.835989	2550.675132
500.202385	2552.255534
500.568723	2546.720347
500.935003	2551.683363
501.301226	2546.768238
501.667390	2550.571788
502.033497	2552.860472
502.399546	2553.767880
502.765537	2551.824515
503.131470	2549.606408
503.497345	2552.081614
503.863163	2552.714279
504.228923	2552.164793
504.594625	2550.483568
504.960269	2552.240410
505.325856	2553.294012
505.691385	2550.758311
506.056856	2551.431305
506.422270	2550.430636
506.787625	2550.423074
507.152924	2552.873075
507.518164	2550.891902
507.883347	2552.182437
508.248472	2553.094886
508.613540	2548.724206
508.978550	2555.476831
509.343503	2552.646223
509.708398	2553.087324
510.073236	2551.244783
510.438016	2553.588919
510.802738	2552.323589
511.167403	2554.929866
511.532010	2551.143959
511.896561	2553.357026
512.261053	2550.977601
512.625488	2553.717468
512.989866	2552.991542
513.354186	2555.078580
513.718449	2551.819474
514.082655	2550.876778
514.446803	2551.585060
514.810894	2554.551779
515.174927	2554.660164
515.538904	2553.054557
515.902822	2555.255020
516.266684	2551.413661
516.630488	2551.529608
516.994235	2551.900132
517.357925	2552.613456
517.721558	2552.540359
518.085133	2553.084804
518.448651	2551.610266
518.812112	2549.072045
519.175516	2552.396686
519.538863	2548.353681
519.902152	2554.710576
520.265385	2553.480534
520.628560	2554.385421
520.991678	2552.752088
521.354739	2555.227294
521.717743	2552.847869
522.080690	2552.348795
522.443580	2552.558003
522.806413	2552.825184
523.169189	2555.146636
523.531908	2554.198899
523.894569	2553.019269
524.257174	2553.636810
524.619722	2553.089845
524.982213	2556.326266
525.344647	2553.893909
525.707025	2550.614638
526.069345	2552.467262
526.431608	2554.024979
526.793815	2551.388455
527.155964	2555.015566
527.518057	2554.846687
527.880093	2553.024310
528.242072	2555.345761
528.603995	2551.970709
528.965860	2550.216387
529.327669	2553.498178
529.689421	2552.633620
530.051117	2555.749053
530.412755	2555.176882
530.774337	2552.247972
531.135862	2555.300391
531.497331	2553.195709
531.858743	2553.225956
532.220098	2556.875751
532.581396	2557.110165
532.942638	2555.219732
533.303824	2553.233518
533.664953	2553.026830
534.026025	2553.331820
534.387040	2553.803168
534.747999	2550.468445
535.108902	2555.176883
535.469748	2556.258210
535.830537	2555.988508
536.191270	2556.391801
536.551947	2552.585729
536.912567	2550.697817
537.273131	2553.730071
537.633638	2550.095399
537.994089	2556.124619
538.354483	2552.023641
538.714821	2553.765359
539.075103	2555.703683
539.435328	2554.120761
539.795497	2552.255534
540.155609	2555.852397
540.515665	2554.450956
540.875665	2554.052705
541.235609	2555.378529
541.595496	2555.139074
541.955328	2552.338713
542.315102	2552.956254
542.674821	2554.501368
543.034483	2554.871893
543.394090	2555.118909
543.753640	2553.359547
544.113134	2553.873744
544.472571	2555.222253
544.831953	2552.368960
545.191278	2554.771070
545.550548	2554.060267
545.909761	2555.701162
546.268918	2554.471121
546.628019	2557.785680
546.987064	2555.761656
547.346053	2553.258723
547.704986	2555.625545
548.063863	2555.242417
548.422684	2553.745195
548.781449	2554.430792
549.140158	2555.083621
549.498811	2553.735113
549.857408	2556.263251
550.215949	2553.175544
550.574434	2554.395504
550.932864	2554.980277
551.291237	2553.571275
551.649555	2558.287274
552.007817	2556.601008
552.366022	2556.164949
552.724173	2553.407437
553.082267	2555.441543
553.440305	2555.000442
553.798288	2555.431461
554.156215	2551.340564
554.514086	2553.747715
554.871902	2551.771583
555.229661	2552.530277
555.587365	2550.483568
555.945014	2553.717468
556.302606	2554.934907
556.660143	2556.817778
557.017625	2554.687891
557.375050	2556.394321
557.732421	2552.560524
558.089735	2557.389949
558.446994	2552.437015
558.804197	2555.726368
559.161345	2559.124106
559.518437	2554.629917
559.875474	2554.682849
560.232455	2551.753939
560.589381	2555.507078
560.946251	2555.628066
561.303065	2554.776111
561.659825	2555.262582
562.016528	2556.094372
562.373177	2553.538507
562.729770	2555.179403
563.086307	2555.365926
563.442789	2555.433981
563.799216	2552.472303
564.155587	2557.533622
564.511904	2553.629248
564.868164	2554.970195
565.224370	2556.548076
565.580520	2555.217212
565.936615	2556.127140
566.292654	2554.105637
566.648638	2556.480021
567.004567	2556.459856
567.360441	2556.787531
567.716260	2554.327448
568.072023	2553.999773
568.427732	2554.660164
568.783385	2555.323076
569.138982	2557.521019
569.494525	2555.363405
569.850013	2554.077911
570.205445	2554.566903
570.560823	2554.561862
570.916145	2557.153015
571.271412	2556.832902
571.626625	2557.079918
571.981782	2555.542366
572.336884	2550.481048
572.691931	2550.246634
573.046923	2552.187478
573.401860	2551.343085
573.756743	2558.130999
574.111570	2555.111347
574.466342	2556.175031
574.821059	2556.132181
575.175722	2556.868190
575.530330	2555.905329
575.884882	2557.458005
576.239380	2552.336192
576.593823	2556.361554
576.948211	2552.797458
577.302544	2556.018755
577.656823	2556.928683
578.011047	2557.997408
578.365216	2554.619835
578.719330	2555.451625
579.073389	2555.716286
579.427394	2553.896429
579.781344	2556.049002
580.135239	2555.678477
580.489080	2555.786862
580.842866	2556.583364
581.196597	2561.238870
581.550273	2558.612429
581.903895	2556.243087
582.257463	2554.390463
582.610975	2558.171328
582.964434	2555.716286
583.317837	2554.738302
583.671186	2554.140925
584.024481	2555.738971
584.377721	2557.440361
584.730906	2552.167314
585.084037	2556.059084
585.437113	2556.018755
585.790135	2557.077398
586.143103	2553.634289
586.496016	2556.737120
586.848874	2559.804662
587.201679	2557.420196
587.554428	2555.726368
587.907124	2556.452294
588.259765	2554.498847
588.612352	2554.740823
588.964884	2554.816440
589.317362	2559.401369
589.669786	2555.776780
590.022155	2555.025648
590.374470	2551.295194
590.726731	2555.242417
591.078937	2550.596994
591.431090	2557.561348
591.783188	2556.951369
592.135232	2558.854404
592.487222	2556.749723
592.839157	2558.176369
593.191038	2554.312325
593.542866	2557.906667
593.894639	2553.208312
594.246358	2555.539846
594.598022	2553.258723
594.949633	2555.693601
595.301190	2555.323076
595.652692	2557.135371
596.004141	2555.731409
596.355535	2556.497665
596.706876	2556.588406
597.058162	2555.237376
597.409395	2554.430792
597.760573	2559.345917
598.111698	2556.490103
598.462768	2555.502037
598.813785	2555.323076
599.164748	2558.592264
599.515657	2556.490103
599.866511	2556.071687
600.217312	2555.476831
600.568060	2554.700493
600.918753	2560.427244
601.269392	2555.771739
601.619978	2555.640669
601.970510	2554.496327
602.320988	2554.549259
602.671412	2557.599157
603.021783	2554.972716
603.372100	2556.782490
603.722363	2555.534804
604.072572	2553.687222
604.422728	2556.815257
604.772830	2556.081770
605.122878	2555.426420
605.472872	2555.829712
605.822813	2557.949517
606.172701	2556.754764
606.522534	2554.634958
606.872314	2556.545556
607.222041	2557.876420
607.571714	2555.005483
607.921333	2554.569423
608.270899	2552.331151
608.620411	2552.623538
608.969870	2558.514126
609.319276	2557.495813
609.668627	2565.314643
610.017926	2568.495611
610.367171	2572.215982
610.716362	2569.261866
611.065500	2566.128789
611.414585	2563.020918
611.763616	2565.791032
612.112594	2564.462688
612.461518	2562.254662
612.810389	2558.506565
613.159207	2558.630073
613.507971	2559.713921
613.856682	2558.917419
614.205340	2560.391956
614.553945	2559.361040
614.902496	2559.991184
615.250994	2558.670402
615.599439	2557.815927
615.947830	2560.200392
616.296169	2557.989846
616.644454	2558.307439
616.992686	2556.769887
617.340864	2554.718137
617.688990	2557.100083
618.037063	2558.516647
618.385082	2556.464897
618.733048	2558.867007
619.080961	2555.345761
619.428821	2555.817109
619.776628	2555.837274
620.124382	2555.728889
620.472083	2555.935576
620.819731	2557.815927
621.167326	2555.895247
621.514868	2557.198385
621.862357	2556.149825
622.209793	2559.212326
622.557176	2556.086811
622.904506	2555.620504
623.251783	2557.611760
623.599007	2557.551266
623.946179	2555.431461
624.293297	2557.702501
624.640363	2556.487582
624.987376	2555.108827
625.334336	2549.893753
625.681243	2553.745195
626.028097	2549.621531
626.374899	2556.598488
626.721647	2554.398024
627.068343	2555.554969
627.414987	2555.255020
627.761577	2557.140412
628.108115	2553.104968
628.454600	2556.805175
628.801032	2555.562531
629.147412	2559.981102
629.493739	2555.812068
629.840014	2557.402552
630.186236	2555.968344
630.532405	2554.791234
630.878521	2558.040258
631.224585	2555.771739
631.570597	2558.781307
631.916556	2556.858107
632.262462	2555.255020
632.608316	2555.890206
632.954117	2556.873231
633.299866	2557.609239
633.645562	2556.265772
633.991206	2554.937428
634.336797	2558.267110
634.682336	2554.186296
635.027823	2555.383570
635.373257	2556.061605
635.718639	2556.429609
636.063968	2557.808365
636.409245	2556.535473
636.754470	2556.555638
637.099642	2553.833415
637.444762	2557.190823
637.789829	2557.210988
638.134845	2553.714948
638.479808	2552.731923
638.824719	2555.028168
639.169577	2552.812581
639.514383	2557.536142
639.859137	2555.212171
640.203839	2555.428940
640.548489	2556.595967
640.893086	2553.818292
641.237632	2556.089331
641.582125	2557.871379
641.926566	2557.006821
642.270955	2554.093034
642.615292	2549.601366
642.959576	2554.198899
643.303809	2552.316028
643.647990	2555.713765
643.992118	2553.566234
644.336195	2555.108827
644.680219	2553.669577
645.024192	2554.771070
645.368112	2555.512119
645.711981	2555.423899
646.055797	2554.531615
646.399562	2557.533622
646.743274	2557.216029
647.086935	2553.828374
647.430544	2552.076573
647.774101	2555.345761
648.117606	2560.833057
648.461059	2556.008673
648.804460	2556.616132
649.147810	2555.658313
649.491108	2558.584702
649.834354	2556.606050
650.177548	2555.257541
650.520690	2554.589588
650.863781	2558.125957
651.206820	2554.768549
651.549807	2555.141594
651.892742	2556.081770
652.235626	2553.977088
652.578458	2555.996070
652.921238	2555.063457
653.263967	2554.861810
653.606644	2555.978426
653.949269	2552.618497
654.291843	2554.793755
654.634365	2556.734599
654.976836	2554.939948
655.319255	2556.908519
655.661622	2553.750236
656.003938	2555.628066
656.346203	2555.063457
656.688416	2554.904660
657.030577	2554.700493
657.372687	2555.779300
657.714746	2556.477500
658.056753	2553.785524
658.398708	2554.793755
658.740612	2556.238045
659.082465	2556.265772
659.424266	2552.530277
659.766016	2550.344937
660.107715	2553.039433
660.449362	2550.264278
660.790958	2557.223591
661.132503	2556.260731
661.473996	2559.378684
661.815438	2554.783673
662.156829	2558.214178
662.498168	2554.743343
662.839456	2553.956923
663.180693	2554.660164
663.521879	2552.545400
663.863013	2554.604712
664.204097	2551.862324
664.545129	2554.685370
664.886110	2556.570762
665.227040	2554.912222
665.567918	2555.590257
665.908746	2552.898281
666.249522	2556.422047
666.590248	2552.870555
666.930922	2554.730740
667.271545	2555.744012
667.612118	2555.491955
667.952639	2557.581513
668.293109	2555.151677
668.633528	2556.096893
668.973896	2554.705535
669.314213	2557.412634
669.654480	2555.963302
669.994695	2557.601677
670.334859	2554.977757
670.674973	2557.972202
671.015035	2556.953889
671.355047	2555.529763
671.695008	2555.804506
672.034918	2554.844166
672.374777	2554.241748
672.714585	2552.537838
673.054342	2555.050854
673.394049	2554.183775
673.733705	2553.871224
674.073310	2557.944476
674.412864	2555.852397
674.752368	2552.691594
675.091820	2553.798127
675.431223	2554.743343
675.770574	2556.003632
676.109875	2555.048333
676.449125	2554.818961
676.788324	2550.629762
677.127473	2553.069680
677.466571	2550.362581
677.805619	2554.791234
678.144616	2555.091183
678.483562	2558.105793
678.822458	2553.830894
679.161303	2557.417675
679.500098	2552.232849
679.838842	2554.496327
680.177535	2552.280740
680.516179	2554.569423
680.854771	2554.687891
681.193314	2553.977088
681.531805	2553.833415
681.870247	2556.051523
682.208638	2555.502037
682.546978	2554.269475
682.885268	2556.056564
683.223508	2555.416337
683.561697	2554.428271
683.899836	2555.708724
684.237925	2553.485575
684.575963	2555.418858
684.913951	2553.722510
685.251889	2555.065977
685.589776	2555.063457
685.927614	2554.100596
686.265401	2554.294681
686.603137	2556.159907
686.940824	2551.806871
687.278460	2554.382901
687.616046	2555.809547
687.953582	2554.148487
688.291068	2553.677139
688.628504	2553.407438
688.965889	2554.826522
689.303224	2556.270813
689.640510	2551.169165
689.977745	2555.726368
690.314930	2553.354505
690.652065	2553.384752
690.989150	2553.624207
691.326185	2555.002963
691.663170	2559.232491
692.000105	2556.507747
692.336990	2554.725699
692.673825	2556.442212
693.010610	2555.801986
693.347345	2550.581871
693.684030	2550.521377
694.020665	2550.952396
694.357251	2548.267981
694.693786	2552.646223
695.030272	2555.287788
695.366707	2555.635627
695.703093	2555.960782
696.039429	2556.190154
696.375716	2555.504557
696.711952	2553.790565
697.048139	2552.038764
697.384276	2555.872562
697.720363	2554.345092
698.056400	2553.921635
698.392388	2553.475493
698.728326	2556.732078
699.064214	2554.120761
699.400053	2553.903991
699.735842	2553.954403
700.071581	2553.866183
700.407270	2553.541028
700.742910	2554.705535
701.078501	2555.111348
701.414042	2556.928683
701.749533	2552.477345
702.084974	2553.518343
702.420366	2553.117571
702.755709	2555.842315
703.091002	2553.210833
703.426246	2553.112530
703.761440	2554.413148
704.096584	2554.980277
704.431679	2553.150339
704.766725	2553.339382
705.101721	2553.399876
705.436668	2554.965154
705.771565	2552.943651
706.106413	2554.420709
706.441212	2554.677808
706.775961	2555.396173
707.110661	2555.935576
707.445311	2552.384083
707.779913	2556.091852
708.114465	2554.634958
708.448967	2554.715617
708.783421	2555.315514
709.117825	2553.530946
709.452180	2554.569423
709.786485	2552.048847
710.120742	2551.149001
710.454949	2548.862837
710.789107	2550.380225
711.123216	2547.685728
711.457275	2555.345761
711.791286	2553.115051
712.125247	2553.309135
712.459159	2553.775442
712.793023	2553.762839
713.126837	2555.746533
713.460602	2552.217725
713.794318	2552.724361
714.127985	2553.679660
714.461602	2551.864844
714.795171	2552.421892
715.128691	2554.881975
715.462162	2552.326110
715.795584	2553.069680
716.128957	2554.125802
716.462281	2555.678477
716.795556	2551.736295
717.128782	2551.998435
717.461960	2551.290153
717.795088	2553.863662
718.128167	2555.476831
718.461198	2552.189999
718.794180	2554.624876
719.127113	2553.170503
719.459997	2553.205791
719.792833	2553.961964
720.125619	2554.335010
720.458357	2551.784186
720.791046	2552.144628
721.123686	2553.979608
721.456278	2552.951213
721.788821	2552.689073
722.121315	2553.898950
722.453761	2552.676470
722.786158	2552.021120
723.118506	2553.195709
723.450805	2552.734443
723.783056	2555.663354
724.115259	2550.730585
724.447412	2553.253682
724.779518	2553.140256
725.111574	2552.779814
725.443582	2551.529608
725.775542	2551.834598
726.107453	2550.894422
726.439315	2550.942313
726.771129	2555.529763
727.102895	2549.500543
727.434612	2552.739485
727.766281	2548.293187
728.097901	2555.494475
728.429473	2554.370298
728.760996	2555.439022
729.092471	2553.994732
729.423897	2555.174362
729.755276	2552.298384
730.086606	2552.147149
730.417887	2552.797458
730.749120	2554.405586
731.080305	2550.932231
731.411442	2554.907181
731.742530	2553.041954
732.073570	2554.178734
732.404562	2553.488096
732.735506	2552.774773
733.066401	2551.847200
733.397249	2554.231666
733.728048	2552.994063
734.058798	2553.485575
734.389501	2552.011038
734.720156	2552.152190
735.050762	2552.510112
735.381320	2550.904505
735.711831	2555.010524
736.042293	2554.037582
736.372707	2554.798796
736.703073	2551.708569
737.033391	2551.116233
737.363661	2552.989022
737.693883	2554.536656
738.024056	2553.747715
738.354182	2552.699155
738.684260	2552.701676
739.014290	2553.236038
739.344272	2552.023641
739.674207	2551.552293
740.004093	2555.507078
740.333931	2551.648075
740.663722	2551.179248
740.993464	2557.324414
741.323159	2553.349464
741.652806	2554.576985
741.982405	2554.720658
742.311956	2551.496840
742.641460	2555.156718
742.970915	2551.811912
743.300323	2550.541542
743.629683	2549.409802
743.958996	2551.267468
744.288260	2546.072559
744.617477	2552.134546
744.946647	2551.005328
745.275768	2554.977757
745.604842	2551.209494
745.933869	2555.577654
746.262847	2549.908877
746.591778	2552.563044
746.920662	2550.097920
747.249498	2552.711758
747.578286	2553.457849
747.907027	2549.568599
748.235720	2552.908363
748.564365	2549.172868
748.892963	2549.553475
749.221514	2556.119578
749.550017	2551.627910
749.878473	2553.389793
750.206881	2553.626728
750.535242	2553.039433
750.863555	2554.403065
751.191821	2554.297201
751.520039	2554.733261
751.848210	2551.723692
752.176334	2552.910884
752.504411	2553.624207
752.832440	2554.304763
753.160421	2551.338044
753.488356	2555.544887
753.816243	2552.212684
754.144082	2548.570450
754.471875	2552.084135
754.799620	2551.043136
755.127318	2553.616645
755.454969	2549.966850
755.782572	2552.356357
756.110129	2552.805020
756.437638	2552.235369
756.765100	2553.566234
757.092515	2553.409958
757.419882	2552.419371
757.747203	2552.442057
758.074477	2550.541542
758.401703	2552.552962
758.728882	2550.823846
759.056014	2552.736964
759.383099	2553.208312
759.710138	2551.131357
760.037129	2548.303269
760.364073	2551.832077
760.690970	2547.758825
761.017820	2551.438867
761.344623	2554.266954
761.671379	2550.110523
761.998088	2552.164793
762.324751	2552.401727
762.651366	2554.277037
762.977935	2550.438198
763.304456	2550.687735
763.630931	2553.566234
763.957359	2549.684545
764.283740	2553.833415
764.610074	2551.804351
764.936362	2552.915925
765.262602	2550.546583
765.588796	2552.116902
765.914943	2550.188661
766.241044	2554.440874
766.567097	2553.420040
766.893104	2548.827549
767.219064	2553.306614
767.544978	2550.743188
767.870845	2553.848538
768.196665	2550.314690
768.522438	2548.126829
768.848165	2552.071532
769.173846	2551.040616
769.499479	2554.786193
769.825066	2554.007335
770.150607	2551.905174
770.476101	2552.981460
770.801548	2552.754608
771.126949	2547.993238
771.452303	2552.079093
771.777611	2550.448280
772.102872	2551.282591
772.428087	2550.723023
772.753256	2551.645554
773.078378	2549.800492
773.403453	2551.995914
773.728482	2551.753939
774.053465	2554.826522
774.378401	2555.401214
774.703291	2550.949875
775.028135	2553.319217
775.352932	2553.694783
775.677683	2552.215205
776.002388	2548.819987
776.327046	2548.681356
776.651658	2549.629093
776.976224	2549.301418
777.300743	2548.981304
777.625216	2549.467776
777.949643	2552.752087
778.274024	2551.544731
778.598359	2552.900802
778.922647	2549.888712
779.246889	2551.779145
779.571086	2549.467776
779.895236	2552.530277
780.219339	2551.464073
780.543397	2552.898281
780.867409	2549.530790
781.191374	2552.426933
781.515294	2553.326779
781.839167	2551.653116
782.162995	2553.556152
782.486776	2552.147149
782.810511	2555.471790
783.134201	2550.191181
783.457844	2548.179761
783.781441	2551.625390
784.104993	2551.340564
784.428498	2551.915256
784.751958	2551.574978
785.075372	2550.523898
785.398739	2550.665050
785.722061	2551.398538
786.045337	2551.993394
786.368568	2550.402910
786.691752	2551.418702
787.014891	2552.694114
787.337983	2547.715975
787.661030	2548.704041
787.984031	2551.257385
788.306987	2552.517674
788.629897	2550.788558
788.952760	2552.411810
789.275579	2549.588763
789.598351	2551.312838
789.921078	2551.965668
790.243759	2552.026161
790.566395	2549.770245
790.888984	2551.201933
791.211529	2551.146480
791.534027	2554.322407
791.856480	2550.470965
792.178888	2548.888043
792.501249	2545.878474
792.823566	2550.244113
793.145836	2544.771941
793.468062	2550.324772
793.790241	2548.867878
794.112375	2551.544731
794.434464	2550.087838
794.756507	2550.639844
795.078505	2549.755122
795.400457	2551.582540
795.722364	2550.624721
796.044226	2549.392158
796.366042	2547.935265
796.687812	2551.519525
797.009538	2551.290153
797.331218	2553.588919
797.652852	2548.394010
797.974442	2552.439536
798.295986	2551.753939
798.617484	2552.356357
798.938938	2550.218908
799.260346	2548.126829
799.581709	2552.043805
799.903026	2553.631769
800.224299	2553.437684
800.545526	2551.816953
800.866708	2551.695966
801.187845	2551.643034
801.508936	2551.166645
801.829983	2548.986346
802.150984	2549.699669
802.471940	2552.071532
802.792851	2550.541542
803.113717	2550.995245
803.434538	2547.912580
803.755314	2550.977601
804.076045	2550.367622
804.396731	2551.910215
804.717372	2552.195040
805.037967	2552.588250
805.358518	2552.668908
805.679024	2551.307797
805.999485	2550.508774
806.319901	2551.501881
806.640272	2552.699155
806.960598	2550.546583
807.280879	2552.237890
807.601115	2552.563044
807.921306	2551.166645
808.241453	2551.191850
808.561554	2548.585574
808.881611	2546.022147
809.201623	2548.986346
809.521590	2551.053219
809.841513	2549.061963
810.161390	2551.146480
810.481223	2552.452139
810.801011	2550.896943
811.120755	2549.918959
811.440453	2554.544218
811.760107	2551.814433
812.079716	2553.034392
812.399281	2550.786037
812.718801	2550.869217
813.038276	2550.110523
813.357707	2550.599515
813.677093	2550.259237
813.996434	2555.287788
814.315731	2550.813764
814.634983	2550.738147
814.954191	2552.754608
815.273354	2552.263096
815.592473	2548.232693
815.911547	2552.363919
816.230577	2550.423074
816.549562	2550.014741
816.868502	2550.511295
817.187399	2550.342416
817.506250	2552.096737
817.825058	2549.175389
818.143821	2550.599515
818.462539	2550.985163
818.781213	2549.689587
819.099843	2549.402241
819.418429	2549.641696
819.736970	2550.574309
820.055466	2548.525080
820.373919	2549.921480
820.692327	2549.533311
821.010691	2551.333003
821.329011	2551.723692
821.647286	2551.993394
821.965517	2553.004145
822.283704	2549.056922
822.601847	2552.633620
822.919945	2551.592622
823.237999	2551.025492
823.556010	2553.578837
823.873976	2551.396017
824.191897	2548.278063
824.509775	2546.674977
824.827609	2550.748229
825.145398	2547.607590
825.463144	2550.770914
825.780845	2547.466438
826.098502	2548.809905
826.416116	2550.251675
826.733685	2548.986346
827.051210	2551.171686
827.368692	2548.709082
827.686129	2549.601366
828.003522	2550.980122
828.320872	2549.102292
828.638177	2552.628579
828.955439	2547.453835
829.272656	2550.657488
829.589830	2550.203784
829.906960	2550.128167
830.224046	2549.792930
830.541088	2552.066491
830.858086	2550.269319
831.175041	2548.625903
831.491952	2549.208156
831.808819	2551.022972
832.125642	2552.270657
832.442421	2549.838301
832.759157	2548.399051
833.075849	2553.034392
833.392497	2548.862837
833.709101	2547.675646
834.025662	2549.429967
834.342179	2550.244113
834.658653	2553.798127
834.975083	2551.040616
835.291469	2555.204609
835.607811	2549.520708
835.924110	2551.874927
836.240366	2550.544062
836.556578	2551.766542
836.872746	2549.500543
837.188871	2548.855276
837.504952	2552.525236
837.820990	2551.212015
838.136984	2551.285112
838.452935	2550.002138
838.768842	2547.660522
839.084706	2549.624052
839.400526	2547.274874
839.716303	2549.137580
840.032037	2547.015254
840.347727	2545.422250
840.663373	2547.937786
840.978977	2544.996272
841.294537	2548.525080
841.610054	2551.098589
841.925527	2548.653629
842.240957	2550.768393
842.556344	2549.808054
842.871687	2551.713610
843.186987	2551.164124
843.502244	2548.305790
843.817458	2549.956768
844.132629	2549.624052
844.447756	2548.477189
844.762840	2546.753114
845.077881	2548.807385
845.392879	2550.352498
845.707833	2547.403423
846.022745	2548.215049
846.337613	2548.600697
846.652438	2548.908208
846.967221	2550.891902
847.281960	2551.365770
847.596656	2549.649257
847.911309	2550.039947
848.225919	2550.176058
848.540485	2549.487940
848.855009	2550.649926
849.169490	2551.393497
849.483928	2548.923331
849.798323	2550.551624
850.112675	2552.676470
850.426984	2548.126829
850.741251	2549.717313
851.055474	2549.369473
851.369654	2550.899463
851.683792	2549.707231
851.997887	2549.689587
852.311938	2548.217570
852.625947	2549.624052
852.939914	2550.302087
853.253837	2547.181613
853.567718	2548.265461
853.881555	2547.773948
854.195350	2550.765873
854.509103	2545.928886
854.822812	2548.056253
855.136479	2551.030533
855.450103	2550.279402
855.763685	2544.981149
856.077224	2544.802188
856.390720	2545.243289
856.704173	2544.625747
857.017584	2548.598177
857.330953	2549.371994
857.644278	2550.216387
857.957561	2551.857283
858.270802	2551.559855
858.584000	2547.758825
858.897155	2548.572971
859.210268	2549.543393
859.523339	2549.122457
859.836367	2549.485420
860.149352	2551.340564
860.462295	2548.315872
860.775195	2548.144473
861.088054	2549.251006
861.400869	2547.005172
861.713642	2552.714279
862.026373	2547.685728
862.339062	2548.646068
862.651708	2548.913249
862.964312	2549.263609
863.276873	2547.809236
863.589392	2549.460214
863.901869	2549.034237
864.214303	2549.054401
864.526696	2550.017262
864.839045	2550.528939
865.151353	2549.049360
865.463619	2548.759494
865.775842	2551.784186
866.088023	2548.424257
866.400162	2549.500543
866.712258	2549.331665
867.024313	2548.406613
867.336325	2546.498536
867.648296	2551.000287
867.960224	2548.280584
868.272110	2547.804195
868.583954	2549.374514
868.895755	2547.917621
869.207515	2548.572971
869.519233	2549.825698
869.830909	2547.335368
870.142542	2548.797302
870.454134	2547.534493
870.765684	2551.022972
871.077191	2547.864689
871.388657	2546.727909
871.700081	2545.008875
872.011463	2549.124977
872.322803	2545.326468
872.634101	2551.262427
872.945357	2551.333003
873.256571	2549.961809
873.567744	2548.265461
873.878874	2548.653629
874.189963	2548.174720
874.501010	2551.857283
874.812015	2549.689587
875.122979	2549.155224
875.433900	2548.905687
875.744780	2548.877961
876.055618	2548.341078
876.366415	2549.833259
876.677169	2550.937272
876.987882	2551.476676
877.298554	2552.363919
877.609183	2550.115564
877.919771	2548.378887
878.230317	2548.504915
878.540822	2551.070863
878.851285	2549.054401
879.161707	2549.392158
879.472087	2550.201264
879.782425	2548.862837
880.092722	2549.596325
880.402977	2550.418033
880.713191	2550.619679
881.023363	2546.833773
881.333494	2548.961140
881.643583	2547.645399
881.953631	2546.122970
882.263637	2547.292518
882.573602	2547.778989
882.883526	2550.186140
883.193408	2550.042467
883.503248	2550.604556
883.813048	2550.344937
884.122806	2548.262940
884.432522	2548.333516
884.742197	2548.608259
885.051831	2549.641696
885.361424	2548.648588
885.670975	2545.596170
885.980485	2548.273022
886.289954	2548.930893
886.599382	2547.007693
886.908768	2548.169679
887.218113	2544.078782
887.527417	2543.844369
887.836680	2543.746066
888.145901	2546.780841
888.455082	2546.795964
888.764221	2551.373332
889.073319	2546.609442
889.382376	2547.524411
889.691392	2549.034237
890.000366	2547.625234
890.309300	2546.501057
890.618193	2548.940975
890.927044	2548.429298
891.235855	2549.384597
891.544625	2549.026675
891.853353	2545.855789
892.162041	2550.302087
892.470687	2548.643547
892.779293	2548.351160
893.087858	2548.620862
893.396381	2548.928372
893.704864	2548.966181
894.013306	2547.408464
894.321707	2547.534493
894.630068	2547.116078
894.938387	2548.096582
895.246665	2546.843855
895.554903	2549.775286
895.863100	2547.249668
896.171256	2547.378217
896.479371	2547.794113
896.787446	2548.411654
897.095480	2546.695141
897.403473	2549.319062
897.711425	2546.632127
898.019336	2548.091541
898.327207	2548.046170
898.635038	2547.549617
898.942827	2549.135060
899.250576	2549.235883
899.558284	2547.763866
899.865952	2549.636654
900.173579	2549.319062
900.481165	2546.664894
900.788711	2549.545914
901.096216	2547.484082
901.403681	2550.838970
901.711105	2549.248486
902.018489	2549.467776
902.325832	2547.080789
902.633135	2544.648433
902.940397	2543.070552
903.247619	2543.438556
903.554800	2548.860317
903.861941	2548.189843
904.169041	2548.225131
904.476101	2549.553475
904.783121	2546.095244
905.090100	2547.786551
905.397039	2548.605738
905.703938	2548.479710
906.010796	2547.965512
906.317614	2548.114226
906.624391	2548.391489
906.931129	2546.652291
907.237826	2549.119936
907.544483	2548.106664
907.851099	2548.903167
908.157675	2547.960471
908.464211	2547.703372
908.770707	2546.173382
909.077163	2550.256716
909.383578	2547.252189
909.689954	2546.826211
909.996289	2546.934596
910.302584	2548.517518
910.608839	2548.295707
910.915054	2546.707744
911.221229	2551.012889
911.527363	2547.625234
911.833458	2547.128680
912.139513	2548.368804
912.445527	2549.911397
912.751502	2550.281922
913.057436	2548.507436
913.363331	2547.776469
913.669186	2547.594987
913.975000	2548.477189
914.280775	2547.680687
914.586510	2548.194884
914.892205	2545.853268
915.197859	2547.542055
915.503475	2547.211859
915.809050	2545.528114
916.114585	2550.851573
916.420081	2544.575336
916.725536	2546.538865
917.030952	2548.111705
917.336328	2547.398382
917.641665	2546.614483
917.946961	2544.855120
918.252218	2544.855120
918.557435	2542.468134
918.862612	2548.739329
919.167750	2546.203629
919.472848	2546.158258
919.777906	2549.092210
920.082925	2546.138094
920.387904	2548.756973
920.692843	2551.358208
920.997743	2547.920142
921.302603	2548.893084
921.607423	2546.627086
921.912204	2546.248999
922.216946	2548.010882
922.521647	2547.342929
922.826310	2548.194884
923.130932	2549.901315
923.435516	2548.089020
923.740059	2545.840666
924.044564	2549.674463
924.349028	2547.869730
924.653454	2544.436704
924.957840	2547.509288
925.262186	2548.814946
925.566493	2545.553320
925.870761	2548.431819
926.174989	2548.121788
926.479178	2548.661191
926.783328	2549.366953
927.087438	2546.652291
927.391509	2548.406613
927.695541	2546.753114
927.999533	2546.100285
928.303486	2548.078938
928.607400	2545.588608
928.911275	2546.730429
929.215110	2547.219421
929.518906	2548.197405
929.822663	2548.656150
930.126381	2547.259750
930.430060	2549.251006
930.733699	2547.894936
931.037299	2545.669266
931.340861	2548.784699
931.644383	2547.690769
931.947866	2547.327806
932.251309	2545.094575
932.554714	2546.801005
932.858080	2545.598690
933.161407	2544.131714
933.464694	2545.482744
933.767943	2542.316899
934.071153	2546.319575
934.374323	2544.227496
934.677455	2548.774617
934.980548	2548.893084
935.283602	2548.464586
935.586617	2548.973743
935.889593	2547.842004
936.192530	2548.144473
936.495428	2547.511808
936.798287	2546.932075
937.101108	2546.226314
937.403890	2545.349153
937.706632	2548.023485
938.009336	2547.136242
938.312002	2545.593649
938.614628	2547.123639
938.917216	2547.829401
939.219765	2545.880995
939.522275	2545.712116
939.824747	2547.259750
940.127179	2546.858979
940.429573	2546.674977
940.731929	2548.646068
941.034246	2548.641027
941.336524	2545.737322
941.638763	2548.215049
941.940964	2549.001469
942.243126	2546.969884
942.545250	2548.956099
942.847335	2547.282436
943.149381	2548.686397
943.451389	2546.274205
943.753359	2548.860317
944.055290	2548.590615
944.357182	2548.663712
944.659036	2544.550130
944.960851	2546.894267
945.262628	2546.687579
945.564367	2547.453835
945.866067	2547.894936
946.167729	2547.506767
946.469352	2548.706562
946.770937	2543.836807
947.072484	2547.899977
947.373992	2548.439380
947.675462	2546.077600
947.976893	2543.756148
948.278286	2541.333874
948.579641	2543.854451
948.880958	2540.391178
949.182236	2548.056253
949.483476	2546.700182
949.784678	2549.782848
950.085841	2545.434853
950.386967	2548.696479
950.688054	2548.484751
950.989103	2547.673125
951.290114	2547.804195
951.591087	2546.284287
951.892021	2546.180943
952.192917	2544.421581
952.493776	2547.337888
952.794596	2547.171530
953.095378	2547.993238
953.396122	2548.267981
953.696828	2548.157076
953.997496	2545.505429
954.298126	2545.739842
954.598718	2547.804195
954.899272	2546.622044
955.199788	2548.630944
955.500266	2546.667415
955.800706	2544.978628
956.101108	2546.208670
956.401472	2546.579195
956.701798	2545.787733
957.002087	2545.938968
957.302337	2548.033567
957.602550	2545.349153
957.902724	2544.935778
958.202861	2546.037271
958.502960	2545.540717
958.803022	2546.574153
959.103045	2544.507280
959.403031	2547.685728
959.702979	2546.682538
960.002889	2546.410316
960.302762	2546.188505
960.602596	2548.819988
960.902393	2548.557847
961.202153	2544.991231
961.501875	2546.541386
961.801559	2544.696324
962.101205	2544.666077
962.400814	2547.133722
962.700385	2545.235727
962.999918	2545.936448
963.299414	2541.676673
963.598873	2543.758669
963.898293	2541.348998
964.197677	2549.099772
964.497022	2547.007693
964.796331	2545.016437
965.095601	2545.984338
965.394835	2546.256561
965.694030	2544.146838
965.993189	2546.304452
966.292309	2545.986859
966.591393	2546.884184
966.890439	2546.629606
967.189447	2545.273536
967.488419	2545.918803
967.787353	2545.729760
968.086249	2547.138763
968.385108	2549.800492
968.683930	2546.299411
968.982714	2547.070707
969.281462	2546.735470
969.580172	2547.229503
969.878844	2545.855789
970.177480	2546.962322
970.476078	2548.867878
970.774639	2547.988197
971.073162	2544.595501
971.371649	2546.798485
971.670098	2544.552651
971.968510	2546.291849
972.266885	2545.432332
972.565223	2548.361243
972.863524	2545.865871
973.161788	2546.044832
973.460014	2544.792106
973.758204	2546.475851
974.056356	2546.803526
974.354471	2544.000644
974.652550	2545.455017
974.950591	2546.266643
975.248595	2547.617672
975.546563	2548.280584
975.844493	2545.984338
976.142386	2545.674307
976.440243	2547.920142
976.738062	2544.552651
977.035845	2543.670449
977.333590	2547.239586
977.631299	2545.775131
977.928971	2542.810932
978.226606	2540.996117
978.524204	2542.296734
978.821765	2540.570139
979.119290	2546.828732
979.416777	2546.985008
979.714228	2546.899308
980.011642	2546.508618
980.309020	2549.175389
980.606360	2548.865358
980.903664	2547.637837
981.200931	2546.546427
981.498162	2546.490974
981.795356	2548.346119
982.092513	2545.200439
982.389633	2545.328988
982.686717	2543.965356
982.983764	2546.894267
983.280775	2544.154400
983.577749	2547.353012
983.874686	2547.587425
984.171587	2544.872764
984.468451	2545.422250
984.765279	2546.329658
985.062070	2546.024668
985.358824	2547.342929
985.655543	2543.811601
985.952224	2543.675490
986.248869	2545.477703
986.545478	2543.496529
986.842050	2545.916283
987.138586	2546.185985
987.435086	2547.894936
987.731549	2545.971736
988.027975	2544.930737
988.324366	2546.395192
988.620719	2546.619524
988.917037	2545.512991
989.213318	2541.512835
989.509563	2545.560882
989.805772	2545.152548
990.101944	2544.391334
990.398080	2547.090872
990.694180	2546.001982
990.990244	2544.804708
991.286271	2544.666077
991.582262	2545.059287
991.878217	2546.785882
992.174136	2546.122970
992.470019	2544.703885
992.765865	2542.551313
993.061676	2542.942002
993.357450	2540.537372
993.653188	2542.725233
993.948890	2546.269164
994.244556	2545.823022
994.540186	2545.162630
994.835780	2546.193546
995.131337	2543.395706
995.426859	2545.684390
995.722345	2543.451159
996.017795	2544.708927
996.313208	2543.627599
996.608586	2544.940820
996.903928	2545.644061
997.199234	2546.516180
997.494504	2544.416540
997.789738	2543.856972
998.084936	2546.095244
998.380099	2543.327650
998.675225	2543.383103
998.970316	2545.956612
999.265371	2545.308824
999.560390	2545.525593
999.855373	2545.109698
1000.150320	2544.010727
1000.445232	2543.488967
1000.740108	2547.095913
1001.034948	2544.968546
1001.329752	2543.826725
1001.624521	2544.293031
1001.919254	2544.938299
1002.213951	2546.170861
1002.508613	2545.351674
1002.803239	2547.032898
1003.097829	2546.455686
1003.392384	2544.419060
1003.686903	2544.219935
1003.981386	2546.165820
1004.275834	2545.376879
1004.570246	2546.057435
1004.864623	2545.132383
1005.158964	2545.208001
1005.453270	2546.642209
1005.747540	2543.559543
1006.041775	2547.446273
1006.335974	2543.589790
1006.630138	2544.000644
1006.924266	2544.224976
1007.218359	2543.781354
1007.512416	2543.786395
1007.806438	2544.179605
1008.100425	2541.225489
1008.394376	2537.404295
1008.688292	2544.260264
1008.982172	2544.824873
1009.276017	2544.776982
1009.569827	2543.476364
1009.863602	2544.819832
1010.157341	2543.604914
1010.451045	2548.094061
1010.744714	2546.881664
1011.038347	2544.721529
1011.331945	2545.938968
1011.625508	2546.717826
1011.919036	2544.129194
1012.212528	2545.540717
1012.505986	2545.696993
1012.799408	2543.320089
1013.092795	2542.316899
1013.386147	2544.880326
1013.679464	2545.792775
1013.972745	2543.965356
1014.265992	2543.035263
1014.559204	2547.007693
1014.852380	2545.802857
1015.145521	2545.903680
1015.438628	2544.678680
1015.731699	2544.308155
1016.024736	2544.096426
1016.317737	2544.154400
1016.610703	2545.099616
1016.903635	2545.066848
1017.196531	2544.320758
1017.489393	2544.393854
1017.782219	2542.079965
1018.075011	2543.904863
1018.367768	2543.294883
1018.660490	2544.960984
1018.953177	2544.960984
1019.245829	2544.960984
