Dividing Wavelength (nm)	Counts (n)	Blue Motor Position (mm): 23.700000	Red Motor Position (mm): 0.000000	
326.493990	2194.187417
326.888308	2194.187417
327.282561	2194.187417
327.676750	2151.972795
328.070874	2150.871303
328.464933	2150.578916
328.858929	2154.183341
329.252859	2161.014104
329.646726	2169.067348
330.040528	2180.977074
330.434265	2193.032993
330.827938	2214.904039
331.221547	2229.722511
331.615091	2248.238669
332.008571	2265.111411
332.401986	2283.930038
332.795338	2303.116670
333.188625	2320.380101
333.581847	2340.426249
333.975006	2356.618435
334.368100	2376.780530
334.761129	2394.757285
335.154095	2411.007444
335.546996	2436.515683
335.939833	2470.092288
336.332606	2483.917652
336.725315	2497.571617
337.117960	2513.383197
337.510540	2523.876358
337.903056	2532.297606
338.295508	2542.105171
338.687896	2553.853580
339.080220	2561.266596
339.472480	2564.719787
339.864676	2571.908472
340.256807	2577.103381
340.648875	2579.868454
341.040879	2581.958012
341.432818	2585.431367
341.824694	2587.813312
342.216506	2588.788776
342.608253	2590.185175
342.999937	2590.689291
343.391557	2590.429671
343.783113	2592.307501
344.174605	2587.712489
344.566033	2588.143508
344.957397	2589.368508
345.348697	2584.183682
345.739934	2584.465986
346.131106	2585.040678
346.522215	2583.155286
346.913260	2579.177816
347.304241	2578.582960
347.695159	2572.342011
348.086012	2574.754203
348.476802	2572.084913
348.867528	2567.462174
349.258191	2564.500497
349.648789	2562.985630
350.039324	2558.980433
350.429796	2564.394632
350.820203	2562.035372
351.210548	2560.245763
351.600828	2559.976061
351.991045	2558.468756
352.381198	2558.017573
352.771288	2558.191493
353.161314	2557.848694
353.551276	2556.117058
353.941175	2556.369115
354.331010	2555.786862
354.720782	2554.365257
355.110490	2555.572613
355.500135	2557.190823
355.889717	2556.429609
356.279235	2555.184444
356.668689	2556.795093
357.058080	2553.969526
357.447408	2554.629917
357.836672	2556.530432
358.225873	2554.539177
358.615010	2556.951369
359.004084	2557.614280
359.393095	2556.301060
359.782043	2558.420865
360.170927	2559.930691
360.559748	2559.935732
360.948505	2562.070660
361.337199	2558.975392
361.725830	2560.759960
362.114398	2561.899261
362.502903	2561.806000
362.891344	2560.129816
363.279722	2562.758778
363.668037	2563.966134
364.056289	2563.877914
364.444478	2564.190466
364.832603	2565.417987
365.220665	2566.297668
365.608665	2564.676937
365.996601	2566.335477
366.384474	2567.547874
366.772284	2564.727348
367.160031	2565.158367
367.547715	2569.087947
367.935336	2568.672051
368.322893	2568.238512
368.710388	2566.832030
369.097820	2568.215827
369.485189	2565.549057
369.872495	2569.433266
370.259738	2571.182546
370.646918	2569.098029
371.034035	2571.409398
371.421090	2569.818914
371.808081	2570.668348
372.195010	2572.059707
372.581875	2569.337484
372.968678	2571.860581
373.355418	2570.983420
373.742096	2572.914182
374.128710	2573.718246
374.515262	2572.838565
374.901751	2572.672207
375.288177	2573.302351
375.674540	2573.693041
376.060841	2576.052301
376.447079	2573.143555
376.833254	2576.352249
377.219367	2574.852506
377.605417	2576.364852
377.991404	2575.023905
378.377329	2574.038360
378.763191	2574.343349
379.148991	2576.483319
379.534727	2576.851323
379.920402	2576.687486
380.306013	2576.127918
380.691563	2578.842579
381.077049	2576.687486
381.462474	2574.766806
381.847835	2578.663618
382.233134	2576.435428
382.618371	2577.509194
383.003545	2578.983732
383.388657	2578.943402
383.773706	2577.247054
384.158693	2579.248392
384.543618	2581.975656
384.928480	2580.876685
385.313280	2578.547672
385.698017	2579.129925
386.082692	2578.802250
386.467305	2580.785944
386.851856	2583.881212
387.236344	2579.210583
387.620770	2579.011458
388.005133	2577.920048
388.389435	2580.465831
388.773674	2572.805797
389.157851	2584.922211
389.541965	2582.436922
389.926018	2582.532704
390.310008	2583.004052
390.693936	2580.773341
391.077802	2582.537745
391.461606	2585.454053
391.845348	2587.964547
392.229027	2585.975812
392.612645	2581.390882
392.996200	2586.583271
393.379694	2586.500092
393.763125	2584.806264
394.146494	2585.832139
394.529801	2587.732654
394.913047	2587.583940
395.296230	2586.653847
395.679351	2586.444639
396.062410	2585.960688
396.445408	2588.549321
396.828343	2587.699887
397.211217	2586.626121
397.594028	2587.054619
397.976778	2587.044537
398.359466	2589.723910
398.742092	2589.955803
399.124656	2590.356575
399.507158	2590.865731
399.889598	2590.008735
400.271977	2589.592840
400.654294	2590.124682
401.036549	2587.473035
401.418742	2590.245669
401.800874	2588.360278
402.182944	2593.146853
402.564952	2592.010073
402.946898	2593.111565
403.328783	2591.879003
403.710606	2593.320773
404.092367	2594.432347
404.474067	2591.999991
404.855705	2593.950917
405.237282	2592.993098
405.618797	2594.122317
406.000250	2593.116606
406.381642	2596.708428
406.762972	2591.200968
407.144240	2590.197778
407.525447	2591.672316
407.906593	2590.505289
408.287677	2594.003849
408.668700	2596.413521
409.049661	2593.209868
409.430560	2598.901330
409.811399	2594.533171
410.192176	2595.362440
410.572891	2596.005188
410.953545	2596.340424
411.334138	2597.376381
411.714669	2598.172884
412.095139	2597.787235
412.475547	2598.049375
412.855894	2598.109869
413.236180	2601.401743
413.616405	2598.687081
413.996568	2597.348655
414.376670	2600.602720
414.756711	2598.346803
415.136691	2598.379571
415.516609	2599.773450
415.896466	2599.813779
416.276262	2597.585589
416.655997	2599.662545
417.035670	2603.118256
417.415283	2603.365272
417.794834	2602.185642
418.174324	2601.442072
418.553753	2603.347628
418.933121	2600.501897
419.312428	2601.757144
419.691674	2600.643049
420.070859	2603.408122
420.449983	2604.441558
420.829045	2600.794284
421.208047	2605.401898
421.586988	2604.033225
421.965867	2605.124635
422.344686	2602.546085
422.723444	2605.487598
423.102141	2607.705706
423.480777	2604.998606
423.859352	2604.766713
424.237866	2605.147320
424.616319	2604.958277
424.994712	2609.245778
425.373044	2604.867536
425.751314	2604.302927
426.129524	2604.953236
426.507673	2606.495829
426.885762	2601.888214
427.263789	2607.163782
427.641756	2606.032042
428.019662	2606.062289
428.397508	2609.278546
428.775292	2606.909203
429.153016	2610.390120
429.530679	2608.860130
429.908282	2608.963473
430.285824	2609.003803
430.663305	2610.432970
431.040726	2611.542024
431.418086	2606.553802
431.795385	2610.548916
432.172624	2610.611931
432.549802	2610.911879
432.926920	2612.225100
433.303977	2611.451283
433.680974	2611.431118
434.057910	2611.695779
434.434786	2610.755604
434.811601	2611.201746
435.188355	2616.172323
435.565050	2611.859616
435.941683	2613.777775
436.318257	2612.431787
436.694770	2612.953547
437.071222	2612.809874
437.447614	2615.595111
437.823946	2615.249792
438.200218	2614.813732
438.576429	2613.072014
438.952580	2616.318517
439.328670	2615.413630
439.704700	2618.007303
440.080670	2613.959257
440.456580	2616.804988
440.832429	2617.203239
441.208218	2616.799947
441.583947	2620.439660
441.959616	2616.711727
442.335224	2619.318003
442.710773	2615.154010
443.086261	2618.977726
443.461689	2620.613580
443.837057	2621.616770
444.212365	2622.544342
444.587612	2618.904629
444.962800	2619.010493
445.337927	2617.755246
445.712995	2619.063425
446.088002	2622.924949
446.462949	2621.916718
446.837837	2624.825464
447.212664	2624.117182
447.587431	2625.417800
447.962139	2625.150618
448.336786	2630.721093
448.711374	2633.155971
449.085901	2631.953656
449.460369	2630.567338
449.834776	2629.717904
450.209124	2631.474746
450.583412	2635.371558
450.957640	2635.452216
451.331808	2634.191928
451.705917	2635.021198
452.079965	2634.668317
452.453954	2636.601599
452.827883	2636.417597
453.201752	2638.832310
453.575562	2641.519245
453.949311	2642.222486
454.323001	2643.845737
454.696632	2645.710964
455.070202	2647.114926
455.443713	2648.947385
455.817164	2653.746564
456.190556	2657.850063
456.563888	2661.905671
456.937160	2664.169149
457.310373	2665.825168
457.683526	2666.364572
458.056619	2672.330777
458.429653	2676.388906
458.802628	2679.050635
459.175542	2686.670339
459.548398	2698.595189
459.921194	2707.354194
460.293930	2720.234342
460.666607	2740.996334
461.039224	2765.697988
461.411782	2786.538118
461.784280	2798.715025
462.156719	2811.403609
462.529099	2824.324086
462.901419	2821.309476
463.273680	2831.810200
463.645882	2845.287725
464.018024	2864.852443
464.390106	2891.860424
464.762130	2934.266611
465.134094	2993.434633
465.505999	3103.228443
465.877845	3287.580919
466.249631	3435.606840
466.621358	3458.637351
466.993026	3442.021708
467.364634	3468.407108
467.736184	3466.665389
468.107674	3491.888802
468.479105	3560.864390
468.850477	3608.750310
469.221790	3646.324550
469.593043	3674.091226
469.964238	3706.788149
470.335373	3752.702979
470.706449	3857.800954
471.077467	3895.521388
471.448425	4139.472905
471.819324	4648.248836
472.190164	4971.578361
472.560945	4723.858582
472.931667	4560.114343
473.302330	4586.308179
473.672934	4629.606649
474.043479	4783.777737
474.413965	4865.633472
474.784393	4925.920631
475.154761	5140.157067
475.525070	5256.877422
475.895321	5309.416328
476.265513	5528.154513
476.635645	5745.511423
477.005719	5845.727041
477.375734	6018.447054
477.745691	6265.955105
478.115588	6489.494990
478.485427	6766.135869
478.855207	7143.546893
479.224928	7723.690439
479.594591	8494.684509
479.964194	8680.166203
480.333739	8967.116241
480.703226	8978.274835
481.072653	9118.741546
481.442022	9516.352473
481.811333	9989.447118
482.180584	10210.577331
482.549777	10110.180232
482.918912	10243.433052
483.287988	10490.162244
483.657005	10615.666810
484.025964	10717.719929
484.394864	10913.785525
484.763706	11031.955213
485.132489	11087.239026
485.501213	11319.381640
485.869879	11542.810620
486.238487	11591.011613
486.607036	11950.357662
486.975527	12008.308246
487.343959	12369.927855
487.712333	12613.589506
488.080648	12619.913633
488.448905	13107.302469
488.817104	13196.750183
489.185244	13731.851019
489.553326	13997.940763
489.921350	14632.853926
490.289315	16026.874116
490.657222	17259.181653
491.025070	17817.265111
491.392861	17985.110328
491.760593	17766.609076
492.128267	17610.061085
492.495883	17216.392340
492.863440	16986.919017
493.230939	16661.988925
493.598380	16808.376471
493.965763	16763.570695
494.333088	16710.376440
494.700354	16873.558590
495.067563	17032.876696
495.434713	17078.100887
495.801805	17300.234290
496.168839	17450.143082
496.535815	17536.545938
496.902733	17858.947891
497.269593	17769.603522
497.636395	18144.219226
498.003139	18319.361513
498.369825	18349.172376
498.736453	18639.996542
499.103023	18718.373881
499.469535	18909.116019
499.835989	19234.547706
500.202385	19452.217167
500.568723	19213.226146
500.935003	19545.183606
501.301226	19406.690507
501.667390	20160.446350
502.033497	20562.155736
502.399546	20448.545772
502.765537	20323.820064
503.131470	20740.967983
503.497345	21003.158395
503.863163	20460.579006
504.228923	21134.009105
504.594625	21418.131056
504.960269	21108.820979
505.325856	21686.718692
505.691385	21295.126902
506.056856	21909.404101
506.422270	22033.519829
506.787625	21753.571953
507.152924	22244.101428
507.518164	22337.435871
507.883347	22249.503025
508.248472	22074.706056
508.613540	22880.484087
508.978550	22774.582048
509.343503	22847.603161
509.708398	23193.479247
510.073236	23407.554366
510.438016	23671.675539
510.802738	23466.545948
511.167403	23770.020889
511.532010	23530.437532
511.896561	24351.825496
512.261053	24387.718511
512.625488	24287.417193
512.989866	24250.959569
513.354186	24163.377083
513.718449	24301.507218
514.082655	24713.326638
514.446803	24523.494428
514.810894	24996.629402
515.174927	24539.439598
515.538904	24621.514623
515.902822	25120.666992
516.266684	24934.159423
516.630488	24861.433217
516.994235	24893.164760
517.357925	25211.997576
517.721558	25427.227119
518.085133	25535.863985
518.448651	25497.243705
518.812112	25241.483285
519.175516	25438.189108
519.538863	25631.857636
519.902152	25436.943943
520.265385	25762.811690
520.628560	25559.995988
520.991678	25586.877941
521.354739	25687.713621
521.717743	25748.464566
522.080690	25549.190275
522.443580	25897.881845
522.806413	25916.448415
523.169189	26020.270978
523.531908	26095.376609
523.894569	25703.346239
524.257174	25775.497753
524.619722	26000.960838
524.982213	25681.870923
525.344647	25772.460458
525.707025	25888.860700
526.069345	25898.038121
526.431608	25858.092018
526.793815	26067.244450
527.155964	25498.935012
527.518057	25680.096437
527.880093	25614.228721
528.242072	25835.830283
528.603995	25547.675408
528.965860	25357.850760
529.327669	25417.028865
529.689421	25417.316211
530.051117	25236.928603
530.412755	25417.359061
530.774337	25238.705609
531.135862	25109.301711
531.497331	25309.735467
531.858743	24848.847977
532.220098	25338.709499
532.581396	25009.426371
532.942638	24963.385513
533.303824	25048.376846
533.664953	25090.195738
534.026025	24745.222018
534.387040	24988.729914
534.747999	25053.972527
535.108902	25217.323555
535.469748	24699.090419
535.830537	24905.001389
536.191270	25009.965774
536.551947	24906.808643
536.912567	24575.398148
537.273131	24869.869588
537.633638	24606.567602
537.994089	24796.977024
538.354483	24375.997828
538.714821	24855.703946
539.075103	24906.778396
539.435328	24706.357243
539.795497	24236.032712
540.155609	24661.153216
540.515665	24942.331134
540.875665	24187.055382
541.235609	24462.443534
541.595496	24451.718480
541.955328	24791.071313
542.315102	24712.199940
542.674821	24282.857470
543.034483	24144.402179
543.394090	24317.956503
543.753640	24099.241003
544.113134	24744.387707
544.472571	24347.797614
544.831953	24623.372289
545.191278	24246.283899
545.550548	24177.671274
545.909761	24388.220106
546.268918	24605.216573
546.628019	24560.998092
546.987064	24271.713999
547.346053	24038.674060
547.704986	24183.093035
548.063863	24331.275232
548.422684	24320.449354
548.781449	23876.384194
549.140158	24273.329689
549.498811	23848.103321
549.857408	23580.072733
550.215949	24034.817577
550.574434	23711.195665
550.932864	23929.248254
551.291237	24062.979983
551.649555	23941.727630
552.007817	23995.572194
552.366022	23863.448593
552.724173	23912.413321
553.082267	23842.376570
553.440305	24304.978053
553.798288	23595.380196
554.156215	24113.499906
554.514086	24194.607031
554.871902	23558.113467
555.229661	23855.050031
555.587365	23705.572258
555.945014	23567.737029
556.302606	23827.875691
556.660143	23745.175562
557.017625	24023.384240
557.375050	23559.444331
557.732421	23946.930101
558.089735	23757.743159
558.446994	23820.853364
558.804197	23848.932591
559.161345	23801.074397
559.518437	23541.528070
559.875474	23749.901644
560.232455	23903.409820
560.589381	23743.960644
560.946251	23719.395102
561.303065	24043.687487
561.659825	24138.002435
562.016528	23736.146856
562.373177	23476.875272
562.729770	23827.227903
563.086307	23710.527712
563.442789	23869.472772
563.799216	23698.630589
564.155587	23718.041552
564.511904	23698.181926
564.868164	23624.699547
565.224370	23618.128403
565.580520	23506.817206
565.936615	23643.215705
566.292654	23316.057423
566.648638	23636.571464
567.004567	23464.975629
567.360441	23397.497264
567.716260	23131.921717
568.072023	23462.260967
568.427732	23215.163770
568.783385	23003.296677
569.138982	23229.004258
569.494525	23274.130147
569.850013	23014.782946
570.205445	23120.722794
570.560823	22917.077823
570.916145	22695.047763
571.271412	22853.100539
571.626625	22620.738635
571.981782	22723.850396
572.336884	22526.469058
572.691931	22667.071880
573.046923	22399.840315
573.401860	22294.298718
573.756743	22287.258747
574.111570	22196.966640
574.466342	22137.939770
574.821059	22231.906877
575.175722	21926.947317
575.530330	21909.136920
575.884882	21947.830296
576.239380	21858.876616
576.593823	21736.598388
576.948211	21711.455634
577.302544	21565.652862
577.656823	21438.598141
578.011047	21534.677492
578.365216	21408.784757
578.719330	21290.935183
579.073389	21193.986233
579.427394	21331.592088
579.781344	21114.532607
580.135239	20998.059268
580.489080	20976.588993
580.842866	20724.627083
581.196597	20920.506157
581.550273	20892.711755
581.903895	20795.508227
582.257463	21111.099581
582.610975	20640.444855
582.964434	20933.083836
583.317837	20651.036319
583.671186	20740.761296
584.024481	20703.711336
584.377721	20481.492233
584.730906	20528.813544
585.084037	20560.986188
585.437113	20466.668720
585.790135	20665.464102
586.143103	20145.138887
586.496016	20156.541977
586.848874	20395.958976
587.201679	20332.417752
587.554428	19998.330404
587.907124	20327.487504
588.259765	20110.387693
588.612352	20200.571414
588.964884	19748.579040
589.317362	19927.446740
589.669786	19975.448607
590.022155	20040.555109
590.374470	20199.442196
590.726731	20020.128354
591.078937	19760.791235
591.431090	19873.274501
591.783188	19616.823443
592.135232	19582.977136
592.487222	19680.067239
592.839157	19709.948678
593.191038	19595.421224
593.542866	19476.074428
593.894639	19197.916161
594.246358	19422.250028
594.598022	19338.592080
594.949633	19082.793852
595.301190	19051.024500
595.652692	19200.104022
596.004141	19459.471387
596.355535	18793.567732
596.706876	18798.566036
597.058162	18680.411472
597.409395	18900.364576
597.760573	18996.915275
598.111698	18774.643240
598.462768	18712.813488
598.813785	18663.959667
599.164748	18492.555395
599.515657	18519.805352
599.866511	18313.042427
600.217312	18674.072221
600.568060	18204.952527
600.918753	18507.278084
601.269392	18418.175690
601.619978	18189.140948
601.970510	18406.187826
602.320988	18351.282099
602.671412	18556.303306
603.021783	18452.674827
603.372100	18207.415130
603.722363	18329.068255
604.072572	18265.426208
604.422728	18402.898473
604.772830	18167.995828
605.122878	18117.085215
605.472872	18112.628835
605.822813	18101.349253
606.172701	18058.461637
606.522534	18256.042100
606.872314	18286.689795
607.222041	18115.560266
607.571714	18326.351073
607.921333	18166.523811
608.270899	18230.085199
608.620411	18432.565664
608.969870	18184.740020
609.319276	18188.430145
609.668627	18218.553560
610.017926	18358.644704
610.367171	18474.850862
610.716362	18505.614504
611.065500	18327.329057
611.414585	18459.606413
611.763616	18448.530998
612.112594	18391.976814
612.461518	18362.158389
612.810389	18560.096774
613.159207	18404.441067
613.507971	18312.462694
613.856682	18600.491540
614.205340	18528.617289
614.553945	18665.479574
614.902496	18407.730419
615.250994	18652.899375
615.599439	18587.722297
615.947830	18575.406758
616.296169	18617.881000
616.644454	18592.604654
616.992686	18564.467454
617.340864	18775.938817
617.688990	18532.738432
618.037063	18709.740905
618.385082	18552.391370
618.733048	18838.313013
619.080961	18695.855047
619.428821	18744.958406
619.776628	18632.427249
620.124382	18551.539415
620.472083	18590.620960
620.819731	18620.149519
621.167326	18310.564700
621.514868	18351.604733
621.862357	18112.036499
622.209793	18120.664434
622.557176	17939.230787
622.904506	17777.490407
623.251783	17690.772478
623.599007	17458.697920
623.946179	17410.701094
624.293297	17344.868666
624.640363	17100.622242
624.987376	17125.926313
625.334336	16914.868325
625.681243	16760.966939
626.028097	16766.144204
626.374899	16698.529728
626.721647	16561.559058
627.068343	16398.540745
627.414987	16321.380845
627.761577	16304.611446
628.108115	16345.535533
628.454600	16067.909109
628.801032	16160.651216
629.147412	16098.768532
629.493739	16121.620082
629.840014	15925.811585
630.186236	16022.841193
630.532405	15789.181192
630.878521	15996.874210
631.224585	15876.015067
631.570597	15701.470156
631.916556	15735.442492
632.262462	15712.548092
632.608316	15635.632687
632.954117	15576.993985
633.299866	15578.831486
633.645562	15495.665050
633.991206	15250.707823
634.336797	15114.427791
634.682336	15090.056333
635.027823	14985.354088
635.373257	14873.954670
635.718639	14757.335137
636.063968	14705.184401
636.409245	14462.107524
636.754470	14486.932686
637.099642	14334.447865
637.444762	14116.181027
637.789829	14153.178055
638.134845	13988.334845
638.479808	14016.814843
638.824719	13965.334580
639.169577	13819.526767
639.514383	13870.586094
639.859137	13688.262682
640.203839	13763.907717
640.548489	13604.254374
640.893086	13598.401595
641.237632	13466.656080
641.582125	13607.407616
641.926566	13443.252523
642.270955	13451.086476
642.615292	13417.114141
642.959576	13431.877160
643.303809	13469.403509
643.647990	13402.646029
643.992118	13455.464718
644.336195	13222.543246
644.680219	13425.243001
645.024192	13356.317825
645.368112	13591.248197
645.711981	13650.151559
646.055797	13829.190659
646.399562	13796.604640
646.743274	14062.550712
647.086935	14339.899873
647.430544	14303.220437
647.774101	14328.365713
648.117606	14483.660977
648.461059	14448.176296
648.804460	14441.494246
649.147810	14175.908618
649.491108	14074.127721
649.834354	14092.664044
650.177548	13798.530361
650.520690	13602.437038
650.863781	13527.389381
651.206820	13564.837592
651.549807	13393.675296
651.892742	13206.134290
652.235626	13132.954381
652.578458	13143.414775
652.921238	12822.310919
653.263967	13020.733255
653.606644	12855.166639
653.949269	12825.295282
654.291843	12637.666056
654.634365	12783.952779
654.976836	12639.528763
655.319255	12653.805310
655.661622	12598.198863
656.003938	12524.628264
656.346203	12461.268522
656.688416	12515.249197
657.030577	12484.306595
657.372687	12403.242320
657.714746	12377.774411
658.056753	12563.039335
658.398708	12383.120555
658.740612	12387.561811
659.082465	12483.159732
659.424266	12447.922067
659.766016	12471.580202
660.107715	12386.364537
660.449362	12458.127883
660.790958	12420.404928
661.132503	12361.756145
661.473996	12424.523551
661.815438	12446.563476
662.156829	12456.497069
662.498168	12431.102257
662.839456	12428.609406
663.180693	12451.597068
663.521879	12546.587530
663.863013	12518.026873
664.204097	12493.231958
664.545129	12612.460287
664.886110	12578.392169
665.227040	12678.247345
665.567918	12687.923840
665.908746	12711.377808
666.249522	12689.927698
666.590248	12737.712796
666.930922	12855.358203
667.271545	12833.509842
667.612118	12926.259511
667.952639	12825.438955
668.293109	12834.099657
668.633528	12792.127010
668.973896	12771.405347
669.314213	12852.956093
669.654480	12593.581166
669.994695	12646.561172
670.334859	12680.319259
670.674973	12635.016930
671.015035	12662.004747
671.355047	12605.664812
671.695008	12568.982856
672.034918	12576.272364
672.374777	12637.565233
672.714585	12534.934903
673.054342	12570.427146
673.394049	12521.802697
673.733705	12617.937501
674.073310	12532.502546
674.412864	12542.814226
674.752368	12413.871593
675.091820	12425.917430
675.431223	12418.983323
675.770574	12289.491204
676.109875	12208.109337
676.449125	12175.745129
676.788324	12108.410437
677.127473	11953.987292
677.466571	11934.054570
677.805619	11844.682474
678.144616	11756.774833
678.483562	11731.765669
678.822458	11594.396747
679.161303	11571.550238
679.500098	11562.801316
679.838842	11520.700119
680.177535	11537.930783
680.516179	11597.933117
680.854771	11550.757999
681.193314	11758.420770
681.531805	11910.250242
681.870247	12324.527223
682.208638	12729.730128
682.546978	13046.954817
682.885268	13104.761728
683.223508	12799.595480
683.561697	12639.241417
683.899836	12536.948844
684.237925	12338.181189
684.575963	12257.492480
684.913951	12186.815503
685.251889	12123.803601
685.589776	12222.184239
685.927614	12148.502734
686.265401	12113.088628
686.603137	12162.996051
686.940824	12308.768577
687.278460	12434.474789
687.616046	12476.860810
687.953582	12653.376812
688.291068	12571.949575
688.628504	12804.450111
688.965889	12819.767657
689.303224	12780.497068
689.640510	12678.209536
689.977745	12372.246786
690.314930	12149.861325
690.652065	12067.811505
690.989150	11773.297215
691.326185	11551.700695
691.663170	11341.706390
692.000105	11095.556930
692.336990	10987.789664
692.673825	10743.644063
693.010610	10622.820208
693.347345	10415.467468
693.684030	10209.705212
694.020665	10159.472634
694.357251	9964.135484
694.693786	9911.339480
695.030272	9741.755065
695.366707	9624.671746
695.703093	9555.575171
696.039429	9558.642713
696.375716	9481.167740
696.711952	9346.878963
697.048139	9388.856652
697.384276	9341.800001
697.720363	9356.908339
698.056400	9295.343248
698.392388	9245.350125
698.728326	9209.484836
699.064214	9144.494281
699.400053	9194.774749
699.735842	9011.080144
700.071581	8961.013925
700.407270	8890.278974
700.742910	8810.661511
701.078501	8718.544507
701.414042	8596.679654
701.749533	8529.791104
702.084974	8390.299857
702.420366	8501.832865
702.755709	8388.633755
703.091002	8261.669775
703.426246	8281.625183
703.761440	8233.582986
704.096584	8192.905916
704.431679	8121.586192
704.766725	8112.542362
705.101721	8066.004950
705.436668	8103.579190
705.771565	8003.504725
706.106413	8078.570026
706.441212	8129.402501
706.775961	8076.631702
707.110661	8114.190819
707.445311	8260.790094
707.779913	8153.899988
708.114465	8280.672404
708.448967	8324.442223
708.783421	8454.017521
709.117825	8647.335688
709.452180	8678.497581
709.786485	8766.831199
710.120742	9045.226400
710.454949	9056.952123
710.789107	9145.923448
711.123216	9357.162917
711.457275	9517.983287
711.791286	9692.629021
712.125247	9682.052680
712.459159	9671.478860
712.793023	9923.198795
713.126837	9496.548301
713.460602	9651.790633
713.794318	9476.918047
714.127985	9506.572635
714.461602	9178.741359
714.795171	9135.699988
715.128691	8894.316939
715.462162	8640.515007
715.795584	8582.733302
716.128957	8438.047145
716.462281	8268.893748
716.795556	8314.828742
717.128782	8110.440201
717.461960	7844.103440
717.795088	7919.940038
718.128167	7828.828744
718.461198	7658.778022
718.794180	7605.051925
719.127113	7593.028773
719.459997	7449.991074
719.792833	7213.077007
720.125619	7277.523118
720.458357	7132.617672
720.791046	7126.480067
721.123686	7122.880683
721.456278	6969.231355
721.788821	6984.228788
722.121315	6874.523198
722.453761	6944.842252
722.786158	6885.134826
723.118506	6897.702423
723.450805	6862.416867
723.783056	6936.998217
724.115259	6840.586150
724.447412	6836.084399
724.779518	6882.815896
725.111574	6880.761625
725.443582	6965.072403
725.775542	6941.469721
726.107453	7130.639019
726.439315	7046.393776
726.771129	7104.813187
727.102895	7270.725122
727.434612	7382.553038
727.766281	7411.199395
728.097901	7495.858012
728.429473	7489.455747
728.760996	7459.720501
729.092471	7438.827438
729.423897	7387.861373
729.755276	7399.163640
730.086606	7329.046231
730.417887	7428.820748
730.749120	7613.969726
731.080305	7803.852347
731.411442	7929.508148
731.742530	7928.905730
732.073570	8032.151082
732.404562	8118.614432
732.735506	7964.735731
733.066401	8110.929193
733.397249	8041.323461
733.728048	7806.067934
734.058798	7475.053170
734.389501	7253.733913
734.720156	7077.467448
735.050762	6838.541962
735.381320	6743.128043
735.711831	6692.973603
736.042293	6585.687767
736.372707	6605.106292
736.703073	6472.579398
737.033391	6506.937382
737.363661	6515.857704
737.693883	6543.967178
738.024056	6627.577235
738.354182	6674.391910
738.684260	6708.853238
739.014290	6816.023128
739.344272	6929.585200
739.674207	6957.117462
740.004093	7024.265631
740.333931	7038.882457
740.663722	7049.408386
740.993464	7131.117928
741.323159	7119.949252
741.652806	6870.638988
741.982405	6876.801799
742.311956	6939.854031
742.641460	6783.772346
742.970915	6579.325831
743.300323	6577.279123
743.629683	6523.444641
743.958996	6393.372789
744.288260	6301.591022
744.617477	6247.718731
744.946647	6257.564105
745.275768	6088.660245
745.604842	6045.573503
745.933869	6026.517942
746.262847	5979.204192
746.591778	5973.893337
746.920662	5931.056132
747.249498	5918.629688
747.578286	5969.925948
747.907027	6047.108534
748.235720	6107.181444
748.564365	6073.884623
748.892963	6099.317244
749.221514	6257.962356
749.550017	6095.808601
749.878473	5969.298325
750.206881	6025.421491
750.535242	5969.900743
750.863555	5896.478858
751.191821	5917.830665
751.520039	5917.157671
751.848210	5827.079813
752.176334	5841.522719
752.504411	5892.224124
752.832440	5822.472198
753.160421	5751.517958
753.488356	5795.343229
753.816243	5830.946378
754.144082	5683.757289
754.471875	5649.212782
754.799620	5699.790678
755.127318	5706.485331
755.454969	5659.010264
755.782572	5621.693123
756.110129	5667.963354
756.437638	5654.637063
756.765100	5596.361325
757.092515	5591.216827
757.419882	5641.305732
757.747203	5623.346622
758.074477	5688.251477
758.401703	5676.714797
758.728882	5630.048836
759.056014	5677.173542
759.383099	5810.922915
759.710138	5818.403987
760.037129	5807.152132
760.364073	5807.041227
760.690970	5893.859978
761.017820	5876.205857
761.344623	5826.300955
761.671379	5926.065389
761.998088	6042.538728
762.324751	6281.859946
762.651366	6864.002309
762.977935	8154.212540
763.304456	9771.311350
763.630931	10694.558347
763.957359	10316.035749
764.283740	9384.551506
764.610074	8565.139675
764.936362	7573.945485
765.262602	6972.467776
765.588796	6432.935765
765.914943	6097.116781
766.241044	5941.118275
766.567097	5743.560497
766.893104	5482.549715
767.219064	5302.731757
767.544978	5236.730451
767.870845	5163.411909
768.196665	5059.095313
768.522438	4984.317357
768.848165	4952.033808
769.173846	4885.084764
769.499479	4846.998847
769.825066	4792.630003
770.150607	4731.042226
770.476101	4702.932752
770.801548	4704.918967
771.126949	4629.654540
771.452303	4578.585131
771.777611	4534.144839
772.102872	4549.948857
772.428087	4514.370913
772.753256	4474.318946
773.078378	4429.911422
773.403453	4363.234600
773.728482	4348.340511
774.053465	4300.008449
774.378401	4289.215338
774.703291	4295.610042
775.028135	4220.930389
775.352932	4170.871731
775.677683	4158.551151
776.002388	4178.166281
776.327046	4188.407385
776.651658	4112.943833
776.976224	4054.778999
777.300743	4056.157755
777.625216	4078.177515
777.949643	4078.137186
778.274024	4031.168755
778.598359	3983.270232
778.922647	4006.744365
779.246889	4003.366792
779.571086	3995.522757
779.895236	3982.206549
780.219339	3965.490082
780.543397	3957.212508
780.867409	4009.411135
781.191374	4026.977036
781.515294	3964.106286
781.839167	3956.902477
782.162995	3976.822596
782.486776	3961.971357
782.810511	3970.765650
783.134201	3971.718428
783.457844	3927.636058
783.781441	3870.875187
784.104993	3875.371896
784.428498	3894.190523
784.751958	3889.519894
785.075372	3873.302502
785.398739	3832.396059
785.722061	3841.916278
786.045337	3883.523442
786.368568	3921.967281
786.691752	3833.351358
787.014891	3881.801887
787.337983	4002.905526
787.661030	4161.767408
787.984031	4325.075586
788.306987	4492.010875
788.629897	4578.559925
788.952760	4536.458729
789.275579	4466.386690
789.598351	4404.856887
789.921078	4266.620887
790.243759	4067.553283
790.566395	4043.156619
790.888984	4040.091598
791.211529	3935.341462
791.534027	3875.939026
791.856480	3866.265051
792.178888	3806.073674
792.501249	3755.357146
792.823566	3763.543980
793.145836	3795.189823
793.468062	3740.274014
793.790241	3696.542004
794.112375	3724.558217
794.434464	3789.654636
794.756507	3811.762617
795.078505	3792.646561
795.400457	3825.789627
795.722364	3963.763487
796.044226	4067.205444
796.366042	4143.505828
796.687812	4121.849031
797.009538	4131.376812
797.331218	4086.044236
797.652852	4058.615317
797.974442	4039.597565
798.295986	4043.385992
798.617484	3960.131336
798.938938	3870.303016
799.260346	3913.117535
799.581709	3908.772061
799.903026	3837.747244
800.224299	3800.026810
800.545526	3794.738640
800.866708	3755.039553
801.187845	3695.906819
801.508936	3730.042992
801.829983	3731.507447
802.150984	3649.918893
802.471940	3637.182418
802.792851	3651.711023
803.113717	3649.414777
803.434538	3655.065911
803.755314	3599.076336
804.076045	3571.009712
804.396731	3589.661981
804.717372	3613.032770
805.037967	3600.800410
805.358518	3591.328082
805.679024	3619.407309
805.999485	3630.132364
806.319901	3633.547746
806.640272	3642.969662
806.960598	3661.808454
807.280879	3636.282572
807.601115	3645.079385
807.921306	3666.045544
808.241453	3706.347048
808.561554	3680.019623
808.881611	3616.594345
809.201623	3650.120539
809.521590	3663.751819
809.841513	3635.665030
810.161390	3664.384484
810.481223	3644.988644
810.801011	3588.091662
811.120755	3580.177050
811.440453	3618.812453
811.760107	3621.002834
812.079716	3581.253336
812.399281	3545.108263
812.718801	3568.690781
813.038276	3540.470402
813.357707	3538.935370
813.677093	3559.699883
813.996434	3503.029752
814.315731	3512.421422
814.634983	3517.467617
814.954191	3531.159391
815.273354	3560.655182
815.592473	3555.929100
815.911547	3564.551994
816.230577	3600.893672
816.549562	3651.206908
816.868502	3695.306922
817.187399	3716.129408
817.506250	3718.783575
817.825058	3686.036240
818.143821	3777.507976
818.462539	3879.392216
818.781213	3927.202519
819.099843	3980.306034
819.418429	4220.723702
819.736970	4457.922593
820.055466	4703.482238
820.373919	5061.890633
820.692327	5467.799299
821.010691	5897.993724
821.329011	7238.842345
821.647286	9929.991749
821.965517	14424.349282
822.283704	18452.432851
822.601847	20676.269815
822.919945	18895.731756
823.237999	16352.762027
823.556010	13875.594480
823.873976	11802.488016
824.191897	9722.313855
824.509775	8365.215075
824.827609	7243.664208
825.145398	6691.983017
825.463144	6572.583288
825.780845	6682.273754
826.098502	6865.590273
826.416116	7716.040488
826.733685	9019.796299
827.051210	10136.941197
827.368692	10216.714936
827.686129	8988.359664
828.003522	7474.085268
828.320872	6458.761596
828.638177	5767.831132
828.955439	5208.399166
829.272656	4712.241243
829.589830	4423.385648
829.906960	4252.702261
830.224046	4068.574117
830.541088	3942.285651
830.858086	3894.354361
831.175041	3822.132270
831.491952	3802.244918
831.808819	3814.255467
832.125642	3884.387999
832.442421	4024.753887
832.759157	4297.127429
833.075849	4832.762628
833.392497	5687.865829
833.709101	6453.191121
834.025662	6803.969729
834.342179	6465.662935
834.658653	5802.504188
834.975083	5161.468544
835.291469	4590.268005
835.607811	4176.149819
835.924110	4037.460115
836.240366	3843.841999
836.556578	3636.406080
836.872746	3527.219729
837.188871	3490.663802
837.504952	3424.135694
837.820990	3344.379599
838.136984	3293.582413
838.452935	3320.343378
838.768842	3314.664518
839.084706	3335.124041
839.400526	3490.532732
839.716303	3819.596570
840.032037	4335.455322
840.347727	4609.555460
840.663373	4345.648535
840.978977	3963.219043
841.294537	3657.888957
841.610054	3426.820109
841.925527	3321.976712
842.240957	3250.631782
842.556344	3198.402907
842.871687	3139.885194
843.186987	3091.026331
843.502244	3053.247924
843.817458	3021.511340
844.132629	2988.617811
844.447756	2998.037207
844.762840	2983.009527
845.077881	2951.265381
845.392879	2934.813576
845.707833	2931.746034
846.022745	2926.583892
846.337613	2931.057916
846.652438	2918.636513
846.967221	2912.052766
847.281960	2900.894172
847.596656	2898.040879
847.911309	2895.878224
848.225919	2890.101062
848.540485	2885.125443
848.855009	2888.820609
849.169490	2876.394164
849.483928	2865.918647
849.798323	2865.875797
850.112675	2862.530991
850.426984	2877.026829
850.741251	2871.055582
851.055474	2861.820189
851.369654	2855.047398
851.683792	2863.761033
851.997887	2869.422249
852.311938	2870.375027
852.625947	2859.952441
852.939914	2861.313553
853.253837	2869.097094
853.567718	2849.585308
853.881555	2852.862058
854.195350	2862.909078
854.509103	2862.979654
854.822812	2855.266689
855.136479	2850.853158
855.450103	2852.420957
855.763685	2844.728157
856.077224	2842.923423
856.390720	2855.017152
856.704173	2865.333873
857.017584	2861.943697
857.330953	2856.290043
857.644278	2865.843029
857.957561	2874.450800
858.270802	2876.366438
858.584000	2876.941130
858.897155	2864.670961
859.210268	2863.660210
859.523339	2860.630476
859.836367	2860.741382
860.149352	2855.700228
860.462295	2852.166379
860.775195	2858.155270
861.088054	2857.676360
861.400869	2839.878567
861.713642	2839.515603
862.026373	2856.169055
862.339062	2858.361957
862.651708	2863.801362
862.964312	2865.815303
863.276873	2858.485465
863.589392	2868.343442
863.901869	2880.510267
864.214303	2900.894172
864.526696	2917.829928
864.839045	2911.473033
865.151353	2910.926068
865.463619	2909.827097
865.775842	2913.549989
866.088023	2932.164449
866.400162	2938.077723
866.712258	2910.255595
867.024313	2898.623132
867.336325	2906.396592
867.648296	2927.503903
867.960224	2920.295053
868.272110	2905.360634
868.583954	2912.735843
868.895755	2925.810075
869.207515	2913.633168
869.519233	2915.896646
869.830909	2927.042637
870.142542	2937.497990
870.454134	2936.996395
870.765684	2939.627878
871.077191	2938.087805
871.388657	2948.089454
871.700081	2960.841053
872.011463	2973.156592
872.322803	2972.034935
872.634101	2969.486632
872.945357	2989.308449
873.256571	3013.768127
873.567744	3004.787312
873.878874	2999.594923
874.189963	3021.740712
874.501010	3025.269520
874.812015	3013.148065
875.122979	3012.676718
875.433900	3010.645133
875.744780	3011.665966
876.055618	3021.536545
876.366415	3019.651154
876.677169	3030.421579
876.987882	3026.794469
877.298554	3020.858510
877.609183	3041.073537
877.919771	3064.063719
878.230317	3092.659664
878.540822	3143.935761
878.851285	3181.106709
879.161707	3221.942575
879.472087	3323.012669
879.782425	3538.632901
880.092722	3969.331442
880.402977	4494.770907
880.713191	5110.058858
881.023363	6248.769812
881.333494	7524.159050
881.643583	8087.555883
881.953631	7794.269114
882.263637	7185.937956
882.573602	6606.361539
882.883526	6027.690010
883.193408	5458.528617
883.503248	4993.124253
883.813048	4690.168551
884.122806	4396.861617
884.432522	4082.185232
884.742197	3849.299048
885.051831	3655.007938
885.361424	3520.053729
885.670975	3447.813994
885.980485	3363.747713
886.289954	3285.783748
886.599382	3244.146337
886.908768	3206.574618
887.218113	3161.849501
887.527417	3106.729525
887.836680	3053.709189
888.145901	3051.705331
888.455082	3039.654452
888.764221	2993.132164
889.073319	2961.239304
889.382376	2959.497586
889.691392	2964.064871
890.000366	2961.992957
890.309300	2948.694393
890.618193	2963.560756
890.927044	2978.873260
891.235855	2981.345946
891.544625	2966.416569
891.853353	2975.125163
892.162041	2994.457988
892.470687	3031.087011
892.779293	3083.822522
893.087858	3130.412866
893.396381	3198.788556
893.704864	3319.589725
894.013306	3549.952812
894.321707	3850.423225
894.630068	4059.431984
894.938387	4056.142632
895.246665	4011.031866
895.554903	3891.677508
895.863100	3699.468394
896.171256	3529.737785
896.479371	3393.382135
896.787446	3273.163219
897.095480	3169.958197
897.403473	3106.117025
897.711425	3070.271900
898.019336	3060.207237
898.327207	3032.493493
898.635038	2996.338338
898.942827	2979.221100
899.250576	2968.793473
899.558284	2940.323557
899.865952	2916.660381
900.173579	2899.825448
900.481165	2892.677091
900.788711	2879.935575
901.096216	2856.816843
901.403681	2842.704133
901.711105	2849.721419
902.018489	2850.366687
902.325832	2846.588342
902.633135	2856.390866
902.940397	2888.591236
903.247619	2969.257259
903.554800	3154.633089
903.861941	3495.634379
904.169041	3918.171292
904.476101	4219.768403
904.783121	4183.189791
905.090100	3941.080816
905.397039	3667.968744
905.703938	3420.196033
906.010796	3235.130234
906.317614	3127.564614
906.624391	3034.124307
906.931129	2962.439099
907.237826	2901.932650
907.544483	2853.051102
907.851099	2823.270485
908.157675	2801.162505
908.464211	2782.316151
908.770707	2771.497835
909.077163	2759.837646
909.383578	2742.478433
909.689954	2729.283213
909.996289	2730.034345
910.302584	2732.383522
910.608839	2732.020559
910.915054	2723.163252
911.221229	2720.151163
911.527363	2721.171996
911.833458	2725.371277
912.139513	2730.551063
912.445527	2736.474419
912.751502	2743.509349
913.057436	2754.327665
913.363331	2766.030704
913.669186	2785.802109
913.975000	2818.131029
914.280775	2877.253681
914.586510	2948.961574
914.892205	3027.094418
915.197859	3156.122750
915.503475	3341.775843
915.809050	3551.308883
916.114585	3698.203064
916.420081	3721.651992
916.725536	3664.959175
917.030952	3548.349725
917.336328	3421.426074
917.641665	3292.750622
917.946961	3189.616176
918.252218	3122.677215
918.557435	3044.705688
918.862612	2989.232832
919.167750	2934.256528
919.472848	2897.302350
919.777906	2869.931405
920.082925	2843.614062
920.387904	2813.112560
920.692843	2799.572021
920.997743	2787.400155
921.302603	2775.324071
921.607423	2765.771084
921.912204	2752.230545
922.216946	2741.407188
922.521647	2732.295302
922.826310	2725.585527
923.130932	2718.684187
923.435516	2709.652960
923.740059	2702.885211
924.044564	2694.779035
924.349028	2689.712676
924.653454	2683.446522
924.957840	2678.455779
925.262186	2672.633247
925.566493	2668.350786
925.870761	2664.388439
926.174989	2659.062460
926.479178	2652.561892
926.783328	2652.874444
927.087438	2648.468476
927.391509	2648.617190
927.695541	2644.866571
927.999533	2639.674183
928.303486	2638.565129
928.607400	2639.520427
928.911275	2638.232413
929.215110	2637.398102
929.518906	2635.492546
929.822663	2635.583286
930.126381	2632.830816
930.430060	2635.152268
930.733699	2635.530354
931.037299	2639.359111
931.340861	2641.685603
931.644383	2639.800212
931.947866	2638.519758
932.251309	2634.741414
932.554714	2636.772999
932.858080	2633.211423
933.161407	2633.423152
933.464694	2627.953500
933.767943	2627.950979
934.071153	2628.767646
934.374323	2629.836371
934.677455	2627.764457
934.980548	2626.249590
935.283602	2624.134826
935.586617	2628.019035
935.889593	2625.334621
936.192530	2626.849487
936.495428	2627.956021
936.798287	2628.361833
937.101108	2632.336783
937.403890	2637.640077
937.706632	2641.231899
938.009336	2647.276243
938.312002	2656.294867
938.614628	2663.365085
938.917216	2672.555109
939.219765	2671.249450
939.522275	2670.248781
939.824747	2665.366423
940.127179	2667.176197
940.429573	2663.516320
940.731929	2659.836277
941.034246	2656.574651
941.336524	2656.869558
941.638763	2650.278250
941.940964	2647.266160
942.243126	2649.784217
942.545250	2649.159114
942.847335	2643.996972
943.149381	2640.987403
943.451389	2635.689151
943.753359	2634.726290
944.055290	2632.772843
944.357182	2631.552884
944.659036	2630.390898
944.960851	2628.848305
945.262628	2628.399642
945.564367	2630.567338
945.866067	2631.782256
946.167729	2629.695219
946.469352	2627.988788
946.770937	2631.341155
947.072484	2627.618263
947.373992	2627.862759
947.675462	2625.306894
947.976893	2622.314969
948.278286	2619.383538
948.579641	2621.271451
948.880958	2618.856738
949.182236	2622.685494
949.483476	2620.318672
949.784678	2620.517798
950.085841	2621.742798
950.386967	2621.011831
950.688054	2620.011162
950.989103	2622.199023
951.290114	2625.730351
951.591087	2625.788324
951.892021	2625.788324
952.192917	2632.041876
952.493776	2633.352576
952.794596	2631.356279
953.095378	2632.457771
953.396122	2632.054479
953.696828	2630.837040
953.997496	2627.555249
954.298126	2627.136833
954.598718	2623.083745
954.899272	2620.684156
955.199788	2618.675256
955.500266	2617.911522
955.800706	2615.280039
956.101108	2612.608228
956.401472	2613.442539
956.701798	2609.684358
957.002087	2606.379882
957.302337	2605.800149
957.602550	2605.185129
957.902724	2603.660180
958.202861	2601.431990
958.502960	2601.396702
958.803022	2599.712956
959.103045	2598.016608
959.403031	2597.562904
959.702979	2598.440065
960.002889	2600.360744
960.302762	2598.790425
960.602596	2597.613316
960.902393	2595.052409
961.202153	2598.225816
961.501875	2595.443099
961.801559	2594.175249
962.101205	2595.831268
962.400814	2595.821185
962.700385	2593.862697
962.999918	2590.742223
963.299414	2590.835484
963.598873	2592.763726
963.898293	2590.659044
964.197677	2594.785228
964.497022	2592.879672
964.796331	2593.338417
965.095601	2593.741709
965.394835	2594.213057
965.694030	2593.726586
965.993189	2592.224322
966.292309	2592.834302
966.591393	2594.843202
966.890439	2594.180290
967.189447	2593.482090
967.488419	2593.774477
967.787353	2591.823550
968.086249	2591.579054
968.385108	2589.716348
968.683930	2592.131061
968.982714	2590.769949
969.281462	2592.131061
969.580172	2593.328335
969.878844	2593.411514
970.177480	2590.159970
970.476078	2593.040989
970.774639	2589.834815
971.073162	2591.959662
971.371649	2594.472677
971.670098	2594.243304
971.968510	2592.138623
972.266885	2592.146184
972.565223	2592.841863
972.863524	2595.506113
973.161788	2593.948397
973.460014	2591.838674
973.758204	2592.269692
974.056356	2594.313880
974.354471	2594.790269
974.652550	2592.884713
974.950591	2592.791452
975.248595	2593.456884
975.546563	2591.750454
975.844493	2593.214909
976.142386	2589.819692
976.440243	2591.500917
976.738062	2590.533015
977.035845	2589.126533
977.333590	2591.619384
977.631299	2589.761718
977.928971	2587.568817
978.226606	2585.756522
978.524204	2587.571337
978.821765	2584.465986
979.119290	2590.054105
979.416777	2591.208530
979.714228	2591.498396
980.011642	2589.050916
980.309020	2591.546287
980.606360	2586.825246
980.903664	2592.269692
981.200931	2589.343303
981.498162	2592.821699
981.795356	2593.046030
982.092513	2593.618201
982.389633	2594.787749
982.686717	2598.167843
982.983764	2602.775457
983.280775	2608.207300
983.577749	2609.303751
983.874686	2607.408277
984.171587	2604.108842
984.468451	2602.667072
984.765279	2598.901330
985.062070	2598.737493
985.358824	2597.845209
985.655543	2593.761874
985.952224	2591.871441
986.248869	2592.136102
986.545478	2589.378591
986.842050	2591.354723
987.138586	2591.747933
987.435086	2586.598394
987.731549	2587.039495
988.027975	2589.910432
988.324366	2587.175607
988.620719	2587.044537
988.917037	2590.144846
989.213318	2586.484968
989.509563	2583.785431
989.805772	2587.145360
990.101944	2585.416244
990.398080	2587.064701
990.694180	2585.159145
990.990244	2586.744588
991.286271	2587.132757
991.582262	2585.454052
991.878217	2586.391707
992.174136	2585.872468
992.470019	2585.214598
992.765865	2582.565471
993.061676	2584.425657
993.357450	2586.416913
993.653188	2580.637230
993.948890	2582.948599
994.244556	2588.345154
994.540186	2587.248703
994.835780	2588.856831
995.131337	2587.291553
995.426859	2586.870617
995.722345	2588.728282
996.017795	2591.281626
996.313208	2590.280957
996.608586	2590.648962
996.903928	2592.037799
997.199234	2590.134764
997.494504	2591.906729
997.789738	2588.226687
998.084936	2590.928746
998.380099	2589.736513
998.675225	2590.008735
998.970316	2588.917325
999.265371	2587.609146
999.560390	2588.440936
999.855373	2587.979671
1000.150320	2588.977819
1000.445232	2587.790627
1000.740108	2587.601584
1001.034948	2585.963209
1001.329752	2583.011613
1001.624521	2586.459763
1001.919254	2585.204515
1002.213951	2588.483786
1002.508613	2585.317941
1002.803239	2586.593353
1003.097829	2585.355750
1003.392384	2585.834660
1003.686903	2584.271902
1003.981386	2586.058991
1004.275834	2586.636203
1004.570246	2582.721747
1004.864623	2584.002200
1005.158964	2582.383990
1005.453270	2583.898857
1005.747540	2580.778382
1006.041775	2585.607808
1006.335974	2586.177458
1006.630138	2580.695203
1006.924266	2583.056984
1007.218359	2585.471697
1007.512416	2578.862744
1007.806438	2580.546489
1008.100425	2580.407857
1008.394376	2579.293762
1008.688292	2584.395410
1008.982172	2585.383476
1009.276017	2584.954978
1009.569827	2583.876171
1009.863602	2585.751481
1010.157341	2582.943558
1010.451045	2584.516398
1010.744714	2584.402972
1011.038347	2582.963722
1011.331945	2581.826942
1011.625508	2583.835842
1011.919036	2585.302818
1012.212528	2584.415575
1012.505986	2584.985225
1012.799408	2583.762745
1013.092795	2582.474731
1013.386147	2584.145873
1013.679464	2584.100503
1013.972745	2580.997672
1014.265992	2583.263671
1014.559204	2583.064546
1014.852380	2582.615883
1015.145521	2582.212591
1015.438628	2584.261820
1015.731699	2583.233424
1016.024736	2584.781058
1016.317737	2582.744432
1016.610703	2584.312231
1016.903635	2583.939186
1017.196531	2584.420616
1017.489393	2584.886923
1017.782219	2584.385328
1018.075011	2582.353743
1018.367768	2582.230235
1018.660490	2582.953640
1018.953177	2582.953640
1019.245829	2582.953640
