Dividing Wavelength (nm)	Counts (n)	Blue Motor Position (mm): 46.300000	Red Motor Position (mm): 0.000000	
326.493990	2269.787081
326.888308	2269.787081
327.282561	2269.787081
327.676750	2232.480022
328.070874	2226.798642
328.464933	2228.653786
328.858929	2233.614282
329.252859	2237.465723
329.646726	2245.559296
330.040528	2259.344331
330.434265	2270.470157
330.827938	2290.365071
331.221547	2307.565488
331.615091	2324.982674
332.008571	2343.113184
332.401986	2363.393746
332.795338	2382.373690
333.188625	2401.852709
333.581847	2421.490524
333.975006	2441.529110
334.368100	2460.657768
334.761129	2477.371714
335.154095	2495.822337
335.546996	2518.131963
335.939833	2561.720300
336.332606	2579.475244
336.725315	2590.217943
337.117960	2601.202617
337.510540	2612.593104
337.903056	2624.006277
338.295508	2634.106228
338.687896	2643.853299
339.080220	2648.586943
339.472480	2655.100113
339.864676	2660.859632
340.256807	2665.956238
340.648875	2668.007988
341.040879	2673.558298
341.432818	2674.188442
341.824694	2677.422343
342.216506	2676.855213
342.608253	2680.318486
342.999937	2678.047446
343.391557	2678.097857
343.783113	2677.225738
344.174605	2678.541479
344.566033	2674.216169
344.957397	2676.681293
345.348697	2676.391427
345.739934	2674.478309
346.131106	2672.020746
346.522215	2669.112001
346.913260	2671.110818
347.304241	2667.521517
347.695159	2666.331804
348.086012	2663.879283
348.476802	2665.416835
348.867528	2658.853252
349.258191	2656.267141
349.648789	2655.362253
350.039324	2652.211532
350.429796	2655.677326
350.820203	2655.861328
351.210548	2652.796306
351.600828	2651.490647
351.991045	2649.814464
352.381198	2648.977632
352.771288	2649.953095
353.161314	2650.260606
353.551276	2649.217087
353.941175	2649.779176
354.331010	2648.576860
354.720782	2648.100471
355.110490	2646.923362
355.500135	2645.713485
355.889717	2647.656850
356.279235	2646.976294
356.668689	2648.488640
357.058080	2644.395223
357.447408	2648.130718
357.836672	2648.959988
358.225873	2649.784217
358.615010	2650.363949
359.004084	2650.724392
359.393095	2652.418220
359.782043	2651.994763
360.170927	2654.064156
360.559748	2653.297901
360.948505	2653.943169
361.337199	2655.019455
361.725830	2656.141112
362.114398	2655.692449
362.502903	2656.186482
362.891344	2656.783859
363.279722	2657.955927
363.668037	2654.780000
364.056289	2656.975423
364.444478	2657.177069
364.832603	2660.723521
365.220665	2661.913233
365.608665	2661.235198
365.996601	2658.976761
366.384474	2662.124961
366.772284	2660.675630
367.160031	2663.226453
367.547715	2662.687050
367.935336	2666.682164
368.322893	2662.432472
368.710388	2661.741834
369.097820	2663.884324
369.485189	2661.787204
369.872495	2668.360869
370.259738	2669.301044
370.646918	2668.363389
371.034035	2667.508914
371.421090	2669.752227
371.808081	2670.803308
372.195010	2673.454955
372.581875	2675.390758
372.968678	2680.560461
373.355418	2682.155986
373.742096	2687.834846
374.128710	2693.927080
374.515262	2701.133410
374.901751	2713.501881
375.288177	2721.648385
375.674540	2738.314440
376.060841	2753.556369
376.447079	2774.870367
376.833254	2797.979016
377.219367	2814.009886
377.605417	2843.674555
377.991404	2864.005529
378.377329	2901.289903
378.763191	2924.123809
379.148991	2963.863225
379.534727	3002.218844
379.920402	3039.228475
380.306013	3064.310736
380.691563	3128.860190
381.077049	3156.939417
381.462474	3198.100438
381.847835	3256.469438
382.233134	3304.236891
382.618371	3333.465501
383.003545	3400.618712
383.388657	3434.313784
383.773706	3498.323835
384.158693	3535.918240
384.543618	3573.414342
384.928480	3633.222591
385.313280	3690.495140
385.698017	3721.334399
386.082692	3815.445179
386.467305	3820.410716
386.851856	3860.906305
387.236344	3945.199438
387.620770	3971.857060
388.005133	4026.787993
388.389435	4074.144592
388.773674	4087.465841
389.157851	4164.827388
389.541965	4229.780135
389.926018	4196.969785
390.310008	4300.903254
390.693936	4354.014330
391.077802	4391.061770
391.461606	4390.666039
391.845348	4458.028457
392.229027	4519.623796
392.612645	4516.984752
392.996200	4621.437459
393.379694	4677.850491
393.763125	4788.677738
394.146494	4815.600020
394.529801	4868.806878
394.913047	4952.086740
395.296230	4902.065891
395.679351	5009.273589
396.062410	5066.616714
396.445408	5035.253176
396.828343	5093.710396
397.211217	5152.311288
397.594028	5038.701325
397.976778	5150.940095
398.359466	5197.656467
398.742092	5223.835179
399.124656	5142.470956
399.507158	5258.505715
399.889598	5320.816897
400.271977	5444.410866
400.654294	5439.064722
401.036549	5488.362166
401.418742	5405.856121
401.800874	5612.372030
402.182944	5671.726575
402.564952	5780.638183
402.946898	5838.334189
403.328783	5674.030382
403.710606	5692.536458
404.092367	6017.448906
404.474067	6041.641403
404.855705	5937.471000
405.237282	5872.049426
405.618797	6128.273632
406.000250	6107.967864
406.381642	6310.523946
406.762972	6335.792730
407.144240	6385.506069
407.525447	6376.333689
407.906593	6391.726852
408.287677	6556.217182
408.668700	6468.596887
409.049661	6580.863383
409.430560	6609.156859
409.811399	6473.517053
410.192176	6737.600418
410.572891	6752.955773
410.953545	6944.524660
411.334138	6675.306880
411.714669	6853.736000
412.095139	6640.104503
412.475547	6883.002418
412.855894	6958.617205
413.236180	7144.832387
413.616405	6804.854451
413.996568	7025.563728
414.376670	7078.395021
414.756711	6969.722867
415.136691	7064.673000
415.516609	7269.472396
415.896466	7252.221567
416.276262	7460.537168
416.655997	7447.031916
417.035670	7619.013400
417.415283	7965.519631
417.794834	8032.592182
418.174324	7886.849904
418.553753	7812.102196
418.933121	8110.006662
419.312428	8208.467958
419.691674	7988.071232
420.070859	8469.120818
420.449983	8146.701220
420.829045	8512.593208
421.208047	8280.710213
421.586988	8591.464580
421.965867	8615.089948
422.344686	8706.223927
422.723444	8780.263353
423.102141	8115.297352
423.480777	8886.641782
423.859352	8406.393740
424.237866	9024.202267
424.616319	8892.441629
424.994712	9320.685128
425.373044	8862.098924
425.751314	9346.460548
426.129524	9227.464111
426.507673	9310.335639
426.885762	9462.739802
427.263789	9388.329851
427.641756	9323.913987
428.019662	9406.059589
428.397508	9678.937247
428.775292	9334.893620
429.153016	9725.696469
429.530679	9556.512826
429.908282	9573.133510
430.285824	9298.045306
430.663305	9987.544082
431.040726	9434.824413
431.418086	9410.757944
431.795385	9752.046580
432.172624	9844.312299
432.549802	9752.838042
432.926920	9825.276902
433.303977	9697.579434
433.680974	9900.962265
434.057910	9996.625721
434.434786	10068.701618
434.811601	9889.057580
435.188355	10461.901536
435.565050	10194.173417
435.941683	10121.893353
436.318257	10603.676426
436.694770	10777.019022
437.071222	10823.105250
437.447614	10649.409774
437.823946	10571.405480
438.200218	10667.752012
438.576429	10508.819555
438.952580	10758.979253
439.328670	10776.736717
439.704700	10580.587941
440.080670	10571.662578
440.456580	11094.828483
440.832429	10884.272090
441.208218	10485.179064
441.583947	10776.857705
441.959616	10960.083482
442.335224	10773.187745
442.710773	10881.968283
443.086261	11117.440579
443.461689	10375.513803
443.837057	11068.067518
444.212365	11298.909515
444.587612	10936.503485
444.962800	11148.852009
445.337927	10887.861392
445.712995	10566.339120
446.088002	11610.644386
446.462949	11298.349947
446.837837	11265.680749
447.212664	11192.175685
447.587431	11779.230653
447.962139	12541.989998
448.336786	14841.643394
448.711374	15317.384645
449.085901	13133.435811
449.460369	12785.175259
449.834776	12232.324520
450.209124	13165.817662
450.583412	13584.036827
450.957640	14507.924051
451.331808	13554.591447
451.705917	12623.550826
452.079965	11864.637882
452.453954	12788.003346
452.827883	12439.238679
453.201752	12734.851941
453.575562	12277.279009
453.949311	12687.195393
454.323001	12673.402796
454.696632	12919.108634
455.070202	13188.865818
455.443713	13377.258778
455.817164	13881.033885
456.190556	13848.805788
456.563888	14213.296335
456.937160	14347.280122
457.310373	13713.886867
457.683526	13828.580679
458.056619	13337.184126
458.429653	13556.300398
458.802628	12902.172878
459.175542	13330.638187
459.548398	14276.411581
459.921194	14641.002951
460.293930	14716.920207
460.666607	15553.255192
461.039224	16612.338601
461.411782	17344.029314
461.784280	17127.123587
462.156719	17238.918736
462.529099	16896.009369
462.901419	15863.402100
463.273680	15611.964470
463.645882	15520.533062
464.018024	15237.217696
464.390106	15469.201513
464.762130	16186.855134
465.134094	16983.521279
465.505999	19059.924657
465.877845	22323.045898
466.249631	25144.297401
466.621358	24731.149637
466.993026	23324.965142
467.364634	22730.731571
467.736184	21258.034092
468.107674	20462.638318
468.479105	20598.285685
468.850477	20044.509894
469.221790	19660.018570
469.593043	18964.248598
469.964238	18386.867604
470.335373	18030.145476
470.706449	18534.318834
471.077467	18113.576572
471.448425	19993.566514
471.819324	24143.963599
472.190164	25969.914893
472.560945	22279.593672
472.931667	19990.052830
473.302330	19382.543380
473.672934	19027.991468
474.043479	19242.661443
474.413965	19053.605571
474.784393	18642.764135
475.154761	19417.592002
475.525070	19326.243774
475.895321	19054.308812
476.265513	19664.643828
476.635645	20246.829042
477.005719	20006.920531
477.375734	20184.364105
477.745691	20684.189468
478.115588	21220.827856
478.485427	21797.835805
478.855207	22882.689592
479.224928	24690.391908
479.594591	26909.132266
479.964194	26806.204507
480.333739	27043.201752
480.703226	26630.540460
481.072653	26347.787182
481.442022	26965.963713
481.811333	27900.076918
482.180584	27778.622919
482.549777	26827.601684
482.918912	26501.852405
483.287988	26642.611503
483.657005	26254.861072
484.025964	26055.949745
484.394864	25906.151858
484.763706	25566.907410
485.132489	25040.353850
485.501213	25227.065585
485.869879	25133.963035
486.238487	24993.256870
486.607036	25103.771565
486.975527	24852.669171
487.343959	25139.745239
487.712333	25060.538630
488.080648	24712.467121
488.448905	25225.845626
488.817104	24990.494317
489.185244	25698.763830
489.553326	25641.166127
489.921350	26700.433538
490.289315	29059.675893
490.657222	30768.690062
491.025070	31281.670315
491.392861	31021.357734
491.760593	30168.583546
492.128267	29238.911598
492.495883	28177.668055
492.863440	27311.350807
493.230939	26453.535466
493.598380	26270.024863
493.965763	25895.968727
494.333088	25388.916871
494.700354	25372.523038
495.067563	25217.779780
495.434713	24968.303158
495.801805	25135.893797
496.168839	24902.828652
496.535815	24784.986640
496.902733	24999.991851
497.269593	24700.862385
497.636395	24854.844429
498.003139	24792.258504
498.369825	24524.134655
498.736453	24754.066723
499.103023	24620.907164
499.469535	24609.670433
499.835989	24845.127605
500.202385	24857.906930
500.568723	24402.884822
500.935003	24579.373098
501.301226	24264.215283
501.667390	25112.669202
502.033497	25308.328985
502.399546	25048.165118
502.765537	24584.532719
503.131470	24968.676204
503.497345	25118.456446
503.863163	24360.420663
504.228923	24888.267279
504.594625	25145.335878
504.960269	24705.250709
505.325856	25181.352402
505.691385	24579.499127
506.056856	25170.342522
506.422270	25168.081565
506.787625	24689.212278
507.152924	25128.395081
507.518164	25166.360011
507.883347	24989.395346
508.248472	24656.873277
508.613540	25428.278200
508.978550	25231.776543
509.343503	25252.203299
509.708398	25453.103362
510.073236	25626.806400
510.438016	25827.978685
510.802738	25486.127961
511.167403	25743.161272
511.532010	25490.037376
511.896561	26233.789049
512.261053	26206.581942
512.625488	26044.108074
512.989866	25925.469560
513.354186	25757.631904
513.718449	25890.667954
514.082655	26273.586438
514.446803	25983.843601
514.810894	26479.298283
515.174927	25955.419055
515.538904	26002.838668
515.902822	26492.042320
516.266684	26251.327224
516.630488	26149.422819
516.994235	26093.574396
517.357925	26429.433710
517.721558	26585.626300
518.085133	26725.455305
518.448651	26593.155263
518.812112	26364.785953
519.175516	26596.018638
519.538863	26739.870484
519.902152	26529.770315
520.265385	26780.693748
520.628560	26587.461280
520.991678	26571.818579
521.354739	26629.638093
521.717743	26730.599802
522.080690	26492.705232
522.443580	26829.953383
522.806413	26791.040716
523.169189	26919.806909
523.531908	26963.135626
523.894569	26579.740753
524.257174	26682.769334
524.619722	26815.235734
524.982213	26536.406994
525.344647	26558.227629
525.707025	26723.874903
526.069345	26671.920771
526.431608	26643.949929
526.793815	26812.730281
527.155964	26328.257752
527.518057	26484.243655
527.880093	26400.187456
528.242072	26618.968491
528.603995	26345.685021
528.965860	26136.502342
529.327669	26168.793453
529.689421	26161.466136
530.051117	26004.759348
530.412755	26173.983321
530.774337	25945.208198
531.135862	25856.274682
531.497331	26032.311774
531.858743	25635.139427
532.220098	26075.537148
532.581396	25786.502592
532.942638	25671.208883
533.303824	25790.936287
533.664953	25772.646981
534.026025	25452.964730
534.387040	25703.101743
534.747999	25744.441725
535.108902	25902.207155
535.469748	25405.411526
535.830537	25555.867283
536.191270	25698.640322
536.551947	25520.087694
536.912567	25138.709282
537.273131	25600.849499
537.633638	25253.040130
537.994089	25479.516488
538.354483	24961.724453
538.714821	25480.474307
539.075103	25521.156418
539.435328	25285.051457
539.795497	24893.794904
540.155609	25233.059517
540.515665	25552.078856
540.875665	24755.856332
541.235609	25106.652584
541.595496	25026.074781
541.955328	25405.880353
542.315102	25323.840616
542.674821	24826.281252
543.034483	24709.795310
543.394090	24879.687235
543.753640	24689.907958
544.113134	25316.225953
544.472571	24906.188581
544.831953	25218.747681
545.191278	24864.344484
545.550548	24745.993315
545.909761	24945.509581
546.268918	25187.517733
546.628019	25167.111143
546.987064	24836.655946
547.346053	24578.979888
547.704986	24672.878940
548.063863	24843.708520
548.422684	24864.959504
548.781449	24357.053172
549.140158	24771.635144
549.498811	24347.946328
549.857408	24121.928716
550.215949	24498.364276
550.574434	24207.114133
550.932864	24396.419542
551.291237	24591.996147
551.649555	24429.255098
552.007817	24499.185984
552.366022	24332.681714
552.724173	24348.417676
553.082267	24338.063146
553.440305	24814.729447
553.798288	24042.404514
554.156215	24532.936509
554.514086	24675.283570
554.871902	24069.478030
555.229661	24326.027391
555.587365	24180.511964
555.945014	24096.438121
556.302606	24293.375837
556.660143	24292.269304
557.017625	24506.808209
557.375050	24030.830024
557.732421	24417.912502
558.089735	24247.077880
558.446994	24300.980418
558.804197	24343.247972
559.161345	24227.752617
559.518437	24025.839282
559.875474	24190.685013
560.232455	24383.241966
560.589381	24174.795296
560.946251	24195.237175
561.303065	24476.266378
561.659825	24581.437450
562.016528	24184.423900
562.373177	23910.694287
562.729770	24278.738847
563.086307	24117.676502
563.442789	24304.589884
563.799216	24154.769312
564.155587	24140.583505
564.511904	24115.166008
564.868164	24085.871863
565.224370	24037.388566
565.580520	23980.978054
565.936615	24093.408388
566.292654	23799.337719
566.648638	24031.951681
567.004567	23881.662282
567.360441	23808.820130
567.716260	23529.799826
568.072023	23840.029913
568.427732	23633.201453
568.783385	23374.005487
569.138982	23637.511640
569.494525	23660.274970
569.850013	23433.536473
570.205445	23532.196895
570.560823	23353.883721
570.916145	23121.305047
571.271412	23320.826355
571.626625	23058.094019
571.981782	23156.787209
572.336884	22962.967446
572.691931	23102.821657
573.046923	22859.865768
573.401860	22730.434143
573.756743	22761.772476
574.111570	22645.878869
574.466342	22564.197054
574.821059	22639.708497
575.175722	22342.086336
575.530330	22304.980923
575.884882	22316.520124
576.239380	22234.891240
576.593823	22130.078090
576.948211	22103.291919
577.302544	21954.252726
577.656823	21821.214156
578.011047	21930.405548
578.365216	21794.274230
578.719330	21672.976506
579.073389	21557.884443
579.427394	21725.311245
579.781344	21449.421498
580.135239	21351.572702
580.489080	21290.529370
580.842866	21086.649985
581.196597	21299.888272
581.550273	21250.893298
581.903895	21122.379163
582.257463	21442.517638
582.610975	20972.750155
582.964434	21305.299951
583.317837	20968.729835
583.671186	21063.422868
584.024481	21052.443235
584.377721	20818.800878
584.730906	20897.994884
585.084037	20879.120804
585.437113	20807.823766
585.790135	21020.159686
586.143103	20470.147116
586.496016	20504.739514
586.848874	20726.119265
587.201679	20634.007302
587.554428	20331.754840
587.907124	20678.145124
588.259765	20421.676422
588.612352	20499.801704
588.964884	20070.111394
589.317362	20235.698174
589.669786	20302.443051
590.022155	20291.425610
590.374470	20547.352388
590.726731	20296.323091
591.078937	20100.799418
591.431090	20172.275418
591.783188	19948.901891
592.135232	19898.286186
592.487222	19999.439458
592.839157	20004.762917
593.191038	19878.764317
593.542866	19777.416961
593.894639	19467.781730
594.246358	19697.875115
594.598022	19577.058822
594.949633	19334.975052
595.301190	19329.460030
595.652692	19493.252159
596.004141	19708.736281
596.355535	19045.791782
596.706876	19069.631399
597.058162	18966.151634
597.409395	19203.244661
597.760573	19240.327389
598.111698	19015.721300
598.462768	18968.243713
598.813785	18943.526935
599.164748	18737.399196
599.515657	18788.617319
599.866511	18589.915199
600.217312	18941.898643
600.568060	18446.428837
600.918753	18759.728987
601.269392	18662.578390
601.619978	18472.645358
601.970510	18654.036155
602.320988	18602.167723
602.671412	18790.056568
603.021783	18728.912413
603.372100	18434.766127
603.722363	18593.403677
604.072572	18537.686324
604.422728	18688.830199
604.772830	18430.692875
605.122878	18396.685251
605.472872	18368.444708
605.822813	18358.596813
606.172701	18338.969081
606.522534	18517.990536
606.872314	18551.773829
607.222041	18389.141165
607.571714	18603.904401
607.921333	18417.608560
608.270899	18495.615375
608.620411	18652.649838
608.969870	18457.095918
609.319276	18439.277960
609.668627	18471.296849
610.017926	18613.661554
610.367171	18714.396411
610.716362	18782.951062
611.065500	18581.839270
611.414585	18745.805320
611.763616	18724.962669
612.112594	18650.640938
612.461518	18633.528741
612.810389	18824.233071
613.159207	18672.948044
613.507971	18581.206606
613.856682	18829.652311
614.205340	18759.872660
614.553945	18917.897709
614.902496	18669.557868
615.250994	18861.157002
615.599439	18815.456422
615.947830	18805.853024
616.296169	18881.563593
616.644454	18835.374021
616.992686	18820.454726
617.340864	19036.659732
617.688990	18779.349157
618.037063	18948.691597
618.385082	18814.720413
618.733048	19078.506350
619.080961	18976.004569
619.428821	19009.349281
619.776628	18871.877016
620.124382	18799.430594
620.472083	18870.258805
620.819731	18864.627837
621.167326	18561.835972
621.514868	18596.342670
621.862357	18387.175115
622.209793	18377.241521
622.557176	18214.407211
622.904506	18046.052837
623.251783	17986.458837
623.599007	17729.791009
623.946179	17669.743305
624.293297	17592.643898
624.640363	17323.211869
624.987376	17352.649687
625.334336	17156.873957
625.681243	17000.842683
626.028097	17031.167744
626.374899	16932.691325
626.721647	16801.253320
627.068343	16645.794218
627.414987	16568.334369
627.761577	16542.735389
628.108115	16568.321766
628.454600	16298.438553
628.801032	16398.490334
629.147412	16337.825088
629.493739	16343.934967
629.840014	16156.991338
630.186236	16252.284269
630.532405	16019.640061
630.878521	16209.358844
631.224585	16116.074813
631.570597	15939.833554
631.916556	15966.528984
632.262462	15938.399346
632.608316	15859.838004
632.954117	15810.986703
633.299866	15791.820236
633.645562	15711.650766
633.991206	15478.618389
634.336797	15350.565519
634.682336	15316.131918
635.027823	15179.541854
635.373257	15041.066399
635.718639	14969.272807
636.063968	14912.476647
636.409245	14653.048788
636.754470	14699.349265
637.099642	14539.146437
637.444762	14326.230784
637.789829	14358.423593
638.134845	14189.444116
638.479808	14219.895205
638.824719	14126.711997
639.169577	14005.187422
639.514383	14035.325960
639.859137	13873.159603
640.203839	13968.752483
640.548489	13813.747084
640.893086	13800.619919
641.237632	13673.174509
641.582125	13843.517618
641.926566	13648.321621
642.270955	13664.193693
642.615292	13622.377322
642.959576	13627.567190
643.303809	13653.750943
643.647990	13587.709307
643.992118	13657.993074
644.336195	13426.810800
644.680219	13651.981498
645.024192	13560.325760
645.368112	13797.655721
645.711981	13837.838758
646.055797	14023.685936
646.399562	14003.186084
646.743274	14272.749183
647.086935	14539.673238
647.430544	14513.111398
647.774101	14548.888467
648.117606	14684.997100
648.461059	14664.789635
648.804460	14647.818591
649.147810	14365.234191
649.491108	14283.640596
649.834354	14295.187359
650.177548	13975.358915
650.520690	13783.250624
650.863781	13711.598184
651.206820	13758.896810
651.549807	13587.787445
651.892742	13368.819887
652.235626	13306.864106
652.578458	13315.920539
652.921238	13016.811237
653.263967	13215.329355
653.606644	13047.577399
653.949269	13030.689534
654.291843	12819.679437
654.634365	12986.032472
654.976836	12835.833814
655.319255	12826.384171
655.661622	12790.292030
656.003938	12719.688150
656.346203	12636.062969
656.688416	12724.041186
657.030577	12671.230059
657.372687	12570.538052
657.714746	12566.656363
658.056753	12760.461002
658.398708	12561.884911
658.740612	12570.172568
659.082465	12679.134588
659.424266	12645.678970
659.766016	12679.724403
660.107715	12596.237854
660.449362	12674.166531
660.790958	12613.760905
661.132503	12558.575394
661.473996	12632.577012
661.815438	12646.309115
662.156829	12672.802899
662.498168	12639.150676
662.839456	12644.171665
663.180693	12661.621619
663.521879	12762.192639
663.863013	12727.559912
664.204097	12692.813759
664.545129	12828.075478
664.886110	12803.109164
665.227040	12907.995411
665.567918	12903.869226
665.908746	12912.781986
666.249522	12909.016244
666.590248	12970.301552
666.930922	13082.111823
667.271545	13044.411554
667.612118	13131.157209
667.952639	13025.751723
668.293109	13061.553998
668.633528	13009.252027
668.973896	12987.086073
669.314213	13039.501471
669.654480	12790.823872
669.994695	12879.240669
670.334859	12907.944999
670.674973	12840.559896
671.015035	12867.325902
671.355047	12819.243377
671.695008	12795.469295
672.034918	12814.018221
672.374777	12843.450998
672.714585	12752.254004
673.054342	12793.041980
673.394049	12754.807348
673.733705	12846.979805
674.073310	12746.497006
674.412864	12756.712904
674.752368	12600.369080
675.091820	12661.006599
675.431223	12620.740382
675.770574	12487.263231
676.109875	12409.949575
676.449125	12360.384951
676.788324	12321.101759
677.127473	12150.153712
677.466571	12146.387970
677.805619	12025.649815
678.144616	11970.658388
678.483562	11942.551435
678.822458	11813.583596
679.161303	11790.606017
679.500098	11772.881320
679.838842	11735.085269
680.177535	11768.561051
680.516179	11834.627893
680.854771	11773.221598
681.193314	11983.863691
681.531805	12161.526555
681.870247	12599.880088
682.208638	13011.351668
682.546978	13302.891677
682.885268	13325.753309
683.223508	13038.306717
683.561697	12887.379612
683.899836	12791.176753
684.237925	12583.818972
684.575963	12500.690345
684.913951	12412.389494
685.251889	12375.432795
685.589776	12475.459370
685.927614	12387.322356
686.265401	12367.805529
686.603137	12423.563211
686.940824	12563.049418
687.278460	12702.903628
687.616046	12735.502250
687.953582	12885.670661
688.291068	12830.724605
688.628504	13061.589286
688.965889	13066.942992
689.303224	13030.727342
689.640510	12907.380390
689.977745	12583.740834
690.314930	12367.127494
690.652065	12278.839246
690.989150	11981.491828
691.326185	11753.956828
691.663170	11542.677029
692.000105	11315.119345
692.336990	11184.566063
692.673825	10925.465879
693.010610	10818.820269
693.347345	10606.862435
693.684030	10418.698847
694.020665	10355.964208
694.357251	10160.029682
694.693786	10088.530997
695.030272	9930.808416
695.366707	9816.727105
695.703093	9757.841387
696.039429	9741.994520
696.375716	9648.024891
696.711952	9536.627994
697.048139	9580.551568
697.384276	9532.794197
697.720363	9555.948216
698.056400	9484.759562
698.392388	9430.438609
698.728326	9397.320749
699.064214	9339.077778
699.400053	9375.071616
699.735842	9193.267444
700.071581	9151.617431
700.407270	9081.676462
700.742910	9002.187549
701.078501	8899.607630
701.414042	8773.959391
701.749533	8715.857572
702.084974	8572.882887
702.420366	8699.519192
702.755709	8570.516065
703.091002	8436.829707
703.426246	8465.113100
703.761440	8420.798837
704.096584	8386.269454
704.431679	8313.492837
704.766725	8297.073798
705.101721	8256.278261
705.436668	8310.049728
705.771565	8194.572017
706.106413	8284.886809
706.441212	8312.487126
706.775961	8274.428935
707.110661	8325.326945
707.445311	8450.289587
707.779913	8352.849125
708.114465	8476.680028
708.448967	8510.599431
708.783421	8677.317951
709.117825	8850.902522
709.452180	8879.410247
709.786485	8970.145975
710.120742	9257.368236
710.454949	9262.784956
710.789107	9367.010811
711.123216	9598.185524
711.457275	9770.691288
711.791286	9914.626313
712.125247	9915.793340
712.459159	9901.839426
712.793023	10123.967788
713.126837	9704.886586
713.460602	9862.084887
713.794318	9692.245893
714.127985	9718.946364
714.461602	9373.203869
714.795171	9330.739709
715.128691	9074.964166
715.462162	8836.908279
715.795584	8780.240668
716.128957	8606.474616
716.462281	8441.404554
716.795556	8491.420362
717.128782	8282.623331
717.461960	8030.555556
717.795088	8095.503262
718.128167	8004.928851
718.461198	7844.564706
718.794180	7797.702140
719.127113	7783.148328
719.459997	7607.625434
719.792833	7387.052268
720.125619	7458.596323
720.458357	7307.555792
720.791046	7302.943137
721.123686	7292.883514
721.456278	7129.839996
721.788821	7148.215002
722.121315	7053.441309
722.453761	7123.901517
722.786158	7058.263173
723.118506	7067.183495
723.450805	7036.094699
723.783056	7088.195024
724.115259	7020.368819
724.447412	7010.972109
724.779518	7068.514359
725.111574	7065.358597
725.443582	7138.800647
725.775542	7115.565969
726.107453	7313.378325
726.439315	7217.258645
726.771129	7302.262581
727.102895	7480.671536
727.434612	7580.047802
727.766281	7626.338197
728.097901	7694.537447
728.429473	7708.211577
728.760996	7694.963424
729.092471	7668.361255
729.423897	7603.307686
729.755276	7596.081192
730.086606	7508.307141
730.417887	7616.492823
730.749120	7844.877257
731.080305	8035.858850
731.411442	8126.967624
731.742530	8111.995397
732.073570	8225.590237
732.404562	8311.993093
732.735506	8176.580139
733.066401	8307.466137
733.397249	8221.975730
733.728048	7975.662432
734.058798	7647.427864
734.389501	7407.398365
734.720156	7242.416523
735.050762	7019.474015
735.381320	6937.131808
735.711831	6870.807867
736.042293	6759.990703
736.372707	6779.744464
736.703073	6646.169011
737.033391	6689.641401
737.363661	6697.286311
737.693883	6739.838690
738.024056	6820.862635
738.354182	6850.202151
738.684260	6885.926287
739.014290	7010.523446
739.344272	7118.706607
739.674207	7154.445868
740.004093	7230.408494
740.333931	7241.257057
740.663722	7249.917760
740.993464	7323.785787
741.323159	7296.747558
741.652806	7054.068933
741.982405	7096.281035
742.311956	7125.517206
742.641460	6943.269412
742.970915	6751.975268
743.300323	6746.858497
743.629683	6708.281067
743.958996	6569.112453
744.288260	6474.530325
744.617477	6424.058293
744.946647	6415.508496
745.275768	6261.128200
745.604842	6211.243462
745.933869	6191.620771
746.262847	6156.592314
746.591778	6134.754035
746.920662	6097.807419
747.249498	6099.090392
747.578286	6145.791642
747.907027	6217.292847
748.235720	6279.805675
748.564365	6256.291213
748.892963	6302.929448
749.221514	6432.056083
749.550017	6242.528863
749.878473	6136.289067
750.206881	6199.293407
750.535242	6150.210213
750.863555	6079.883596
751.191821	6086.401808
751.520039	6078.093987
751.848210	5982.208720
752.176334	6024.980390
752.504411	6065.405402
752.832440	5987.633001
753.160421	5919.872332
753.488356	5968.007789
753.816243	5990.861860
754.144082	5848.335838
754.471875	5824.975131
754.799620	5864.921234
755.127318	5873.826433
755.454969	5833.996276
755.782572	5804.356812
756.110129	5842.452812
756.437638	5819.092105
756.765100	5764.514053
757.092515	5773.693994
757.419882	5826.280790
757.747203	5803.900588
758.074477	5857.745152
758.401703	5839.879303
758.728882	5802.521832
759.056014	5873.914653
759.383099	5978.894161
759.710138	5993.881512
760.037129	5985.603937
760.364073	5987.232230
760.690970	6065.085289
761.017820	6042.848759
761.344623	6008.523543
761.671379	6118.483711
761.998088	6247.570017
762.324751	6510.884606
762.651366	7155.234808
762.977935	8538.812249
763.304456	10200.036279
763.630931	11053.891794
763.957359	10576.338249
764.283740	9615.181774
764.610074	8735.417249
764.936362	7737.046977
765.262602	7144.615618
765.588796	6615.816223
765.914943	6284.168794
766.241044	6111.942814
766.567097	5889.121293
766.893104	5635.846162
767.219064	5459.945181
767.544978	5400.572992
767.870845	5317.023429
768.196665	5211.643149
768.522438	5141.167818
768.848165	5104.019555
769.173846	5034.801992
769.499479	4988.730887
769.825066	4941.528043
770.150607	4880.948497
770.476101	4858.749777
770.801548	4845.632694
771.126949	4761.463069
771.452303	4711.371644
771.777611	4677.391746
772.102872	4692.237944
772.428087	4659.097399
772.753256	4614.715081
773.078378	4564.394283
773.403453	4494.397862
773.728482	4485.222962
774.053465	4436.820323
774.378401	4426.843880
774.703291	4418.757869
775.028135	4343.513607
775.352932	4297.266061
775.677683	4286.767858
776.002388	4299.600115
776.327046	4310.829286
776.651658	4236.336155
776.976224	4175.295344
777.300743	4181.841282
777.625216	4205.265003
777.949643	4187.956202
778.274024	4151.914472
778.598359	4113.480715
778.922647	4142.747134
779.246889	4124.430102
779.571086	4118.489102
779.895236	4102.909416
780.219339	4095.594702
780.543397	4088.658074
780.867409	4143.767968
781.191374	4155.329854
781.515294	4088.106067
781.839167	4084.355449
782.162995	4108.474850
782.486776	4096.406327
782.810511	4105.472842
783.134201	4090.800564
783.457844	4046.072927
783.781441	3994.262468
784.104993	3997.987881
784.428498	4019.624513
784.751958	4011.374665
785.075372	3992.828260
785.398739	3955.624544
785.722061	3967.635093
786.045337	4015.032022
786.368568	4036.789642
786.691752	3949.554995
787.014891	4014.439686
787.337983	4148.496570
787.661030	4310.168894
787.984031	4469.219819
788.306987	4636.891116
788.629897	4726.018716
788.952760	4680.068599
789.275579	4609.003453
789.598351	4540.065674
789.921078	4383.757138
790.243759	4186.143907
790.566395	4179.305582
790.888984	4168.154549
791.211529	4063.326276
791.534027	3997.839167
791.856480	3978.581959
792.178888	3924.565996
792.501249	3879.361969
792.823566	3890.276067
793.145836	3914.892021
793.468062	3859.247765
793.790241	3822.129749
794.112375	3852.210314
794.434464	3920.187753
794.756507	3938.638377
795.078505	3912.265580
795.400457	3957.817446
795.722364	4103.983182
796.044226	4208.997978
796.366042	4281.734266
796.687812	4250.277466
797.009538	4254.020523
797.331218	4220.779154
797.652852	4192.667160
797.974442	4169.873583
798.295986	4166.715300
798.617484	4079.911672
798.938938	3997.972757
799.260346	4045.452865
799.581709	4033.941390
799.903026	3955.405254
800.224299	3921.926952
800.545526	3916.608534
800.866708	3877.196793
801.187845	3823.523628
801.508936	3854.826673
801.829983	3839.062985
802.150984	3769.416924
802.471940	3759.392590
802.792851	3764.360647
803.113717	3770.208385
803.434538	3768.960700
803.755314	3708.343345
804.076045	3686.303421
804.396731	3708.839899
804.717372	3737.400556
805.037967	3712.386351
805.358518	3705.679096
805.679024	3735.797469
805.999485	3753.907814
806.319901	3757.098865
806.640272	3765.777211
806.960598	3777.931433
807.280879	3754.679111
807.601115	3774.775671
807.921306	3789.757980
808.241453	3827.102848
808.561554	3794.650420
808.881611	3730.703383
809.201623	3774.901700
809.521590	3783.239768
809.841513	3755.526025
810.161390	3786.924852
810.481223	3755.745315
810.801011	3707.022563
811.120755	3705.313612
811.440453	3733.554156
811.760107	3735.121955
812.079716	3688.289635
812.399281	3664.238290
812.718801	3689.560006
813.038276	3659.703773
813.357707	3654.392917
813.677093	3670.433868
813.996434	3616.818677
814.315731	3632.615132
814.634983	3637.368940
814.954191	3654.236641
815.273354	3673.299764
815.592473	3666.786594
815.911547	3683.467772
816.230577	3730.090883
816.549562	3782.702885
816.868502	3819.818380
817.187399	3841.475177
817.506250	3839.095753
817.825058	3819.170592
818.143821	3917.107608
818.462539	4014.043956
818.781213	4060.599012
819.099843	4128.089979
819.418429	4398.527718
819.736970	4643.295902
820.055466	4896.031630
820.373919	5270.803610
820.692327	5686.592938
821.010691	6188.268404
821.329011	7698.572890
821.647286	10622.421957
821.965517	15388.548093
822.283704	19392.681140
822.601847	21370.345959
822.919945	19421.597199
823.237999	16753.138027
823.556010	14217.576275
823.873976	12043.182948
824.191897	9927.408158
824.509775	8593.964993
824.827609	7465.371634
825.145398	6937.514935
825.463144	6813.744526
825.780845	6923.029180
826.098502	7159.471898
826.416116	8124.394115
826.733685	9497.916974
827.051210	10594.748543
827.368692	10520.530155
827.686129	9180.470475
828.003522	7663.867067
828.320872	6638.629965
828.638177	5914.548873
828.955439	5343.257593
829.272656	4832.629038
829.589830	4568.351589
829.906960	4390.547572
830.224046	4192.606666
830.541088	4072.695260
830.858086	4022.412271
831.175041	3943.803039
831.491952	3934.255093
831.808819	3944.360086
832.125642	4024.746325
832.442421	4188.218342
832.759157	4481.706757
833.075849	5077.979475
833.392497	5973.520291
833.709101	6772.303721
834.025662	7068.179122
834.342179	6640.041488
834.658653	5960.060410
834.975083	5291.069048
835.291469	4703.068863
835.607811	4312.082012
835.924110	4162.142973
836.240366	3955.846355
836.556578	3753.025613
836.872746	3644.993686
837.188871	3600.127416
837.504952	3531.000594
837.820990	3447.897173
838.136984	3407.762027
838.452935	3431.972168
838.768842	3424.546548
839.084706	3450.611834
839.400526	3627.815954
839.716303	3995.109382
840.032037	4552.862643
840.347727	4784.793529
840.663373	4461.726144
840.978977	4067.820464
841.294537	3758.215480
841.610054	3533.286757
841.925527	3425.799275
842.240957	3353.904860
842.556344	3299.415028
842.871687	3234.671489
843.186987	3188.718851
843.502244	3152.619148
843.817458	3114.775206
844.132629	3090.116402
844.447756	3093.768718
844.762840	3071.506983
845.077881	3043.213507
845.392879	3030.287988
845.707833	3027.293543
846.022745	3025.730785
846.337613	3021.400434
846.652438	3009.619258
846.967221	3008.608506
847.281960	2992.779283
847.596656	2989.442039
847.911309	2992.728872
848.225919	2988.000269
848.540485	2979.100112
848.855009	2980.476347
849.169490	2965.181487
849.483928	2958.685960
849.798323	2957.047585
850.112675	2956.382153
850.426984	2969.448823
850.741251	2965.667958
851.055474	2952.450053
851.369654	2945.823456
851.683792	2955.099179
851.997887	2963.684264
852.311938	2966.686271
852.625947	2953.806123
852.939914	2956.157821
853.253837	2956.218315
853.567718	2945.248764
853.881555	2943.985955
854.195350	2960.823409
854.509103	2955.373922
854.822812	2946.110802
855.136479	2943.449072
855.450103	2946.234310
855.763685	2940.230296
856.077224	2938.334822
856.390720	2949.148097
856.704173	2958.151598
857.017584	2949.707665
857.330953	2947.567695
857.644278	2956.939200
857.957561	2968.024697
858.270802	2968.430510
858.584000	2969.685758
858.897155	2954.723613
859.210268	2955.842749
859.523339	2952.177830
859.836367	2951.116667
860.149352	2946.632561
860.462295	2942.619803
860.775195	2949.934517
861.088054	2947.499639
861.400869	2932.204779
861.713642	2930.591609
862.026373	2947.862603
862.339062	2950.743622
862.651708	2953.044909
862.964312	2959.719396
863.276873	2950.597428
863.589392	2964.677371
863.901869	2975.304123
864.214303	2998.148112
864.526696	3011.189577
864.839045	3006.329905
865.151353	3008.275790
865.463619	3003.179184
865.775842	3008.689165
866.088023	3025.176258
866.400162	3029.773791
866.712258	2999.136178
867.024313	2993.608553
867.336325	3002.233967
867.648296	3026.837319
867.960224	3018.627800
868.272110	3001.311436
868.583954	3006.650018
868.895755	3019.252903
869.207515	3008.048938
869.519233	3016.283663
869.830909	3025.594674
870.142542	3032.248997
870.454134	3031.994419
870.765684	3034.706560
871.077191	3035.235881
871.388657	3044.763662
871.700081	3058.808316
872.011463	3069.508165
872.322803	3072.472364
872.634101	3068.288206
872.945357	3088.319231
873.256571	3114.155144
873.567744	3105.592745
873.878874	3101.423710
874.189963	3123.937503
874.501010	3120.196967
874.812015	3114.278653
875.122979	3114.354270
875.433900	3111.352263
875.744780	3119.960033
876.055618	3127.075622
876.366415	3120.338120
876.677169	3132.003350
876.987882	3125.432206
877.298554	3126.732823
877.609183	3152.336844
877.919771	3175.858867
878.230317	3201.959442
878.540822	3254.699993
878.851285	3294.683905
879.161707	3344.994620
879.472087	3460.356385
879.782425	3712.328378
880.092722	4178.367927
880.402977	4724.317327
880.713191	5391.577053
881.023363	6627.950281
881.333494	7943.925848
881.643583	8456.071791
881.953631	8124.464691
882.263637	7431.580780
882.573602	6806.112219
882.883526	6220.514144
883.193408	5645.696577
883.503248	5196.139080
883.813048	4870.818299
884.122806	4543.236560
884.432522	4211.947053
884.742197	3970.997543
885.051831	3780.555354
885.361424	3649.969304
885.670975	3575.534147
885.980485	3482.194663
886.289954	3401.132909
886.599382	3357.171527
886.908768	3318.737770
887.218113	3274.710853
887.527417	3211.063765
887.836680	3163.954183
888.145901	3157.688028
888.455082	3145.188487
888.764221	3093.320056
889.073319	3063.269738
889.382376	3061.049109
889.691392	3066.057496
890.000366	3064.406518
890.309300	3051.702810
890.618193	3064.146898
890.927044	3078.672983
891.235855	3080.041656
891.544625	3065.933987
891.853353	3081.551482
892.162041	3100.097887
892.470687	3141.576501
892.779293	3192.930735
893.087858	3236.224164
893.396381	3322.130467
893.704864	3450.369859
894.013306	3712.068758
894.321707	4023.425543
894.630068	4222.299062
894.938387	4204.254252
895.246665	4163.597346
895.554903	4030.526008
895.863100	3826.712158
896.171256	3653.573729
896.479371	3506.369517
896.787446	3379.319837
897.095480	3275.525000
897.403473	3211.335988
897.711425	3175.170750
898.019336	3164.022238
898.327207	3134.113072
898.635038	3094.245107
898.942827	3082.370669
899.250576	3071.131417
899.558284	3037.214534
899.865952	3021.929755
900.173579	2996.476970
900.481165	2989.230311
900.788711	2975.289000
901.096216	2951.887964
901.403681	2940.895728
901.711105	2948.719599
902.018489	2946.320009
902.325832	2942.987807
902.633135	2958.073460
902.940397	2994.611743
903.247619	3084.079621
903.554800	3293.829429
903.861941	3674.877646
904.169041	4121.208804
904.476101	4413.593207
904.783121	4338.293492
905.090100	4070.507399
905.397039	3786.289666
905.703938	3527.370963
906.010796	3344.021677
906.317614	3228.511199
906.624391	3130.831281
906.931129	3056.113820
907.237826	2992.305415
907.544483	2947.996193
907.851099	2917.688776
908.157675	2891.505023
908.464211	2872.925851
908.770707	2858.271216
909.077163	2844.682786
909.383578	2830.131496
909.689954	2819.625731
909.996289	2819.446770
910.302584	2819.845021
910.608839	2819.676142
910.915054	2810.234061
911.221229	2802.531178
911.527363	2807.106025
911.833458	2818.304949
912.139513	2819.892912
912.445527	2825.080259
912.751502	2832.926815
913.057436	2842.394102
913.363331	2854.974302
913.669186	2881.364742
913.975000	2922.954261
914.280775	2983.528766
914.586510	3054.566185
914.892205	3141.553816
915.197859	3279.878036
915.503475	3491.460304
915.809050	3719.887588
916.114585	3865.733210
916.420081	3867.492572
916.725536	3802.653252
917.030952	3679.702030
917.336328	3543.951318
917.641665	3409.002151
917.946961	3305.411480
918.252218	3232.027404
918.557435	3144.434835
918.862612	3085.705393
919.167750	3034.762013
919.472848	2996.751713
919.777906	2968.813638
920.082925	2938.942281
920.387904	2909.348187
920.692843	2890.423696
920.997743	2878.614793
921.302603	2863.130889
921.607423	2854.457583
921.912204	2839.162723
922.216946	2828.936742
922.521647	2819.600525
922.826310	2810.768424
923.130932	2801.830458
923.435516	2794.765281
923.740059	2785.693724
924.044564	2777.040584
924.349028	2771.936416
924.653454	2766.993564
924.957840	2758.274889
925.262186	2755.053591
925.566493	2750.183837
925.870761	2743.733680
926.174989	2743.887436
926.479178	2733.548029
926.783328	2731.213975
927.087438	2733.091805
927.391509	2731.125755
927.695541	2724.345403
927.999533	2723.150649
928.303486	2722.225597
928.607400	2717.464228
928.911275	2718.850545
929.215110	2717.507077
929.518906	2719.311811
929.822663	2716.602190
930.126381	2715.077241
930.430060	2716.093034
930.733699	2718.333827
931.037299	2719.699979
931.340861	2720.924980
931.644383	2722.276009
931.947866	2717.766697
932.251309	2717.572612
932.554714	2717.451625
932.858080	2715.982128
933.161407	2712.685214
933.464694	2711.709751
933.767943	2708.191025
934.071153	2711.619010
934.374323	2710.807384
934.677455	2711.077086
934.980548	2708.695141
935.283602	2708.435521
935.586617	2705.804039
935.889593	2707.059286
936.192530	2708.493494
936.495428	2707.235727
936.798287	2709.010213
937.101108	2714.734443
937.403890	2719.140411
937.706632	2721.355998
938.009336	2732.746486
938.312002	2740.925758
938.614628	2747.138980
938.917216	2753.876482
939.219765	2752.535535
939.522275	2754.315062
939.824747	2749.140318
940.127179	2747.564957
940.429573	2746.408012
940.731929	2742.914493
941.034246	2738.193452
941.336524	2737.157495
941.638763	2736.766806
941.940964	2732.958214
942.243126	2728.237173
942.545250	2729.358830
942.847335	2723.717779
943.149381	2721.991184
943.451389	2716.561861
943.753359	2715.659495
944.055290	2714.825184
944.357182	2713.648074
944.659036	2712.791078
944.960851	2713.358208
945.262628	2710.363762
945.564367	2709.572301
945.866067	2712.806202
946.167729	2711.704709
946.469352	2711.891232
946.770937	2712.816284
947.072484	2707.601210
947.373992	2709.564740
947.675462	2708.939637
947.976893	2703.832948
948.278286	2701.400591
948.579641	2699.938656
948.880958	2699.066537
949.182236	2703.149871
949.483476	2701.025025
949.784678	2701.982844
950.085841	2700.362113
950.386967	2698.925384
950.688054	2706.109029
950.989103	2702.189532
951.290114	2702.774305
951.591087	2705.047866
951.892021	2707.999461
952.192917	2712.970039
952.493776	2714.926007
952.794596	2713.804350
953.095378	2713.219576
953.396122	2714.298383
953.696828	2711.187991
953.997496	2711.855944
954.298126	2707.805377
954.598718	2704.168184
954.899272	2701.536702
955.199788	2700.800694
955.500266	2697.962524
955.800706	2693.876669
956.101108	2691.630835
956.401472	2694.615198
956.701798	2687.141687
957.002087	2685.843590
957.302337	2683.842252
957.602550	2684.371573
957.902724	2684.593384
958.202861	2682.672704
958.502960	2681.084741
958.803022	2682.007272
959.103045	2681.291428
959.403031	2679.854699
959.702979	2678.367559
960.002889	2676.058711
960.302762	2675.441169
960.602596	2676.804801
960.902393	2675.254647
961.202153	2673.593586
961.501875	2674.337157
961.801559	2675.484019
962.101205	2674.266580
962.400814	2675.085768
962.700385	2673.691889
962.999918	2672.234995
963.299414	2668.600323
963.598873	2670.586538
963.898293	2671.115859
964.197677	2673.013854
964.497022	2670.445386
964.796331	2672.562670
965.095601	2673.500325
965.394835	2673.132321
965.694030	2673.016374
965.993189	2673.495284
966.292309	2672.214831
966.591393	2670.959583
966.890439	2673.865809
967.189447	2673.626354
967.488419	2672.580314
967.787353	2670.442865
968.086249	2671.405726
968.385108	2670.457989
968.683930	2671.909841
968.982714	2672.792043
969.281462	2673.643998
969.580172	2672.592917
969.878844	2672.781961
970.177480	2672.517300
970.476078	2672.240037
970.774639	2672.151816
971.073162	2672.920592
971.371649	2673.560819
971.670098	2673.608710
971.968510	2671.614933
972.266885	2673.429749
972.565223	2673.606189
972.863524	2674.216169
973.161788	2672.164419
973.460014	2672.187104
973.758204	2671.403205
974.056356	2672.812207
974.354471	2669.023780
974.652550	2672.918072
974.950591	2673.505366
975.248595	2671.438493
975.546563	2670.314316
975.844493	2671.660304
976.142386	2672.736590
976.440243	2669.381702
976.738062	2670.210972
977.035845	2671.685510
977.333590	2670.894048
977.631299	2670.994872
977.928971	2668.323060
978.226606	2666.387257
978.524204	2667.627381
978.821765	2665.741989
979.119290	2669.842968
979.416777	2668.585200
979.714228	2671.685510
980.011642	2669.933709
980.309020	2668.348266
980.606360	2668.683502
980.903664	2668.149140
981.200931	2670.770540
981.498162	2671.824141
981.795356	2672.875222
982.092513	2674.284224
982.389633	2675.617610
982.686717	2678.952333
982.983764	2684.323682
983.280775	2684.517767
983.577749	2690.012624
983.874686	2685.518436
984.171587	2683.328054
984.468451	2682.367715
984.765279	2680.184895
985.062070	2678.092816
985.358824	2674.513597
985.655543	2673.054183
985.952224	2672.764317
986.248869	2672.108967
986.545478	2671.191477
986.842050	2671.322547
987.138586	2670.145437
987.435086	2670.531085
987.731549	2668.567556
988.027975	2668.706188
988.324366	2668.391116
988.620719	2666.543533
988.917037	2665.779798
989.213318	2667.892041
989.509563	2666.278872
989.805772	2664.832061
990.101944	2666.573780
990.398080	2667.970179
990.694180	2665.686537
990.990244	2666.309119
991.286271	2666.624191
991.582262	2667.105621
991.878217	2664.769047
992.174136	2667.801301
992.470019	2664.179232
992.765865	2663.342400
993.061676	2662.719817
993.357450	2663.765857
993.653188	2662.220743
993.948890	2667.158553
994.244556	2667.740807
994.540186	2665.547905
994.835780	2665.931032
995.131337	2666.112514
995.426859	2669.026301
995.722345	2667.093018
996.017795	2667.987823
996.313208	2671.287258
996.608586	2671.456137
996.903928	2671.360355
997.199234	2671.314985
997.494504	2668.567556
997.789738	2669.497649
998.084936	2669.752227
998.380099	2671.108297
998.675225	2669.646363
998.970316	2667.468584
999.265371	2670.193328
999.560390	2667.919768
999.855373	2667.990344
1000.150320	2665.880621
1000.445232	2668.113852
1000.740108	2664.736279
1001.034948	2666.513286
1001.329752	2665.220230
1001.624521	2664.884993
1001.919254	2668.207113
1002.213951	2668.028152
1002.508613	2663.387770
1002.803239	2665.215189
1003.097829	2665.583193
1003.392384	2665.510096
1003.686903	2663.228974
1003.981386	2664.219561
1004.275834	2663.339879
1004.570246	2667.214006
1004.864623	2664.194355
1005.158964	2664.348110
1005.453270	2664.643018
1005.747540	2666.278872
1006.041775	2663.072698
1006.335974	2663.455826
1006.630138	2665.154695
1006.924266	2664.781649
1007.218359	2663.556649
1007.512416	2662.578665
1007.806438	2658.659168
1008.100425	2660.602533
1008.394376	2657.479538
1008.688292	2663.675116
1008.982172	2666.382216
1009.276017	2661.449447
1009.569827	2663.377688
1009.863602	2661.890548
1010.157341	2662.656803
1010.451045	2663.843995
1010.744714	2663.193686
1011.038347	2663.707884
1011.331945	2664.471618
1011.625508	2663.372647
1011.919036	2661.144457
1012.212528	2663.778460
1012.505986	2663.579334
1012.799408	2664.443892
1013.092795	2662.112358
1013.386147	2663.518840
1013.679464	2663.649910
1013.972745	2662.142605
1014.265992	2664.892555
1014.559204	2661.220074
1014.852380	2663.410456
1015.145521	2663.554128
1015.438628	2663.602019
1015.731699	2663.279386
1016.024736	2664.148985
1016.317737	2662.450116
1016.610703	2663.390291
1016.903635	2664.711073
1017.196531	2661.792245
1017.489393	2664.131341
1017.782219	2662.881134
1018.075011	2662.009015
1018.367768	2660.698315
1018.660490	2660.456339
1018.953177	2660.456339
1019.245829	2660.456339
