Dividing Wavelength (nm)	Counts (n)	Blue Motor Position (mm): 32.000000	Red Motor Position (mm): 0.000000	
326.493990	2218.637013
326.888308	2218.637013
327.282561	2218.637013
327.676750	2179.308452
328.070874	2176.213183
328.464933	2178.789213
328.858929	2179.928514
329.252859	2185.448577
329.646726	2190.225070
330.040528	2206.576053
330.434265	2219.647765
330.827938	2237.851371
331.221547	2254.605646
331.615091	2269.787081
332.008571	2287.063115
332.401986	2309.758390
332.795338	2325.494352
333.188625	2346.863803
333.581847	2365.309385
333.975006	2382.487116
334.368100	2404.383368
334.761129	2420.089083
335.154095	2440.271342
335.546996	2467.133131
335.939833	2504.699809
336.332606	2515.306397
336.725315	2531.291896
337.117960	2543.705737
337.510540	2555.562531
337.903056	2564.132492
338.295508	2575.190263
338.687896	2585.023034
339.080220	2590.260793
339.472480	2599.019797
339.864676	2602.064654
340.256807	2612.572940
340.648875	2613.364401
341.040879	2613.482868
341.432818	2617.505709
341.824694	2620.953858
342.216506	2623.817233
342.608253	2621.886471
342.999937	2623.567696
343.391557	2623.998715
343.783113	2623.797069
344.174605	2621.039558
344.566033	2617.533435
344.957397	2621.468056
345.348697	2619.247427
345.739934	2616.371449
346.131106	2618.438322
346.522215	2612.540172
346.913260	2611.799122
347.304241	2610.622013
347.695159	2607.017588
348.086012	2609.049173
348.476802	2603.002309
348.867528	2599.294540
349.258191	2594.971751
349.648789	2597.020980
350.039324	2595.198603
350.429796	2597.613316
350.820203	2595.906885
351.210548	2595.291864
351.600828	2590.711976
351.991045	2592.015114
352.381198	2590.235587
352.771288	2587.435226
353.161314	2590.303642
353.551276	2590.270875
353.941175	2589.169383
354.331010	2586.306007
354.720782	2586.837849
355.110490	2587.712489
355.500135	2587.619228
355.889717	2588.952613
356.279235	2585.988415
356.668689	2589.038313
357.058080	2589.118971
357.447408	2588.647623
357.836672	2590.969075
358.225873	2590.414548
358.615010	2591.614342
359.004084	2591.621904
359.393095	2590.144846
359.782043	2592.672985
360.170927	2590.472521
360.559748	2589.010587
360.948505	2596.864704
361.337199	2593.804724
361.725830	2593.701380
362.114398	2595.559045
362.502903	2591.289188
362.891344	2595.065012
363.279722	2596.809252
363.668037	2597.197420
364.056289	2597.280599
364.444478	2598.757657
364.832603	2596.259766
365.220665	2597.880497
365.608665	2601.588265
365.996601	2598.475353
366.384474	2601.558018
366.772284	2598.649273
367.160031	2600.396032
367.547715	2601.414346
367.935336	2601.762185
368.322893	2600.544747
368.710388	2597.600713
369.097820	2599.012236
369.485189	2599.110538
369.872495	2602.031887
370.259738	2603.375354
370.646918	2602.672113
371.034035	2604.567587
371.421090	2604.514655
371.808081	2604.244953
372.195010	2602.868718
372.581875	2605.215376
372.968678	2605.185129
373.355418	2607.940119
373.742096	2610.133021
374.128710	2604.832248
374.515262	2605.815273
374.901751	2608.169492
375.288177	2607.869543
375.674540	2606.992382
376.060841	2609.505397
376.447079	2608.275356
376.833254	2608.310644
377.219367	2613.039246
377.605417	2609.439862
377.991404	2608.245109
378.377329	2609.886005
378.763191	2609.177722
379.148991	2613.825666
379.534727	2611.720985
379.920402	2608.897938
380.306013	2609.860799
380.691563	2611.060593
381.077049	2610.243927
381.462474	2608.643360
381.847835	2612.477158
382.233134	2612.761983
382.618371	2614.433125
383.003545	2613.034205
383.388657	2614.299535
383.773706	2614.672580
384.158693	2613.553444
384.543618	2615.078393
384.928480	2615.338013
385.313280	2612.933382
385.698017	2615.799278
386.082692	2614.135697
386.467305	2616.520163
386.851856	2616.835235
387.236344	2619.267592
387.620770	2614.796088
388.005133	2612.961108
388.389435	2613.104781
388.773674	2614.193671
389.157851	2618.576954
389.541965	2622.811523
389.926018	2620.379166
390.310008	2618.884464
390.693936	2621.125257
391.077802	2619.955709
391.461606	2623.504682
391.845348	2622.383025
392.229027	2622.471245
392.612645	2622.720782
392.996200	2621.301697
393.379694	2622.504013
393.763125	2623.587861
394.146494	2623.970988
394.529801	2625.546349
394.913047	2627.502317
395.296230	2626.095835
395.679351	2627.101545
396.062410	2628.104735
396.445408	2629.987606
396.828343	2628.389560
397.211217	2626.368057
397.594028	2630.564818
397.976778	2630.098511
398.359466	2632.334263
398.742092	2629.178500
399.124656	2628.878552
399.507158	2633.418111
399.889598	2634.575056
400.271977	2632.024232
400.654294	2631.905765
401.036549	2636.183184
401.418742	2638.371044
401.800874	2637.675365
402.182944	2637.178812
402.564952	2634.993471
402.946898	2638.330715
403.328783	2637.735859
403.710606	2637.322484
404.092367	2639.001189
404.474067	2640.185860
404.855705	2641.005047
405.237282	2642.585449
405.618797	2641.370531
406.000250	2644.128042
406.381642	2644.427991
406.762972	2642.560243
407.144240	2641.488998
407.525447	2644.004534
407.906593	2642.537558
408.287677	2647.188022
408.668700	2647.513177
409.049661	2648.975112
409.430560	2649.358239
409.811399	2648.097951
410.192176	2650.817653
410.572891	2651.311686
410.953545	2652.025010
411.334138	2654.157418
411.714669	2654.538025
412.095139	2653.688590
412.475547	2656.557007
412.855894	2659.879127
413.236180	2660.910043
413.616405	2661.169663
413.996568	2668.277690
414.376670	2669.923626
414.756711	2671.930006
415.136691	2679.665656
415.516609	2686.453570
415.896466	2695.978830
416.276262	2707.928885
416.655997	2719.352140
417.035670	2735.824110
417.415283	2758.529467
417.794834	2780.702982
418.174324	2796.322997
418.553753	2822.892399
418.933121	2857.928418
419.312428	2894.812020
419.691674	2919.223808
420.070859	2987.337358
420.449983	3010.471213
420.829045	3083.018458
421.208047	3122.689818
421.586988	3209.523693
421.965867	3271.219854
422.344686	3353.093234
422.723444	3426.991508
423.102141	3409.355031
423.480777	3591.474276
423.859352	3596.833022
424.237866	3787.093730
424.616319	3846.428111
424.994712	4014.779964
425.373044	4023.778424
425.751314	4215.359914
426.129524	4282.702168
426.507673	4426.949744
426.885762	4562.776072
427.263789	4644.142816
427.641756	4724.937389
428.019662	4870.167990
428.397508	5059.223862
428.775292	5057.930806
429.153016	5323.249254
429.530679	5366.552765
429.908282	5498.273074
430.285824	5486.696064
430.663305	5897.013220
431.040726	5782.906703
431.418086	5875.633686
431.795385	6145.958000
432.172624	6306.927083
432.549802	6377.115068
432.926920	6542.109513
433.303977	6580.439926
433.680974	6801.098792
434.057910	6970.761345
434.434786	7115.956658
434.811601	7154.642473
435.188355	7619.562886
435.565050	7553.317083
435.941683	7617.092721
436.318257	8078.214625
436.694770	8260.270855
437.071222	8432.544726
437.447614	8437.210314
437.823946	8456.132285
438.200218	8688.869755
438.576429	8631.390519
438.952580	8904.003516
439.328670	9059.588647
439.704700	8973.750400
440.080670	9041.392602
440.456580	9603.108211
440.832429	9473.928643
441.208218	9213.774858
441.583947	9571.911030
441.959616	9767.727089
442.335224	9673.018932
442.710773	9870.911947
443.086261	10111.906827
443.461689	9533.295792
443.837057	10148.135079
444.212365	10486.734260
444.587612	10205.163132
444.962800	10484.387602
445.337927	10323.133694
445.712995	9949.926992
446.088002	11024.698472
446.462949	10721.437780
446.837837	10729.077648
447.212664	10781.974476
447.587431	11278.878490
447.962139	11975.664254
448.336786	14176.518597
448.711374	14770.663948
449.085901	12729.568812
449.460369	12362.466947
449.834776	11852.602127
450.209124	12691.336701
450.583412	13102.694855
450.957640	14065.227564
451.331808	13294.026808
451.705917	12269.112340
452.079965	11620.530089
452.453954	12507.947086
452.827883	12147.343269
453.201752	12437.895212
453.575562	11963.504991
453.949311	12376.604863
454.323001	12338.017351
454.696632	12564.513873
455.070202	12857.069675
455.443713	13124.918781
455.817164	13567.907655
456.190556	13583.187392
456.563888	13943.788689
456.937160	14122.424496
457.310373	13464.241367
457.683526	13534.920865
458.056619	13104.000513
458.429653	13224.842012
458.802628	12696.594624
459.175542	13046.725444
459.548398	13991.203261
459.921194	14321.416482
460.293930	14381.333116
460.666607	15270.443941
461.039224	16307.169832
461.411782	16991.272053
461.784280	16905.310297
462.156719	16948.419725
462.529099	16640.599309
462.901419	15568.648355
463.273680	15363.115472
463.645882	15219.624069
464.018024	14948.047029
464.390106	15171.644887
464.762130	15902.445837
465.134094	16647.513252
465.505999	18601.444318
465.877845	21844.716015
466.249631	24690.084398
466.621358	24416.324538
466.993026	22974.960351
467.364634	22413.748858
467.736184	20971.230247
468.107674	20166.513379
468.479105	20285.615680
468.850477	19760.413149
469.221790	19339.315486
469.593043	18662.601076
469.964238	18100.898070
470.335373	17773.318852
470.706449	18190.267645
471.077467	17733.065238
471.448425	19561.761440
471.819324	23545.646693
472.190164	25634.968028
472.560945	22134.847022
472.931667	19742.118801
473.302330	19086.274768
473.672934	18580.634435
474.043479	18945.427450
474.413965	18750.803624
474.784393	18388.752996
475.154761	19053.230005
475.525070	19084.086907
475.895321	18715.999498
476.265513	19296.488363
476.635645	19874.088647
477.005719	19681.307363
477.375734	19859.146667
477.745691	20337.617702
478.115588	20859.626663
478.485427	21363.989064
478.855207	22409.569742
479.224928	24168.148535
479.594591	26379.261626
479.964194	26456.171990
480.333739	26659.098597
480.703226	26217.715330
481.072653	25890.405814
481.442022	26450.427595
481.811333	27356.307817
482.180584	27280.907279
482.549777	26337.747724
482.918912	25981.345709
483.287988	26094.885096
483.657005	25789.986029
484.025964	25511.479923
484.394864	25437.165754
484.763706	25143.538707
485.132489	24564.567229
485.501213	24728.346756
485.869879	24646.170907
486.238487	24447.836791
486.607036	24602.723722
486.975527	24296.549244
487.343959	24622.384222
487.712333	24582.425517
488.080648	24245.023610
488.448905	24714.821340
488.817104	24464.757424
489.185244	25132.548992
489.553326	25099.388282
489.921350	26082.609887
490.289315	28349.755403
490.657222	30141.230245
491.025070	30643.966874
491.392861	30434.595152
491.760593	29595.797564
492.128267	28688.717547
492.495883	27665.353233
492.863440	26779.204087
493.230939	25908.140593
493.598380	25752.918425
493.965763	25345.900705
494.333088	24903.005092
494.700354	24836.184598
495.067563	24710.392686
495.434713	24465.952178
495.801805	24605.743374
496.168839	24428.589666
496.535815	24253.800259
496.902733	24466.980573
497.269593	24136.812722
497.636395	24345.206461
498.003139	24307.889319
498.369825	24056.197111
498.736453	24249.137192
499.103023	24127.668069
499.469535	24151.558097
499.835989	24347.714435
500.202385	24384.033427
500.568723	23875.902764
500.935003	24143.688856
501.301226	23739.264809
501.667390	24573.777417
502.033497	24825.210006
502.399546	24535.144535
502.765537	24117.343786
503.131470	24500.990717
503.497345	24647.441278
503.863163	23846.069215
504.228923	24467.388906
504.594625	24660.260932
504.960269	24182.601523
505.325856	24674.759290
505.691385	24092.677420
506.056856	24694.785274
506.422270	24655.781867
506.787625	24241.003290
507.152924	24643.272243
507.518164	24669.261912
507.883347	24480.349713
508.248472	24170.701879
508.613540	24933.078096
508.978550	24732.082251
509.343503	24724.989347
509.708398	24979.892771
510.073236	25142.928728
510.438016	25344.610169
510.802738	25011.334447
511.167403	25279.811178
511.532010	24974.017306
511.896561	25746.196047
512.261053	25732.496711
512.625488	25559.164198
512.989866	25454.056140
513.354186	25295.736183
513.718449	25388.385029
514.082655	25780.044874
514.446803	25530.714446
514.810894	25980.327396
515.174927	25459.664424
515.538904	25500.903583
515.902822	25990.084549
516.266684	25736.932926
516.630488	25647.361705
516.994235	25628.154909
517.357925	25917.996049
517.721558	26105.058145
518.085133	26186.256010
518.448651	26104.927075
518.812112	25846.409144
519.175516	26040.811160
519.538863	26207.554885
519.902152	25988.209240
520.265385	26287.535311
520.628560	26059.786063
520.991678	26074.738125
521.354739	26143.791850
521.717743	26203.146396
522.080690	25988.405845
522.443580	26343.935740
522.806413	26334.337383
523.169189	26416.699755
523.531908	26457.218029
523.894569	26090.156494
524.257174	26144.769834
524.619722	26335.822003
524.982213	26032.669696
525.344647	26092.200682
525.707025	26208.994134
526.069345	26206.750821
526.431608	26169.511817
526.793815	26350.527049
527.155964	25800.885004
527.518057	25991.342317
527.880093	25896.747586
528.242072	26136.300696
528.603995	25839.051580
528.965860	25648.813557
529.327669	25692.280906
529.689421	25673.472361
530.051117	25510.338102
530.412755	25685.883682
530.774337	25493.079712
531.135862	25357.792787
531.497331	25566.688120
531.858743	25110.120898
532.220098	25592.970175
532.581396	25270.104436
532.942638	25211.523708
533.303824	25313.231507
533.664953	25330.555433
534.026025	24990.743855
534.387040	25224.734052
534.747999	25287.594719
535.108902	25449.198988
535.469748	24935.291162
535.830537	25117.569203
536.191270	25238.776186
536.551947	25129.000019
536.912567	24756.168884
537.273131	25115.890499
537.633638	24817.567617
537.994089	25038.236565
538.354483	24568.038063
538.714821	25058.411263
539.075103	25113.662309
539.435328	24887.165787
539.795497	24450.284271
540.155609	24859.000861
540.515665	25143.881506
540.875665	24378.248703
541.235609	24676.306925
541.595496	24639.463652
541.955328	24994.325594
542.315102	24912.676546
542.674821	24454.470950
543.034483	24341.319731
543.394090	24506.788044
543.753640	24293.302741
544.113134	24945.035713
544.472571	24526.723287
544.831953	24827.299565
545.191278	24442.495689
545.550548	24365.726477
545.909761	24565.094030
546.268918	24802.602952
546.628019	24760.300109
546.987064	24462.078051
547.346053	24227.102308
547.704986	24346.749054
548.063863	24500.196736
548.422684	24496.246992
548.781449	24040.685480
549.140158	24432.110912
549.498811	24023.543037
549.857408	23752.825513
550.215949	24188.832389
550.574434	23864.986145
550.932864	24089.733387
551.291237	24245.792386
551.649555	24118.137768
552.007817	24169.103833
552.366022	24034.525190
552.724173	24073.306787
553.082267	24008.205326
553.440305	24489.922864
553.798288	23737.150045
554.156215	24259.269911
554.514086	24364.604821
554.871902	23738.264140
555.229661	24009.642055
555.587365	23877.853690
555.945014	23733.497729
556.302606	23996.595549
556.660143	23940.016158
557.017625	24181.053888
557.375050	23703.243245
557.732421	24120.721359
558.089735	23915.039762
558.446994	23984.527026
558.804197	24009.823536
559.161345	23947.567807
559.518437	23702.512277
559.875474	23903.223297
560.232455	24070.256889
560.589381	23909.653289
560.946251	23886.141347
561.303065	24224.256577
561.659825	24302.346571
562.016528	23892.609148
562.373177	23643.671930
562.729770	24000.681404
563.086307	23857.552964
563.442789	24032.095354
563.799216	23859.546740
564.155587	23873.109965
564.511904	23849.643393
564.868164	23785.003198
565.224370	23760.704837
565.580520	23679.625439
565.936615	23806.513802
566.292654	23490.614937
566.648638	23782.558239
567.004567	23609.606333
567.360441	23562.310227
567.716260	23289.808135
568.072023	23616.099339
568.427732	23377.307443
568.783385	23162.309793
569.138982	23398.412233
569.494525	23427.151851
569.850013	23177.551722
570.205445	23277.129633
570.560823	23075.193613
570.916145	22846.458819
571.271412	23018.324357
571.626625	22775.789404
571.981782	22895.075707
572.336884	22696.144214
572.691931	22828.587929
573.046923	22554.633985
573.401860	22446.649949
573.756743	22455.839972
574.111570	22362.472762
574.466342	22297.177217
574.821059	22371.506510
575.175722	22077.894586
575.530330	22075.215213
575.884882	22091.374632
576.239380	22003.106548
576.593823	21895.578737
576.948211	21879.394112
577.302544	21715.735573
577.656823	21585.608269
578.011047	21674.604799
578.365216	21557.602139
578.719330	21419.761869
579.073389	21327.208805
579.427394	21476.404274
579.781344	21254.563258
580.135239	21140.214765
580.489080	21098.269844
580.842866	20854.051146
581.196597	21062.286088
581.550273	21042.103829
581.903895	20929.290367
582.257463	21240.178325
582.610975	20760.383987
582.964434	21076.817214
583.317837	20772.276069
583.671186	20873.159640
584.024481	20835.671099
584.377721	20615.566761
584.730906	20686.641989
585.084037	20683.415650
585.437113	20605.151737
585.790135	20807.758231
586.143103	20263.908471
586.496016	20284.834301
586.848874	20527.306239
587.201679	20448.507963
587.554428	20129.160950
587.907124	20470.000923
588.259765	20242.130687
588.612352	20325.990281
588.964884	19884.899402
589.317362	20050.375277
589.669786	20105.356621
590.022155	20138.325767
590.374470	20344.897128
590.726731	20126.042996
591.078937	19900.169057
591.431090	19997.228912
591.783188	19748.047198
592.135232	19715.110820
592.487222	19808.417536
592.839157	19842.089923
593.191038	19713.986642
593.542866	19604.127297
593.894639	19316.710952
594.246358	19535.103819
594.598022	19437.854920
594.949633	19193.883238
595.301190	19164.044649
595.652692	19329.696964
596.004141	19567.982224
596.355535	18895.003309
596.706876	18906.595442
597.058162	18799.062590
597.409395	19023.507362
597.760573	19101.171378
598.111698	18875.937665
598.462768	18807.120874
598.813785	18778.577861
599.164748	18593.827134
599.515657	18630.718298
599.866511	18421.074354
600.217312	18795.543864
600.568060	18311.658630
600.918753	18622.612123
601.269392	18519.845681
601.619978	18311.426737
601.970510	18508.886212
602.320988	18463.523390
602.671412	18666.812960
603.021783	18574.827025
603.372100	18302.292166
603.722363	18446.181820
604.072572	18380.051964
604.422728	18530.774902
604.772830	18278.560934
605.122878	18234.695334
605.472872	18232.520076
605.822813	18208.438484
606.172701	18185.811265
606.522534	18376.074494
606.872314	18405.996263
607.222041	18229.576042
607.571714	18452.195917
607.921333	18281.578065
608.270899	18346.200616
608.620411	18538.502991
608.969870	18302.970201
609.319276	18304.626220
609.668627	18330.615889
610.017926	18474.364391
610.367171	18583.906143
610.716362	18634.047980
611.065500	18443.535215
611.414585	18573.773424
611.763616	18567.648422
612.112594	18497.760386
612.461518	18481.295978
612.810389	18668.718516
613.159207	18525.297689
613.507971	18436.044060
613.856682	18722.305981
614.205340	18637.491088
614.553945	18790.381723
614.902496	18524.307102
615.250994	18755.754037
615.599439	18705.103044
615.947830	18693.916723
616.296169	18745.129805
616.644454	18703.157158
616.992686	18682.924487
617.340864	18888.996774
617.688990	18644.263878
618.037063	18820.805086
618.385082	18675.206481
618.733048	18952.411969
619.080961	18821.904058
619.428821	18861.635912
619.776628	18752.631042
620.124382	18666.709616
620.472083	18717.335403
620.819731	18732.174040
621.167326	18431.786806
621.514868	18473.630903
621.862357	18240.711951
622.209793	18246.965503
622.557176	18078.774966
622.904506	17905.586126
623.251783	17816.009863
623.599007	17571.672698
623.946179	17517.230757
624.293297	17453.775233
624.640363	17216.712453
624.987376	17230.893219
625.334336	17032.765790
625.681243	16878.014970
626.028097	16884.513017
626.374899	16813.767985
626.721647	16675.849577
627.068343	16506.847415
627.414987	16442.494566
627.761577	16418.717964
628.108115	16456.844210
628.454600	16174.421128
628.801032	16281.409536
629.147412	16200.080601
629.493739	16217.094495
629.840014	16030.639858
630.186236	16128.806247
630.532405	15895.589867
630.878521	16087.882160
631.224585	15987.991697
631.570597	15814.573484
631.916556	15839.509551
632.262462	15812.947712
632.608316	15733.602471
632.954117	15680.012485
633.299866	15673.217009
633.645562	15587.104019
633.991206	15342.812225
634.336797	15219.303955
634.682336	15193.858731
635.027823	15073.113014
635.373257	14949.085506
635.718639	14850.911556
636.063968	14803.428928
636.409245	14552.689497
636.754470	14579.841152
637.099642	14426.854735
637.444762	14200.307802
637.789829	14240.752979
638.134845	14080.093927
638.479808	14112.881592
638.824719	14054.419330
639.169577	13907.162185
639.514383	13952.169607
639.859137	13773.743008
640.203839	13865.093757
640.548489	13695.590000
640.893086	13685.870655
641.237632	13565.208117
641.582125	13712.898801
641.926566	13540.123336
642.270955	13542.545610
642.615292	13506.750897
642.959576	13522.403680
643.303809	13546.727247
643.647990	13481.212412
643.992118	13547.193554
644.336195	13315.176969
644.680219	13533.532027
645.024192	13442.957616
645.368112	13690.926932
645.711981	13743.954830
646.055797	13921.864711
646.399562	13902.128593
646.743274	14164.508048
647.086935	14438.338484
647.430544	14403.564605
647.774101	14431.996712
648.117606	14587.586885
648.461059	14558.151587
648.804460	14543.126428
649.147810	14271.609882
649.491108	14169.551723
649.834354	14183.465307
650.177548	13872.705899
650.520690	13688.159339
650.863781	13608.652781
651.206820	13653.909740
651.549807	13478.868275
651.892742	13283.324438
652.235626	13224.612640
652.578458	13227.246643
652.921238	12908.340730
653.263967	13115.766567
653.606644	12939.555554
653.949269	12912.363571
654.291843	12715.302346
654.634365	12876.717572
654.976836	12730.267011
655.319255	12736.586098
655.661622	12686.950897
656.003938	12618.981020
656.346203	12533.919110
656.688416	12622.043521
657.030577	12571.642064
657.372687	12489.766164
657.714746	12468.923514
658.056753	12653.908654
658.398708	12467.423770
658.740612	12472.505253
659.082465	12574.984349
659.424266	12533.641847
659.766016	12563.944222
660.107715	12474.766211
660.449362	12546.521995
660.790958	12505.986077
661.132503	12453.240484
661.473996	12518.077284
661.815438	12531.471630
662.156829	12549.070298
662.498168	12527.010209
662.839456	12528.951053
663.180693	12544.732385
663.521879	12633.154224
663.863013	12620.465639
664.204097	12585.837954
664.545129	12708.534597
664.886110	12676.326665
665.227040	12772.075821
665.567918	12782.390022
665.908746	12804.092189
666.249522	12793.503245
666.590248	12833.784585
666.930922	12949.864714
667.271545	12935.714195
667.612118	13020.060261
667.952639	12920.240373
668.293109	12942.164352
668.633528	12883.636555
668.973896	12866.816746
669.314213	12947.303808
669.654480	12685.148684
669.994695	12762.895880
670.334859	12783.357923
670.674973	12720.547667
671.015035	12752.654776
671.355047	12699.889018
671.695008	12678.073425
672.034918	12683.936287
672.374777	12719.143705
672.714585	12633.401240
673.054342	12673.428002
673.394049	12617.652676
673.733705	12715.698077
674.073310	12620.836164
674.412864	12645.353816
674.752368	12501.834687
675.091820	12528.023481
675.431223	12515.579392
675.770574	12375.642003
676.109875	12299.109726
676.449125	12263.793923
676.788324	12203.678163
677.127473	12033.786237
677.466571	12032.425126
677.805619	11923.480750
678.144616	11849.937877
678.483562	11822.007364
678.822458	11681.283554
679.161303	11668.781493
679.500098	11656.350008
679.838842	11612.058430
680.177535	11633.417799
680.516179	11698.599918
680.854771	11639.426854
681.193314	11853.759072
681.531805	12010.980057
681.870247	12431.510590
682.208638	12852.066329
682.546978	13163.108042
682.885268	13201.935009
683.223508	12894.492680
683.561697	12740.583733
683.899836	12642.240903
684.237925	12441.542487
684.575963	12358.975948
684.913951	12282.494083
685.251889	12228.775547
685.589776	12327.761124
685.927614	12252.393353
686.265401	12226.038201
686.603137	12262.024478
686.940824	12415.741861
687.278460	12543.288095
687.616046	12585.205289
687.953582	12756.337338
688.291068	12678.607787
688.628504	12918.327256
688.965889	12929.102722
689.303224	12896.468812
689.640510	12777.124536
689.977745	12467.229686
690.314930	12243.672157
690.652065	12165.312462
690.989150	11866.311545
691.326185	11639.772173
691.663170	11429.840883
692.000105	11190.063441
692.336990	11078.212840
692.673825	10818.880763
693.010610	10711.645338
693.347345	10497.103913
693.684030	10302.515375
694.020665	10235.100024
694.357251	10042.326301
694.693786	9982.008895
695.030272	9821.047374
695.366707	9696.407365
695.703093	9632.747675
696.039429	9635.265731
696.375716	9556.711951
696.711952	9425.150439
697.048139	9466.838260
697.384276	9419.766486
697.720363	9438.968241
698.056400	9377.662769
698.392388	9324.387856
698.728326	9282.931927
699.064214	9224.462104
699.400053	9269.293085
699.735842	9073.396367
700.071581	9038.357828
700.407270	8965.664389
700.742910	8883.687666
701.078501	8792.301629
701.414042	8668.253956
701.749533	8600.843647
702.084974	8464.006567
702.420366	8574.133093
702.755709	8465.518913
703.091002	8322.435843
703.426246	8355.052109
703.761440	8311.753638
704.096584	8264.792770
704.431679	8193.626801
704.766725	8183.030296
705.101721	8138.534551
705.436668	8185.712189
705.771565	8077.289573
706.106413	8153.121130
706.441212	8193.316770
706.775961	8153.456367
707.110661	8187.761418
707.445311	8330.118562
707.779913	8226.810196
708.114465	8357.507151
708.448967	8395.328408
708.783421	8537.982979
709.117825	8722.975681
709.452180	8760.607895
709.786485	8845.478240
710.120742	9134.812745
710.454949	9126.696487
710.789107	9233.994926
711.123216	9448.014592
711.457275	9614.914593
711.791286	9770.287996
712.125247	9772.566597
712.459159	9755.955995
712.793023	10005.072174
713.126837	9578.088964
713.460602	9732.938087
713.794318	9552.293380
714.127985	9585.421322
714.461602	9259.835881
714.795171	9211.332419
715.128691	8962.828740
715.462162	8709.611582
715.795584	8658.451432
716.128957	8501.757248
716.462281	8341.017537
716.795556	8388.618632
717.128782	8180.471910
717.461960	7923.040348
717.795088	7990.289340
718.128167	7902.669045
718.461198	7733.104794
718.794180	7674.826535
719.127113	7664.746748
719.459997	7509.471648
719.792833	7281.825743
720.125619	7343.461411
720.458357	7202.417488
720.791046	7195.773247
721.123686	7181.756319
721.456278	7026.287134
721.788821	7045.985443
722.121315	6934.669204
722.453761	7007.632344
722.786158	6947.433406
723.118506	6963.766744
723.450805	6926.568070
723.783056	6994.535427
724.115259	6904.686942
724.447412	6901.049749
724.779518	6950.440454
725.111574	6947.670340
725.443582	7030.120932
725.775542	7012.345823
726.107453	7203.846655
726.439315	7108.591532
726.771129	7176.810947
727.102895	7339.988056
727.434612	7456.645397
727.766281	7489.201168
728.097901	7570.275525
728.429473	7561.080460
728.760996	7536.204887
729.092471	7516.234356
729.423897	7458.089687
729.755276	7473.679456
730.086606	7390.162660
730.417887	7498.650811
730.749120	7698.913168
731.080305	7889.448619
731.411442	8008.555961
731.742530	8008.745004
732.073570	8108.070858
732.404562	8195.179476
732.735506	8049.354019
733.066401	8186.193620
733.397249	8114.594112
733.728048	7876.979325
734.058798	7541.921555
734.389501	7315.102400
734.720156	7132.836962
735.050762	6905.347333
735.381320	6809.315873
735.711831	6759.221927
736.042293	6649.629763
736.372707	6665.690879
736.703073	6528.717688
737.033391	6570.302166
737.363661	6587.394198
737.693883	6609.789524
738.024056	6695.211876
738.354182	6733.917855
738.684260	6772.419668
739.014290	6887.993161
739.344272	6997.688668
739.674207	7036.205604
740.004093	7095.572752
740.333931	7111.056657
740.663722	7122.583255
740.993464	7196.390788
741.323159	7179.422264
741.652806	6931.873884
741.982405	6947.554393
742.311956	7010.614187
742.641460	6840.792837
742.970915	6643.640872
743.300323	6639.184492
743.629683	6591.270845
743.958996	6453.097859
744.288260	6366.659715
744.617477	6311.874976
744.946647	6311.307846
745.275768	6146.457074
745.604842	6107.829232
745.933869	6091.279124
746.262847	6043.816661
746.591778	6034.465321
746.920662	5994.307489
747.249498	5980.809800
747.578286	6030.835690
747.907027	6108.822340
748.235720	6163.047511
748.564365	6136.573892
748.892963	6169.588408
749.221514	6315.224822
749.550017	6149.885058
749.878473	6026.989289
750.206881	6084.282003
750.535242	6028.179002
750.863555	5957.766685
751.191821	5976.139171
751.520039	5982.065047
751.848210	5878.766763
752.176334	5903.939765
752.504411	5955.004133
752.832440	5874.396083
753.160421	5811.898378
753.488356	5859.587694
753.816243	5883.908740
754.144082	5738.824333
754.471875	5711.776022
754.799620	5755.480305
755.127318	5764.105719
755.454969	5721.870932
755.782572	5689.153844
756.110129	5731.171861
756.437638	5707.125557
756.765100	5648.882586
757.092515	5649.863091
757.419882	5705.585485
757.747203	5685.632598
758.074477	5748.979737
758.401703	5733.324434
758.728882	5684.190828
759.056014	5741.889354
759.383099	5872.959354
759.710138	5877.466146
760.037129	5868.114805
760.364073	5872.414910
760.690970	5955.707374
761.017820	5936.276247
761.344623	5889.209514
761.671379	5993.483260
761.998088	6113.674450
762.324751	6359.289548
762.651366	6966.423432
762.977935	8287.036861
763.304456	9924.953116
763.630931	10813.718622
763.957359	10412.883876
764.283740	9468.990833
764.610074	8628.658213
764.936362	7631.701985
765.262602	7032.225613
765.588796	6495.282235
765.914943	6162.447614
766.241044	5999.157079
766.567097	5793.838445
766.893104	5535.965781
767.219064	5356.034398
767.544978	5292.092402
767.870845	5214.461154
768.196665	5109.486687
768.522438	5042.144433
768.848165	5006.311911
769.173846	4937.810192
769.499479	4896.187906
769.825066	4839.182538
770.150607	4779.971665
770.476101	4760.835445
770.801548	4754.481071
771.126949	4681.505328
771.452303	4623.312768
771.777611	4581.806428
772.102872	4601.164459
772.428087	4561.283891
772.753256	4523.260988
773.078378	4473.136795
773.403453	4404.204058
773.728482	4393.055546
774.053465	4344.378164
774.378401	4335.757791
774.703291	4331.888706
775.028135	4264.972430
775.352932	4212.977969
775.677683	4203.936659
776.002388	4220.106160
776.327046	4234.029827
776.651658	4155.009741
776.976224	4095.135957
777.300743	4099.491513
777.625216	4120.646716
777.949643	4114.826703
778.274024	4070.719128
778.598359	4029.802603
778.922647	4053.465779
779.246889	4043.877504
779.571086	4036.892986
779.895236	4023.392776
780.219339	4008.879294
780.543397	4002.008201
780.867409	4053.291859
781.191374	4064.810896
781.515294	4008.102956
781.839167	3998.691122
782.162995	4018.593597
782.486776	4006.681351
782.810511	4016.778782
783.134201	4012.047659
783.457844	3963.803817
783.781441	3910.430600
784.104993	3917.193308
784.428498	3935.326338
784.751958	3932.767953
785.075372	3911.239705
785.398739	3874.073799
785.722061	3887.059811
786.045337	3930.713683
786.368568	3959.208805
786.691752	3871.875856
787.014891	3923.179678
787.337983	4051.013257
787.661030	4214.026529
787.984031	4375.540057
788.306987	4544.418711
788.629897	4625.999703
788.952760	4581.758537
789.275579	4512.427548
789.598351	4446.781643
789.921078	4304.752175
790.243759	4107.322946
790.566395	4087.198660
790.888984	4085.214966
791.211529	3974.455775
791.534027	3913.417484
791.856480	3908.088984
792.178888	3843.199252
792.501249	3795.623363
792.823566	3803.984116
793.145836	3833.525278
793.468062	3783.149027
793.790241	3737.924836
794.112375	3770.140330
794.434464	3829.215091
794.756507	3855.174513
795.078505	3836.744054
795.400457	3870.837378
795.722364	4008.786032
796.044226	4113.944502
796.366042	4184.414791
796.687812	4168.111700
797.009538	4169.639169
797.331218	4129.861945
797.652852	4102.690126
797.974442	4083.596755
798.295986	4081.144234
798.617484	3995.479907
798.938938	3913.346908
799.260346	3954.860810
799.581709	3948.506435
799.903026	3876.415415
800.224299	3838.132892
800.545526	3834.168025
800.866708	3796.190492
801.187845	3735.386615
801.508936	3770.223509
801.829983	3765.250411
802.150984	3689.010520
802.471940	3679.581042
802.792851	3690.767363
803.113717	3689.774255
803.434538	3692.239379
803.755314	3630.477683
804.076045	3610.464302
804.396731	3627.425264
804.717372	3652.893174
805.037967	3639.254332
805.358518	3629.056078
805.679024	3657.246210
805.999485	3668.699712
806.319901	3673.718180
806.640272	3689.242413
806.960598	3700.453940
807.280879	3678.378727
807.601115	3688.980273
807.921306	3705.081719
808.241453	3744.808532
808.561554	3716.668811
808.881611	3654.153462
809.201623	3691.054708
809.521590	3702.977037
809.841513	3676.019467
810.161390	3705.195145
810.481223	3681.317720
810.801011	3629.623207
811.120755	3620.685242
811.440453	3654.332423
811.760107	3656.346364
812.079716	3613.337760
812.399281	3583.794078
812.718801	3607.356431
813.038276	3580.015733
813.357707	3580.083789
813.677093	3596.283537
813.996434	3543.608520
814.315731	3552.942216
814.634983	3556.034964
814.954191	3571.087850
815.273354	3594.844287
815.592473	3591.507043
815.911547	3602.864763
816.230577	3643.856905
816.549562	3694.349102
816.868502	3734.701018
817.187399	3761.270420
817.506250	3757.325717
817.825058	3729.599371
818.143821	3824.703258
818.462539	3927.240328
818.781213	3972.661124
819.099843	4028.171789
819.418429	4276.166312
819.736970	4515.885780
820.055466	4766.768883
820.373919	5128.300273
820.692327	5543.013314
821.010691	5997.531307
821.329011	7389.106538
821.647286	10159.034054
821.965517	14749.402882
822.283704	18773.211553
822.601847	20906.837068
822.919945	19063.750893
823.237999	16475.990513
823.556010	13977.176251
823.873976	11881.218237
824.191897	9779.288976
824.509775	8438.833565
824.827609	7307.293652
825.145398	6768.021261
825.463144	6652.747716
825.780845	6763.789212
826.098502	6959.849767
826.416116	7847.672577
826.733685	9180.651957
827.051210	10295.929107
827.368692	10320.494650
827.686129	9046.857213
828.003522	7532.930657
828.320872	6514.234453
828.638177	5815.033976
828.955439	5251.853912
829.272656	4747.970421
829.589830	4469.050940
829.906960	4294.823622
830.224046	4110.508955
830.541088	3985.994976
830.858086	3938.242646
831.175041	3861.798589
831.491952	3844.792257
831.808819	3854.521683
832.125642	3929.841563
832.442421	4076.433276
832.759157	4357.898539
833.075849	4910.918157
833.392497	5782.803359
833.709101	6558.155506
834.025662	6891.337966
834.342179	6518.232088
834.658653	5853.250963
834.975083	5203.607549
835.291469	4628.961381
835.607811	4218.946695
835.924110	4077.406218
836.240366	3877.136300
836.556578	3675.228006
836.872746	3567.743044
837.188871	3525.059594
837.504952	3458.360088
837.820990	3376.287583
838.136984	3331.774194
838.452935	3356.818647
838.768842	3352.682380
839.084706	3370.931357
839.400526	3535.063764
839.716303	3880.138307
840.032037	4408.723452
840.347727	4670.805479
840.663373	4379.462075
840.978977	3996.704907
841.294537	3689.817105
841.610054	3463.514668
841.925527	3353.473841
842.240957	3283.104374
842.556344	3233.958166
842.871687	3173.968435
843.186987	3123.526649
843.502244	3086.713623
843.817458	3049.502346
844.132629	3022.154087
844.447756	3029.136085
844.762840	3012.147396
845.077881	2982.439877
845.392879	2962.895323
845.707833	2961.877010
846.022745	2960.747792
846.337613	2961.682926
846.652438	2947.376131
846.967221	2944.331274
847.281960	2930.881476
847.596656	2927.002308
847.911309	2928.129006
848.225919	2922.135074
848.540485	2919.065011
848.855009	2919.402768
849.169490	2906.414236
849.483928	2896.044582
849.798323	2895.114489
850.112675	2895.069119
850.426984	2904.700243
850.741251	2901.264697
851.055474	2890.093500
851.369654	2887.968654
851.683792	2890.713562
851.997887	2901.456261
852.311938	2898.613050
852.625947	2887.961092
852.939914	2892.815723
853.253837	2895.434603
853.567718	2882.902294
853.881555	2882.529249
854.195350	2898.048441
854.509103	2895.721948
854.822812	2886.126112
855.136479	2884.724671
855.450103	2886.022768
855.763685	2877.651932
856.077224	2872.169678
856.390720	2885.846328
856.704173	2897.574572
857.017584	2889.344889
857.330953	2883.913045
857.644278	2895.174983
857.957561	2903.568504
858.270802	2908.367683
858.584000	2906.315933
858.897155	2891.933521
859.210268	2894.784294
859.523339	2893.430744
859.836367	2889.720455
860.149352	2883.068652
860.462295	2881.213508
860.775195	2890.897564
861.088054	2887.338509
861.400869	2872.721684
861.713642	2870.087681
862.026373	2885.208622
862.339062	2888.122409
862.651708	2893.587020
862.964312	2894.864952
863.276873	2888.873541
863.589392	2898.108935
863.901869	2910.600914
864.214303	2933.858277
864.526696	2948.530555
864.839045	2944.676593
865.151353	2942.667693
865.463619	2941.740121
865.775842	2941.840944
866.088023	2962.910447
866.400162	2968.276755
866.712258	2939.663166
867.024313	2927.292174
867.336325	2937.976900
867.648296	2958.388532
867.960224	2949.614403
868.272110	2938.697785
868.583954	2941.684668
868.895755	2956.377111
869.207515	2943.549895
869.519233	2949.465689
869.830909	2961.816516
870.142542	2970.394040
870.454134	2966.461940
870.765684	2970.134420
871.077191	2971.450161
871.388657	2977.965853
871.700081	2993.616115
872.011463	3001.550891
872.322803	3003.786643
872.634101	3001.339163
872.945357	3018.801719
873.256571	3045.013199
873.567744	3039.029349
873.878874	3032.619522
874.189963	3054.109961
874.501010	3054.200702
874.812015	3045.028322
875.122979	3045.240051
875.433900	3043.135369
875.744780	3047.455638
876.055618	3057.669016
876.366415	3055.395455
876.677169	3063.942732
876.987882	3059.269582
877.298554	3054.104920
877.609183	3073.919175
877.919771	3098.547732
878.230317	3127.294912
878.540822	3181.341122
878.851285	3217.617265
879.161707	3262.110489
879.472087	3365.958258
879.782425	3597.599278
880.092722	4036.371226
880.402977	4568.669181
880.713191	5203.720975
881.023363	6373.185489
881.333494	7657.913464
881.643583	8208.588946
881.953631	7899.404898
882.263637	7265.149606
882.573602	6667.261198
882.883526	6088.995482
883.193408	5515.213872
883.503248	5058.276125
883.813048	4749.621399
884.122806	4440.671765
884.432522	4126.365905
884.742197	3886.182650
885.051831	3694.306253
885.361424	3562.679205
885.670975	3489.670694
885.980485	3399.638207
886.289954	3321.737257
886.599382	3280.349384
886.908768	3240.620050
887.218113	3196.245294
887.527417	3140.734628
887.836680	3089.881989
888.145901	3086.844693
888.455082	3072.106880
888.764221	3023.608460
889.073319	2991.997904
889.382376	2991.652585
889.691392	2998.533760
890.000366	2995.509068
890.309300	2985.451966
890.618193	2993.492607
890.927044	3011.489526
891.235855	3009.909124
891.544625	2997.631394
891.853353	3009.762931
892.162041	3029.083153
892.470687	3068.041190
892.779293	3121.948768
893.087858	3170.285872
893.396381	3238.848085
893.704864	3361.859800
894.013306	3606.645628
894.321707	3907.529416
894.630068	4112.994244
894.938387	4107.247329
895.246665	4060.162952
895.554903	3940.833799
895.863100	3739.797625
896.171256	3569.572983
896.479371	3430.414452
896.787446	3305.235040
897.095480	3204.737117
897.403473	3141.510966
897.711425	3103.394802
898.019336	3092.377360
898.327207	3063.927608
898.635038	3028.788245
898.942827	3013.357273
899.250576	3004.336128
899.558284	2973.433855
899.865952	2948.611214
900.173579	2929.885848
900.481165	2927.385436
900.788711	2909.398599
901.096216	2883.890360
901.403681	2874.780995
901.711105	2884.865823
902.018489	2880.618651
902.325832	2879.824670
902.633135	2890.269940
902.940397	2924.126330
903.247619	3006.541633
903.554800	3201.626725
903.861941	3551.596228
904.169041	3982.047752
904.476101	4280.587404
904.783121	4229.107141
905.090100	3983.161847
905.397039	3705.845454
905.703938	3456.699028
906.010796	3271.497118
906.317614	3160.377484
906.624391	3061.328893
906.931129	2991.488748
907.237826	2931.962803
907.544483	2885.317007
907.851099	2853.212418
908.157675	2832.210972
908.464211	2812.452169
908.770707	2799.151085
909.077163	2787.034671
909.383578	2770.229985
909.689954	2760.230856
909.996289	2757.548962
910.302584	2758.080804
910.608839	2760.866042
910.915054	2752.805237
911.221229	2745.263671
911.527363	2750.181316
911.833458	2758.242121
912.139513	2759.578027
912.445527	2764.026845
912.751502	2771.555808
913.057436	2784.118364
913.363331	2796.748975
913.669186	2814.876964
913.975000	2849.996162
914.280775	2914.381779
914.586510	2983.332161
914.892205	3064.872824
915.197859	3193.535673
915.503475	3390.150756
915.809050	3601.836367
916.114585	3751.609048
916.420081	3767.665123
916.725536	3708.625650
917.030952	3586.453287
917.336328	3459.799337
917.641665	3326.793534
917.946961	3229.189234
918.252218	3156.364726
918.557435	3077.082499
918.862612	3017.082686
919.167750	2968.924543
919.472848	2928.149170
919.777906	2902.706467
920.082925	2876.865512
920.387904	2845.764114
920.692843	2828.152843
920.997743	2819.373673
921.302603	2801.570838
921.607423	2793.250414
921.912204	2779.162910
922.216946	2771.412136
922.521647	2759.719179
922.826310	2751.187026
923.130932	2745.767786
923.435516	2735.897207
923.740059	2729.005949
924.044564	2720.677963
924.349028	2714.762169
924.653454	2708.085161
924.957840	2702.796991
925.262186	2700.720035
925.566493	2694.854653
925.870761	2689.732840
926.174989	2686.650175
926.479178	2680.479802
926.783328	2677.313958
927.087438	2678.322189
927.391509	2675.899914
927.695541	2670.468071
927.999533	2669.747186
928.303486	2663.178562
928.607400	2665.018584
928.911275	2663.274344
929.215110	2662.518171
929.518906	2662.961793
929.822663	2661.351144
930.126381	2661.943480
930.430060	2662.757626
930.733699	2662.233346
931.037299	2661.293171
931.340861	2663.710404
931.644383	2666.699808
931.947866	2662.830723
932.251309	2662.326607
932.554714	2662.452636
932.858080	2659.354847
933.161407	2659.387615
933.464694	2656.090700
933.767943	2652.866882
934.071153	2655.253869
934.374323	2656.042809
934.677455	2656.148673
934.980548	2654.195226
935.283602	2652.781183
935.586617	2653.229845
935.889593	2654.767397
936.192530	2653.401245
936.495428	2653.212201
936.798287	2654.989208
937.101108	2658.777635
937.403890	2663.034890
937.706632	2668.161743
938.009336	2672.960922
938.312002	2683.426357
938.614628	2691.330886
938.917216	2696.727441
939.219765	2699.313553
939.522275	2696.853470
939.824747	2696.729962
940.127179	2692.258458
940.429573	2692.288705
940.731929	2689.127902
941.034246	2684.346367
941.336524	2680.729340
941.638763	2677.124915
941.940964	2673.293638
942.243126	2674.412774
942.545250	2674.047290
942.847335	2671.877073
943.149381	2666.102432
943.451389	2661.608243
943.753359	2659.180927
944.055290	2660.330311
944.357182	2657.847542
944.659036	2658.611277
944.960851	2658.276040
945.262628	2654.202788
945.564367	2657.275371
945.866067	2655.016934
946.167729	2655.581544
946.469352	2657.376194
946.770937	2657.250166
947.072484	2654.931235
947.373992	2652.876965
947.675462	2650.726912
947.976893	2648.113074
948.278286	2646.026037
948.579641	2648.927221
948.880958	2642.285500
949.182236	2648.317241
949.483476	2647.755152
949.784678	2647.182981
950.085841	2644.743063
950.386967	2649.476706
950.688054	2649.539721
950.989103	2649.716161
951.290114	2647.356901
951.591087	2650.903353
951.892021	2653.189516
952.192917	2658.094559
952.493776	2658.787717
952.794596	2658.132367
953.095378	2659.254024
953.396122	2657.514826
953.696828	2656.496513
953.997496	2655.445432
954.298126	2654.666574
954.598718	2649.658188
954.899272	2646.479740
955.199788	2644.695172
955.500266	2641.988072
955.800706	2640.760551
956.101108	2640.392547
956.401472	2636.652011
956.701798	2634.380971
957.002087	2631.746968
957.302337	2632.054479
957.602550	2632.926598
957.902724	2630.632873
958.202861	2626.201699
958.502960	2627.207409
958.803022	2628.588685
959.103045	2624.313787
959.403031	2623.817233
959.702979	2623.068622
960.002889	2625.647172
960.302762	2622.879579
960.602596	2623.545011
960.902393	2622.120885
961.202153	2621.629372
961.501875	2622.960237
961.801559	2617.936727
962.101205	2619.607870
962.400814	2622.592233
962.700385	2622.642644
962.999918	2619.149125
963.299414	2616.315996
963.598873	2618.173662
963.898293	2616.469752
964.197677	2623.035854
964.497022	2617.296501
964.796331	2621.672222
965.095601	2620.621142
965.394835	2618.745832
965.694030	2617.883795
965.993189	2617.974536
966.292309	2620.361522
966.591393	2619.824639
966.890439	2620.553086
967.189447	2617.178034
967.488419	2617.651902
967.787353	2617.528394
968.086249	2619.559979
968.385108	2619.302880
968.683930	2617.800616
968.982714	2616.827673
969.281462	2618.624845
969.580172	2617.674587
969.878844	2618.345061
970.177480	2619.063425
970.476078	2617.399844
970.774639	2619.958230
971.073162	2617.024278
971.371649	2618.093003
971.670098	2619.852366
971.968510	2617.777931
972.266885	2621.291615
972.565223	2620.517798
972.863524	2618.171141
973.161788	2618.269443
973.460014	2620.288426
973.758204	2618.650051
974.056356	2619.958230
974.354471	2618.017386
974.652550	2618.851697
974.950591	2618.075359
975.248595	2619.045781
975.546563	2616.792385
975.844493	2618.765997
976.142386	2617.175513
976.440243	2617.150307
976.738062	2619.060905
977.035845	2617.682149
977.333590	2619.091152
977.631299	2617.238527
977.928971	2613.220728
978.226606	2612.456993
978.524204	2615.600152
978.821765	2612.439349
979.119290	2613.198043
979.416777	2616.953702
979.714228	2618.816409
980.011642	2615.670729
980.309020	2615.572426
980.606360	2615.900101
980.903664	2617.425050
981.200931	2618.365225
981.498162	2617.949330
981.795356	2617.896398
982.092513	2619.174331
982.389633	2622.015021
982.686717	2624.893520
982.983764	2628.250928
983.280775	2633.445837
983.577749	2633.027421
983.874686	2633.100518
984.171587	2633.203862
984.468451	2628.422327
984.765279	2624.409569
985.062070	2626.138685
985.358824	2622.685494
985.655543	2620.643827
985.952224	2620.278343
986.248869	2618.279526
986.545478	2617.334309
986.842050	2616.121912
987.138586	2616.028651
987.435086	2615.577467
987.731549	2612.209977
988.027975	2616.200050
988.324366	2613.704679
988.620719	2616.225256
988.917037	2613.427415
989.213318	2612.915738
989.509563	2612.812394
989.805772	2611.375666
990.101944	2612.504884
990.398080	2611.665532
990.694180	2614.362549
990.990244	2613.331633
991.286271	2610.732918
991.582262	2613.472786
991.878217	2612.497322
992.174136	2615.244751
992.470019	2612.671242
992.765865	2610.939606
993.061676	2612.051180
993.357450	2610.422887
993.653188	2606.647063
993.948890	2612.761983
994.244556	2614.327261
994.540186	2614.745677
994.835780	2614.107971
995.131337	2614.657457
995.426859	2615.209463
995.722345	2613.689555
996.017795	2613.908845
996.313208	2619.675925
996.608586	2617.374639
996.903928	2618.972684
997.199234	2619.305401
997.494504	2619.318003
997.789738	2619.333127
998.084936	2615.998404
998.380099	2616.855400
998.675225	2617.241048
998.970316	2615.522015
999.265371	2614.589401
999.560390	2614.733074
999.855373	2615.622838
1000.150320	2611.526900
1000.445232	2612.870368
1000.740108	2615.297683
1001.034948	2612.469596
1001.329752	2610.969853
1001.624521	2611.647888
1001.919254	2611.594956
1002.213951	2612.124277
1002.508613	2610.715274
1002.803239	2611.867178
1003.097829	2610.717795
1003.392384	2610.170830
1003.686903	2611.153855
1003.981386	2609.318875
1004.275834	2611.557147
1004.570246	2611.191663
1004.864623	2612.298197
1005.158964	2610.213680
1005.453270	2611.642847
1005.747540	2610.957250
1006.041775	2609.565891
1006.335974	2608.388782
1006.630138	2610.705192
1006.924266	2609.596138
1007.218359	2610.140583
1007.512416	2607.143617
1007.806438	2609.472630
1008.100425	2609.245778
1008.394376	2605.623709
1008.688292	2609.996910
1008.982172	2611.705861
1009.276017	2610.072527
1009.569827	2607.814090
1009.863602	2609.583535
1010.157341	2607.922475
1010.451045	2609.581015
1010.744714	2609.916252
1011.038347	2609.898607
1011.331945	2608.953391
1011.625508	2610.634616
1011.919036	2610.266612
1012.212528	2610.082610
1012.505986	2608.633278
1012.799408	2609.747373
1013.092795	2608.293000
1013.386147	2611.050511
1013.679464	2612.338526
1013.972745	2611.642847
1014.265992	2611.627723
1014.559204	2609.717126
1014.852380	2609.218052
1015.145521	2609.608741
1015.438628	2607.269646
1015.731699	2610.004472
1016.024736	2607.274687
1016.317737	2606.251333
1016.610703	2608.885336
1016.903635	2609.641509
1017.196531	2607.461210
1017.489393	2609.891046
1017.782219	2608.194697
1018.075011	2610.483381
1018.367768	2607.985490
1018.660490	2609.452465
1018.953177	2609.452465
1019.245829	2609.452465
