Dividing Wavelength (nm)	Counts (n)	Blue Motor Position (mm): 20.600000	Red Motor Position (mm): 0.000000	
326.493990	2186.494617
326.888308	2186.494617
327.282561	2186.494617
327.676750	2146.833339
328.070874	2140.524335
328.464933	2144.020375
328.858929	2145.467186
329.252859	2154.311890
329.646726	2161.394712
330.040528	2174.295024
330.434265	2183.948834
330.827938	2202.096988
331.221547	2219.791438
331.615091	2237.541340
332.008571	2257.390884
332.401986	2275.080293
332.795338	2293.394804
333.188625	2310.469193
333.581847	2330.792604
333.975006	2348.209791
334.368100	2366.604961
334.761129	2383.812940
335.154095	2401.141906
335.546996	2424.477407
335.939833	2457.343210
336.332606	2470.510704
336.725315	2484.746922
337.117960	2497.392657
337.510540	2511.341529
337.903056	2522.164887
338.295508	2530.792821
338.687896	2539.660211
339.080220	2547.537014
339.472480	2550.541542
339.864676	2561.385063
340.256807	2563.935887
340.648875	2568.440158
341.040879	2565.823799
341.432818	2570.043245
341.824694	2575.802763
342.216506	2574.439131
342.608253	2579.883577
342.999937	2578.532548
343.391557	2578.305696
343.783113	2578.000707
344.174605	2576.135480
344.566033	2576.553895
344.957397	2573.728329
345.348697	2570.754048
345.739934	2570.184398
346.131106	2572.034501
346.522215	2568.092319
346.913260	2565.097873
347.304241	2564.235836
347.695159	2561.264076
348.086012	2563.207441
348.476802	2557.904147
348.867528	2554.382901
349.258191	2550.402910
349.648789	2550.720503
350.039324	2548.179761
350.429796	2552.283260
350.820203	2547.531973
351.210548	2546.992569
351.600828	2549.263609
351.991045	2545.384441
352.381198	2546.914431
352.771288	2547.368135
353.161314	2542.735315
353.551276	2543.032743
353.941175	2543.002496
354.331010	2543.153731
354.720782	2544.008206
355.110490	2541.633823
355.500135	2543.393185
355.889717	2544.199770
356.279235	2543.970397
356.668689	2541.094419
357.058080	2544.774462
357.447408	2542.712630
357.836672	2541.351518
358.225873	2543.957795
358.615010	2543.662887
359.004084	2545.470141
359.393095	2543.350336
359.782043	2545.951571
360.170927	2543.579708
360.559748	2547.194215
360.948505	2545.412168
361.337199	2550.218908
361.725830	2549.863506
362.114398	2548.298228
362.502903	2548.787220
362.891344	2549.956768
363.279722	2550.468445
363.668037	2549.712272
364.056289	2553.054557
364.444478	2551.539690
364.832603	2549.500543
365.220665	2554.035061
365.608665	2551.549772
365.996601	2553.785524
366.384474	2553.969526
366.772284	2556.409445
367.160031	2554.521533
367.547715	2554.478683
367.935336	2554.284598
368.322893	2554.277037
368.710388	2551.726213
369.097820	2554.093034
369.485189	2551.670760
369.872495	2556.061605
370.259738	2557.576472
370.646918	2557.662171
371.034035	2559.645865
371.421090	2555.252500
371.808081	2556.074208
372.195010	2560.086966
372.581875	2558.861966
372.968678	2558.428427
373.355418	2558.320042
373.742096	2560.137378
374.128710	2559.464384
374.515262	2561.284240
374.901751	2560.023952
375.288177	2561.143088
375.674540	2558.516647
376.060841	2561.274158
376.447079	2561.488407
376.833254	2562.778942
377.219367	2560.286092
377.605417	2560.810372
377.991404	2561.793397
378.377329	2560.578479
378.763191	2562.917574
379.148991	2562.925136
379.534727	2560.870866
379.920402	2561.062430
380.306013	2565.685168
380.691563	2562.179045
381.077049	2562.620146
381.462474	2565.851526
381.847835	2564.528223
382.233134	2563.557801
382.618371	2565.037379
383.003545	2564.540826
383.388657	2563.872873
383.773706	2564.525702
384.158693	2565.347410
384.543618	2564.928995
384.928480	2566.297668
385.313280	2568.243553
385.698017	2566.597617
386.082692	2567.749520
386.467305	2563.691391
386.851856	2567.605847
387.236344	2565.186093
387.620770	2564.724828
388.005133	2565.448233
388.389435	2566.844633
388.773674	2562.400856
389.157851	2568.495611
389.541965	2566.350600
389.926018	2570.070972
390.310008	2568.745148
390.693936	2569.566856
391.077802	2570.154151
391.461606	2573.572053
391.845348	2570.002916
392.229027	2571.106929
392.612645	2568.856053
392.996200	2570.048286
393.379694	2569.680282
393.763125	2568.908986
394.146494	2571.386713
394.529801	2572.591548
394.913047	2572.082392
395.296230	2573.015005
395.679351	2570.955694
396.062410	2573.362845
396.445408	2574.572722
396.828343	2573.987948
397.211217	2572.747824
397.594028	2572.704974
397.976778	2571.351425
398.359466	2575.764955
398.742092	2572.790674
399.124656	2576.488360
399.507158	2574.746642
399.889598	2573.511559
400.271977	2576.364852
400.654294	2574.214800
401.036549	2574.872671
401.418742	2575.732187
401.800874	2577.763772
402.182944	2574.731518
402.564952	2576.853844
402.946898	2579.056828
403.328783	2574.565160
403.710606	2576.508525
404.092367	2575.281004
404.474067	2577.400809
404.855705	2576.790830
405.237282	2580.014647
405.618797	2576.679924
406.000250	2578.330902
406.381642	2578.741756
406.762972	2577.917527
407.144240	2575.560788
407.525447	2576.110274
407.906593	2575.757393
408.287677	2579.059349
408.668700	2582.504977
409.049661	2580.816191
409.430560	2581.463979
409.811399	2577.715881
410.192176	2584.579412
410.572891	2584.065215
410.953545	2582.545307
411.334138	2581.078331
411.714669	2580.899370
412.095139	2584.032447
412.475547	2580.561613
412.855894	2584.259299
413.236180	2582.845255
413.616405	2579.523135
413.996568	2580.385172
414.376670	2582.363825
414.756711	2583.866089
415.136691	2583.840883
415.516609	2583.830801
415.896466	2582.089082
416.276262	2582.948599
416.655997	2585.360791
417.035670	2584.526480
417.415283	2584.108064
417.794834	2584.856676
418.174324	2585.224680
418.553753	2580.760738
418.933121	2584.710482
419.312428	2584.246696
419.691674	2585.706110
420.070859	2583.727457
420.449983	2587.336923
420.829045	2583.417426
421.208047	2584.914649
421.586988	2583.901377
421.965867	2587.800710
422.344686	2587.556214
422.723444	2585.620411
423.102141	2584.516398
423.480777	2588.403127
423.859352	2588.859352
424.237866	2586.195102
424.616319	2587.200812
424.994712	2589.915474
425.373044	2586.744588
425.751314	2584.977663
426.129524	2584.266861
426.507673	2584.324834
426.885762	2582.492375
427.263789	2589.902871
427.641756	2590.522933
428.019662	2589.055957
428.397508	2588.345154
428.775292	2590.422110
429.153016	2589.943200
429.530679	2588.841708
429.908282	2587.520926
430.285824	2590.273396
430.663305	2589.156780
431.040726	2589.434043
431.418086	2587.092427
431.795385	2594.828078
432.172624	2589.537387
432.549802	2590.669126
432.926920	2589.754157
433.303977	2594.235742
433.680974	2590.381780
434.057910	2590.512850
434.434786	2590.999322
434.811601	2591.148036
435.188355	2592.241966
435.565050	2591.274065
435.941683	2593.061154
436.318257	2592.650300
436.694770	2593.804724
437.071222	2594.223140
437.447614	2592.257090
437.823946	2592.572162
438.200218	2595.707759
438.576429	2593.938314
438.952580	2592.844384
439.328670	2593.625763
439.704700	2592.438571
440.080670	2593.492172
440.456580	2593.807244
440.832429	2596.630291
441.208218	2594.084508
441.583947	2595.624580
441.959616	2593.819847
442.335224	2596.630291
442.710773	2596.350507
443.086261	2598.281268
443.461689	2597.121803
443.837057	2598.707246
444.212365	2598.082143
444.587612	2598.835795
444.962800	2592.166349
445.337927	2592.970413
445.712995	2592.811617
446.088002	2598.198089
446.462949	2597.043665
446.837837	2598.641711
447.212664	2599.102977
447.587431	2598.286310
447.962139	2600.622884
448.336786	2603.254367
448.711374	2600.126331
449.085901	2599.755806
449.460369	2601.449634
449.834776	2600.748913
450.209124	2601.510127
450.583412	2601.386619
450.957640	2602.777978
451.331808	2606.165633
451.705917	2601.918461
452.079965	2602.538523
452.453954	2601.973914
452.827883	2599.113059
453.201752	2602.997268
453.575562	2605.429625
453.949311	2605.374172
454.323001	2602.457864
454.696632	2606.437855
455.070202	2606.853751
455.443713	2604.010540
455.817164	2603.924840
456.190556	2604.325612
456.563888	2606.556322
456.937160	2605.369131
457.310373	2608.363576
457.683526	2606.740325
458.056619	2607.413319
458.429653	2608.862650
458.802628	2609.757455
459.175542	2605.376692
459.548398	2609.686879
459.921194	2609.681838
460.293930	2609.233175
460.666607	2607.090685
461.039224	2611.375666
461.411782	2613.505553
461.784280	2612.635954
462.156719	2613.419853
462.529099	2615.708537
462.901419	2612.048660
463.273680	2609.525562
463.645882	2609.346601
464.018024	2608.381220
464.390106	2611.174019
464.762130	2614.710389
465.134094	2614.536469
465.505999	2621.284053
465.877845	2621.246245
466.249631	2624.981740
466.621358	2626.410907
466.993026	2626.539456
467.364634	2631.547843
467.736184	2623.101389
468.107674	2623.209774
468.479105	2625.301853
468.850477	2624.712038
469.221790	2625.125413
469.593043	2624.134826
469.964238	2624.495268
470.335373	2623.620628
470.706449	2625.649693
471.077467	2625.390073
471.448425	2628.540794
471.819324	2637.708133
472.190164	2642.313227
472.560945	2637.793832
472.931667	2631.658748
473.302330	2632.218316
473.672934	2631.197482
474.043479	2634.660755
474.413965	2635.837865
474.784393	2637.264511
475.154761	2639.336425
475.525070	2642.741725
475.895321	2641.824235
476.265513	2643.573515
476.635645	2647.709782
477.005719	2649.607776
477.375734	2650.633651
477.745691	2657.517347
478.115588	2657.716472
478.485427	2665.023625
478.855207	2670.644511
479.224928	2682.491223
479.594591	2693.241483
479.964194	2700.435210
480.333739	2704.034594
480.703226	2706.129193
481.072653	2710.860316
481.442022	2719.674774
481.811333	2731.410580
482.180584	2738.014491
482.549777	2744.988928
482.918912	2746.307189
483.287988	2759.726741
483.657005	2770.766868
484.025964	2777.648043
484.394864	2789.479631
484.763706	2797.777370
485.132489	2802.543781
485.501213	2818.541883
485.869879	2834.381188
486.238487	2853.053622
486.607036	2867.214223
486.975527	2879.794423
487.343959	2912.438414
487.712333	2928.192020
488.080648	2948.447376
488.448905	2975.079792
488.817104	2996.862618
489.185244	3043.732746
489.553326	3072.469843
489.921350	3127.209212
490.289315	3232.229050
490.657222	3326.105417
491.025070	3380.012995
491.392861	3421.713420
491.760593	3446.382306
492.128267	3462.652630
492.495883	3476.097388
492.863440	3495.218484
493.230939	3512.169364
493.598380	3575.488777
493.965763	3613.892287
494.333088	3653.251096
494.700354	3711.413408
495.067563	3780.464613
495.434713	3834.457891
495.801805	3899.050195
496.168839	3969.785146
496.535815	4041.059499
496.902733	4123.018578
497.269593	4166.294364
497.636395	4269.025517
498.003139	4348.960573
498.369825	4434.161114
498.736453	4520.483312
499.103023	4599.982308
499.469535	4692.696689
499.835989	4812.587931
500.202385	4922.384262
500.568723	4963.928410
500.935003	5069.648968
501.301226	5145.276358
501.667390	5334.296942
502.033497	5504.763560
502.399546	5546.605137
502.765537	5631.120081
503.131470	5780.234891
503.497345	5921.276293
503.863163	5913.555766
504.228923	6135.497605
504.594625	6293.799918
504.960269	6320.210523
505.325856	6543.558845
505.691385	6588.253715
506.056856	6793.622761
506.422270	6957.876156
506.787625	6994.762278
507.152924	7251.208295
507.518164	7355.003132
507.883347	7452.100797
508.248472	7519.233842
508.613540	7849.946137
508.978550	7982.276426
509.343503	8123.832026
509.708398	8343.729677
510.073236	8525.833798
510.438016	8726.481804
510.802738	8828.119027
511.167403	9042.168940
511.532010	9122.731619
511.896561	9503.215227
512.261053	9705.463798
512.625488	9795.614753
512.989866	9934.375033
513.354186	10025.100678
513.718449	10277.571745
514.082655	10538.988340
514.446803	10665.851497
514.810894	10979.295320
515.174927	10965.452311
515.538904	11156.270067
515.902822	11500.722027
516.266684	11625.921603
516.630488	11743.350241
516.994235	11934.687235
517.357925	12218.660472
517.721558	12499.205725
518.085133	12725.677041
518.448651	12879.154970
518.812112	12966.457672
519.175516	13192.871015
519.538863	13493.041479
519.902152	13552.164132
520.265385	13899.358479
520.628560	13974.527124
520.991678	14182.162169
521.354739	14400.910437
521.717743	14618.123674
522.080690	14675.134083
522.443580	15067.151850
522.806413	15228.967847
523.169189	15497.598333
523.531908	15661.271995
523.894569	15672.619633
524.257174	15881.164606
524.619722	16179.918506
524.982213	16156.285577
525.344647	16420.399188
525.707025	16639.991850
526.069345	16842.774784
526.431608	16993.646436
526.793815	17320.928226
527.155964	17086.885097
527.518057	17400.520484
527.880093	17545.312505
528.242072	17809.181620
528.603995	17798.943037
528.965860	17835.420826
529.327669	18101.782792
529.689421	18219.745792
530.051117	18255.885824
530.412755	18588.516279
530.774337	18565.211024
531.135862	18635.703999
531.497331	18930.233413
531.858743	18754.276979
532.220098	19284.379512
532.581396	19131.846799
532.942638	19321.968875
533.303824	19490.802159
533.664953	19647.546755
534.026025	19559.409742
534.387040	19840.179326
534.747999	20064.021680
535.108902	20297.805190
535.469748	20044.058711
535.830537	20334.605613
536.191270	20518.484220
536.551947	20603.125193
536.912567	20421.033675
537.273131	20774.713467
537.633638	20656.936990
537.994089	20985.100982
538.354483	20699.355779
538.714821	21218.458514
539.075103	21384.022609
539.435328	21300.410031
539.795497	21024.885768
540.155609	21477.251188
540.515665	21815.308444
540.875665	21270.944487
541.235609	21591.183785
541.595496	21681.261643
541.955328	22068.233215
542.315102	22087.704672
542.674821	21807.033390
543.034483	21782.964401
543.394090	21986.236327
543.753640	21887.752345
544.113134	22522.249613
544.472571	22262.544490
544.831953	22603.598712
545.191278	22299.012197
545.550548	22334.723731
545.909761	22566.969688
546.268918	22869.106203
546.628019	22879.440568
546.987064	22698.556407
547.346053	22539.974309
547.704986	22692.882588
548.063863	22903.396131
548.422684	22931.906377
548.781449	22599.558227
549.140158	23017.361496
549.498811	22683.425383
549.857408	22469.365388
550.215949	22942.812913
550.574434	22650.983038
550.932864	22934.164814
551.291237	23088.151899
551.649555	23009.081401
552.007817	23111.936063
552.366022	23030.806254
552.724173	23112.447740
553.082267	23068.113313
553.440305	23567.313572
553.798288	22882.603892
554.156215	23426.050359
554.514086	23534.238562
554.871902	22946.397174
555.229661	23254.509976
555.587365	23145.207678
555.945014	22998.099247
556.302606	23310.897803
556.660143	23241.637390
557.017625	23525.164485
557.375050	23097.067180
557.732421	23503.396783
558.089735	23329.018230
558.446994	23404.648141
558.804197	23445.685653
559.161345	23430.746194
559.518437	23174.285054
559.875474	23394.089444
560.232455	23581.597682
560.589381	23445.773874
560.946251	23417.878649
561.303065	23755.819959
561.659825	23855.730587
562.016528	23463.037305
562.373177	23231.718920
562.729770	23589.008178
563.086307	23484.699143
563.442789	23653.603003
563.799216	23483.141427
564.155587	23509.327700
564.511904	23501.594570
564.868164	23425.301748
565.224370	23436.364560
565.580520	23325.491943
565.936615	23484.149657
566.292654	23150.359738
566.648638	23478.851405
567.004567	23297.377428
567.360441	23257.869905
567.716260	22983.800015
568.072023	23316.400222
568.427732	23082.079829
568.783385	22871.583930
569.138982	23113.488738
569.494525	23153.949039
569.850013	22895.287435
570.205445	22999.777952
570.560823	22803.513230
570.916145	22584.742276
571.271412	22757.326178
571.626625	22506.400225
571.981782	22630.251293
572.336884	22437.038989
572.691931	22563.385428
573.046923	22300.968164
573.401860	22190.458510
573.756743	22180.051048
574.111570	22114.175770
574.466342	22049.117159
574.821059	22144.218527
575.175722	21845.091581
575.530330	21827.223211
575.884882	21859.368129
576.239380	21768.029983
576.593823	21657.260709
576.948211	21638.623563
577.302544	21484.094554
577.656823	21349.316785
578.011047	21455.425512
578.365216	21330.346923
578.719330	21211.496680
579.073389	21126.651541
579.427394	21255.694997
579.781344	21052.783513
580.135239	20937.376378
580.489080	20918.403996
580.842866	20670.112045
581.196597	20849.282215
581.550273	20839.424238
581.903895	20738.855740
582.257463	21055.374666
582.610975	20572.359031
582.964434	20873.333560
583.317837	20593.403328
583.671186	20678.223262
584.024481	20649.954992
584.377721	20426.548697
584.730906	20466.809873
585.084037	20509.614310
585.437113	20404.604555
585.790135	20607.004361
586.143103	20090.649055
586.496016	20091.649724
586.848874	20339.951757
587.201679	20290.087183
587.554428	19941.027609
587.907124	20274.179822
588.259765	20064.379602
588.612352	20133.256887
588.964884	19707.256702
589.317362	19885.965606
589.669786	19934.166598
590.022155	19990.690536
590.374470	20148.685338
590.726731	19968.514500
591.078937	19702.139931
591.431090	19817.405913
591.783188	19554.781963
592.135232	19540.427277
592.487222	19635.367328
592.839157	19663.383540
593.191038	19542.179078
593.542866	19436.239230
593.894639	19163.835441
594.246358	19377.817298
594.598022	19287.875552
594.949633	19040.095278
595.301190	19002.198404
595.652692	19163.180091
596.004141	19408.160003
596.355535	18744.260206
596.706876	18757.926774
597.058162	18628.961456
597.409395	18862.722280
597.760573	18947.932904
598.111698	18733.623372
598.462768	18658.542947
598.813785	18630.083113
599.164748	18453.375547
599.515657	18480.305391
599.866511	18273.257641
600.217312	18636.180388
600.568060	18169.876178
600.918753	18471.163258
601.269392	18381.425679
601.619978	18149.283065
601.970510	18376.134988
602.320988	18311.847673
602.671412	18522.222585
603.021783	18413.658816
603.372100	18160.033325
603.722363	18294.246485
604.072572	18238.841683
604.422728	18362.589407
604.772830	18131.081979
605.122878	18075.304132
605.472872	18075.036951
605.822813	18060.052121
606.172701	18015.276593
606.522534	18229.029077
606.872314	18244.777642
607.222041	18070.683914
607.571714	18291.965362
607.921333	18122.708622
608.270899	18190.605403
608.620411	18393.214417
608.969870	18147.438002
609.319276	18159.541813
609.668627	18179.023352
610.017926	18315.782294
610.367171	18429.782947
610.716362	18469.504719
611.065500	18293.384447
611.414585	18416.812058
611.763616	18412.169155
612.112594	18366.196353
612.461518	18330.686465
612.810389	18528.193832
613.159207	18368.815232
613.507971	18276.824257
613.856682	18558.234068
614.205340	18499.013113
614.553945	18643.671543
614.902496	18367.257516
615.250994	18623.622874
615.599439	18552.734169
615.947830	18548.403817
616.296169	18575.152180
616.644454	18555.743738
616.992686	18533.822280
617.340864	18738.788034
617.688990	18496.235437
618.037063	18678.175720
618.385082	18523.931536
618.733048	18806.967119
619.080961	18662.240633
619.428821	18706.544814
619.776628	18599.873998
620.124382	18517.123458
620.472083	18549.936328
620.819731	18582.386236
621.167326	18285.956307
621.514868	18319.109455
621.862357	18067.772648
622.209793	18090.682172
622.557176	17925.730577
622.904506	17749.617867
623.251783	17650.612126
623.599007	17434.727233
623.946179	17385.417187
624.293297	17310.828275
624.640363	17079.527533
624.987376	17091.724605
625.334336	16877.115124
625.681243	16729.129532
626.028097	16736.668578
626.374899	16671.448650
626.721647	16541.200358
627.068343	16368.089656
627.414987	16297.493337
627.761577	16284.572860
628.108115	16324.571895
628.454600	16038.194027
628.801032	16144.370810
629.147412	16064.617235
629.493739	16085.240596
629.840014	15897.041720
630.186236	15994.192316
630.532405	15759.203971
630.878521	15962.478417
631.224585	15853.521438
631.570597	15675.188101
631.916556	15702.841350
632.262462	15691.972622
632.608316	15615.447907
632.954117	15546.961311
633.299866	15545.141455
633.645562	15473.703264
633.991206	15216.569129
634.336797	15084.664818
634.682336	15064.843002
635.027823	14958.058760
635.373257	14836.682899
635.718639	14724.582761
636.063968	14689.168655
636.409245	14445.721254
636.754470	14468.804697
637.099642	14314.348784
637.444762	14070.404829
637.789829	14125.313077
638.134845	13961.641935
638.479808	13987.016583
638.824719	13948.189616
639.169577	13795.480463
639.514383	13839.487216
639.859137	13657.781346
640.203839	13741.058687
640.548489	13577.982401
640.893086	13570.889497
641.237632	13437.611472
641.582125	13582.360643
641.926566	13431.935133
642.270955	13433.634002
642.615292	13401.519331
642.959576	13409.512081
643.303809	13445.122791
643.647990	13379.383625
643.992118	13435.355556
644.336195	13211.462790
644.680219	13397.435997
645.024192	13328.510821
645.368112	13559.935070
645.711981	13623.594761
646.055797	13804.960353
646.399562	13762.065175
646.743274	14037.370148
647.086935	14313.065811
647.430544	14275.930151
647.774101	14299.069047
648.117606	14457.504951
648.461059	14426.206947
648.804460	14427.031176
649.147810	14146.680008
649.491108	14044.800809
649.834354	14075.229213
650.177548	13765.132717
650.520690	13582.239655
650.863781	13497.724711
651.206820	13543.100137
651.549807	13370.801060
651.892742	13182.221577
652.235626	13124.497845
652.578458	13126.663021
652.921238	12808.924135
653.263967	13001.481088
653.606644	12827.825941
653.949269	12799.716467
654.291843	12610.302673
654.634365	12761.673400
654.976836	12611.313425
655.319255	12633.895273
655.661622	12580.401069
656.003938	12504.541786
656.346203	12435.858586
656.688416	12497.945436
657.030577	12458.463119
657.372687	12375.851211
657.714746	12352.311543
658.056753	12540.001262
658.398708	12363.288655
658.740612	12365.239582
659.082465	12456.451699
659.424266	12418.879979
659.766016	12443.478290
660.107715	12351.976306
660.449362	12425.985486
660.790958	12388.688509
661.132503	12337.798061
661.473996	12398.019685
661.815438	12416.613981
662.156829	12428.695106
662.498168	12415.182293
662.839456	12409.803382
663.180693	12428.811052
663.521879	12512.884896
663.863013	12489.993016
664.204097	12469.447794
664.545129	12593.006474
664.886110	12551.638766
665.227040	12643.123105
665.567918	12651.665341
665.908746	12685.549456
666.249522	12658.576763
666.590248	12711.831512
666.930922	12828.342659
667.271545	12810.247438
667.612118	12893.544943
667.952639	12799.789564
668.293109	12798.988021
668.633528	12766.084409
668.973896	12734.178947
669.314213	12826.598420
669.654480	12565.020509
669.994695	12623.278603
670.334859	12645.280719
670.674973	12594.803646
671.015035	12636.499029
671.355047	12573.776993
671.695008	12552.331925
672.034918	12556.150599
672.374777	12592.991351
672.714585	12508.350378
673.054342	12534.808874
673.394049	12490.015701
673.733705	12577.076428
674.073310	12502.611024
674.412864	12513.875483
674.752368	12388.491904
675.091820	12386.412428
675.431223	12380.070657
675.770574	12264.686207
676.109875	12177.869976
676.449125	12149.936942
676.788324	12083.202148
677.127473	11916.009760
677.466571	11906.101372
677.805619	11803.249231
678.144616	11727.039587
678.483562	11701.639734
678.822458	11567.330792
679.161303	11543.864221
679.500098	11535.019517
679.838842	11495.068373
680.177535	11511.517658
680.516179	11573.065105
680.854771	11514.509582
681.193314	11730.845658
681.531805	11872.058460
681.870247	12286.078343
682.208638	12679.817664
682.546978	13011.006348
682.885268	13068.896439
683.223508	12756.352462
683.561697	12599.325561
683.899836	12502.943740
684.237925	12308.987867
684.575963	12221.856564
684.913951	12146.282106
685.251889	12091.492325
685.589776	12189.129393
685.927614	12117.449226
686.265401	12075.249727
686.603137	12124.474074
686.940824	12274.549224
687.278460	12392.827296
687.616046	12439.392434
687.953582	12611.953651
688.291068	12535.058411
688.628504	12766.875871
688.965889	12766.084409
689.303224	12743.724372
689.640510	12637.235038
689.977745	12341.919204
690.314930	12108.652413
690.652065	12029.841534
690.989150	11743.267062
691.326185	11513.075374
691.663170	11311.711525
692.000105	11068.531304
692.336990	10962.185643
692.673825	10714.407891
693.010610	10593.561351
693.347345	10381.411953
693.684030	10187.627478
694.020665	10128.814857
694.357251	9927.824053
694.693786	9891.948682
695.030272	9706.517399
695.366707	9596.189227
695.703093	9528.133650
696.039429	9521.660808
696.375716	9453.970715
696.711952	9319.744953
697.048139	9350.647226
697.384276	9307.343714
697.720363	9328.345161
698.056400	9266.074308
698.392388	9213.172440
698.728326	9177.682717
699.064214	9107.507335
699.400053	9166.408176
699.735842	8981.594435
700.071581	8935.568701
700.407270	8860.742854
700.742910	8784.152604
701.078501	8694.714973
701.414042	8568.250067
701.749533	8501.467381
702.084974	8366.334211
702.420366	8473.993093
702.755709	8361.945887
703.091002	8231.196000
703.426246	8255.441429
703.761440	8205.997793
704.096584	8161.912902
704.431679	8095.339424
704.766725	8082.063546
705.101721	8027.493055
705.436668	8075.003410
705.771565	7970.903583
706.106413	8043.284470
706.441212	8100.728418
706.775961	8046.934265
707.110661	8074.181702
707.445311	8228.161225
707.779913	8121.666850
708.114465	8256.346317
708.448967	8297.837533
708.783421	8421.776821
709.117825	8606.320861
709.452180	8648.417016
709.786485	8728.548677
710.120742	9013.116770
710.454949	9009.277932
710.789107	9112.009085
711.123216	9320.357453
711.457275	9485.074634
711.791286	9650.986569
712.125247	9646.356269
712.459159	9629.549062
712.793023	9883.645902
713.126837	9462.454977
713.460602	9609.092060
713.794318	9437.508827
714.127985	9470.825813
714.461602	9157.462649
714.795171	9100.646324
715.128691	8863.364254
715.462162	8605.282383
715.795584	8546.038743
716.128957	8409.788957
716.462281	8232.917554
716.795556	8285.164073
717.128782	8082.076149
717.461960	7815.225190
717.795088	7886.244966
718.128167	7795.090822
718.461198	7625.942466
718.794180	7568.523724
719.127113	7560.674648
719.459997	7419.083759
719.792833	7188.997936
720.125619	7245.857110
720.458357	7106.368383
720.791046	7095.993689
721.123686	7095.267763
721.456278	6939.750687
721.788821	6960.374048
722.121315	6854.096442
722.453761	6911.127016
722.786158	6859.243460
723.118506	6867.447938
723.450805	6837.546334
723.783056	6903.668628
724.115259	6808.456356
724.447412	6803.231200
724.779518	6851.222984
725.111574	6850.557552
725.443582	6936.181550
725.775542	6910.975781
726.107453	7100.629030
726.439315	7019.441247
726.771129	7068.211890
727.102895	7231.835141
727.434612	7347.902667
727.766281	7379.036833
728.097901	7464.844833
728.429473	7454.409645
728.760996	7431.545492
729.092471	7410.695279
729.423897	7353.891558
729.755276	7367.757252
730.086606	7297.972559
730.417887	7387.939511
730.749120	7577.585198
731.080305	7770.406812
731.411442	7893.912561
731.742530	7884.646920
732.073570	7993.548446
732.404562	8087.651665
732.735506	7925.127385
733.066401	8070.302534
733.397249	8010.781630
733.728048	7766.184846
734.058798	7441.884898
734.389501	7225.329532
734.720156	7046.197171
735.050762	6809.295708
735.381320	6711.325924
735.711831	6667.871178
736.042293	6556.045783
736.372707	6583.663744
736.703073	6440.590757
737.033391	6478.142312
737.363661	6487.594475
737.693883	6511.330748
738.024056	6591.500218
738.354182	6641.163145
738.684260	6677.222518
739.014290	6785.080525
739.344272	6896.253091
739.674207	6922.005826
740.004093	6990.855384
740.333931	7008.925400
740.663722	7015.826740
740.993464	7094.345232
741.323159	7093.778102
741.652806	6841.047415
741.982405	6837.558937
742.311956	6904.122332
742.641460	6750.112562
742.970915	6553.149640
743.300323	6544.609925
743.629683	6486.613971
743.958996	6356.113621
744.288260	6271.419716
744.617477	6217.345779
744.946647	6231.463531
745.275768	6060.139917
745.604842	6012.443040
745.933869	5995.073744
746.262847	5953.849709
746.591778	5940.120126
746.920662	5906.251134
747.249498	5891.823352
747.578286	5938.935455
747.907027	6015.603843
748.235720	6078.537608
748.564365	6046.596857
748.892963	6065.271812
749.221514	6225.013374
749.550017	6070.691052
749.878473	5941.531649
750.206881	5993.505946
750.535242	5937.024858
750.863555	5862.874526
751.191821	5881.128544
751.520039	5890.084154
751.848210	5799.015710
752.176334	5812.352082
752.504411	5863.955853
752.832440	5790.939781
753.160421	5718.488318
753.488356	5769.184682
753.816243	5805.566689
754.144082	5654.755531
754.471875	5618.159274
754.799620	5668.076780
755.127318	5675.749416
755.454969	5629.506912
755.782572	5597.785451
756.110129	5637.449249
756.437638	5627.329133
756.765100	5568.950051
757.092515	5564.042488
757.419882	5611.270537
757.747203	5595.045584
758.074477	5659.416077
758.401703	5651.093132
758.728882	5592.562816
759.056014	5645.202544
759.383099	5780.897803
759.710138	5790.077744
760.037129	5773.446977
760.364073	5781.722031
760.690970	5862.098188
761.017820	5846.964644
761.344623	5793.170492
761.671379	5894.659001
761.998088	6010.590416
762.324751	6239.670529
762.651366	6820.202244
762.977935	8087.797858
763.304456	9708.932112
763.630931	10627.689962
763.957359	10266.990363
764.283740	9342.465433
764.610074	8526.897482
764.936362	7540.888119
765.262602	6947.798889
765.588796	6400.085086
765.914943	6064.697120
766.241044	5908.345734
766.567097	5710.316608
766.893104	5454.460406
767.219064	5271.995842
767.544978	5212.812696
767.870845	5133.732116
768.196665	5031.164800
768.522438	4963.338595
768.848165	4922.454838
769.173846	4862.742370
769.499479	4823.466741
769.825066	4765.001959
770.150607	4703.255386
770.476101	4683.494063
770.801548	4681.991799
771.126949	4606.503041
771.452303	4553.402047
771.777611	4509.173484
772.102872	4528.274416
772.428087	4489.074403
772.753256	4447.487405
773.078378	4406.507865
773.403453	4338.278368
773.728482	4322.852437
774.053465	4274.933750
774.378401	4267.498048
774.703291	4266.683901
775.028135	4202.678892
775.352932	4151.869102
775.677683	4135.039210
776.002388	4152.113598
776.327046	4163.950227
776.651658	4094.157973
776.976224	4028.877551
777.300743	4035.665465
777.625216	4055.174730
777.949643	4056.311510
778.274024	4006.373840
778.598359	3963.178713
778.922647	3983.723936
779.246889	3978.861743
779.571086	3975.920230
779.895236	3961.694094
780.219339	3947.049542
780.543397	3934.918005
780.867409	3986.123525
781.191374	4004.243953
781.515294	3943.944191
781.839167	3937.579734
782.162995	3955.022127
782.486776	3943.377061
782.810511	3948.710602
783.134201	3951.667239
783.457844	3908.651073
783.781441	3850.859285
784.104993	3855.469420
784.428498	3872.485835
784.751958	3867.144733
785.075372	3850.776106
785.398739	3814.678924
785.722061	3823.483299
786.045337	3862.390925
786.368568	3898.614136
786.691752	3813.206907
787.014891	3856.265923
787.337983	3977.704798
787.661030	4135.523161
787.984031	4297.891164
788.306987	4467.906598
788.629897	4547.355183
788.952760	4509.163401
789.275579	4439.512299
789.598351	4378.340418
789.921078	4244.404522
790.243759	4043.653173
790.566395	4019.173330
790.888984	4018.593597
791.211529	3914.498811
791.534027	3854.178885
791.856480	3844.956094
792.178888	3782.488636
792.501249	3733.781008
792.823566	3741.413315
793.145836	3775.541926
793.468062	3724.575861
793.790241	3677.851926
794.112375	3709.099518
794.434464	3767.884413
794.756507	3789.747898
795.078505	3778.541413
795.400457	3802.864980
795.722364	3942.620888
796.044226	4039.514386
796.366042	4115.252681
796.687812	4099.108386
797.009538	4109.092391
797.331218	4066.333324
797.652852	4036.119168
797.974442	4018.724667
798.295986	4017.355994
798.617484	3942.129376
798.938938	3851.275180
799.260346	3888.294894
799.581709	3891.685070
799.903026	3820.249399
800.224299	3779.670631
800.545526	3774.992440
800.866708	3737.231677
801.187845	3675.308664
801.508936	3711.035322
801.829983	3713.215621
802.150984	3630.639000
802.471940	3617.925210
802.792851	3633.628404
803.113717	3633.126809
803.434538	3633.635966
803.755314	3580.681165
804.076045	3550.651012
804.396731	3570.170360
804.717372	3596.333948
805.037967	3582.748038
805.358518	3576.554981
805.679024	3600.283692
805.999485	3610.204683
806.319901	3615.260960
806.640272	3627.218577
806.960598	3644.746669
807.280879	3622.091724
807.601115	3630.674288
807.921306	3642.168119
808.241453	3686.479861
808.561554	3662.831808
808.881611	3597.841253
809.201623	3632.126140
809.521590	3644.093840
809.841513	3617.539562
810.161390	3645.492760
810.481223	3625.313021
810.801011	3570.674475
811.120755	3562.722055
811.440453	3596.966613
811.760107	3600.941563
812.079716	3563.732806
812.399281	3524.479862
812.718801	3550.063717
813.038276	3522.533976
813.357707	3519.476517
813.677093	3539.721790
813.996434	3490.605828
814.315731	3494.774863
814.634983	3498.729648
814.954191	3513.691793
815.273354	3541.856719
815.592473	3539.605844
815.911547	3540.961914
816.230577	3580.212338
816.549562	3631.380050
816.868502	3671.948735
817.187399	3700.295143
817.506250	3696.211809
817.825058	3663.857683
818.143821	3754.938730
818.462539	3856.820450
818.781213	3904.857605
819.099843	3958.936582
819.418429	4191.583312
819.736970	4428.671298
820.055466	4667.702649
820.373919	5022.357904
820.692327	5432.682621
821.010691	5844.202092
821.329011	7162.143710
821.647286	9797.434609
821.965517	14250.467283
822.283704	18265.353111
822.601847	20511.540031
822.919945	18759.320653
823.237999	16239.767084
823.556010	13792.430565
823.873976	11741.540466
824.191897	9658.812961
824.509775	8309.835479
824.827609	7185.438882
825.145398	6639.504605
825.463144	6523.457244
825.780845	6636.106868
826.098502	6808.635317
826.416116	7640.987790
826.733685	8937.887631
827.051210	10050.230830
827.368692	10147.371344
827.686129	8941.459289
828.003522	7432.500790
828.320872	6417.219967
828.638177	5728.222786
828.955439	5177.885062
829.272656	4684.671172
829.589830	4397.186772
829.906960	4228.666040
830.224046	4044.719377
830.541088	3916.283380
830.858086	3871.893500
831.175041	3798.988333
831.491952	3776.461937
831.808819	3788.843011
832.125642	3856.134853
832.442421	3998.678519
832.759157	4259.913632
833.075849	4795.654695
833.392497	5638.089476
833.709101	6404.599439
834.025662	6751.246821
834.342179	6418.530667
834.658653	5768.534373
834.975083	5134.601715
835.291469	4563.701124
835.607811	4149.106550
835.924110	4016.050335
836.240366	3822.147393
836.556578	3612.873974
836.872746	3506.646780
837.188871	3469.112869
837.504952	3407.651121
837.820990	3325.966785
838.136984	3275.761934
838.452935	3298.663896
838.768842	3294.658699
839.084706	3313.515135
839.400526	3465.962148
839.716303	3790.045326
840.032037	4298.213798
840.347727	4577.491201
840.663373	4318.582580
840.978977	3942.462092
841.294537	3640.519662
841.610054	3409.854106
841.925527	3303.294196
842.240957	3235.536047
842.556344	3180.824404
842.871687	3125.822895
843.186987	3075.169381
843.502244	3038.948691
843.817458	3003.499297
844.132629	2972.932261
844.447756	2983.493478
844.762840	2970.600727
845.077881	2938.803649
845.392879	2921.124323
845.707833	2918.765063
846.022745	2912.808939
846.337613	2915.372366
846.652438	2906.394071
846.967221	2903.704615
847.281960	2889.680125
847.596656	2883.179558
847.911309	2884.767521
848.225919	2878.022457
848.540485	2871.784029
848.855009	2871.542054
849.169490	2864.940663
849.483928	2855.314580
849.798323	2853.829960
850.112675	2848.395596
850.426984	2861.190044
850.741251	2857.502440
851.055474	2850.013806
851.369654	2842.280676
851.683792	2846.795030
851.997887	2857.114272
852.311938	2853.691328
852.625947	2847.135308
852.939914	2849.308045
853.253837	2855.445650
853.567718	2842.172292
853.881555	2836.183401
854.195350	2854.162676
854.509103	2851.730319
854.822812	2844.090451
855.136479	2838.666169
855.450103	2838.272959
855.763685	2834.476970
856.077224	2830.809531
856.390720	2844.098012
856.704173	2851.737881
857.017584	2847.369721
857.330953	2844.750842
857.644278	2851.687469
857.957561	2860.164170
858.270802	2865.643904
858.584000	2863.713142
858.897155	2850.815350
859.210268	2848.985411
859.523339	2847.931810
859.836367	2847.125225
860.149352	2842.036180
860.462295	2837.783967
860.775195	2844.700430
861.088054	2842.804956
861.400869	2829.599654
861.713642	2827.247956
862.026373	2841.446365
862.339062	2841.544668
862.651708	2847.485668
862.964312	2851.415247
863.276873	2845.910307
863.589392	2852.738550
863.901869	2866.415200
864.214303	2887.338509
864.526696	2902.283010
864.839045	2899.298647
865.151353	2898.489542
865.463619	2896.180693
865.775842	2898.313101
866.088023	2913.784403
866.400162	2920.216915
866.712258	2896.687329
867.024313	2882.115874
867.336325	2892.014180
867.648296	2911.044535
867.960224	2905.572363
868.272110	2892.535939
868.583954	2899.167577
868.895755	2911.097468
869.207515	2896.301681
869.519233	2899.926271
869.830909	2910.976480
870.142542	2923.289498
870.454134	2922.760177
870.765684	2924.834612
871.077191	2927.322421
871.388657	2931.350303
871.700081	2945.480657
872.011463	2956.540949
872.322803	2956.982050
872.634101	2956.498099
872.945357	2973.287662
873.256571	2998.947135
873.567744	2991.705518
873.878874	2983.758138
874.189963	3005.084740
874.501010	3008.182529
874.812015	2999.259687
875.122979	2995.990498
875.433900	2993.119561
875.744780	2999.390757
876.055618	3009.704957
876.366415	3004.837723
876.677169	3016.117305
876.987882	3016.316431
877.298554	3007.166736
877.609183	3025.549304
877.919771	3049.605690
878.230317	3072.169895
878.540822	3126.994963
878.851285	3162.174655
879.161707	3203.076057
879.472087	3297.068371
879.782425	3512.842358
880.092722	3936.604271
880.402977	4452.775575
880.713191	5058.228234
881.023363	6176.560324
881.333494	7432.820904
881.643583	8011.946137
881.953631	7722.699853
882.263637	7114.721575
882.573602	6546.891047
882.883526	5979.375591
883.193408	5410.511627
883.503248	4947.368220
883.813048	4653.708406
884.122806	4362.559086
884.432522	4052.593659
884.742197	3822.422136
885.051831	3635.682674
885.361424	3496.894668
885.670975	3426.315993
885.980485	3343.502439
886.289954	3270.136006
886.599382	3228.692680
886.908768	3187.970240
887.218113	3142.299906
887.527417	3090.958275
887.836680	3039.543547
888.145901	3033.073226
888.455082	3025.972761
888.764221	2975.634319
889.073319	2947.111471
889.382376	2943.519648
889.691392	2946.219186
890.000366	2946.809001
890.309300	2935.826848
890.618193	2947.305555
890.927044	2964.296764
891.235855	2962.832309
891.544625	2950.708334
891.853353	2961.241825
892.162041	2974.071561
892.470687	3016.502953
892.779293	3066.357444
893.087858	3112.219341
893.396381	3179.859023
893.704864	3295.137609
894.013306	3523.068339
894.321707	3818.240499
894.630068	4024.907642
894.938387	4024.595091
895.246665	3977.888800
895.554903	3868.594064
895.863100	3672.047038
896.171256	3505.648632
896.479371	3370.938918
896.787446	3253.969026
897.095480	3152.863644
897.403473	3086.706062
897.711425	3049.333468
898.019336	3042.810215
898.327207	3015.633354
898.635038	2979.957108
898.942827	2963.278451
899.250576	2957.702935
899.558284	2924.663213
899.865952	2904.859040
900.173579	2886.657954
900.481165	2878.435832
900.788711	2866.097608
901.096216	2840.423011
901.403681	2829.098059
901.711105	2833.887155
902.018489	2834.328256
902.325832	2835.177691
902.633135	2843.634226
902.940397	2873.518186
903.247619	2949.591718
903.554800	3134.433186
903.861941	3464.623722
904.169041	3880.581928
904.476101	4181.269111
904.783121	4149.751817
905.090100	3915.476795
905.397039	3645.656597
905.703938	3400.225502
906.010796	3218.481823
906.317614	3110.444855
906.624391	3016.255937
906.931129	2947.935699
907.237826	2887.456977
907.544483	2838.320850
907.851099	2810.032415
908.157675	2792.975671
908.464211	2771.891045
908.770707	2759.759508
909.077163	2745.140162
909.383578	2729.656258
909.689954	2720.277192
909.996289	2719.899105
910.302584	2722.248283
910.608839	2721.527398
910.915054	2713.602704
911.221229	2708.294369
911.527363	2709.342929
911.833458	2714.187478
912.139513	2717.993549
912.445527	2723.374981
912.751502	2731.534088
913.057436	2742.042373
913.363331	2753.543766
913.669186	2773.736107
913.975000	2807.441262
914.280775	2861.941176
914.586510	2931.090684
914.892205	3006.216479
915.197859	3127.347844
915.503475	3314.193170
915.809050	3520.378883
916.114585	3667.449505
916.420081	3692.105789
916.725536	3636.910195
917.030952	3518.339736
917.336328	3398.942528
917.641665	3273.402674
917.946961	3168.284534
918.252218	3103.485542
918.557435	3027.298584
918.862612	2971.417394
919.167750	2920.620207
919.472848	2882.859444
919.777906	2855.705269
920.082925	2829.612257
920.387904	2802.732824
920.692843	2782.636265
920.997743	2773.458844
921.302603	2760.162801
921.607423	2750.274577
921.912204	2743.290059
922.216946	2728.756412
922.521647	2721.174517
922.826310	2714.381562
923.130932	2706.285469
923.435516	2695.136957
923.740059	2690.133612
924.044564	2684.933662
924.349028	2678.455779
924.653454	2672.378668
924.957840	2665.207627
925.262186	2661.083963
925.566493	2655.916780
925.870761	2651.231028
926.174989	2648.581902
926.479178	2647.470327
926.783328	2640.490850
927.087438	2638.355921
927.391509	2636.460447
927.695541	2636.977165
927.999533	2631.000877
928.303486	2627.386370
928.607400	2629.322173
928.911275	2626.476442
929.215110	2626.156329
929.518906	2624.311266
929.822663	2624.911164
930.126381	2625.634569
930.430060	2623.280350
930.733699	2625.485855
931.037299	2627.136833
931.340861	2627.212450
931.644383	2628.699591
931.947866	2627.454426
932.251309	2624.754888
932.554714	2625.127933
932.858080	2625.387553
933.161407	2622.602315
933.464694	2620.041409
933.767943	2616.694083
934.071153	2621.218518
934.374323	2620.240535
934.677455	2619.161728
934.980548	2617.004114
935.283602	2617.697272
935.586617	2615.741305
935.889593	2618.360184
936.192530	2617.523353
936.495428	2614.546551
936.798287	2621.130298
937.101108	2623.464352
937.403890	2626.189096
937.706632	2631.804942
938.009336	2638.635705
938.312002	2644.314565
938.614628	2655.589105
938.917216	2660.174035
939.219765	2660.259734
939.522275	2658.064312
939.824747	2656.753612
940.127179	2653.728920
940.429573	2650.913435
940.731929	2649.643064
941.034246	2646.845224
941.336524	2642.217445
941.638763	2639.084368
941.940964	2638.643267
942.243126	2636.475571
942.545250	2638.282824
942.847335	2634.126393
943.149381	2630.020373
943.451389	2624.674229
943.753359	2622.244393
944.055290	2621.669702
944.357182	2620.727006
944.659036	2619.910339
944.960851	2620.021244
945.262628	2620.578292
945.564367	2617.717437
945.866067	2618.990328
946.167729	2620.643827
946.469352	2621.785648
946.770937	2619.249948
947.072484	2618.947479
947.373992	2618.307252
947.675462	2616.305914
947.976893	2611.206787
948.278286	2608.461879
948.579641	2611.544544
948.880958	2607.597321
949.182236	2611.075717
949.483476	2611.973042
949.784678	2610.165789
950.085841	2610.317023
950.386967	2610.274173
950.688054	2609.873402
950.989103	2612.129318
951.290114	2612.895573
951.591087	2614.453290
951.892021	2619.103754
952.192917	2621.077366
952.493776	2620.515278
952.794596	2621.072325
953.095378	2620.890843
953.396122	2623.086266
953.696828	2621.286574
953.997496	2619.065946
954.298126	2617.135184
954.598718	2613.518156
954.899272	2611.574791
955.199788	2608.466920
955.500266	2607.113370
955.800706	2604.590273
956.101108	2604.668410
956.401472	2602.251177
956.701798	2598.011567
957.002087	2601.028697
957.302337	2597.641042
957.602550	2594.472677
957.902724	2591.253900
958.202861	2591.014445
958.502960	2593.030907
958.803022	2592.816658
959.103045	2589.764239
959.403031	2587.561255
959.702979	2586.968919
960.002889	2590.038982
960.302762	2589.607963
960.602596	2586.757191
960.902393	2585.519587
961.202153	2588.813982
961.501875	2583.762745
961.801559	2587.142839
962.101205	2584.586974
962.400814	2588.125864
962.700385	2584.556727
962.999918	2580.957343
963.299414	2582.739391
963.598873	2580.294432
963.898293	2579.041705
964.197677	2584.392890
964.497022	2583.777869
964.796331	2583.775348
965.095601	2584.871799
965.394835	2583.016655
965.694030	2585.189392
965.993189	2582.623445
966.292309	2582.099165
966.591393	2581.063207
966.890439	2581.670667
967.189447	2582.421798
967.488419	2583.175451
967.787353	2585.393559
968.086249	2584.276943
968.385108	2580.612024
968.683930	2581.925245
968.982714	2583.326686
969.281462	2580.208732
969.580172	2581.615214
969.878844	2582.212591
970.177480	2583.961871
970.476078	2584.891964
970.774639	2580.833835
971.073162	2580.974987
971.371649	2583.566140
971.670098	2584.201326
971.968510	2583.006572
972.266885	2583.861048
972.565223	2583.545976
972.863524	2582.305852
973.161788	2582.338619
973.460014	2584.665112
973.758204	2581.852148
974.056356	2583.999680
974.354471	2583.054463
974.652550	2583.581264
974.950591	2584.022365
975.248595	2583.445153
975.546563	2584.617221
975.844493	2582.043712
976.142386	2581.854669
976.440243	2583.167889
976.738062	2581.481623
977.035845	2582.043712
977.333590	2581.194278
977.631299	2580.019689
977.928971	2579.583629
978.226606	2577.163875
978.524204	2575.863257
978.821765	2576.848803
979.119290	2579.760069
979.416777	2580.339802
979.714228	2579.951633
980.011642	2580.793506
980.309020	2580.425502
980.606360	2580.927096
980.903664	2579.828125
981.200931	2583.097313
981.498162	2581.421129
981.795356	2582.136973
982.092513	2583.780389
982.389633	2585.454052
982.686717	2588.579568
982.983764	2594.628952
983.280775	2595.944694
983.577749	2599.130703
983.874686	2598.243460
984.171587	2595.841350
984.468451	2593.542584
984.765279	2590.026379
985.062070	2591.664754
985.358824	2588.473704
985.655543	2585.955647
985.952224	2585.673343
986.248869	2583.321644
986.545478	2581.080852
986.842050	2583.006572
987.138586	2581.905080
987.435086	2577.599935
987.731549	2580.380131
988.027975	2579.553382
988.324366	2578.903073
988.620719	2577.312589
988.917037	2578.852662
989.213318	2579.124884
989.509563	2577.587332
989.805772	2579.976839
990.101944	2579.306365
990.398080	2577.627661
990.694180	2578.214956
990.990244	2575.437280
991.286271	2577.773855
991.582262	2578.209914
991.878217	2577.181519
992.174136	2577.594894
992.470019	2576.778227
992.765865	2574.602969
993.061676	2574.355952
993.357450	2576.150603
993.653188	2574.487022
993.948890	2576.319482
994.244556	2578.701427
994.540186	2580.150759
994.835780	2578.517425
995.131337	2577.766293
995.426859	2579.462641
995.722345	2578.056159
996.017795	2581.990780
996.313208	2581.826942
996.608586	2582.628486
996.903928	2582.663774
997.199234	2582.676377
997.494504	2582.197467
997.789738	2582.971284
998.084936	2579.865933
998.380099	2581.186716
998.675225	2581.799216
998.970316	2581.201839
999.265371	2578.456931
999.560390	2578.204873
999.855373	2579.560944
1000.150320	2577.259657
1000.445232	2578.829976
1000.740108	2578.867785
1001.034948	2580.644792
1001.329752	2576.190932
1001.624521	2575.860737
1001.919254	2576.410222
1002.213951	2576.480799
1002.508613	2574.507187
1002.803239	2576.301838
1003.097829	2575.737228
1003.392384	2573.677917
1003.686903	2574.605489
1003.981386	2573.728329
1004.275834	2575.606158
1004.570246	2576.405181
1004.864623	2577.186560
1005.158964	2574.862588
1005.453270	2573.882084
1005.747540	2578.593042
1006.041775	2573.836713
1006.335974	2578.774524
1006.630138	2574.166909
1006.924266	2574.799574
1007.218359	2572.452917
1007.512416	2573.904769
1007.806438	2573.138514
1008.100425	2571.847978
1008.394376	2569.803790
1008.688292	2576.223700
1008.982172	2572.493246
1009.276017	2574.635736
1009.569827	2573.763617
1009.863602	2574.227403
1010.157341	2575.437280
1010.451045	2576.828638
1010.744714	2572.694892
1011.038347	2575.041549
1011.331945	2573.564491
1011.625508	2576.400140
1011.919036	2575.457444
1012.212528	2575.545665
1012.505986	2571.963925
1012.799408	2571.963925
1013.092795	2574.295458
1013.386147	2574.643298
1013.679464	2574.250088
1013.972745	2573.584656
1014.265992	2574.237485
1014.559204	2573.433421
1014.852380	2573.168761
1015.145521	2575.777558
1015.438628	2573.191446
1015.731699	2573.808987
1016.024736	2575.349060
1016.317737	2572.803277
1016.610703	2574.250088
1016.903635	2572.415108
1017.196531	2573.534244
1017.489393	2570.910324
1017.782219	2573.677917
1018.075011	2572.460478
1018.367768	2574.529872
1018.660490	2573.977866
1018.953177	2573.977866
1019.245829	2573.977866
