Dividing Wavelength (nm)	Counts (n)	Blue Motor Position (mm): 20.100000	Red Motor Position (mm): 0.000000	
326.493990	2187.379339
326.888308	2187.379339
327.282561	2187.379339
327.676750	2142.313944
328.070874	2142.276136
328.464933	2143.085241
328.858929	2145.142032
329.252859	2150.251241
329.646726	2160.507468
330.040528	2172.107163
330.434265	2182.484379
330.827938	2201.154292
331.221547	2219.483927
331.615091	2238.743656
332.008571	2256.937180
332.401986	2273.210024
332.795338	2292.643673
333.188625	2310.126394
333.581847	2330.354024
333.975006	2346.364728
334.368100	2366.468850
334.761129	2385.617673
335.154095	2402.631567
335.546996	2423.872469
335.939833	2458.457305
336.332606	2472.154120
336.725315	2485.364463
337.117960	2497.659838
337.510540	2506.018071
337.903056	2521.196985
338.295508	2527.518592
338.687896	2540.353370
339.080220	2545.480223
339.472480	2551.973229
339.864676	2558.078067
340.256807	2558.587223
340.648875	2566.257339
341.040879	2568.793039
341.432818	2573.604820
341.824694	2575.994327
342.216506	2575.165058
342.608253	2575.885943
342.999937	2575.896025
343.391557	2577.458782
343.783113	2577.766293
344.174605	2575.938875
344.566033	2573.075499
344.957397	2574.940726
345.348697	2571.422001
345.739934	2567.557956
346.131106	2567.830179
346.522215	2566.325394
346.913260	2564.712225
347.304241	2562.610064
347.695159	2563.714077
348.086012	2559.716442
348.476802	2558.098231
348.867528	2552.774773
349.258191	2548.930893
349.648789	2552.621018
350.039324	2546.337219
350.429796	2551.234700
350.820203	2549.941644
351.210548	2547.363094
351.600828	2545.291180
351.991045	2542.662218
352.381198	2543.826725
352.771288	2544.308155
353.161314	2543.148689
353.551276	2540.799512
353.941175	2541.870757
354.331010	2540.547454
354.720782	2540.502084
355.110490	2539.798843
355.500135	2539.902186
355.889717	2540.492001
356.279235	2539.904707
356.668689	2541.522917
357.058080	2542.621889
357.447408	2538.982176
357.836672	2540.975952
358.225873	2541.969059
358.615010	2539.471168
359.004084	2542.884029
359.393095	2546.102806
359.782043	2541.278421
360.170927	2547.108516
360.559748	2545.409647
360.948505	2546.995090
361.337199	2548.298228
361.725830	2546.001982
362.114398	2544.419060
362.502903	2546.566592
362.891344	2550.919628
363.279722	2547.350491
363.668037	2547.849565
364.056289	2550.481048
364.444478	2551.514484
364.832603	2551.075904
365.220665	2550.302087
365.608665	2550.690256
365.996601	2552.159752
366.384474	2553.911553
366.772284	2552.389124
367.160031	2552.920966
367.547715	2553.906512
367.935336	2553.208312
368.322893	2552.016079
368.710388	2549.709751
369.097820	2549.465255
369.485189	2552.810061
369.872495	2554.145967
370.259738	2556.502706
370.646918	2552.926007
371.034035	2555.549928
371.421090	2554.486244
371.808081	2557.440361
372.195010	2558.811554
372.581875	2553.924156
372.968678	2555.320555
373.355418	2557.664692
373.742096	2556.553117
374.128710	2560.379353
374.515262	2559.817265
374.901751	2559.555125
375.288177	2556.742161
375.674540	2558.420865
376.060841	2557.538663
376.447079	2558.307439
376.833254	2560.177707
377.219367	2557.188303
377.605417	2560.258366
377.991404	2558.589744
378.377329	2563.320867
378.763191	2561.087635
379.148991	2561.667368
379.534727	2560.031514
379.920402	2560.926318
380.306013	2562.214333
380.691563	2561.501010
381.077049	2561.599312
381.462474	2560.782646
381.847835	2561.417831
382.233134	2560.913716
382.618371	2561.730383
383.003545	2563.431772
383.388657	2562.294992
383.773706	2563.343552
384.158693	2566.043090
384.543618	2565.831361
384.928480	2563.807338
385.313280	2565.722976
385.698017	2567.789849
386.082692	2564.399673
386.467305	2563.310784
386.851856	2565.475960
387.236344	2564.780281
387.620770	2563.257852
388.005133	2562.703325
388.389435	2567.283213
388.773674	2561.614436
389.157851	2565.712894
389.541965	2565.102914
389.926018	2568.669531
390.310008	2565.460836
390.693936	2568.513255
391.077802	2567.056362
391.461606	2570.557443
391.845348	2569.052658
392.229027	2566.678275
392.612645	2569.410580
392.996200	2569.806311
393.379694	2569.294634
393.763125	2569.987792
394.146494	2568.152812
394.529801	2568.253636
394.913047	2570.537278
395.296230	2571.981569
395.679351	2569.387895
396.062410	2570.940571
396.445408	2571.195149
396.828343	2570.738924
397.211217	2571.719429
397.594028	2570.484346
397.976778	2572.236147
398.359466	2573.118349
398.742092	2571.371589
399.124656	2569.876887
399.507158	2572.853688
399.889598	2573.992989
400.271977	2575.379307
400.654294	2575.248237
401.036549	2573.330078
401.418742	2576.309399
401.800874	2574.315623
402.182944	2573.819069
402.564952	2575.243195
402.946898	2571.948801
403.328783	2575.384348
403.710606	2575.316292
404.092367	2576.387537
404.474067	2575.772517
404.855705	2574.058524
405.237282	2576.604307
405.618797	2575.361662
406.000250	2578.353587
406.381642	2574.970973
406.762972	2574.807136
407.144240	2573.493915
407.525447	2575.817887
407.906593	2571.968966
408.287677	2577.773855
408.668700	2575.487691
409.049661	2578.640933
409.430560	2577.947774
409.811399	2579.026581
410.192176	2577.743608
410.572891	2575.646488
410.953545	2577.665470
411.334138	2580.019689
411.714669	2578.693865
412.095139	2578.093968
412.475547	2580.175964
412.855894	2579.210583
413.236180	2579.510532
413.616405	2582.441963
413.996568	2581.970615
414.376670	2578.162023
414.756711	2581.816860
415.136691	2581.504308
415.516609	2582.825091
415.896466	2579.175295
416.276262	2582.119329
416.655997	2578.988773
417.035670	2585.020513
417.415283	2582.419278
417.794834	2579.142528
418.174324	2581.665625
418.553753	2584.065215
418.933121	2582.449525
419.312428	2583.001531
419.691674	2581.239648
420.070859	2582.978846
420.449983	2583.631675
420.829045	2584.498754
421.208047	2582.157138
421.586988	2584.029927
421.965867	2585.479258
422.344686	2586.467324
422.723444	2585.670822
423.102141	2586.641244
423.480777	2585.726275
423.859352	2583.016655
424.237866	2584.231573
424.616319	2584.619742
424.994712	2584.987746
425.373044	2586.300966
425.751314	2583.578743
426.129524	2582.762076
426.507673	2581.637899
426.885762	2580.554051
427.263789	2586.565627
427.641756	2587.306677
428.019662	2587.364650
428.397508	2586.938672
428.775292	2587.316759
429.153016	2584.808785
429.530679	2587.009248
429.908282	2588.788776
430.285824	2588.957654
430.663305	2587.740216
431.040726	2587.445308
431.418086	2587.883889
431.795385	2589.943200
432.172624	2588.030082
432.549802	2591.657192
432.926920	2589.088724
433.303977	2590.709455
433.680974	2591.170721
434.057910	2589.880186
434.434786	2588.756008
434.811601	2587.982191
435.188355	2592.297419
435.565050	2591.200968
435.941683	2589.330700
436.318257	2589.171903
436.694770	2589.544949
437.071222	2592.494024
437.447614	2592.604929
437.823946	2590.134764
438.200218	2589.524784
438.576429	2590.543097
438.952580	2591.838674
439.328670	2592.325145
439.704700	2592.539394
440.080670	2591.057295
440.456580	2594.485280
440.832429	2595.490990
441.208218	2594.034096
441.583947	2594.790269
441.959616	2596.085846
442.335224	2592.977975
442.710773	2593.792121
443.086261	2592.778849
443.461689	2593.812286
443.837057	2594.329004
444.212365	2595.974941
444.587612	2593.109045
444.962800	2592.945207
445.337927	2591.372367
445.712995	2591.647110
446.088002	2595.478387
446.462949	2595.695157
446.837837	2596.284972
447.212664	2596.179107
447.587431	2595.919488
447.962139	2596.269848
448.336786	2601.058944
448.711374	2596.781525
449.085901	2596.569797
449.460369	2599.765888
449.834776	2596.534509
450.209124	2598.417380
450.583412	2600.774119
450.957640	2598.346803
451.331808	2600.267483
451.705917	2599.533995
452.079965	2599.493666
452.453954	2598.251022
452.827883	2600.839654
453.201752	2596.690784
453.575562	2600.242277
453.949311	2598.568614
454.323001	2600.123810
454.696632	2602.518358
455.070202	2600.176742
455.443713	2600.806887
455.817164	2601.308481
456.190556	2602.838472
456.563888	2603.040118
456.937160	2604.602875
457.310373	2602.125148
457.683526	2602.472988
458.056619	2601.210179
458.429653	2604.146651
458.802628	2603.130858
459.175542	2605.482557
459.548398	2604.824686
459.921194	2605.817793
460.293930	2604.892742
460.666607	2607.204111
461.039224	2608.882815
461.411782	2608.580346
461.784280	2610.637137
462.156719	2609.434821
462.529099	2608.464399
462.901419	2607.670417
463.273680	2607.758638
463.645882	2606.107660
464.018024	2605.727053
464.390106	2603.811414
464.762130	2610.243927
465.134094	2612.358691
465.505999	2614.672580
465.877845	2618.166100
466.249631	2623.214815
466.621358	2619.166769
466.993026	2621.387397
467.364634	2625.879065
467.736184	2619.960751
468.107674	2615.854731
468.479105	2622.468725
468.850477	2618.768518
469.221790	2618.768518
469.593043	2614.113012
469.964238	2616.237858
470.335373	2616.860441
470.706449	2619.897736
471.077467	2618.327417
471.448425	2622.078035
471.819324	2628.732358
472.190164	2630.027935
472.560945	2627.086422
472.931667	2624.860752
473.302330	2621.715072
473.672934	2625.309415
474.043479	2622.914867
474.413965	2625.586678
474.784393	2625.581637
475.154761	2628.891155
475.525070	2625.909312
475.895321	2630.446351
476.265513	2628.167749
476.635645	2632.034314
477.005719	2632.165384
477.375734	2634.965745
477.745691	2636.581435
478.115588	2640.258957
478.485427	2640.654687
478.855207	2646.089051
479.224928	2651.422592
479.594591	2655.034578
479.964194	2658.817964
480.333739	2661.517502
480.703226	2660.985661
481.072653	2667.531599
481.442022	2669.210303
481.811333	2675.186591
482.180584	2677.331602
482.549777	2676.963598
482.918912	2676.136848
483.287988	2686.120854
483.657005	2689.475742
484.025964	2694.295085
484.394864	2696.545960
484.763706	2701.025025
485.132489	2702.300437
485.501213	2711.321582
485.869879	2715.236038
486.238487	2723.465721
486.607036	2725.824981
486.975527	2731.271948
487.343959	2742.964904
487.712333	2750.209042
488.080648	2760.621546
488.448905	2770.403905
488.817104	2781.126439
489.185244	2796.577576
489.553326	2814.269505
489.921350	2839.495439
490.289315	2883.076214
490.657222	2925.643717
491.025070	2947.776903
491.392861	2968.511169
491.760593	2983.400217
492.128267	2987.493633
492.495883	2996.441682
492.863440	3008.525327
493.230939	3014.932634
493.598380	3049.998900
493.965763	3068.903227
494.333088	3086.015424
494.700354	3116.950464
495.067563	3152.505722
495.434713	3180.504291
495.801805	3219.099365
496.168839	3260.300715
496.535815	3296.299595
496.902733	3343.767099
497.269593	3373.940926
497.636395	3431.062240
498.003139	3485.345384
498.369825	3533.392622
498.736453	3586.796085
499.103023	3637.058909
499.469535	3699.755740
499.835989	3770.273920
500.202385	3842.022143
500.568723	3874.774519
500.935003	3953.721509
501.301226	4005.181607
501.667390	4125.639978
502.033497	4238.334973
502.399546	4273.882669
502.765537	4336.052699
503.131470	4436.669088
503.497345	4534.127195
503.863163	4555.635278
504.228923	4700.024007
504.594625	4811.322601
504.960269	4840.697405
505.325856	4996.612731
505.691385	5041.010173
506.056856	5188.095919
506.422270	5311.737779
506.787625	5343.504610
507.152924	5526.657291
507.518164	5612.099807
507.883347	5690.393968
508.248472	5753.141210
508.613540	5988.941181
508.978550	6098.253561
509.343503	6210.331014
509.708398	6380.278392
510.073236	6515.323342
510.438016	6675.437950
510.802738	6768.394306
511.167403	6930.699295
511.532010	7006.563620
511.896561	7293.475850
512.261053	7461.699153
512.625488	7542.818881
512.989866	7662.165677
513.354186	7752.989626
513.718449	7958.537632
514.082655	8161.877614
514.446803	8279.875902
514.810894	8527.288171
515.174927	8549.018065
515.538904	8710.922282
515.902822	8981.826328
516.266684	9102.524154
516.630488	9208.358138
516.994235	9377.115804
517.357925	9600.905226
517.721558	9845.980921
518.085133	10036.307163
518.448651	10170.739613
518.812112	10271.852556
519.175516	10452.429208
519.538863	10718.962573
519.902152	10791.945878
520.265385	11078.076729
520.628560	11173.911584
520.991678	11369.238652
521.354739	11573.312121
521.717743	11779.891044
522.080690	11851.891324
522.443580	12193.598376
522.806413	12336.557937
523.169189	12601.473092
523.531908	12762.832865
523.894569	12818.865290
524.257174	13025.824820
524.619722	13296.996047
524.982213	13320.485304
525.344647	13559.809041
525.707025	13762.034928
526.069345	13966.667965
526.431608	14129.575372
526.793815	14422.635290
527.155964	14273.780099
527.518057	14549.851327
527.880093	14720.433891
528.242072	14946.572491
528.603995	14989.961702
528.965860	15052.391352
529.327669	15306.694878
529.689421	15424.360450
530.051117	15496.050699
530.412755	15808.939994
530.774337	15828.655947
531.135862	15915.918320
531.497331	16200.879624
531.858743	16097.447750
532.220098	16592.355467
532.581396	16496.623955
532.942638	16707.815534
533.303824	16879.068571
533.664953	17060.033391
534.026025	17022.859923
534.387040	17292.634750
534.747999	17559.515956
535.108902	17789.778219
535.469748	17603.905836
535.830537	17910.284481
536.191270	18102.884285
536.551947	18228.260301
536.912567	18089.563036
537.273131	18454.023335
537.633638	18393.307678
537.994089	18717.655517
538.354483	18507.971243
538.714821	19012.651237
539.075103	19205.586277
539.435328	19166.764351
539.795497	18969.536769
540.155609	19422.733979
540.515665	19763.021946
540.875665	19300.914496
541.235609	19639.627102
541.595496	19758.736965
541.955328	20147.387241
542.315102	20206.270439
542.674821	20003.600931
543.034483	20007.424646
543.394090	20235.665407
543.753640	20169.238123
544.113134	20791.543359
544.472571	20596.513720
544.831953	20966.804114
545.191278	20713.458407
545.550548	20794.764657
545.909761	21026.541787
546.268918	21345.598934
546.628019	21393.963764
546.987064	21271.796442
547.346053	21162.683188
547.704986	21347.499449
548.063863	21581.603072
548.422684	21624.447839
548.781449	21358.635358
549.140158	21779.057507
549.498811	21503.475270
549.857408	21331.453457
550.215949	21811.250315
550.574434	21584.219431
550.932864	21852.963343
551.291237	22042.203217
551.649555	22014.018126
552.007817	22123.706072
552.366022	22081.446079
552.724173	22168.020335
553.082267	22168.416065
553.440305	22673.806862
553.798288	22059.912790
554.156215	22602.164504
554.514086	22727.303586
554.871902	22196.782638
555.229661	22516.038911
555.587365	22450.577008
555.945014	22325.286691
556.302606	22650.902379
556.660143	22599.648968
557.017625	22918.287700
557.375050	22514.337522
557.732421	22924.642074
558.089735	22784.694602
558.446994	22878.722204
558.804197	22927.482764
559.161345	22942.454991
559.518437	22705.573693
559.875474	22960.935861
560.232455	23144.822030
560.589381	23043.996433
560.946251	23023.766282
561.303065	23380.921950
561.659825	23477.772598
562.016528	23125.070789
562.373177	22908.535588
562.729770	23257.123814
563.086307	23181.541795
563.442789	23365.538869
563.799216	23213.424572
564.155587	23245.619901
564.511904	23246.358430
564.868164	23191.354401
565.224370	23204.738664
565.580520	23113.997895
565.936615	23267.750567
566.292654	22958.594245
566.648638	23296.464979
567.004567	23132.108240
567.360441	23090.874122
567.716260	22840.379188
568.072023	23182.910468
568.427732	22939.871400
568.783385	22750.699581
569.138982	22977.959838
569.494525	23036.469990
569.850013	22797.834370
570.205445	22902.677767
570.560823	22711.207182
570.916145	22496.169203
571.271412	22665.660357
571.626625	22439.736006
571.981782	22546.283313
572.336884	22375.340307
572.691931	22509.533302
573.046923	22242.551274
573.401860	22136.775263
573.756743	22138.940439
574.111570	22066.168862
574.466342	22003.847598
574.821059	22103.009615
575.175722	21799.572482
575.530330	21801.198254
575.884882	21827.029127
576.239380	21737.783060
576.593823	21631.250876
576.948211	21613.112804
577.302544	21451.707661
577.656823	21333.956390
578.011047	21431.419537
578.365216	21314.308493
578.719330	21206.614323
579.073389	21100.498034
579.427394	21253.035788
579.781344	21034.239629
580.135239	20923.319121
580.489080	20899.955893
580.842866	20659.230715
581.196597	20844.699806
581.550273	20836.336532
581.903895	20726.893082
582.257463	21040.846061
582.610975	20567.159081
582.964434	20868.022704
583.317837	20594.358627
583.671186	20674.399547
584.024481	20635.005450
584.377721	20426.987278
584.730906	20462.179573
585.084037	20509.989876
585.437113	20407.924154
585.790135	20605.091243
586.143103	20088.562017
586.496016	20091.001936
586.848874	20339.684575
587.201679	20285.913108
587.554428	19933.818759
587.907124	20277.232241
588.259765	20059.509847
588.612352	20137.854419
588.964884	19698.316216
589.317362	19876.493278
589.669786	19928.482697
590.022155	19992.359158
590.374470	20155.934518
590.726731	19976.910542
591.078937	19702.258398
591.431090	19820.808692
591.783188	19561.900072
592.135232	19540.591115
592.487222	19640.947885
592.839157	19672.180353
593.191038	19550.252486
593.542866	19447.440674
593.894639	19167.170164
594.246358	19374.535507
594.598022	19296.145565
594.949633	19048.655158
595.301190	18997.003495
595.652692	19164.120266
596.004141	19411.835004
596.355535	18747.940248
596.706876	18753.651876
597.058162	18637.133166
597.409395	18859.851343
597.760573	18962.373289
598.111698	18748.373788
598.462768	18673.278239
598.813785	18618.369992
599.164748	18460.841496
599.515657	18484.623139
599.866511	18277.472045
600.217312	18635.938413
600.568060	18174.151077
600.918753	18478.427561
601.269392	18378.416110
601.619978	18150.792890
601.970510	18369.795737
602.320988	18310.322724
602.671412	18529.318009
603.021783	18423.254653
603.372100	18166.919541
603.722363	18293.470147
604.072572	18223.443479
604.422728	18371.066107
604.772830	18136.259244
605.122878	18075.498216
605.472872	18083.357375
605.822813	18067.437411
606.172701	18013.812137
606.522534	18228.474550
606.872314	18250.378364
607.222041	18072.264316
607.571714	18300.734450
607.921333	18112.273434
608.270899	18200.665025
608.620411	18395.820693
608.969870	18136.065159
609.319276	18153.484866
609.668627	18187.026183
610.017926	18315.850349
610.367171	18429.218338
610.716362	18469.424060
611.065500	18293.316392
611.414585	18424.688861
611.763616	18411.604546
612.112594	18356.736628
612.461518	18325.806628
612.810389	18520.102780
613.159207	18366.264408
613.507971	18282.011604
613.856682	18564.323781
614.205340	18497.856168
614.553945	18639.789854
614.902496	18381.922232
615.250994	18622.914592
615.599439	18559.106187
615.947830	18540.917704
616.296169	18579.086800
616.644454	18550.808448
616.992686	18532.380510
617.340864	18731.133042
617.688990	18499.363473
618.037063	18679.625052
618.385082	18516.987347
618.733048	18797.424215
619.080961	18659.435231
619.428821	18702.380821
619.776628	18596.264532
620.124382	18512.094907
620.472083	18548.050937
620.819731	18579.701821
621.167326	18276.337786
621.514868	18319.996698
621.862357	18068.107885
622.209793	18082.515503
622.557176	17920.356707
622.904506	17752.768588
623.251783	17654.438362
623.599007	17425.965708
623.946179	17373.348665
624.293297	17313.600909
624.640363	17076.281030
624.987376	17089.380468
625.334336	16880.969086
625.681243	16728.078452
626.028097	16733.270840
626.374899	16670.286664
626.721647	16542.107766
627.068343	16363.212339
627.414987	16288.872964
627.761577	16269.832526
628.108115	16318.280535
628.454600	16036.573296
628.801032	16130.948737
629.147412	16064.944910
629.493739	16082.251191
629.840014	15900.716721
630.186236	15989.766183
630.532405	15753.676345
630.878521	15956.726461
631.224585	15842.062896
631.570597	15672.637277
631.916556	15712.686723
632.262462	15692.300297
632.608316	15602.754282
632.954117	15541.226999
633.299866	15542.557863
633.645562	15467.119517
633.991206	15219.266147
634.336797	15085.705817
634.682336	15055.988215
635.027823	14946.098623
635.373257	14834.369009
635.718639	14724.126537
636.063968	14672.666438
636.409245	14430.519654
636.754470	14456.746257
637.099642	14308.236385
637.444762	14081.891098
637.789829	14124.274599
638.134845	13955.191779
638.479808	13985.201768
638.824719	13948.587867
639.169577	13785.244400
639.514383	13839.018388
639.859137	13652.871262
640.203839	13733.945619
640.548489	13569.692223
640.893086	13564.469588
641.237632	13436.315896
641.582125	13585.256786
641.926566	13424.161674
642.270955	13426.271397
642.615292	13388.929049
642.959576	13405.890012
643.303809	13445.037092
643.647990	13376.419426
643.992118	13426.631839
644.336195	13200.546171
644.680219	13389.007187
645.024192	13320.651662
645.368112	13552.615315
645.711981	13615.145787
646.055797	13792.269248
646.399562	13760.648611
646.743274	14029.450495
647.086935	14301.456033
647.430544	14268.307926
647.774101	14298.164160
648.117606	14455.274240
648.461059	14420.628910
648.804460	14408.504935
649.147810	14147.980625
649.491108	14044.238720
649.834354	14070.856013
650.177548	13768.101957
650.520690	13574.322523
650.863781	13497.011388
651.206820	13534.709136
651.549807	13366.238816
651.892742	13177.787882
652.235626	13113.971916
652.578458	13121.165642
652.921238	12795.260087
653.263967	12992.749810
653.606644	12826.482474
653.949269	12791.035600
654.291843	12599.731374
654.634365	12761.171805
654.976836	12608.772683
655.319255	12621.793983
655.661622	12571.485789
656.003938	12497.960560
656.346203	12422.940629
656.688416	12484.432623
657.030577	12455.559415
657.372687	12378.187786
657.714746	12343.126561
658.056753	12531.517000
658.398708	12361.050383
658.740612	12357.428314
659.082465	12452.088580
659.424266	12417.186152
659.766016	12434.825149
660.107715	12351.106707
660.449362	12422.204620
660.790958	12381.010832
661.132503	12331.083244
661.473996	12386.281358
661.815438	12411.900502
662.156829	12425.428438
662.498168	12395.849468
662.839456	12396.633368
663.180693	12423.275866
663.521879	12505.103875
663.863013	12493.224396
664.204097	12461.487812
664.545129	12576.721027
664.886110	12540.961602
665.227040	12635.634471
665.567918	12637.872744
665.908746	12676.508147
666.249522	12657.873522
666.590248	12702.089482
666.930922	12815.487717
667.271545	12807.857931
667.612118	12894.517886
667.952639	12788.603244
668.293109	12797.967187
668.633528	12752.188469
668.973896	12738.279925
669.314213	12818.169611
669.654480	12557.857029
669.994695	12620.024538
670.334859	12641.880461
670.674973	12593.487905
671.015035	12627.190539
671.355047	12564.075292
671.695008	12539.572764
672.034918	12550.741441
672.374777	12588.116555
672.714585	12501.996003
673.054342	12529.956763
673.394049	12482.038075
673.733705	12569.822208
674.073310	12489.178870
674.412864	12514.074608
674.752368	12383.881769
675.091820	12387.075340
675.431223	12382.702139
675.770574	12260.726380
676.109875	12179.561283
676.449125	12136.666105
676.788324	12072.905591
677.127473	11918.361458
677.466571	11897.864127
677.805619	11807.083028
678.144616	11723.117570
678.483562	11693.089937
678.822458	11566.645195
679.161303	11541.026052
679.500098	11531.125225
679.838842	11486.768113
680.177535	11507.764518
680.516179	11561.956922
680.854771	11514.678461
681.193314	11725.358363
681.531805	11873.197761
681.870247	12277.846139
682.208638	12677.244155
682.546978	12998.156447
682.885268	13072.629413
683.223508	12756.770878
683.561697	12604.013834
683.899836	12498.671363
684.237925	12296.742904
684.575963	12220.853374
684.913951	12148.119606
685.251889	12085.362282
685.589776	12181.534895
685.927614	12113.673402
686.265401	12072.293091
686.603137	12114.684153
686.940824	12270.347422
687.278460	12382.601316
687.616046	12433.622834
687.953582	12612.336779
688.291068	12529.472813
688.628504	12757.075868
688.965889	12764.428390
689.303224	12733.377403
689.640510	12629.315385
689.977745	12336.368894
690.314930	12110.520160
690.652065	12021.238805
690.989150	11736.118705
691.326185	11509.884324
691.663170	11306.453601
692.000105	11060.888915
692.336990	10958.853441
692.673825	10714.055010
693.010610	10585.482902
693.347345	10383.370441
693.684030	10176.126086
694.020665	10126.276636
694.357251	9931.642727
694.693786	9882.688082
695.030272	9711.102329
695.366707	9591.246376
695.703093	9523.089976
696.039429	9518.386579
696.375716	9450.005848
696.711952	9312.231113
697.048139	9348.156896
697.384276	9310.310433
697.720363	9328.249379
698.056400	9262.169935
698.392388	9218.112771
698.728326	9169.987396
699.064214	9109.934650
699.400053	9161.054471
699.735842	8973.836099
700.071581	8937.660779
700.407270	8861.148667
700.742910	8780.772510
701.078501	8692.101134
701.414042	8570.785767
701.749533	8498.069643
702.084974	8362.394549
702.420366	8477.239596
702.755709	8358.664096
703.091002	8232.247081
703.426246	8256.449660
703.761440	8204.203142
704.096584	8157.854773
704.431679	8095.624250
704.766725	8086.666119
705.101721	8030.147223
705.436668	8071.618275
705.771565	7966.686658
706.106413	8045.605921
706.441212	8096.942511
706.775961	8050.876447
707.110661	8078.998524
707.445311	8228.516627
707.779913	8121.780276
708.114465	8246.841221
708.448967	8289.849825
708.783421	8425.242614
709.117825	8602.396322
709.452180	8641.787898
709.786485	8730.010611
710.120742	9012.587449
710.454949	9006.359103
710.789107	9107.421635
711.123216	9315.124735
711.457275	9477.459972
711.791286	9648.211414
712.125247	9635.588365
712.459159	9625.574113
712.793023	9887.623372
713.126837	9461.207292
713.460602	9606.011915
713.794318	9433.478425
714.127985	9468.842119
714.461602	9158.249069
714.795171	9100.880738
715.128691	8863.220581
715.462162	8605.337836
715.795584	8552.022593
716.128957	8408.800891
716.462281	8235.377637
716.795556	8279.772558
717.128782	8086.812313
717.461960	7816.563617
717.795088	7887.036427
718.128167	7795.766337
718.461198	7628.826006
718.794180	7564.573980
719.127113	7562.945687
719.459997	7421.730365
719.792833	7186.018614
720.125619	7249.171669
720.458357	7109.632531
720.791046	7095.179542
721.123686	7093.279027
721.456278	6942.109947
721.788821	6952.444313
722.121315	6850.108889
722.453761	6906.484113
722.786158	6861.632967
723.118506	6869.199739
723.450805	6836.681776
723.783056	6908.805564
724.115259	6808.373177
724.447412	6809.525080
724.779518	6850.681060
725.111574	6854.487132
725.443582	6935.942095
725.775542	6913.453508
726.107453	7105.239165
726.439315	7015.889754
726.771129	7066.654173
727.102895	7230.925213
727.434612	7349.515836
727.766281	7378.026082
728.097901	7464.761654
728.429473	7454.762526
728.760996	7431.754700
729.092471	7408.273005
729.423897	7355.668565
729.755276	7364.540995
730.086606	7297.342415
730.417887	7391.954790
730.749120	7573.101092
731.080305	7771.742718
731.411442	7898.162253
731.742530	7890.913074
732.073570	7995.033066
732.404562	8086.537570
732.735506	7928.988909
733.066401	8067.595434
733.397249	8007.646033
733.728048	7777.598018
734.058798	7443.424971
734.389501	7229.972435
734.720156	7048.347223
735.050762	6811.102962
735.381320	6707.035902
735.711831	6667.528379
736.042293	6558.117697
736.372707	6581.112920
736.703073	6440.890705
737.033391	6473.597712
737.363661	6483.896789
737.693883	6511.350913
738.024056	6599.992041
738.354182	6639.519729
738.684260	6675.248907
739.014290	6784.745289
739.344272	6895.287710
739.674207	6922.928357
740.004093	6989.267421
740.333931	7007.178640
740.663722	7018.085177
740.993464	7089.233502
741.323159	7091.244922
741.652806	6837.080027
741.982405	6839.845100
742.311956	6905.226345
742.641460	6749.472335
742.970915	6551.387757
743.300323	6544.380553
743.629683	6489.583210
743.958996	6359.806266
744.288260	6269.057935
744.617477	6223.538837
744.946647	6235.125929
745.275768	6058.083126
745.604842	6013.458833
745.933869	5998.857130
746.262847	5952.886848
746.591778	5943.313697
746.920662	5907.055198
747.249498	5890.187498
747.578286	5937.821360
747.907027	6014.610736
748.235720	6074.484520
748.564365	6041.772473
748.892963	6064.379528
749.221514	6223.196038
749.550017	6067.865485
749.878473	5937.160969
750.206881	5994.332695
750.535242	5935.101658
750.863555	5867.184713
751.191821	5887.188011
751.520039	5887.044338
751.848210	5796.099402
752.176334	5816.732845
752.504411	5866.604980
752.832440	5793.788033
753.160421	5721.931426
753.488356	5765.701244
753.816243	5803.419158
754.144082	5655.173946
754.471875	5621.367969
754.799620	5667.086193
755.127318	5677.566752
755.454969	5630.053877
755.782572	5600.850473
756.110129	5639.964785
756.437638	5633.406244
756.765100	5566.215225
757.092515	5563.487961
757.419882	5606.287357
757.747203	5593.326550
758.074477	5659.108567
758.401703	5645.381505
758.728882	5598.070276
759.056014	5643.450743
759.383099	5779.224140
759.710138	5790.130676
760.037129	5770.833139
760.364073	5776.232215
760.690970	5860.391758
761.017820	5844.232339
761.344623	5794.874402
761.671379	5893.794443
761.998088	6004.079766
762.324751	6241.417289
762.651366	6816.401214
762.977935	8084.584123
763.304456	9703.313746
763.630931	10615.263518
763.957359	10267.985991
764.283740	9344.234878
764.610074	8529.846557
764.936362	7547.761732
765.262602	6946.331913
765.588796	6404.932155
765.914943	6066.706020
766.241044	5908.554942
766.567097	5713.532864
766.893104	5454.228513
767.219064	5272.530205
767.544978	5212.091811
767.870845	5137.991891
768.196665	5029.125653
768.522438	4957.788285
768.848165	4930.097227
769.173846	4865.290674
769.499479	4823.519673
769.825066	4766.784007
770.150607	4706.300243
770.476101	4679.839227
770.801548	4676.784287
771.126949	4607.864153
771.452303	4554.170823
771.777611	4508.881097
772.102872	4526.630999
772.428087	4486.906707
772.753256	4452.652067
773.078378	4408.332763
773.403453	4340.821630
773.728482	4327.588602
774.053465	4277.436683
774.378401	4263.644086
774.703291	4270.691619
775.028135	4198.877862
775.352932	4149.431704
775.677683	4130.819764
776.002388	4151.977487
776.327046	4164.625742
776.651658	4092.416254
776.976224	4032.706307
777.300743	4033.273437
777.625216	4053.493505
777.949643	4057.624731
778.274024	4009.146475
778.598359	3960.096048
778.922647	3985.579081
779.246889	3977.702278
779.571086	3975.539623
779.895236	3960.043116
780.219339	3947.246147
780.543397	3936.962193
780.867409	3985.614369
781.191374	4005.925177
781.515294	3943.808080
781.839167	3938.298099
782.162995	3956.163948
782.486776	3942.499900
782.810511	3949.744038
783.134201	3948.340077
783.457844	3907.237029
783.781441	3848.195035
784.104993	3854.977908
784.428498	3872.785784
784.751958	3872.261504
785.075372	3851.496991
785.398739	3810.371258
785.722061	3822.414575
786.045337	3866.547356
786.368568	3899.667737
786.691752	3813.196825
787.014891	3854.549410
787.337983	3980.230416
787.661030	4130.940752
787.984031	4296.315804
788.306987	4467.742761
788.629897	4547.559350
788.952760	4506.917567
789.275579	4436.558183
789.598351	4379.026015
789.921078	4244.946446
790.243759	4045.803225
790.566395	4016.917413
790.888984	4019.049822
791.211529	3913.987134
791.534027	3854.577136
791.856480	3846.440714
792.178888	3783.443935
792.501249	3731.189855
792.823566	3744.639653
793.145836	3775.494035
793.468062	3724.674163
793.790241	3677.362934
794.112375	3706.417625
794.434464	3763.917025
794.756507	3790.201602
795.078505	3776.308182
795.400457	3803.664003
795.722364	3940.047379
796.044226	4041.888769
796.366042	4112.356538
796.687812	4095.889609
797.009538	4104.197431
797.331218	4064.657140
797.652852	4036.151936
797.974442	4018.296169
798.295986	4017.870192
798.617484	3941.451340
798.938938	3849.057073
799.260346	3888.930079
799.581709	3889.441756
799.903026	3819.752845
800.224299	3778.798512
800.545526	3774.173253
800.866708	3736.107500
801.187845	3672.594003
801.508936	3711.224365
801.829983	3710.715208
802.150984	3632.423568
802.471940	3614.222482
802.792851	3634.558497
803.113717	3631.226294
803.434538	3633.015904
803.755314	3577.500197
804.076045	3550.020868
804.396731	3566.913774
804.717372	3592.447218
805.037967	3581.331474
805.358518	3571.642377
805.679024	3596.543156
805.999485	3610.169395
806.319901	3615.094602
806.640272	3627.049698
806.960598	3646.306906
807.280879	3614.948409
807.601115	3627.747898
807.921306	3645.129797
808.241453	3684.748225
808.561554	3661.737878
808.881611	3596.011314
809.201623	3626.785038
809.521590	3646.069972
809.841513	3616.347329
810.161390	3647.534427
810.481223	3627.140439
810.801011	3569.668765
811.120755	3561.350861
811.440453	3592.454780
811.760107	3599.504834
812.079716	3560.445974
812.399281	3525.389790
812.718801	3550.562792
813.038276	3521.727392
813.357707	3520.804861
813.677093	3538.464023
813.996434	3487.326558
814.315731	3493.302846
814.634983	3497.524812
814.954191	3511.377903
815.273354	3542.287738
815.592473	3538.055689
815.911547	3541.181204
816.230577	3580.318202
816.549562	3627.568937
816.868502	3668.588806
817.187399	3695.821119
817.506250	3693.028320
817.825058	3663.530008
818.143821	3754.238010
818.462539	3858.436139
818.781213	3901.427099
819.099843	3954.283597
819.418429	4187.850338
819.736970	4428.333541
820.055466	4665.429088
820.373919	5024.938975
820.692327	5430.083907
821.010691	5845.258214
821.329011	7147.421020
821.647286	9792.395976
821.965517	14213.896232
822.283704	18206.101910
822.601847	20458.474325
822.919945	18716.236432
823.237999	16207.889348
823.556010	13770.398202
823.873976	11724.269473
824.191897	9653.038319
824.509775	8304.449007
824.827609	7187.276382
825.145398	6636.890767
825.463144	6520.397263
825.780845	6636.053935
826.098502	6801.653319
826.416116	7629.151161
826.733685	8923.785003
827.051210	10032.596874
827.368692	10131.025403
827.686129	8929.867156
828.003522	7424.387053
828.320872	6417.519916
828.638177	5725.823197
828.955439	5176.443292
829.272656	4684.262839
829.589830	4397.252307
829.906960	4225.217890
830.224046	4043.489335
830.541088	3913.838420
830.858086	3871.603633
831.175041	3797.158394
831.491952	3779.496711
831.808819	3786.748411
832.125642	3853.770552
832.442421	3995.782376
832.759157	4256.657046
833.075849	4793.802071
833.392497	5631.561182
833.709101	6392.556122
834.025662	6742.455049
834.342179	6415.090080
834.658653	5766.744763
834.975083	5132.789420
835.291469	4564.658943
835.607811	4149.235099
835.924110	4011.167977
836.240366	3820.017506
836.556578	3615.197946
836.872746	3505.981348
837.188871	3470.448775
837.504952	3401.879000
837.820990	3324.976198
838.136984	3274.350411
838.452935	3300.488793
838.768842	3296.821354
839.084706	3319.171310
839.400526	3467.477015
839.716303	3787.466776
840.032037	4291.940082
840.347727	4575.028597
840.663373	4317.140810
840.978977	3943.155250
841.294537	3639.246770
841.610054	3408.770257
841.925527	3297.796817
842.240957	3232.967579
842.556344	3184.567461
842.871687	3124.527318
843.186987	3073.256263
843.502244	3037.201931
843.817458	3005.180522
844.132629	2972.380254
844.447756	2984.068169
844.762840	2967.850778
845.077881	2937.240891
845.392879	2919.848911
845.707833	2916.362953
846.022745	2913.207190
846.337613	2912.627458
846.652438	2903.724780
846.967221	2899.966600
847.281960	2887.285577
847.596656	2883.424053
847.911309	2881.702499
848.225919	2877.276366
848.540485	2870.342259
848.855009	2873.629092
849.169490	2862.107534
849.483928	2854.208046
849.798323	2851.397603
850.112675	2848.708147
850.426984	2857.610825
850.741251	2854.666791
851.055474	2848.390555
851.369654	2839.187928
851.683792	2846.452231
851.997887	2856.587471
852.311938	2854.578571
852.625947	2845.597756
852.939914	2845.340657
853.253837	2852.126050
853.567718	2838.734225
853.881555	2837.365551
854.195350	2851.563961
854.509103	2851.125381
854.822812	2838.835048
855.136479	2840.622137
855.450103	2839.752538
855.763685	2832.415138
856.077224	2828.848522
856.390720	2840.627178
856.704173	2853.509847
857.017584	2847.823425
857.330953	2838.900583
857.644278	2848.849300
857.957561	2858.314066
858.270802	2859.410517
858.584000	2865.238091
858.897155	2851.795854
859.210268	2849.239989
859.523339	2846.787468
859.836367	2843.936695
860.149352	2838.036025
860.462295	2834.663493
860.775195	2845.081037
861.088054	2842.865450
861.400869	2827.749550
861.713642	2821.974909
862.026373	2838.691375
862.339062	2840.286900
862.651708	2847.165554
862.964312	2851.445494
863.276873	2844.453414
863.589392	2852.741071
863.901869	2864.469315
864.214303	2887.167110
864.526696	2904.443144
864.839045	2897.030128
865.151353	2895.903430
865.463619	2892.866135
865.775842	2894.257493
866.088023	2912.977818
866.400162	2923.551638
866.712258	2892.059550
867.024313	2881.127808
867.336325	2888.429919
867.648296	2911.437745
867.960224	2902.383833
868.272110	2892.425034
868.583954	2895.187586
868.895755	2910.237951
869.207515	2898.557597
869.519233	2899.379305
869.830909	2909.118815
870.142542	2923.413006
870.454134	2921.701535
870.765684	2922.500558
871.077191	2919.564085
871.388657	2928.859973
871.700081	2942.839093
872.011463	2951.091462
872.322803	2954.471555
872.634101	2953.556586
872.945357	2968.876652
873.256571	2997.591065
873.567744	2990.931700
873.878874	2981.071203
874.189963	3006.155985
874.501010	3009.261336
874.812015	2998.445540
875.122979	2997.654079
875.433900	2993.621156
875.744780	2998.443020
876.055618	3004.051303
876.366415	3001.308916
876.677169	3012.754855
876.987882	3011.481964
877.298554	3002.914523
877.609183	3025.012421
877.919771	3043.689896
878.230317	3072.149730
878.540822	3121.590846
878.851285	3159.966630
879.161707	3199.159081
879.472087	3294.530150
879.782425	3507.387830
880.092722	3928.951799
880.402977	4445.027322
880.713191	5043.810534
881.023363	6154.452344
881.333494	7410.496154
881.643583	7985.190213
881.953631	7696.921913
882.263637	7105.609690
882.573602	6533.811774
882.883526	5964.481502
883.193408	5400.920832
883.503248	4941.918733
883.813048	4648.367303
884.122806	4358.090103
884.432522	4048.825397
884.742197	3820.231755
885.051831	3625.239924
885.361424	3490.081548
885.670975	3427.538473
885.980485	3339.923219
886.289954	3268.263218
886.599382	3222.113975
886.908768	3185.525280
887.218113	3140.296048
887.527417	3089.430805
887.836680	3036.803680
888.145901	3032.511137
888.455082	3024.024355
888.764221	2976.869402
889.073319	2944.928651
889.382376	2940.116870
889.691392	2945.357149
890.000366	2943.103753
890.309300	2930.667227
890.618193	2943.247426
890.927044	2961.055302
891.235855	2963.883389
891.544625	2946.050308
891.853353	2955.605815
892.162041	2976.350163
892.470687	3013.236286
892.779293	3063.673030
893.087858	3110.717078
893.396381	3175.072447
893.704864	3289.002524
894.013306	3517.553316
894.321707	3810.749345
894.630068	4015.054707
894.938387	4018.591077
895.246665	3973.858398
895.554903	3859.951006
895.863100	3663.035975
896.171256	3503.846419
896.479371	3367.853732
896.787446	3250.848552
897.095480	3149.327275
897.403473	3085.234045
897.711425	3046.949002
898.019336	3039.387271
898.327207	3011.363497
898.635038	2979.029536
898.942827	2963.084367
899.250576	2954.612708
899.558284	2922.004004
899.865952	2902.207393
900.173579	2882.461193
900.481165	2875.348125
900.788711	2864.353368
901.096216	2841.978207
901.403681	2828.147802
901.711105	2834.935715
902.018489	2834.355982
902.325832	2831.316167
902.633135	2841.937878
902.940397	2872.923330
903.247619	2951.953499
903.554800	3132.202475
903.861941	3458.191209
904.169041	3873.342831
904.476101	4168.232687
904.783121	4141.612874
905.090100	3906.705187
905.397039	3637.802480
905.703938	3390.604460
906.010796	3213.854044
906.317614	3108.970318
906.624391	3014.221831
906.931129	2946.234310
907.237826	2886.252141
907.544483	2837.055520
907.851099	2806.785912
908.157675	2788.201698
908.464211	2770.923144
908.770707	2756.255907
909.077163	2742.909452
909.383578	2727.738099
909.689954	2718.969012
909.996289	2717.149156
910.302584	2720.438508
910.608839	2720.801472
910.915054	2713.922817
911.221229	2703.875797
911.527363	2705.448637
911.833458	2712.740667
912.139513	2719.183261
912.445527	2722.039075
912.751502	2732.103738
913.057436	2739.483988
913.363331	2752.217942
913.669186	2770.144285
913.975000	2805.195428
914.280775	2859.034951
914.586510	2929.167483
914.892205	3006.085409
915.197859	3127.342803
915.503475	3310.724856
915.809050	3513.948891
916.114585	3659.113957
916.420081	3683.145138
916.725536	3629.303094
917.030952	3518.564068
917.336328	3392.850294
917.641665	3266.299688
917.946961	3164.743123
918.252218	3097.927670
918.557435	3026.212216
918.862612	2966.550160
919.167750	2916.867068
919.472848	2881.039588
919.777906	2855.274250
920.082925	2829.425734
920.387904	2799.766105
920.692843	2783.649537
920.997743	2771.817948
921.302603	2759.109200
921.607423	2752.187695
921.912204	2737.596076
922.216946	2729.061402
922.521647	2719.437839
922.826310	2711.389637
923.130932	2703.908565
923.435516	2692.634024
923.740059	2689.760567
924.044564	2682.216480
924.349028	2673.742300
924.653454	2669.565704
924.957840	2663.533964
925.262186	2660.536998
925.566493	2657.792090
925.870761	2651.276398
926.174989	2648.266829
926.479178	2642.116622
926.783328	2635.164871
927.087438	2637.980355
927.391509	2638.126548
927.695541	2632.987092
927.999533	2629.854015
928.303486	2627.792183
928.607400	2627.764457
928.911275	2627.351082
929.215110	2625.727831
929.518906	2623.005607
929.822663	2623.575258
930.126381	2622.695577
930.430060	2622.965278
930.733699	2622.952675
931.037299	2629.821247
931.340861	2629.390229
931.644383	2627.096504
931.947866	2626.630197
932.251309	2623.166924
932.554714	2625.939559
932.858080	2620.270782
933.161407	2622.047788
933.464694	2617.336830
933.767943	2615.479165
934.071153	2619.880092
934.374323	2617.024278
934.677455	2617.170472
934.980548	2616.318517
935.283602	2616.988990
935.586617	2615.922786
935.889593	2615.579988
936.192530	2615.421192
936.495428	2615.522015
936.798287	2618.125771
937.101108	2619.277674
937.403890	2625.818571
937.706632	2629.125568
938.009336	2636.268883
938.312002	2642.915645
938.614628	2651.621717
938.917216	2658.192861
939.219765	2658.974240
939.522275	2658.938952
939.824747	2657.414003
940.127179	2655.425268
940.429573	2651.024341
940.731929	2648.501243
941.034246	2644.881695
941.336524	2641.995634
941.638763	2637.413225
941.940964	2638.771816
942.243126	2634.932977
942.545250	2637.261991
942.847335	2632.238481
943.149381	2630.012811
943.451389	2627.903088
943.753359	2622.947634
944.055290	2622.511574
944.357182	2622.277161
944.659036	2620.832870
944.960851	2617.198198
945.262628	2616.270626
945.564367	2618.153497
945.866067	2617.359515
946.167729	2615.907663
946.469352	2620.101903
946.770937	2619.302880
947.072484	2616.479834
947.373992	2614.906994
947.675462	2616.699124
947.976893	2609.603700
948.278286	2610.896756
948.579641	2610.127980
948.880958	2605.711929
949.182236	2610.435490
949.483476	2610.359873
949.784678	2608.998762
950.085841	2609.081941
950.386967	2611.035388
950.688054	2611.479009
950.989103	2610.259050
951.290114	2611.894904
951.591087	2613.873557
951.892021	2615.837087
952.192917	2617.818260
952.493776	2621.213477
952.794596	2622.075515
953.095378	2619.870010
953.396122	2618.337499
953.696828	2618.806326
953.997496	2618.725668
954.298126	2615.242231
954.598718	2613.969339
954.899272	2612.454473
955.199788	2611.783999
955.500266	2604.713781
955.800706	2604.822166
956.101108	2601.129520
956.401472	2601.679006
956.701798	2597.946032
957.002087	2594.016452
957.302337	2597.172215
957.602550	2596.806731
957.902724	2590.112079
958.202861	2593.613160
958.502960	2590.611153
958.803022	2591.521081
959.103045	2586.570668
959.403031	2590.031420
959.702979	2588.178796
960.002889	2588.418251
960.302762	2587.268868
960.602596	2585.774166
960.902393	2587.175607
961.202153	2585.338106
961.501875	2584.191243
961.801559	2584.846593
962.101205	2584.750812
962.400814	2586.343816
962.700385	2581.234607
962.999918	2579.805440
963.299414	2578.489698
963.598873	2579.679411
963.898293	2579.845769
964.197677	2580.178485
964.497022	2584.113106
964.796331	2585.063363
965.095601	2581.539597
965.394835	2582.167220
965.694030	2580.198650
965.993189	2578.267888
966.292309	2581.544638
966.591393	2581.259812
966.890439	2582.815008
967.189447	2581.816860
967.488419	2581.501788
967.787353	2584.191243
968.086249	2580.087744
968.385108	2581.398444
968.683930	2582.116809
968.982714	2582.351222
969.281462	2583.109916
969.580172	2579.679411
969.878844	2580.642271
970.177480	2584.768456
970.476078	2579.598752
970.774639	2583.677046
971.073162	2580.992631
971.371649	2582.668815
971.670098	2582.305852
971.968510	2581.297621
972.266885	2582.648650
972.565223	2585.254927
972.863524	2580.579257
973.161788	2581.779051
973.460014	2583.611511
973.758204	2582.008424
974.056356	2581.378280
974.354471	2580.556572
974.652550	2581.771490
974.950591	2580.957343
975.248595	2583.069587
975.546563	2584.070256
975.844493	2581.103537
976.142386	2581.834504
976.440243	2580.314596
976.738062	2585.083528
977.035845	2580.309555
977.333590	2579.946592
977.631299	2581.151428
977.928971	2576.518607
978.226606	2575.601117
978.524204	2577.635223
978.821765	2577.269739
979.119290	2583.566140
979.416777	2578.456931
979.714228	2580.730491
980.011642	2580.788465
980.309020	2582.041191
980.606360	2579.550861
980.903664	2580.037333
981.200931	2578.973649
981.498162	2580.044894
981.795356	2581.738722
982.092513	2582.941037
982.389633	2585.249886
982.686717	2588.793817
982.983764	2593.618201
983.280775	2597.724221
983.577749	2597.895620
983.874686	2597.721700
984.171587	2597.429313
984.468451	2590.341451
984.765279	2590.326328
985.062070	2586.966399
985.358824	2587.578899
985.655543	2584.851635
985.952224	2583.293918
986.248869	2582.439442
986.545478	2581.373238
986.842050	2579.140007
987.138586	2578.010789
987.435086	2579.941551
987.731549	2575.316292
988.027975	2577.431056
988.324366	2578.845100
988.620719	2576.034657
988.917037	2576.914338
989.213318	2579.419791
989.509563	2577.763772
989.805772	2574.398802
990.101944	2578.305696
990.398080	2577.572208
990.694180	2580.559092
990.990244	2573.602300
991.286271	2573.771178
991.582262	2578.351067
991.878217	2574.154306
992.174136	2575.374265
992.470019	2577.171437
992.765865	2575.462486
993.061676	2573.055335
993.357450	2571.754717
993.653188	2570.108780
993.948890	2577.305027
994.244556	2578.487178
994.540186	2574.441652
994.835780	2577.201684
995.131337	2574.837383
995.426859	2575.880901
995.722345	2580.067580
996.017795	2577.809143
996.313208	2581.882395
996.608586	2581.776531
996.903928	2581.655543
997.199234	2581.348033
997.494504	2581.080852
997.789738	2579.064390
998.084936	2580.838876
998.380099	2579.631520
998.675225	2576.684965
998.970316	2579.911304
999.265371	2579.066911
999.560390	2575.535582
999.855373	2577.700758
1000.150320	2576.891653
1000.445232	2576.629513
1000.740108	2576.042218
1001.034948	2577.357959
1001.329752	2575.245716
1001.624521	2572.848647
1001.919254	2574.393761
1002.213951	2575.296127
1002.508613	2573.672876
1002.803239	2572.251271
1003.097829	2575.036508
1003.392384	2577.441138
1003.686903	2575.359142
1003.981386	2576.957188
1004.275834	2571.522824
1004.570246	2576.372414
1004.864623	2573.425859
1005.158964	2575.359142
1005.453270	2575.984245
1005.747540	2574.038360
1006.041775	2574.789492
1006.335974	2572.493246
1006.630138	2574.918041
1006.924266	2573.246898
1007.218359	2573.282187
1007.512416	2570.769171
1007.806438	2570.668348
1008.100425	2570.648184
1008.394376	2571.376630
1008.688292	2575.485171
1008.982172	2573.219172
1009.276017	2574.532393
1009.569827	2574.398802
1009.863602	2574.393761
1010.157341	2575.160016
1010.451045	2573.751014
1010.744714	2574.189594
1011.038347	2573.171281
1011.331945	2573.728329
1011.625508	2572.243709
1011.919036	2574.739080
1012.212528	2573.879563
1012.505986	2575.207907
1012.799408	2575.175140
1013.092795	2571.580797
1013.386147	2573.443503
1013.679464	2574.615572
1013.972745	2573.085582
1014.265992	2573.975345
1014.559204	2573.793864
1014.852380	2574.212279
1015.145521	2573.597259
1015.438628	2572.783112
1015.731699	2575.333936
1016.024736	2573.854357
1016.317737	2572.062227
1016.610703	2570.950653
1016.903635	2575.568350
1017.196531	2573.002402
1017.489393	2572.291600
1017.782219	2573.768658
1018.075011	2572.399985
1018.367768	2574.204718
1018.660490	2573.493915
1018.953177	2573.493915
1019.245829	2573.493915
