Dividing Wavelength (nm)	Counts (n)	Blue Motor Position (mm): 2.200000	Red Motor Position (mm): 0.000000	
326.493990	2163.963179
326.888308	2163.963179
327.282561	2163.963179
327.676750	2120.861314
328.070874	2119.384256
328.464933	2118.224791
328.858929	2122.189658
329.252859	2129.733745
329.646726	2135.503345
330.040528	2149.129584
330.434265	2159.721048
330.827938	2178.706034
331.221547	2198.860567
331.615091	2213.868082
332.008571	2232.222923
332.401986	2251.528022
332.795338	2271.112904
333.188625	2287.960441
333.581847	2307.368883
333.975006	2324.539053
334.368100	2343.594614
334.761129	2363.607995
335.154095	2377.869419
335.546996	2395.067316
335.939833	2409.832855
336.332606	2426.942532
336.725315	2437.970056
337.117960	2453.421192
337.510540	2461.970989
337.903056	2473.220324
338.295508	2483.164000
338.687896	2494.710763
339.080220	2500.072030
339.472480	2506.804491
339.864676	2511.764986
340.256807	2516.347395
340.648875	2523.052130
341.040879	2523.679753
341.432818	2528.216792
341.824694	2528.403314
342.216506	2528.153777
342.608253	2534.102339
342.999937	2531.717873
343.391557	2532.867256
343.783113	2528.617563
344.174605	2531.307019
344.566033	2530.001360
344.957397	2527.616894
345.348697	2525.665968
345.739934	2523.876358
346.131106	2523.785618
346.522215	2521.950637
346.913260	2518.752025
347.304241	2519.546007
347.695159	2515.215656
348.086012	2514.242713
348.476802	2511.906138
348.867528	2509.055366
349.258191	2503.250477
349.648789	2505.924809
350.039324	2501.851557
350.429796	2504.583862
350.820203	2502.738800
351.210548	2499.255363
351.600828	2499.719149
351.991045	2499.000785
352.381198	2500.351814
352.771288	2498.060609
353.161314	2497.531288
353.551276	2498.927688
353.941175	2496.238232
354.331010	2496.470125
354.720782	2498.814262
355.110490	2496.253356
355.500135	2495.529950
355.889717	2497.165805
356.279235	2497.614467
356.668689	2494.753613
357.058080	2499.184787
357.447408	2495.940804
357.836672	2497.158243
358.225873	2496.936432
358.615010	2497.483397
359.004084	2497.143119
359.393095	2500.160250
359.782043	2500.084633
360.170927	2498.995743
360.559748	2501.760816
360.948505	2500.777791
361.337199	2501.586897
361.725830	2502.169150
362.114398	2502.113697
362.502903	2500.535816
362.891344	2504.528410
363.279722	2504.130159
363.668037	2503.109325
364.056289	2502.325426
364.444478	2504.541013
364.832603	2504.561177
365.220665	2505.191322
365.608665	2506.433966
365.996601	2504.601507
366.384474	2507.893380
366.772284	2506.552433
367.160031	2509.193998
367.547715	2506.996055
367.935336	2508.006806
368.322893	2504.041938
368.710388	2505.758451
369.097820	2507.895901
369.485189	2504.407422
369.872495	2510.343381
370.259738	2509.869512
370.646918	2510.802126
371.034035	2510.436642
371.421090	2510.237517
371.808081	2508.851199
372.195010	2511.767507
372.581875	2512.541324
372.968678	2511.565861
373.355418	2511.346570
373.742096	2512.432939
374.128710	2511.560819
374.515262	2513.468896
374.901751	2510.035870
375.288177	2513.118536
375.674540	2513.962929
376.060841	2511.981756
376.447079	2514.691376
376.833254	2514.885460
377.219367	2514.202384
377.605417	2515.949144
377.991404	2516.475944
378.377329	2517.277488
378.763191	2513.662981
379.148991	2516.279339
379.534727	2514.918228
379.920402	2517.789165
380.306013	2513.942765
380.691563	2518.545338
381.077049	2517.043074
381.462474	2515.225738
381.847835	2517.292611
382.233134	2518.522653
382.618371	2517.355626
383.003545	2519.538445
383.388657	2515.366891
383.773706	2517.632889
384.158693	2517.814371
384.543618	2519.190606
384.928480	2518.555420
385.313280	2514.043588
385.698017	2518.598270
386.082692	2518.084073
386.467305	2521.542304
386.851856	2519.624145
387.236344	2520.922242
387.620770	2515.006448
388.005133	2518.903260
388.389435	2519.021727
388.773674	2514.368742
389.157851	2519.203209
389.541965	2522.028775
389.926018	2521.174300
390.310008	2519.127591
390.693936	2521.416275
391.077802	2522.646317
391.461606	2523.215967
391.845348	2523.152953
392.229027	2522.850483
392.612645	2521.494413
392.996200	2520.135822
393.379694	2522.416944
393.763125	2522.442150
394.146494	2523.357119
394.529801	2521.370905
394.913047	2524.758560
395.296230	2522.580782
395.679351	2523.031965
396.062410	2525.565145
396.445408	2523.571368
396.828343	2523.142870
397.211217	2524.536749
397.594028	2524.642614
397.976778	2525.272758
398.359466	2524.337624
398.742092	2523.717562
399.124656	2526.341483
399.507158	2524.534229
399.889598	2526.772501
400.271977	2526.669158
400.654294	2526.780063
401.036549	2531.740558
401.418742	2527.390043
401.800874	2524.352747
402.182944	2530.271062
402.564952	2526.500279
402.946898	2528.312574
403.328783	2527.137985
403.710606	2529.499765
404.092367	2527.763088
404.474067	2527.770650
404.855705	2529.416586
405.237282	2531.551515
405.618797	2530.220650
406.000250	2530.187883
406.381642	2527.712676
406.762972	2524.002387
407.144240	2527.253931
407.525447	2527.004394
407.906593	2526.258303
408.287677	2528.426000
408.668700	2526.626308
409.049661	2530.883562
409.430560	2527.747964
409.811399	2529.766947
410.192176	2531.256608
410.572891	2529.325846
410.953545	2533.283151
411.334138	2529.169570
411.714669	2529.779549
412.095139	2532.000178
412.475547	2532.065713
412.855894	2530.177801
413.236180	2530.651669
413.616405	2529.093953
413.996568	2533.673841
414.376670	2533.709129
414.756711	2530.258459
415.136691	2529.744261
415.516609	2532.680733
415.896466	2530.661751
416.276262	2531.937163
416.655997	2534.114942
417.035670	2532.297606
417.415283	2533.545291
417.794834	2531.639735
418.174324	2531.954807
418.553753	2532.847092
418.933121	2535.418080
419.312428	2534.518234
419.691674	2535.120652
420.070859	2536.285158
420.449983	2535.329860
420.829045	2533.121834
421.208047	2533.517565
421.586988	2534.160312
421.965867	2537.452186
422.344686	2537.502597
422.723444	2535.350024
423.102141	2536.658204
423.480777	2536.176774
423.859352	2536.053265
424.237866	2534.777853
424.616319	2535.861702
424.994712	2537.956301
425.373044	2537.704243
425.751314	2534.561084
426.129524	2535.176105
426.507673	2534.485467
426.885762	2530.969262
427.263789	2537.220292
427.641756	2537.351363
428.019662	2536.713657
428.397508	2533.910775
428.775292	2534.303985
429.153016	2538.253729
429.530679	2535.821372
429.908282	2538.720036
430.285824	2536.083512
430.663305	2538.571322
431.040726	2537.016126
431.418086	2537.240457
431.795385	2538.210879
432.172624	2536.418749
432.549802	2537.782381
432.926920	2539.609799
433.303977	2541.076775
433.680974	2539.080478
434.057910	2536.960673
434.434786	2537.452186
434.811601	2539.221631
435.188355	2540.512166
435.565050	2538.142824
435.941683	2539.261960
436.318257	2540.950746
436.694770	2539.196425
437.071222	2538.662062
437.447614	2539.488812
437.823946	2540.993596
438.200218	2539.088040
438.576429	2542.513504
438.952580	2539.660211
439.328670	2539.355221
439.704700	2538.858667
440.080670	2540.280273
440.456580	2540.718853
440.832429	2540.900335
441.208218	2540.996117
441.583947	2542.899152
441.959616	2541.797660
442.335224	2539.524100
442.710773	2539.395550
443.086261	2539.345139
443.461689	2542.110212
443.837057	2540.565098
444.212365	2540.156765
444.587612	2535.307175
444.962800	2535.564273
445.337927	2538.362114
445.712995	2537.560570
446.088002	2543.672969
446.462949	2540.975952
446.837837	2540.817156
447.212664	2542.362269
447.587431	2540.595345
447.962139	2542.495860
448.336786	2542.374872
448.711374	2541.686755
449.085901	2541.689275
449.460369	2542.369831
449.834776	2541.757331
450.209124	2541.749769
450.583412	2543.771272
450.957640	2542.142979
451.331808	2544.403937
451.705917	2542.208514
452.079965	2545.223124
452.453954	2544.184647
452.827883	2543.078113
453.201752	2544.209852
453.575562	2543.574667
453.949311	2545.520552
454.323001	2542.453010
454.696632	2543.229348
455.070202	2544.628268
455.443713	2541.820345
455.817164	2541.671631
456.190556	2541.195242
456.563888	2543.612476
456.937160	2545.462579
457.310373	2543.846889
457.683526	2545.560882
458.056619	2545.389482
458.429653	2544.048535
458.802628	2545.833104
459.175542	2542.952084
459.548398	2544.338402
459.921194	2543.221786
460.293930	2543.912424
460.666607	2543.637681
461.039224	2545.497867
461.411782	2542.808412
461.784280	2545.505429
462.156719	2543.602393
462.529099	2544.540048
462.901419	2544.177085
463.273680	2541.144831
463.645882	2544.600542
464.018024	2541.482588
464.390106	2539.299768
464.762130	2545.533155
465.134094	2547.410985
465.505999	2546.216232
465.877845	2543.189019
466.249631	2547.539534
466.621358	2546.110367
466.993026	2545.107178
467.364634	2550.962478
467.736184	2544.963505
468.107674	2547.567261
468.479105	2548.966181
468.850477	2545.258412
469.221790	2546.400234
469.593043	2546.851417
469.964238	2546.077600
470.335373	2545.742363
470.706449	2544.550130
471.077467	2545.875954
471.448425	2546.364946
471.819324	2543.756148
472.190164	2544.938299
472.560945	2548.227652
472.931667	2548.157076
473.302330	2544.497198
473.672934	2545.036602
474.043479	2547.577343
474.413965	2544.464431
474.784393	2548.756973
475.154761	2546.012065
475.525070	2544.431663
475.895321	2547.831921
476.265513	2547.204298
476.635645	2551.368291
477.005719	2547.983156
477.375734	2544.575336
477.745691	2547.363094
478.115588	2546.919472
478.485427	2544.262784
478.855207	2546.869061
479.224928	2546.538865
479.594591	2549.268650
479.964194	2548.704041
480.333739	2547.365615
480.703226	2547.529452
481.072653	2548.066335
481.442022	2547.680687
481.811333	2545.928886
482.180584	2545.263453
482.549777	2542.851261
482.918912	2543.675490
483.287988	2548.547765
483.657005	2547.574822
484.025964	2549.682025
484.394864	2548.618341
484.763706	2550.329813
485.132489	2545.525593
485.501213	2549.823177
485.869879	2549.908877
486.238487	2546.639688
486.607036	2547.078269
486.975527	2547.360573
487.343959	2547.932744
487.712333	2548.212528
488.080648	2546.075079
488.448905	2548.419216
488.817104	2550.128167
489.185244	2549.641696
489.553326	2547.761345
489.921350	2551.219577
490.289315	2547.738660
490.657222	2549.795451
491.025070	2546.337219
491.392861	2548.880481
491.760593	2547.582384
492.128267	2547.811757
492.495883	2549.619010
492.863440	2548.981304
493.230939	2549.772766
493.598380	2550.763352
493.965763	2548.719164
494.333088	2549.019113
494.700354	2551.154042
495.067563	2547.564740
495.434713	2549.339226
495.801805	2549.800492
496.168839	2550.879299
496.535815	2550.775955
496.902733	2550.687735
497.269593	2549.762683
497.636395	2550.569268
498.003139	2552.212684
498.369825	2548.825029
498.736453	2550.165976
499.103023	2549.056922
499.469535	2549.485420
499.835989	2548.620862
500.202385	2548.850234
500.568723	2543.814122
500.935003	2548.956099
501.301226	2545.344112
501.667390	2550.314690
502.033497	2552.018600
502.399546	2550.987684
502.765537	2555.277706
503.131470	2550.849052
503.497345	2549.813095
503.863163	2551.527087
504.228923	2549.984494
504.594625	2551.378373
504.960269	2552.729402
505.325856	2549.036757
505.691385	2551.196892
506.056856	2550.957437
506.422270	2548.913249
506.787625	2550.511295
507.152924	2551.151521
507.518164	2552.830225
507.883347	2549.838301
508.248472	2551.554813
508.613540	2549.412323
508.978550	2553.498178
509.343503	2549.671942
509.708398	2551.517005
510.073236	2551.844680
510.438016	2549.596325
510.802738	2552.096737
511.167403	2554.201419
511.532010	2552.890719
511.896561	2550.370142
512.261053	2547.499205
512.625488	2553.997252
512.989866	2551.678322
513.354186	2551.690925
513.718449	2550.647406
514.082655	2552.182437
514.446803	2550.503733
514.810894	2550.949875
515.174927	2553.266285
515.538904	2552.184958
515.902822	2553.447767
516.266684	2549.487940
516.630488	2551.821995
516.994235	2550.481048
517.357925	2548.799823
517.721558	2552.348795
518.085133	2552.573127
518.448651	2548.489792
518.812112	2545.278577
519.175516	2547.085831
519.538863	2545.996941
519.902152	2554.128322
520.265385	2554.082952
520.628560	2551.275029
520.991678	2553.805689
521.354739	2551.854762
521.717743	2550.866696
522.080690	2551.166645
522.443580	2551.053219
522.806413	2551.811912
523.169189	2551.635472
523.531908	2553.351985
523.894569	2551.275029
524.257174	2553.583878
524.619722	2552.225287
524.982213	2554.168652
525.344647	2551.048178
525.707025	2552.590771
526.069345	2549.840821
526.431608	2553.921635
526.793815	2552.878116
527.155964	2551.769062
527.518057	2549.122457
527.880093	2551.128836
528.242072	2550.133208
528.603995	2551.196892
528.965860	2553.893909
529.327669	2551.050698
529.689421	2553.803168
530.051117	2553.916594
530.412755	2552.487427
530.774337	2553.115051
531.135862	2551.050698
531.497331	2551.670760
531.858743	2551.325441
532.220098	2552.505071
532.581396	2551.416182
532.942638	2552.220246
533.303824	2552.008517
533.664953	2553.457849
534.026025	2554.077911
534.387040	2552.084135
534.747999	2550.274360
535.108902	2551.517005
535.469748	2552.336192
535.830537	2553.616645
536.191270	2550.644885
536.551947	2549.989535
536.912567	2549.545914
537.273131	2552.084135
537.633638	2546.387631
537.994089	2551.330482
538.354483	2551.983312
538.714821	2553.961964
539.075103	2552.227808
539.435328	2551.796789
539.795497	2552.850390
540.155609	2552.590771
540.515665	2554.617314
540.875665	2554.168652
541.235609	2551.073383
541.595496	2552.018600
541.955328	2552.494989
542.315102	2552.971378
542.674821	2552.646223
543.034483	2553.772921
543.394090	2553.823333
543.753640	2555.169321
544.113134	2549.089689
544.472571	2552.661347
544.831953	2553.518343
545.191278	2554.214022
545.550548	2551.920297
545.909761	2552.048847
546.268918	2552.840308
546.628019	2553.488096
546.987064	2553.203271
547.346053	2552.558003
547.704986	2552.605894
548.063863	2553.173024
548.422684	2554.718137
548.781449	2554.410627
549.140158	2553.757798
549.498811	2554.234187
549.857408	2553.223435
550.215949	2554.516491
550.574434	2552.928528
550.932864	2551.799309
551.291237	2558.158725
551.649555	2551.834598
552.007817	2553.677139
552.366022	2552.348795
552.724173	2554.849208
553.082267	2550.438198
553.440305	2552.169834
553.798288	2554.521532
554.156215	2552.353836
554.514086	2553.127653
554.871902	2549.876109
555.229661	2548.716644
555.587365	2548.686397
555.945014	2552.159752
556.302606	2554.158569
556.660143	2555.754095
557.017625	2552.951213
557.375050	2553.682180
557.732421	2552.384083
558.089735	2553.483055
558.446994	2554.307283
558.804197	2552.469783
559.161345	2555.212171
559.518437	2556.157387
559.875474	2552.500030
560.232455	2552.368960
560.589381	2551.186809
560.946251	2551.804351
561.303065	2552.152190
561.659825	2554.387942
562.016528	2553.798127
562.373177	2551.338044
562.729770	2552.066491
563.086307	2554.108158
563.442789	2553.551110
563.799216	2555.275185
564.155587	2551.184289
564.511904	2551.479196
564.868164	2553.283929
565.224370	2553.548590
565.580520	2555.040771
565.936615	2555.065977
566.292654	2554.902140
566.648638	2552.583209
567.004567	2552.426933
567.360441	2552.890719
567.716260	2552.996583
568.072023	2554.816440
568.427732	2552.149670
568.783385	2557.740309
569.138982	2555.638148
569.494525	2554.640000
569.850013	2552.091696
570.205445	2553.951882
570.560823	2551.688404
570.916145	2554.440874
571.271412	2554.317366
571.626625	2553.906512
571.981782	2552.401727
572.336884	2550.970040
572.691931	2550.349978
573.046923	2549.412323
573.401860	2549.611449
573.756743	2548.114226
574.111570	2555.514640
574.466342	2552.570606
574.821059	2553.135215
575.175722	2552.431974
575.530330	2554.287119
575.884882	2555.920453
576.239380	2554.009855
576.593823	2556.480021
576.948211	2553.535987
577.302544	2552.931048
577.656823	2556.159907
578.011047	2554.834084
578.365216	2553.568754
578.719330	2555.975905
579.073389	2554.335010
579.427394	2555.537325
579.781344	2556.285936
580.135239	2554.917263
580.489080	2552.953734
580.842866	2555.431461
581.196597	2554.743343
581.550273	2554.607232
581.903895	2555.222253
582.257463	2553.808209
582.610975	2552.134546
582.964434	2553.588919
583.317837	2554.481203
583.671186	2553.830894
584.024481	2555.370967
584.377721	2553.621687
584.730906	2554.498847
585.084037	2553.057077
585.437113	2552.752087
585.790135	2557.546225
586.143103	2555.786862
586.496016	2556.689229
586.848874	2554.917263
587.201679	2555.897768
587.554428	2557.828529
587.907124	2556.442212
588.259765	2554.193858
588.612352	2555.318035
588.964884	2555.650751
589.317362	2554.700493
589.669786	2551.935421
590.022155	2552.615976
590.374470	2550.302087
590.726731	2552.638662
591.078937	2550.861655
591.431090	2555.287788
591.783188	2554.516491
592.135232	2556.905998
592.487222	2554.677808
592.839157	2556.167469
593.191038	2554.365257
593.542866	2555.474311
593.894639	2557.389949
594.246358	2555.184444
594.598022	2552.147149
594.949633	2556.384239
595.301190	2556.878272
595.652692	2554.526574
596.004141	2552.326110
596.355535	2554.599670
596.706876	2554.357695
597.058162	2552.510112
597.409395	2556.233004
597.760573	2553.485575
598.111698	2554.496327
598.462768	2554.783672
598.813785	2554.599670
599.164748	2555.103786
599.515657	2552.222766
599.866511	2555.295350
600.217312	2557.498334
600.568060	2554.894578
600.918753	2557.145453
601.269392	2555.260062
601.619978	2552.792417
601.970510	2552.999104
602.320988	2552.749567
602.671412	2555.640669
603.021783	2551.605225
603.372100	2555.935576
603.722363	2555.028168
604.072572	2553.793086
604.422728	2553.357026
604.772830	2555.600339
605.122878	2553.551110
605.472872	2553.208312
605.822813	2555.295350
606.172701	2551.068342
606.522534	2554.302242
606.872314	2554.788714
607.222041	2556.802655
607.571714	2553.944320
607.921333	2552.507592
608.270899	2555.305432
608.620411	2550.400389
608.969870	2555.249979
609.319276	2558.677964
609.668627	2564.316494
610.017926	2564.732390
610.367171	2567.817576
610.716362	2569.095508
611.065500	2569.460992
611.414585	2562.365568
611.763616	2562.473953
612.112594	2557.455484
612.461518	2557.626883
612.810389	2559.479507
613.159207	2557.500854
613.507971	2558.307439
613.856682	2556.099414
614.205340	2557.014383
614.553945	2556.684188
614.902496	2556.875751
615.250994	2554.801317
615.599439	2553.372149
615.947830	2556.449774
616.296169	2556.217881
616.644454	2554.453477
616.992686	2557.508416
617.340864	2555.726368
617.688990	2553.208312
618.037063	2556.469938
618.385082	2557.382387
618.733048	2555.108827
619.080961	2555.741492
619.428821	2556.643858
619.776628	2556.023796
620.124382	2556.303580
620.472083	2552.815102
620.819731	2557.226112
621.167326	2554.841646
621.514868	2554.773590
621.862357	2554.849208
622.209793	2553.455328
622.557176	2554.604712
622.904506	2554.120761
623.251783	2552.346275
623.599007	2555.958261
623.946179	2555.996070
624.293297	2555.262582
624.640363	2554.549259
624.987376	2550.745708
625.334336	2549.195553
625.681243	2550.899463
626.028097	2550.533980
626.374899	2553.278888
626.721647	2552.666388
627.068343	2556.144784
627.414987	2553.251162
627.761577	2554.919784
628.108115	2552.535318
628.454600	2556.225443
628.801032	2552.184958
629.147412	2558.257027
629.493739	2555.212171
629.840014	2554.629917
630.186236	2558.856925
630.532405	2557.954558
630.878521	2555.255020
631.224585	2555.015566
631.570597	2556.485062
631.916556	2553.805689
632.262462	2553.785524
632.608316	2554.461039
632.954117	2552.847869
633.299866	2556.974054
633.645562	2553.777962
633.991206	2554.660164
634.336797	2553.810730
634.682336	2551.953065
635.027823	2553.220915
635.373257	2554.251831
635.718639	2554.841646
636.063968	2556.333827
636.409245	2552.878116
636.754470	2552.089176
637.099642	2552.305945
637.444762	2555.123950
637.789829	2552.053888
638.134845	2553.631769
638.479808	2553.409958
638.824719	2552.774773
639.169577	2552.928528
639.514383	2554.692932
639.859137	2552.754608
640.203839	2552.782334
640.548489	2553.016748
640.893086	2555.353323
641.237632	2552.323589
641.582125	2556.744681
641.926566	2553.619166
642.270955	2551.811912
642.615292	2550.780996
642.959576	2551.703528
643.303809	2549.044319
643.647990	2555.489434
643.992118	2551.562375
644.336195	2553.949362
644.680219	2553.263765
645.024192	2551.683363
645.368112	2552.613456
645.711981	2554.564382
646.055797	2554.750905
646.399562	2554.161090
646.743274	2552.868034
647.086935	2555.842315
647.430544	2555.991029
647.774101	2554.418189
648.117606	2551.486758
648.461059	2553.765359
648.804460	2555.154197
649.147810	2552.676470
649.491108	2554.589588
649.834354	2555.711245
650.177548	2553.651933
650.520690	2554.766028
650.863781	2552.174875
651.206820	2553.465411
651.549807	2558.057902
651.892742	2553.596481
652.235626	2554.627397
652.578458	2551.217056
652.921238	2552.900802
653.263967	2553.863662
653.606644	2552.676470
653.949269	2554.171172
654.291843	2554.466080
654.634365	2556.301060
654.976836	2553.883827
655.319255	2555.509599
655.661622	2554.508930
656.003938	2553.382232
656.346203	2554.161090
656.688416	2552.447098
657.030577	2557.218550
657.372687	2554.521532
657.714746	2552.071532
658.056753	2554.907181
658.398708	2554.375339
658.740612	2553.394835
659.082465	2552.008517
659.424266	2549.830739
659.766016	2550.745708
660.107715	2551.106151
660.449362	2549.029195
660.790958	2553.432643
661.132503	2555.121430
661.473996	2552.653785
661.815438	2554.042623
662.156829	2552.673950
662.498168	2552.124464
662.839456	2551.816953
663.180693	2556.326266
663.521879	2553.644372
663.863013	2555.146636
664.204097	2556.474980
664.545129	2554.413148
664.886110	2553.553631
665.227040	2552.822664
665.567918	2554.526574
665.908746	2550.899463
666.249522	2552.338713
666.590248	2554.922304
666.930922	2553.220915
667.271545	2554.350133
667.612118	2554.735782
667.952639	2554.387942
668.293109	2555.436502
668.633528	2552.449618
668.973896	2555.612942
669.314213	2552.694114
669.654480	2555.680998
669.994695	2553.253682
670.334859	2553.180586
670.674973	2550.826367
671.015035	2555.413817
671.355047	2552.464742
671.695008	2553.029351
672.034918	2551.264947
672.374777	2553.762839
672.714585	2554.188816
673.054342	2553.583878
673.394049	2555.670916
673.733705	2554.473642
674.073310	2555.055895
674.412864	2551.370811
674.752368	2556.419527
675.091820	2552.184958
675.431223	2553.498178
675.770574	2554.970195
676.109875	2553.351985
676.449125	2552.134546
676.788324	2547.849565
677.127473	2550.854093
677.466571	2546.962322
677.805619	2552.444577
678.144616	2552.568085
678.483562	2553.669578
678.822458	2553.001625
679.161303	2551.443908
679.500098	2552.931048
679.838842	2552.540359
680.177535	2553.757798
680.516179	2555.577654
680.854771	2555.060936
681.193314	2553.452808
681.531805	2554.055226
681.870247	2552.245452
682.208638	2549.770245
682.546978	2552.414330
682.885268	2551.746377
683.223508	2551.436346
683.561697	2550.700338
683.899836	2553.508261
684.237925	2553.856100
684.575963	2554.571944
684.913951	2552.648744
685.251889	2553.225956
685.589776	2554.846687
685.927614	2553.679660
686.265401	2552.575647
686.603137	2554.579506
686.940824	2554.319886
687.278460	2554.647561
687.616046	2550.546583
687.953582	2552.033723
688.291068	2553.223435
688.628504	2553.185627
688.965889	2552.507592
689.303224	2552.303425
689.640510	2553.306614
689.977745	2554.450956
690.314930	2552.023641
690.652065	2552.005997
690.989150	2552.290822
691.326185	2553.427602
691.663170	2551.403579
692.000105	2551.776624
692.336990	2550.246634
692.673825	2556.611091
693.010610	2552.641182
693.347345	2552.041285
693.684030	2548.328475
694.020665	2552.310987
694.357251	2546.821170
694.693786	2554.236707
695.030272	2550.390307
695.366707	2553.271326
695.703093	2551.814433
696.039429	2551.975750
696.375716	2552.169834
696.711952	2553.538507
697.048139	2551.847200
697.384276	2554.365257
697.720363	2550.165976
698.056400	2551.721172
698.392388	2551.542211
698.728326	2550.004659
699.064214	2551.370811
699.400053	2553.233518
699.735842	2552.159752
700.071581	2553.838456
700.407270	2551.517005
700.742910	2553.883827
701.078501	2548.247817
701.414042	2551.688404
701.749533	2551.658157
702.084974	2550.964998
702.420366	2547.990718
702.755709	2554.299722
703.091002	2550.826367
703.426246	2551.476676
703.761440	2552.000956
704.096584	2551.640513
704.431679	2551.799309
704.766725	2553.447767
705.101721	2552.225287
705.436668	2552.532797
705.771565	2555.249979
706.106413	2555.950700
706.441212	2554.027499
706.775961	2552.666388
707.110661	2549.651778
707.445311	2555.413817
707.779913	2554.022458
708.114465	2550.007179
708.448967	2552.210163
708.783421	2552.038764
709.117825	2551.552293
709.452180	2551.418702
709.786485	2554.062788
710.120742	2549.719833
710.454949	2549.041798
710.789107	2549.117416
711.123216	2544.356046
711.457275	2553.800647
711.791286	2551.948023
712.125247	2554.665205
712.459159	2553.178065
712.793023	2554.899619
713.126837	2550.468445
713.460602	2551.756460
713.794318	2551.058260
714.127985	2556.694270
714.461602	2549.334185
714.795171	2553.984650
715.128691	2553.082283
715.462162	2550.675132
715.795584	2551.622869
716.128957	2552.681511
716.462281	2552.631100
716.795556	2551.872406
717.128782	2552.409289
717.461960	2548.472148
717.795088	2552.923487
718.128167	2553.404917
718.461198	2550.803682
718.794180	2551.363250
719.127113	2552.873075
719.459997	2552.255534
719.792833	2551.743857
720.125619	2551.330482
720.458357	2553.130174
720.791046	2551.499361
721.123686	2551.161603
721.456278	2553.722510
721.788821	2551.532128
722.121315	2550.589432
722.453761	2550.418033
722.786158	2554.398024
723.118506	2553.064639
723.450805	2554.677808
723.783056	2549.457693
724.115259	2551.703528
724.447412	2552.250493
724.779518	2554.065308
725.111574	2553.407437
725.443582	2552.938610
725.775542	2550.539021
726.107453	2555.565051
726.439315	2552.560524
726.771129	2552.719320
727.102895	2550.337375
727.434612	2548.101623
727.766281	2546.788403
728.097901	2551.143959
728.429473	2550.826367
728.760996	2550.896943
729.092471	2552.953734
729.423897	2551.280071
729.755276	2552.293342
730.086606	2551.300235
730.417887	2550.576830
730.749120	2553.344423
731.080305	2551.761501
731.411442	2549.699669
731.742530	2551.945503
732.073570	2550.929710
732.404562	2551.635472
732.735506	2551.859803
733.066401	2552.429454
733.397249	2549.820657
733.728048	2549.422405
734.058798	2553.483055
734.389501	2549.024154
734.720156	2553.392314
735.050762	2550.992725
735.381320	2551.267468
735.711831	2550.251675
736.042293	2551.771583
736.372707	2552.663867
736.703073	2550.460883
737.033391	2550.637323
737.363661	2552.603373
737.693883	2551.108671
738.024056	2552.232849
738.354182	2550.700338
738.684260	2549.805533
739.014290	2552.389124
739.344272	2551.267468
739.674207	2550.153373
740.004093	2551.237221
740.333931	2552.807540
740.663722	2549.240924
740.993464	2549.903836
741.323159	2553.314176
741.652806	2555.658313
741.982405	2552.318548
742.311956	2552.789896
742.641460	2553.031872
742.970915	2551.746377
743.300323	2546.732950
743.629683	2548.888043
743.958996	2549.913918
744.288260	2548.469627
744.617477	2550.596994
744.946647	2552.283260
745.275768	2552.953734
745.604842	2549.450132
745.933869	2549.742519
746.262847	2551.085986
746.591778	2551.501881
746.920662	2550.712941
747.249498	2550.423074
747.578286	2550.901984
747.907027	2548.893084
748.235720	2551.164124
748.564365	2549.233362
748.892963	2549.830739
749.221514	2552.996583
749.550017	2551.171686
749.878473	2550.844011
750.206881	2550.685214
750.535242	2550.675132
750.863555	2551.292673
751.191821	2550.755791
751.520039	2550.196223
751.848210	2549.644216
752.176334	2550.627241
752.504411	2551.421223
752.832440	2547.085831
753.160421	2552.547921
753.488356	2550.443239
753.816243	2551.075904
754.144082	2548.769576
754.471875	2550.579350
754.799620	2552.588250
755.127318	2549.578681
755.454969	2550.748229
755.782572	2551.474155
756.110129	2551.237221
756.437638	2552.162272
756.765100	2552.096738
757.092515	2549.800492
757.419882	2550.337375
757.747203	2549.601366
758.074477	2550.234031
758.401703	2551.832077
758.728882	2549.810574
759.056014	2553.072201
759.383099	2548.905687
759.710138	2546.755635
760.037129	2549.435008
760.364073	2548.545245
760.690970	2545.893598
761.017820	2555.045813
761.344623	2548.840152
761.671379	2549.397200
761.998088	2551.438867
762.324751	2551.244783
762.651366	2550.730585
762.977935	2549.704710
763.304456	2551.136398
763.630931	2550.574309
763.957359	2553.745195
764.283740	2549.820657
764.610074	2551.010369
764.936362	2551.075904
765.262602	2551.353167
765.588796	2550.584391
765.914943	2552.318548
766.241044	2549.765204
766.567097	2549.651778
766.893104	2550.617159
767.219064	2549.838301
767.544978	2550.634803
767.870845	2551.358208
768.196665	2553.793086
768.522438	2549.626572
768.848165	2551.363250
769.173846	2550.130687
769.499479	2551.186809
769.825066	2548.991387
770.150607	2551.116233
770.476101	2553.503219
770.801548	2549.729916
771.126949	2549.006510
771.452303	2550.319731
771.777611	2552.610935
772.102872	2552.011038
772.428087	2550.097920
772.753256	2551.673281
773.078378	2552.207643
773.403453	2550.183620
773.728482	2547.244627
774.053465	2552.323589
774.378401	2548.910728
774.703291	2550.249155
775.028135	2549.981973
775.352932	2550.327292
775.677683	2552.910884
776.002388	2547.350491
776.327046	2545.568443
776.651658	2546.359904
776.976224	2546.823691
777.300743	2550.544062
777.625216	2552.273178
777.949643	2548.865358
778.274024	2550.407951
778.598359	2550.508774
778.922647	2548.557847
779.246889	2550.244113
779.571086	2549.830739
779.895236	2549.956768
780.219339	2550.622200
780.543397	2552.260575
780.867409	2550.891902
781.191374	2550.743188
781.515294	2549.651778
781.839167	2550.990204
782.162995	2550.418033
782.486776	2550.087838
782.810511	2551.645554
783.134201	2548.242775
783.457844	2550.027344
783.781441	2551.804351
784.104993	2549.818136
784.428498	2550.178578
784.751958	2552.618497
785.075372	2550.158414
785.398739	2549.145142
785.722061	2550.778476
786.045337	2549.755122
786.368568	2551.239741
786.691752	2552.434495
787.014891	2550.140770
787.337983	2544.870243
787.661030	2551.509443
787.984031	2550.342416
788.306987	2551.489278
788.629897	2550.070194
788.952760	2552.379042
789.275579	2549.339226
789.598351	2549.873589
789.921078	2549.659340
790.243759	2548.825029
790.566395	2549.145142
790.888984	2548.613300
791.211529	2550.216387
791.534027	2549.467776
791.856480	2550.876778
792.178888	2549.218239
792.501249	2543.766231
792.823566	2544.784544
793.145836	2546.034750
793.468062	2546.264123
793.790241	2548.487271
794.112375	2550.110523
794.434464	2551.330482
794.756507	2549.676984
795.078505	2549.417364
795.400457	2551.640513
795.722364	2547.771427
796.044226	2548.358722
796.366042	2548.593136
796.687812	2548.792261
797.009538	2549.823177
797.331218	2549.447611
797.652852	2548.250337
797.974442	2549.782848
798.295986	2550.067673
798.617484	2550.002138
798.938938	2548.903167
799.260346	2549.966850
799.581709	2545.833104
799.903026	2549.969371
800.224299	2550.791079
800.545526	2548.204967
800.866708	2549.303938
801.187845	2550.029864
801.508936	2549.976932
801.829983	2549.336706
802.150984	2548.935934
802.471940	2549.490461
802.792851	2550.375183
803.113717	2552.225287
803.434538	2550.387786
803.755314	2548.623382
804.076045	2549.268650
804.396731	2549.193033
804.717372	2549.046839
805.037967	2548.691438
805.358518	2550.743188
805.679024	2547.468958
805.999485	2549.046839
806.319901	2548.862837
806.640272	2549.765204
806.960598	2548.981304
807.280879	2547.297559
807.601115	2549.021634
807.921306	2548.857796
808.241453	2547.521890
808.561554	2546.385110
808.881611	2545.926365
809.201623	2545.127342
809.521590	2550.816284
809.841513	2548.000800
810.161390	2550.730585
810.481223	2546.402754
810.801011	2549.263609
811.120755	2549.475337
811.440453	2550.118085
811.760107	2547.426108
812.079716	2552.414330
812.399281	2547.988197
812.718801	2548.691438
813.038276	2547.292518
813.357707	2547.128680
813.677093	2548.189843
813.996434	2547.194215
814.315731	2548.482230
814.634983	2550.468445
814.954191	2547.862168
815.273354	2551.249824
815.592473	2547.920142
815.911547	2548.905687
816.230577	2550.077755
816.549562	2551.222097
816.868502	2549.908877
817.187399	2547.821839
817.506250	2549.918959
817.825058	2550.624721
818.143821	2547.743701
818.462539	2549.326623
818.781213	2547.932744
819.099843	2548.847714
819.418429	2548.472148
819.736970	2548.797302
820.055466	2549.830739
820.373919	2550.917108
820.692327	2548.315872
821.010691	2549.682025
821.329011	2547.378218
821.647286	2550.228990
821.965517	2549.112374
822.283704	2547.743701
822.601847	2550.735626
822.919945	2549.392158
823.237999	2548.492312
823.556010	2548.767055
823.873976	2549.966850
824.191897	2549.646737
824.509775	2543.325130
824.827609	2547.421067
825.145398	2544.529966
825.463144	2546.294369
825.780845	2549.195553
826.098502	2547.925183
826.416116	2547.640358
826.733685	2546.188505
827.051210	2547.516849
827.368692	2547.133722
827.686129	2548.653629
828.003522	2549.939124
828.320872	2550.239072
828.638177	2549.697148
828.955439	2546.876623
829.272656	2549.591284
829.589830	2548.179761
829.906960	2547.534493
830.224046	2548.779658
830.541088	2548.199926
830.858086	2546.145655
831.175041	2548.157076
831.491952	2550.513815
831.808819	2546.589277
832.125642	2547.224462
832.442421	2548.661191
832.759157	2548.383928
833.075849	2549.112374
833.392497	2544.991231
833.709101	2548.008362
834.025662	2549.659340
834.342179	2547.962991
834.658653	2548.091541
834.975083	2547.952909
835.291469	2554.534135
835.607811	2547.915100
835.924110	2548.426777
836.240366	2547.947868
836.556578	2550.052550
836.872746	2549.767724
837.188871	2549.145142
837.504952	2550.571788
837.820990	2549.087169
838.136984	2549.929041
838.452935	2548.242775
838.768842	2546.201108
839.084706	2550.511295
839.400526	2548.719164
839.716303	2546.589277
840.032037	2544.842517
840.347727	2546.811088
840.663373	2545.497867
840.978977	2545.321427
841.294537	2548.673794
841.610054	2548.759494
841.925527	2549.818136
842.240957	2549.117416
842.556344	2547.920142
842.871687	2547.254709
843.186987	2549.908877
843.502244	2548.983825
843.817458	2548.726726
844.132629	2548.250337
844.447756	2551.161603
844.762840	2547.375697
845.077881	2544.156920
845.392879	2547.738660
845.707833	2546.990049
846.022745	2547.655481
846.337613	2548.255378
846.652438	2549.402241
846.967221	2548.250337
847.281960	2549.067004
847.596656	2549.682025
847.911309	2547.940306
848.225919	2547.751263
848.540485	2548.701520
848.855009	2548.469627
849.169490	2549.760163
849.483928	2547.015254
849.798323	2547.993238
850.112675	2548.535162
850.426984	2546.937117
850.741251	2548.509957
851.055474	2548.449463
851.369654	2549.997097
851.683792	2549.946685
851.997887	2548.121788
852.311938	2545.565923
852.625947	2549.092210
852.939914	2548.278063
853.253837	2549.722354
853.567718	2544.398896
853.881555	2547.108516
854.195350	2548.893084
854.509103	2547.645399
854.822812	2548.210008
855.136479	2551.035575
855.450103	2549.152704
855.763685	2546.382590
856.077224	2542.185829
856.390720	2544.862682
856.704173	2543.446118
857.017584	2548.015923
857.330953	2546.183464
857.644278	2550.034906
857.957561	2549.487940
858.270802	2547.128680
858.584000	2548.711603
858.897155	2548.756973
859.210268	2548.772097
859.523339	2548.053732
859.836367	2547.491643
860.149352	2547.206818
860.462295	2546.110367
860.775195	2548.635985
861.088054	2549.273691
861.400869	2546.785882
861.713642	2548.608259
862.026373	2546.070038
862.339062	2548.101623
862.651708	2548.633465
862.964312	2546.475851
863.276873	2545.954092
863.589392	2545.825542
863.901869	2549.203115
864.214303	2545.006355
864.526696	2552.109340
864.839045	2544.386293
865.151353	2546.919472
865.463619	2548.441901
865.775842	2546.044832
866.088023	2546.448125
866.400162	2547.675646
866.712258	2546.614483
867.024313	2549.102292
867.336325	2547.907539
867.648296	2547.663043
867.960224	2549.795451
868.272110	2549.276212
868.583954	2545.891077
868.895755	2548.341078
869.207515	2546.483413
869.519233	2547.416026
869.830909	2549.379556
870.142542	2550.102961
870.454134	2548.484751
870.765684	2549.296377
871.077191	2546.962322
871.388657	2544.998793
871.700081	2545.497867
872.011463	2544.121632
872.322803	2542.069883
872.634101	2545.999462
872.945357	2545.810419
873.256571	2549.976932
873.567744	2547.985677
873.878874	2547.615152
874.189963	2549.437529
874.501010	2547.577343
874.812015	2545.875954
875.122979	2550.725544
875.433900	2547.070707
875.744780	2545.996941
876.055618	2547.078269
876.366415	2547.428629
876.677169	2548.419216
876.987882	2549.694628
877.298554	2548.736808
877.609183	2549.656819
877.919771	2549.240924
878.230317	2545.548279
878.540822	2550.458363
878.851285	2548.179761
879.161707	2546.680018
879.472087	2546.274205
879.782425	2547.249668
880.092722	2548.356201
880.402977	2545.465100
880.713191	2550.425595
881.023363	2548.388969
881.333494	2549.634134
881.643583	2549.054401
881.953631	2544.575336
882.263637	2547.675646
882.573602	2546.816129
882.883526	2546.642209
883.193408	2548.837632
883.503248	2547.771427
883.813048	2545.344112
884.122806	2547.937786
884.432522	2547.337888
884.742197	2549.235883
885.051831	2549.525749
885.361424	2547.169010
885.670975	2548.719164
885.980485	2547.358053
886.289954	2545.409647
886.599382	2545.654143
886.908768	2545.754966
887.218113	2542.044677
887.527417	2544.522404
887.836680	2541.651467
888.145901	2545.545758
888.455082	2548.121788
888.764221	2546.712785
889.073319	2545.810419
889.382376	2547.007693
889.691392	2546.160779
890.000366	2546.979966
890.309300	2548.068856
890.618193	2546.339740
890.927044	2544.298073
891.235855	2548.908208
891.544625	2546.054915
891.853353	2549.956768
892.162041	2548.255378
892.470687	2546.254040
892.779293	2546.090203
893.087858	2548.096582
893.396381	2547.037940
893.704864	2546.921993
894.013306	2546.042312
894.321707	2550.075235
894.630068	2547.945347
894.938387	2547.176571
895.246665	2546.221273
895.554903	2547.970553
895.863100	2547.589946
896.171256	2547.405944
896.479371	2546.546427
896.787446	2544.819832
897.095480	2547.831921
897.403473	2545.412167
897.711425	2549.503064
898.019336	2545.830583
898.327207	2545.124822
898.635038	2547.332847
898.942827	2548.184802
899.250576	2547.564740
899.558284	2545.933927
899.865952	2547.438711
900.173579	2546.390151
900.481165	2546.044832
900.788711	2549.818136
901.096216	2547.312683
901.403681	2544.366128
901.711105	2548.217570
902.018489	2547.806716
902.325832	2542.289173
902.633135	2543.176416
902.940397	2546.246478
903.247619	2542.866385
903.554800	2546.460727
903.861941	2548.073897
904.169041	2544.542568
904.476101	2547.476520
904.783121	2546.246478
905.090100	2545.157589
905.397039	2547.035419
905.703938	2547.027857
906.010796	2545.550799
906.317614	2544.978628
906.624391	2546.937117
906.931129	2546.196067
907.237826	2546.407795
907.544483	2544.487116
907.851099	2545.061807
908.157675	2545.878474
908.464211	2546.737991
908.770707	2544.421581
909.077163	2547.491643
909.383578	2544.910573
909.689954	2544.111550
909.996289	2544.847558
910.302584	2545.276056
910.608839	2546.894267
910.915054	2546.879143
911.221229	2546.934596
911.527363	2549.717313
911.833458	2545.954092
912.139513	2546.329658
912.445527	2545.712116
912.751502	2549.205636
913.057436	2546.402754
913.363331	2543.680531
913.669186	2546.503577
913.975000	2544.434184
914.280775	2547.012734
914.586510	2546.559030
914.892205	2547.179092
915.197859	2547.675646
915.503475	2546.654812
915.809050	2546.322096
916.114585	2545.291180
916.420081	2545.533155
916.725536	2547.897456
917.030952	2547.640358
917.336328	2546.982487
917.641665	2543.252033
917.946961	2539.955118
918.252218	2544.734132
918.557435	2542.332023
918.862612	2546.962322
919.167750	2544.257743
919.472848	2544.421581
919.777906	2545.336550
920.082925	2547.174051
920.387904	2544.966025
920.692843	2543.204142
920.997743	2545.323947
921.302603	2547.274874
921.607423	2545.618855
921.912204	2547.262271
922.216946	2544.093906
922.521647	2546.594318
922.826310	2546.407795
923.130932	2548.870399
923.435516	2544.212373
923.740059	2545.202960
924.044564	2545.709596
924.349028	2549.187992
924.653454	2544.706406
924.957840	2544.592980
925.262186	2545.487785
925.566493	2547.239586
925.870761	2547.161448
926.174989	2544.529966
926.479178	2544.116591
926.783328	2543.118443
927.087438	2548.409133
927.391509	2546.947199
927.695541	2543.882177
927.999533	2547.990718
928.303486	2546.942158
928.607400	2547.473999
928.911275	2544.991231
929.215110	2545.240768
929.518906	2545.845707
929.822663	2548.477189
930.126381	2544.580377
930.430060	2547.763866
930.733699	2547.673125
931.037299	2543.675490
931.340861	2545.336550
931.644383	2545.911242
931.947866	2546.422919
932.251309	2546.445604
932.554714	2547.952909
932.858080	2543.660367
933.161407	2540.960829
933.464694	2543.584749
933.767943	2540.214738
934.071153	2545.518032
934.374323	2545.926365
934.677455	2547.335368
934.980548	2546.090203
935.283602	2544.555171
935.586617	2544.245140
935.889593	2545.785213
936.192530	2545.031560
936.495428	2545.548279
936.798287	2545.873433
937.101108	2544.333361
937.403890	2545.744884
937.706632	2544.338402
938.009336	2546.954761
938.312002	2547.307641
938.614628	2540.988555
938.917216	2546.921993
939.219765	2545.213042
939.522275	2545.722198
939.824747	2546.543907
940.127179	2543.592311
940.429573	2541.172557
940.731929	2544.608103
941.034246	2547.731098
941.336524	2545.084492
941.638763	2547.075748
941.940964	2545.525593
942.243126	2543.398227
942.545250	2545.981818
942.847335	2546.919473
943.149381	2545.780172
943.451389	2542.901673
943.753359	2545.961653
944.055290	2544.658515
944.357182	2546.697662
944.659036	2546.155738
944.960851	2546.831252
945.262628	2544.771941
945.564367	2544.161961
945.866067	2546.707744
946.167729	2543.554502
946.469352	2547.789072
946.770937	2544.474513
947.072484	2545.437373
947.373992	2547.915100
947.675462	2546.866540
947.976893	2545.263453
948.278286	2541.732125
948.579641	2544.771941
948.880958	2540.219779
949.182236	2544.098947
949.483476	2543.678011
949.784678	2546.037271
950.085841	2547.330327
950.386967	2545.339071
950.688054	2546.233876
950.989103	2545.923845
951.290114	2545.260933
951.591087	2544.144317
951.892021	2541.457382
952.192917	2545.714637
952.493776	2543.390665
952.794596	2546.521221
953.095378	2545.477702
953.396122	2545.500388
953.696828	2546.843855
953.997496	2546.251520
954.298126	2544.776982
954.598718	2543.814122
954.899272	2546.848896
955.199788	2546.213711
955.500266	2547.458876
955.800706	2542.332022
956.101108	2545.071890
956.401472	2548.000800
956.701798	2545.192877
957.002087	2546.319575
957.302337	2547.264792
957.602550	2545.202960
957.902724	2547.116077
958.202861	2543.047866
958.502960	2544.386293
958.803022	2545.888557
959.103045	2544.232537
959.403031	2545.144986
959.702979	2545.142466
960.002889	2545.850748
960.302762	2544.708927
960.602596	2545.170192
960.902393	2543.471323
961.202153	2546.851417
961.501875	2545.356715
961.801559	2542.455531
962.101205	2545.601211
962.400814	2547.521890
962.700385	2546.899308
962.999918	2542.276570
963.299414	2543.229348
963.598873	2540.265149
963.898293	2541.190201
964.197677	2544.769420
964.497022	2541.245654
964.796331	2543.602393
965.095601	2544.149358
965.394835	2546.667415
965.694030	2543.070552
965.993189	2542.790768
966.292309	2543.040305
966.591393	2545.802857
966.890439	2543.194060
967.189447	2541.953936
967.488419	2543.574667
967.787353	2543.292362
968.086249	2543.473844
968.385108	2544.822352
968.683930	2545.631458
968.982714	2543.204142
969.281462	2543.859492
969.580172	2546.057435
969.878844	2544.439225
970.177480	2544.093906
970.476078	2547.398382
970.774639	2541.923689
971.073162	2545.921324
971.371649	2543.471323
971.670098	2542.500901
971.968510	2545.704554
972.266885	2544.605583
972.565223	2544.938299
972.863524	2543.415871
973.161788	2545.918803
973.460014	2542.546272
973.758204	2546.254040
974.056356	2546.921993
974.354471	2545.240768
974.652550	2545.926365
974.950591	2545.492826
975.248595	2542.299255
975.546563	2544.197249
975.844493	2544.996272
976.142386	2544.272867
976.440243	2545.495347
976.738062	2542.145500
977.035845	2543.378062
977.333590	2544.164482
977.631299	2543.269677
977.928971	2542.531148
978.226606	2539.846734
978.524204	2539.486291
978.821765	2540.066024
979.119290	2545.271015
979.416777	2543.504091
979.714228	2541.661549
980.011642	2544.741694
980.309020	2540.444110
980.606360	2542.440407
980.903664	2541.555685
981.200931	2542.868905
981.498162	2542.720191
981.795356	2543.274718
982.092513	2542.763041
982.389633	2544.625747
982.686717	2546.410316
982.983764	2544.711447
983.280775	2543.718340
983.577749	2543.430994
983.874686	2545.722198
984.171587	2541.895963
984.468451	2545.676828
984.765279	2546.727909
985.062070	2543.839327
985.358824	2546.140614
985.655543	2543.675490
985.952224	2543.327650
986.248869	2545.996941
986.545478	2541.901004
986.842050	2542.299255
987.138586	2544.010727
987.435086	2545.702034
987.731549	2546.196067
988.027975	2544.076262
988.324366	2543.287321
988.620719	2542.006868
988.917037	2542.102650
989.213318	2543.020140
989.509563	2543.446117
989.805772	2543.786395
990.101944	2544.502239
990.398080	2544.035933
990.694180	2543.703216
990.990244	2542.977290
991.286271	2541.671631
991.582262	2544.313196
991.878217	2543.005017
992.174136	2546.601880
992.470019	2545.215562
992.765865	2544.237579
993.061676	2538.599048
993.357450	2538.049562
993.653188	2539.299768
993.948890	2542.395037
994.244556	2544.376210
994.540186	2541.054090
994.835780	2544.164482
995.131337	2543.998124
995.426859	2543.627599
995.722345	2542.994934
996.017795	2546.289328
996.313208	2545.278577
996.608586	2546.266643
996.903928	2544.159441
997.199234	2544.051056
997.494504	2543.183977
997.789738	2541.865716
998.084936	2542.536189
998.380099	2542.921838
998.675225	2542.747918
998.970316	2543.791437
999.265371	2543.678011
999.560390	2543.607434
999.855373	2543.244471
1000.150320	2544.005686
1000.445232	2540.307999
1000.740108	2543.100798
1001.034948	2544.537527
1001.329752	2543.136087
1001.624521	2543.055428
1001.919254	2542.750438
1002.213951	2543.433515
1002.508613	2545.099616
1002.803239	2541.202804
1003.097829	2544.265305
1003.392384	2544.459389
1003.686903	2542.130376
1003.981386	2543.829245
1004.275834	2543.095757
1004.570246	2543.093237
1004.864623	2540.187012
1005.158964	2543.720860
1005.453270	2544.023330
1005.747540	2544.048535
1006.041775	2542.609286
1006.335974	2541.177598
1006.630138	2546.730429
1006.924266	2545.245809
1007.218359	2542.992414
1007.512416	2541.510314
1007.806438	2540.383617
1008.100425	2540.257588
1008.394376	2537.991589
1008.688292	2542.142979
1008.982172	2544.101468
1009.276017	2546.725388
1009.569827	2543.972918
1009.863602	2543.988042
1010.157341	2541.512835
1010.451045	2543.400747
1010.744714	2545.049204
1011.038347	2543.171375
1011.331945	2541.333874
1011.625508	2543.685572
1011.919036	2542.412681
1012.212528	2544.426622
1012.505986	2542.352187
1012.799408	2543.647764
1013.092795	2541.185160
1013.386147	2544.129194
1013.679464	2542.773123
1013.972745	2542.886549
1014.265992	2543.546941
1014.559204	2545.628937
1014.852380	2543.554502
1015.145521	2543.488967
1015.438628	2540.991076
1015.731699	2543.254554
1016.024736	2544.865202
1016.317737	2541.495191
1016.610703	2545.434853
1016.903635	2543.073072
1017.196531	2544.217414
1017.489393	2542.904193
1017.782219	2541.890922
1018.075011	2541.268339
1018.367768	2543.501570
1018.660490	2543.521735
1018.953177	2543.521735
1019.245829	2543.521735
