Dividing Wavelength (nm)	Counts (n)	Blue Motor Position (mm): 32.300000	Red Motor Position (mm): 0.000000	
326.493990	2219.733464
326.888308	2219.733464
327.282561	2219.733464
327.676750	2178.554799
328.070874	2176.558502
328.464933	2177.639830
328.858929	2179.270643
329.252859	2184.042095
329.646726	2197.297809
330.040528	2205.018336
330.434265	2220.204812
330.827938	2237.717781
331.221547	2254.202354
331.615091	2270.707092
332.008571	2289.840791
332.401986	2308.603966
332.795338	2324.160966
333.188625	2344.441528
333.581847	2367.209900
333.975006	2383.023999
334.368100	2405.028636
334.761129	2425.707449
335.154095	2436.515683
335.546996	2464.305043
335.939833	2504.498163
336.332606	2517.695904
336.725315	2533.845240
337.117960	2544.590459
337.510540	2555.975905
337.903056	2568.425035
338.295508	2575.235634
338.687896	2585.232242
339.080220	2593.469487
339.472480	2596.370671
339.864676	2602.346959
340.256807	2607.471292
340.648875	2613.256016
341.040879	2615.206942
341.432818	2619.602829
341.824694	2622.589712
342.216506	2620.732047
342.608253	2624.180196
342.999937	2623.378653
343.391557	2624.112141
343.783113	2623.537449
344.174605	2621.352109
344.566033	2619.930504
344.957397	2621.331944
345.348697	2618.750874
345.739934	2618.728188
346.131106	2617.596449
346.522215	2615.217025
346.913260	2613.903804
347.304241	2611.940275
347.695159	2609.492795
348.086012	2605.870726
348.476802	2604.829727
348.867528	2600.612802
349.258191	2597.169694
349.648789	2599.637339
350.039324	2591.513519
350.429796	2597.310846
350.820203	2597.933429
351.210548	2595.453181
351.600828	2592.108376
351.991045	2593.676174
352.381198	2589.517223
352.771288	2593.507296
353.161314	2590.787593
353.551276	2589.159301
353.941175	2588.324990
354.331010	2592.491503
354.720782	2590.326328
355.110490	2589.701225
355.500135	2588.914805
355.889717	2589.449167
356.279235	2587.183168
356.668689	2589.315576
357.058080	2589.819692
357.447408	2590.490165
357.836672	2590.538056
358.225873	2588.914805
358.615010	2591.914291
359.004084	2591.808427
359.393095	2592.549477
359.782043	2594.165166
360.170927	2592.055443
360.559748	2594.240784
360.948505	2591.639548
361.337199	2595.899323
361.725830	2594.626432
362.114398	2593.945876
362.502903	2595.690115
362.891344	2594.853284
363.279722	2596.247163
363.668037	2597.439396
364.056289	2599.130703
364.444478	2597.520054
364.832603	2599.019797
365.220665	2600.017946
365.608665	2600.955601
365.996601	2602.057093
366.384474	2600.103646
366.772284	2599.508789
367.160031	2601.253029
367.547715	2602.273862
367.935336	2602.273862
368.322893	2598.692123
368.710388	2599.561722
369.097820	2599.554160
369.485189	2598.235898
369.872495	2605.190170
370.259738	2603.803852
370.646918	2605.033894
371.034035	2603.113214
371.421090	2604.935592
371.808081	2606.021960
372.195010	2606.508432
372.581875	2606.642022
372.968678	2605.164964
373.355418	2606.808380
373.742096	2604.607917
374.128710	2608.572784
374.515262	2607.065479
374.901751	2607.410798
375.288177	2608.424070
375.674540	2608.708895
376.060841	2610.357352
376.447079	2609.046652
376.833254	2611.539503
377.219367	2609.820470
377.605417	2609.959101
377.991404	2610.644698
378.377329	2613.684514
378.763191	2611.378186
379.148991	2612.419184
379.534727	2610.228803
379.920402	2610.599328
380.306013	2611.040429
380.691563	2613.044287
381.077049	2613.845831
381.462474	2613.636623
381.847835	2611.612600
382.233134	2614.612086
382.618371	2613.213166
383.003545	2614.559154
383.388657	2613.752570
383.773706	2615.595111
384.158693	2615.980760
384.543618	2618.529063
384.928480	2615.151490
385.313280	2616.003445
385.698017	2618.382869
386.082692	2616.595780
386.467305	2618.745832
386.851856	2620.106944
387.236344	2617.299021
387.620770	2618.234155
388.005133	2615.867334
388.389435	2615.615276
388.773674	2616.008486
389.157851	2620.580812
389.541965	2623.537449
389.926018	2619.413785
390.310008	2621.188272
390.693936	2623.426544
391.077802	2621.142901
391.461606	2623.151801
391.845348	2622.990484
392.229027	2626.216822
392.612645	2626.874693
392.996200	2622.138529
393.379694	2626.536936
393.763125	2626.065588
394.146494	2627.363685
394.529801	2627.265382
394.913047	2626.940228
395.296230	2628.296298
395.679351	2627.078860
396.062410	2628.268572
396.445408	2630.579941
396.828343	2633.634880
397.211217	2630.345527
397.594028	2631.739407
397.976778	2633.466002
398.359466	2634.685961
398.742092	2631.741927
399.124656	2632.646814
399.507158	2631.235291
399.889598	2633.455919
400.271977	2635.265694
400.654294	2636.188225
401.036549	2635.613533
401.418742	2635.394243
401.800874	2638.229892
402.182944	2636.147896
402.564952	2640.236271
402.946898	2639.585963
403.328783	2642.222486
403.710606	2641.478916
404.092367	2641.534368
404.474067	2642.459420
404.855705	2641.468833
405.237282	2640.871457
405.618797	2643.530665
406.000250	2646.162148
406.381642	2647.621562
406.762972	2644.755666
407.144240	2640.891621
407.525447	2647.465286
407.906593	2643.593680
408.287677	2648.662560
408.668700	2648.095430
409.049661	2652.229176
409.430560	2651.596512
409.811399	2650.248003
410.192176	2657.081287
410.572891	2655.790752
410.953545	2656.493992
411.334138	2658.759991
411.714669	2659.329642
412.095139	2658.283602
412.475547	2663.097904
412.855894	2670.132834
413.236180	2672.451765
413.616405	2677.560974
413.996568	2684.674042
414.376670	2690.473890
414.756711	2694.063192
415.136691	2707.830583
415.516609	2724.957903
415.896466	2736.141703
416.276262	2757.054929
416.655997	2779.467899
417.035670	2807.680717
417.415283	2844.148424
417.794834	2875.161602
418.174324	2899.817886
418.553753	2937.961776
418.933121	2995.529233
419.312428	3040.889535
419.691674	3074.766089
420.070859	3170.875687
420.449983	3203.491952
420.829045	3304.090698
421.208047	3350.769262
421.586988	3462.216571
421.965867	3537.337325
422.344686	3635.344917
422.723444	3728.205492
423.102141	3689.577650
423.480777	3916.222886
423.859352	3905.283582
424.237866	4137.375785
424.616319	4200.327193
424.994712	4395.598808
425.373044	4391.838107
425.751314	4621.258498
426.129524	4684.661090
426.507673	4842.239998
426.885762	4999.153473
427.263789	5081.377213
427.641756	5154.292462
428.019662	5317.507379
428.397508	5522.306775
428.775292	5505.121482
429.153016	5802.899919
429.530679	5841.144632
429.908282	5973.472400
430.285824	5943.916115
430.663305	6402.721609
431.040726	6240.295632
431.418086	6337.816753
431.795385	6631.274922
432.172624	6794.298275
432.549802	6861.184304
432.926920	7025.110025
433.303977	7050.908129
433.680974	7285.334386
434.057910	7455.004501
434.434786	7597.182684
434.811601	7619.986343
435.188355	8113.132177
435.565050	8025.907612
435.941683	8077.713030
436.318257	8547.709885
436.694770	8734.741734
437.071222	8892.686125
437.447614	8872.551757
437.823946	8879.110298
438.200218	9105.339639
438.576429	9027.113534
438.952580	9299.030852
439.328670	9443.870763
439.704700	9325.867434
440.080670	9392.650120
440.456580	9960.755391
440.832429	9800.865114
441.208218	9513.887349
441.583947	9875.806907
441.959616	10049.890552
442.335224	9932.625752
442.710773	10126.569023
443.086261	10358.280618
443.461689	9742.796063
443.837057	10369.063647
444.212365	10696.738647
444.587612	10392.721782
444.962800	10662.753708
445.337927	10480.493311
445.712995	10081.400285
446.088002	11171.207005
446.462949	10850.713129
446.837837	10853.195897
447.212664	10892.474047
447.587431	11378.365661
447.962139	12076.709142
448.336786	14285.873827
448.711374	14883.633685
449.085901	12803.416674
449.460369	12425.433479
449.834776	11907.573389
450.209124	12753.521854
450.583412	13154.099500
450.957640	14122.923570
451.331808	13326.141478
451.705917	12295.580918
452.079965	11645.297278
452.453954	12526.778316
452.827883	12173.927793
453.201752	12452.932974
453.575562	11973.531846
453.949311	12390.581462
454.323001	12343.262672
454.696632	12574.999473
455.070202	12860.427083
455.443713	13122.246970
455.817164	13570.947471
456.190556	13579.966095
456.563888	13937.209983
456.937160	14119.518271
457.310373	13450.983133
457.683526	13528.992468
458.056619	13098.762755
458.429653	13219.818502
458.802628	12681.907222
459.175542	13029.532589
459.548398	13994.490093
459.921194	14312.985152
460.293930	14366.063461
460.666607	15262.937663
461.039224	16290.740712
461.411782	16980.413407
461.784280	16894.050880
462.156719	16928.890295
462.529099	16628.669418
462.901419	15541.259766
463.273680	15340.563870
463.645882	15201.241501
464.018024	14943.041163
464.390106	15157.731302
464.762130	15891.466203
465.134094	16623.928213
465.505999	18603.627137
465.877845	21856.996266
466.249631	24682.106772
466.621358	24407.610904
466.993026	22943.324590
467.364634	22396.107340
467.736184	20934.760019
468.107674	20130.277565
468.479105	20268.498442
468.850477	19727.459126
469.221790	19312.272216
469.593043	18638.892529
469.964238	18082.898630
470.335373	17746.479749
470.706449	18171.748967
471.077467	17719.209627
471.448425	19539.063645
471.819324	23522.865719
472.190164	25605.305879
472.560945	22099.067432
472.931667	19708.567402
473.302330	19054.714625
473.672934	18548.013128
474.043479	18920.372916
474.413965	18724.498883
474.784393	18360.414149
475.154761	19036.022026
475.525070	19044.695331
475.895321	18683.257203
476.265513	19283.131826
476.635645	19852.915801
477.005719	19638.112236
477.375734	19845.235603
477.745691	20308.063938
478.115588	20824.008390
478.485427	21343.418635
478.855207	22392.805385
479.224928	24145.710359
479.594591	26365.446344
479.964194	26435.687261
480.333739	26632.433413
480.703226	26192.499479
481.072653	25861.431782
481.442022	26416.392245
481.811333	27317.896746
482.180584	27262.464218
482.549777	26310.094475
482.918912	25937.989265
483.287988	26070.185963
483.657005	25757.586534
484.025964	25488.383877
484.394864	25418.851242
484.763706	25109.994869
485.132489	24535.593197
485.501213	24697.126890
485.869879	24616.843994
486.238487	24424.410549
486.607036	24570.324227
486.975527	24259.768985
487.343959	24588.182514
487.712333	24536.515728
488.080648	24215.048909
488.448905	24681.920249
488.817104	24431.241313
489.185244	25099.418529
489.553326	25074.293418
489.921350	26044.828959
490.289315	28318.989241
490.657222	30119.855753
491.025070	30613.241042
491.392861	30394.386909
491.760593	29564.610466
492.128267	28659.730912
492.495883	27623.514177
492.863440	26736.535761
493.230939	25877.525666
493.598380	25719.041871
493.965763	25313.770911
494.333088	24880.932400
494.700354	24798.764113
495.067563	24681.554766
495.434713	24441.248003
495.801805	24587.958183
496.168839	24395.096240
496.535815	24221.955290
496.902733	24432.970428
497.269593	24117.822696
497.636395	24298.381703
498.003139	24277.234063
498.369825	24033.274984
498.736453	24227.374531
499.103023	24106.648978
499.469535	24117.550473
499.835989	24318.004394
500.202385	24350.056051
500.568723	23850.558363
500.935003	24116.922850
501.301226	23712.531571
501.667390	24550.399066
502.033497	24795.489884
502.399546	24520.149623
502.765537	24088.846143
503.131470	24481.446164
503.497345	24608.594146
503.863163	23826.539785
504.228923	24425.373410
504.594625	24630.460151
504.960269	24150.219671
505.325856	24658.657845
505.691385	24057.049066
506.056856	24661.879142
506.422270	24615.578665
506.787625	24216.914136
507.152924	24617.191834
507.518164	24649.198120
507.883347	24454.415497
508.248472	24137.140397
508.613540	24923.300778
508.978550	24702.127715
509.343503	24692.927609
509.708398	24963.100687
510.073236	25109.425219
510.438016	25331.203221
510.802738	25000.412788
511.167403	25257.325111
511.532010	24948.481341
511.896561	25734.702216
512.261053	25689.871235
512.625488	25526.973910
512.989866	25413.053915
513.354186	25269.872543
513.718449	25372.339036
514.082655	25734.719860
514.446803	25488.726676
514.810894	25957.511133
515.174927	25439.111639
515.538904	25466.028880
515.902822	25961.496166
516.266684	25714.207405
516.630488	25618.291891
516.994235	25597.950835
517.357925	25893.801031
517.721558	26087.290598
518.085133	26164.392526
518.448651	26079.839773
518.812112	25811.294987
519.175516	26022.504209
519.538863	26175.205801
519.902152	25948.724402
520.265385	26245.804640
520.628560	26021.942121
520.991678	26045.945575
521.354739	26112.133404
521.717743	26182.167634
522.080690	25973.219369
522.443580	26309.381151
522.806413	26302.961242
523.169189	26391.514150
523.531908	26437.008043
523.894569	26053.320783
524.257174	26129.258204
524.619722	26309.424001
524.982213	25991.672513
525.344647	26065.606075
525.707025	26191.607195
526.069345	26183.881626
526.431608	26127.266948
526.793815	26323.829098
527.155964	25781.423630
527.518057	25945.475379
527.880093	25881.387190
528.242072	26110.658867
528.603995	25829.866597
528.965860	25618.914474
529.327669	25659.594065
529.689421	25656.491234
530.051117	25480.922969
530.412755	25657.237325
530.774337	25461.645597
531.135862	25336.980383
531.497331	25532.819128
531.858743	25088.569966
532.220098	25572.462762
532.581396	25247.900674
532.942638	25191.401942
533.303824	25279.518791
533.664953	25302.367821
534.026025	24960.421314
534.387040	25203.548602
534.747999	25261.214361
535.108902	25416.325624
535.469748	24917.992443
535.830537	25104.971360
536.191270	25213.656116
536.551947	25092.030718
536.912567	24742.517439
537.273131	25089.537867
537.633638	24795.162209
537.994089	25006.769683
538.354483	24544.810947
538.714821	25044.658995
539.075103	25086.407311
539.435328	24870.298086
539.795497	24426.870632
540.155609	24824.985675
540.515665	25116.145077
540.875665	24363.062227
541.235609	24655.600385
541.595496	24609.614980
541.955328	24971.436235
542.315102	24896.696088
542.674821	24436.209370
543.034483	24319.093284
543.394090	24489.285158
543.753640	24273.319607
544.113134	24909.162862
544.472571	24505.308466
544.831953	24805.904908
545.191278	24419.969293
545.550548	24338.625234
545.909761	24542.076121
546.268918	24770.516008
546.628019	24736.654577
546.987064	24447.839312
547.346053	24199.953174
547.704986	24313.071625
548.063863	24474.043229
548.422684	24470.597601
548.781449	24018.771584
549.140158	24423.006588
549.498811	23987.302182
549.857408	23734.142997
550.215949	24159.460106
550.574434	23847.611808
550.932864	24074.017589
551.291237	24233.497012
551.649555	24090.832358
552.007817	24140.419668
552.366022	23999.378266
552.724173	24046.336614
553.082267	23994.339632
553.440305	24457.916578
553.798288	23730.273912
554.156215	24228.425611
554.514086	24339.809905
554.871902	23709.098545
555.229661	23997.545806
555.587365	23865.744839
555.945014	23714.595923
556.302606	23970.091682
556.660143	23921.321039
557.017625	24173.174565
557.375050	23697.733263
557.732421	24087.505197
558.089735	23902.242793
558.446994	23958.214724
558.804197	24000.555375
559.161345	23934.886784
559.518437	23689.924516
559.875474	23877.208423
560.232455	24067.685900
560.589381	23881.359813
560.946251	23871.217011
561.303065	24185.333828
561.659825	24279.353868
562.016528	23885.259145
562.373177	23623.898004
562.729770	23962.235044
563.086307	23851.876625
563.442789	24014.968034
563.799216	23839.593853
564.155587	23851.241439
564.511904	23833.458769
564.868164	23766.111474
565.224370	23738.072577
565.580520	23660.295134
565.936615	23787.319608
566.292654	23474.712617
566.648638	23760.757769
567.004567	23592.567232
567.360441	23548.101735
567.716260	23274.180558
568.072023	23602.455456
568.427732	23359.771789
568.783385	23133.534887
569.138982	23370.176731
569.494525	23418.478546
569.850013	23152.091374
570.205445	23251.981838
570.560823	23064.942427
570.916145	22827.826715
571.271412	23003.342047
571.626625	22755.047577
571.981782	22871.911605
572.336884	22679.785670
572.691931	22809.534888
573.046923	22543.384650
573.401860	22419.926792
573.756743	22432.917846
574.111570	22339.379236
574.466342	22274.587806
574.821059	22365.782279
575.175722	22059.091082
575.530330	22045.464843
575.884882	22082.494639
576.239380	21985.865802
576.593823	21865.351978
576.948211	21851.282118
577.302544	21700.919622
577.656823	21566.514899
578.011047	21658.571409
578.365216	21540.431969
578.719330	21416.941344
579.073389	21312.576856
579.427394	21455.322168
579.781344	21227.598126
580.135239	21120.201384
580.489080	21082.571691
580.842866	20850.630723
581.196597	21050.807381
581.550273	21023.060870
581.903895	20913.277142
582.257463	21218.703010
582.610975	20762.196282
582.964434	21073.490053
583.317837	20772.152561
583.671186	20856.181034
584.024481	20822.070066
584.377721	20596.155798
584.730906	20659.616363
585.084037	20678.868530
585.437113	20584.636761
585.790135	20797.454112
586.143103	20263.999212
586.496016	20268.369892
586.848874	20512.293683
587.201679	20443.426480
587.554428	20118.123343
587.907124	20457.360230
588.259765	20223.992615
588.612352	20298.795777
588.964884	19865.687564
589.317362	20045.729853
589.669786	20095.617112
590.022155	20133.783688
590.374470	20333.010088
590.726731	20123.686257
591.078937	19892.745958
591.431090	19971.042639
591.783188	19732.293593
592.135232	19693.151553
592.487222	19796.041503
592.839157	19819.021603
593.191038	19704.741166
593.542866	19592.860318
593.894639	19301.486667
594.246358	19517.265696
594.598022	19427.535678
594.949633	19195.566984
595.301190	19144.225352
595.652692	19321.018618
596.004141	19545.639830
596.355535	18870.911635
596.706876	18903.154855
597.058162	18793.177042
597.409395	19011.955558
597.760573	19092.934133
598.111698	18863.075161
598.462768	18799.803639
598.813785	18775.490154
599.164748	18577.859279
599.515657	18625.518348
599.866511	18412.718641
600.217312	18769.972611
600.568060	18296.162123
600.918753	18606.036809
601.269392	18512.702366
601.619978	18286.412532
601.970510	18489.475250
602.320988	18436.427188
602.671412	18646.169435
603.021783	18567.184636
603.372100	18281.691491
603.722363	18431.905273
604.072572	18368.444707
604.422728	18506.521911
604.772830	18267.261188
605.122878	18221.152274
605.472872	18210.381849
605.822813	18198.744346
606.172701	18167.617741
606.522534	18366.125777
606.872314	18382.827119
607.222041	18218.036841
607.571714	18439.124205
607.921333	18262.648532
608.270899	18345.542746
608.620411	18516.354682
608.969870	18285.021173
609.319276	18288.791956
609.668627	18322.063572
610.017926	18450.928067
610.367171	18572.225790
610.716362	18615.962841
611.065500	18419.057892
611.414585	18565.173216
611.763616	18543.735709
612.112594	18483.113313
612.461518	18459.283779
612.810389	18654.295775
613.159207	18507.298249
613.507971	18423.035362
613.856682	18695.731539
614.205340	18635.580491
614.553945	18773.574516
614.902496	18511.200102
615.250994	18749.414786
615.599439	18687.307771
615.947830	18681.034055
616.296169	18733.512466
616.644454	18694.514100
616.992686	18668.963012
617.340864	18872.451707
617.688990	18644.336975
618.037063	18805.253127
618.385082	18656.130755
618.733048	18942.932079
619.080961	18808.681111
619.428821	18839.197736
619.776628	18737.527745
620.124382	18652.818717
620.472083	18701.685141
620.819731	18716.213747
621.167326	18410.926511
621.514868	18451.890927
621.862357	18222.762923
622.209793	18229.586125
622.557176	18059.116987
622.904506	17884.864463
623.251783	17801.592163
623.599007	17561.240030
623.946179	17509.643821
624.293297	17450.909337
624.640363	17198.786110
624.987376	17216.659521
625.334336	17011.441709
625.681243	16852.307606
626.028097	16871.143877
626.374899	16802.369936
626.721647	16657.046073
627.068343	16488.174981
627.414987	16426.299859
627.761577	16402.447640
628.108115	16437.831498
628.454600	16163.592729
628.801032	16258.247954
629.147412	16190.794795
629.493739	16215.433435
629.840014	16019.743404
630.186236	16113.758403
630.532405	15884.993362
630.878521	16080.988382
631.224585	15974.289841
631.570597	15799.523119
631.916556	15825.180072
632.262462	15802.051258
632.608316	15724.198198
632.954117	15662.421378
633.299866	15656.790410
633.645562	15578.244192
633.991206	15335.749568
634.336797	15205.281986
634.682336	15176.960784
635.027823	15065.458022
635.373257	14945.896977
635.718639	14845.822511
636.063968	14798.909533
636.409245	14546.705647
636.754470	14569.025356
637.099642	14415.978446
637.444762	14193.250187
637.789829	14230.680754
638.134845	14070.603955
638.479808	14103.565539
638.824719	14042.118915
639.169577	13894.148447
639.514383	13941.063945
639.859137	13763.612809
640.203839	13847.414430
640.548489	13693.679402
640.893086	13669.749045
641.237632	13540.813974
641.582125	13695.786605
641.926566	13536.408005
642.270955	13535.253581
642.615292	13500.336029
642.959576	13514.267258
643.303809	13538.159806
643.647990	13476.584633
643.992118	13536.342470
644.336195	13298.455461
644.680219	13512.747350
645.024192	13439.912759
645.368112	13683.367722
645.711981	13732.995361
646.055797	13914.242486
646.399562	13882.967167
646.743274	14157.662161
647.086935	14429.798769
647.430544	14389.209919
647.774101	14426.191824
648.117606	14571.898814
648.461059	14546.539289
648.804460	14529.031362
649.147810	14257.965999
649.491108	14159.968489
649.834354	14168.697247
650.177548	13862.734497
650.520690	13674.971680
650.863781	13588.871293
651.206820	13637.916679
651.549807	13472.972646
651.892742	13280.176238
652.235626	13213.607801
652.578458	13213.824571
652.921238	12899.284297
653.263967	13097.588166
653.606644	12925.994851
653.949269	12907.224114
654.291843	12708.164072
654.634365	12866.055531
654.976836	12715.100700
655.319255	12719.489024
655.661622	12681.319928
656.003938	12601.982249
656.346203	12524.958459
656.688416	12601.684821
657.030577	12564.879357
657.372687	12473.596663
657.714746	12451.957510
658.056753	12643.029844
658.398708	12459.057976
658.740612	12460.575363
659.082465	12559.087071
659.424266	12529.555992
659.766016	12543.681305
660.107715	12458.432872
660.449362	12535.849872
660.790958	12497.269922
661.132503	12447.314608
661.473996	12505.731498
661.815438	12521.434693
662.156829	12541.831201
662.498168	12524.242615
662.839456	12519.879497
663.180693	12531.534644
663.521879	12631.246147
663.863013	12604.177671
664.204097	12574.578537
664.545129	12695.465406
664.886110	12670.912466
665.227040	12758.782298
665.567918	12764.642639
665.908746	12799.015747
666.249522	12777.583281
666.590248	12827.107577
666.930922	12939.343826
667.271545	12925.909151
667.612118	13010.015762
667.952639	12912.550093
668.293109	12922.642483
668.633528	12881.874672
668.973896	12854.783511
669.314213	12926.982917
669.654480	12673.163341
669.994695	12736.984349
670.334859	12769.562806
670.674973	12711.009804
671.015035	12751.381884
671.355047	12686.230012
671.695008	12658.289417
672.034918	12669.039677
672.374777	12711.269423
672.714585	12629.280097
673.054342	12661.223368
673.394049	12614.940535
673.733705	12703.145604
674.073310	12614.373405
674.412864	12633.381076
674.752368	12491.495280
675.091820	12515.471008
675.431223	12502.439625
675.770574	12368.082793
676.109875	12282.705811
676.449125	12252.075760
676.788324	12197.414529
677.127473	12026.340453
677.466571	12010.682629
677.805619	11909.121023
678.144616	11836.757780
678.483562	11804.784262
678.822458	11675.748368
679.161303	11661.877633
679.500098	11642.096145
679.838842	11598.354053
680.177535	11618.823658
680.516179	11688.961232
680.854771	11631.572736
681.193314	11849.300171
681.531805	12006.972340
681.870247	12424.241247
682.208638	12838.792971
682.546978	13148.594560
682.885268	13197.269421
683.223508	12891.213410
683.561697	12739.207498
683.899836	12633.267650
684.237925	12430.330960
684.575963	12351.444464
684.913951	12277.505861
685.251889	12213.672250
685.589776	12314.535657
685.927614	12244.456056
686.265401	12201.288656
686.603137	12259.115732
686.940824	12407.509657
687.278460	12535.401209
687.616046	12584.249990
687.953582	12749.110844
688.291068	12674.108558
688.628504	12905.686562
688.965889	12929.082557
689.303224	12888.932287
689.640510	12773.346192
689.977745	12457.591000
690.314930	12240.715520
690.652065	12149.006849
690.989150	11847.492917
691.326185	11622.246602
691.663170	11424.041035
692.000105	11187.129490
692.336990	11070.804865
692.673825	10815.956894
693.010610	10696.968019
693.347345	10487.566050
693.684030	10287.570874
694.020665	10232.491227
694.357251	10034.585609
694.693786	9972.067740
695.030272	9815.630654
695.366707	9689.790851
695.703093	9626.869689
696.039429	9622.995562
696.375716	9548.441938
696.711952	9416.149458
697.048139	9458.908525
697.384276	9411.549406
697.720363	9433.657386
698.056400	9365.921922
698.392388	9321.065735
698.728326	9279.655177
699.064214	9215.992966
699.400053	9255.893698
699.735842	9075.644722
700.071581	9035.118886
700.407270	8964.174728
700.742910	8876.753559
701.078501	8788.225856
701.414042	8660.838419
701.749533	8601.844316
702.084974	8456.502809
702.420366	8574.843896
702.755709	8456.717058
703.091002	8320.565575
703.426246	8350.048764
703.761440	8300.416083
704.096584	8256.164835
704.431679	8196.228036
704.766725	8182.448042
705.101721	8129.420145
705.436668	8182.294287
705.771565	8067.393788
706.106413	8150.804720
706.441212	8190.413065
706.775961	8152.448136
707.110661	8186.546500
707.445311	8330.867173
707.779913	8228.264569
708.114465	8358.467491
708.448967	8392.021411
708.783421	8538.797125
709.117825	8725.279488
709.452180	8759.156042
709.786485	8850.726081
710.120742	9132.355182
710.454949	9133.030697
710.789107	9230.014935
711.123216	9450.005848
711.457275	9617.170509
711.791286	9770.547615
712.125247	9766.489486
712.459159	9757.188557
712.793023	9996.925670
713.126837	9573.388088
713.460602	9719.702537
713.794318	9550.357577
714.127985	9582.633564
714.461602	9255.603832
714.795171	9203.712715
715.128691	8961.202968
715.462162	8713.778096
715.795584	8645.180595
716.128957	8501.283379
716.462281	8334.950508
716.795556	8383.002786
717.128782	8180.973505
717.461960	7916.176817
717.795088	7984.676015
718.128167	7890.960965
718.461198	7723.624904
718.794180	7668.630957
719.127113	7661.207858
719.459997	7503.339084
719.792833	7277.192923
720.125619	7340.167017
720.458357	7195.627053
720.791046	7184.455857
721.123686	7181.685743
721.456278	7024.232864
721.788821	7036.220728
722.121315	6937.898063
722.453761	7000.420974
722.786158	6949.817871
723.118506	6955.983202
723.450805	6925.194355
723.783056	6989.963100
724.115259	6901.180819
724.447412	6892.164715
724.779518	6949.885927
725.111574	6944.527180
725.443582	7030.740993
725.775542	7012.068560
726.107453	7198.792898
726.439315	7107.817715
726.771129	7174.643251
727.102895	7346.002152
727.434612	7453.078780
727.766281	7487.857701
728.097901	7567.477685
728.429473	7559.409318
728.760996	7542.211422
729.092471	7507.780341
729.423897	7453.877803
729.755276	7469.923796
730.086606	7391.186014
730.417887	7495.643763
730.749120	7691.447219
731.080305	7887.452322
731.411442	8011.119388
731.742530	8001.480702
732.073570	8110.420036
732.404562	8192.316101
732.735506	8036.410857
733.066401	8184.580450
733.397249	8112.209646
733.728048	7869.253757
734.058798	7540.691514
734.389501	7311.571071
734.720156	7130.512990
735.050762	6901.246354
735.381320	6811.866696
735.711831	6754.886534
736.042293	6651.379043
736.372707	6667.803122
736.703073	6528.642070
737.033391	6570.198822
737.363661	6582.272386
737.693883	6615.289423
738.024056	6698.604572
738.354182	6737.744091
738.684260	6777.128105
739.014290	6892.641104
739.344272	6996.987948
739.674207	7033.833741
740.004093	7098.509225
740.333931	7116.022193
740.663722	7118.323480
740.993464	7196.809204
741.323159	7183.324117
741.652806	6932.451096
741.982405	6950.168232
742.311956	7003.740573
742.641460	6834.937537
742.970915	6649.483569
743.300323	6630.889273
743.629683	6584.203148
743.958996	6451.625842
744.288260	6362.160485
744.617477	6309.147711
744.946647	6313.762888
745.275768	6146.641076
745.604842	6102.304128
745.933869	6086.928609
746.262847	6041.134767
746.591778	6031.470875
746.920662	5993.130380
747.249498	5985.309029
747.578286	6033.149579
747.907027	6106.223625
748.235720	6164.890053
748.564365	6138.071114
748.892963	6168.582698
749.221514	6322.037942
749.550017	6153.673486
749.878473	6030.371904
750.206881	6081.990798
750.535242	6027.286717
750.863555	5959.155523
751.191821	5973.043902
751.520039	5973.086752
751.848210	5885.874790
752.176334	5904.453963
752.504411	5952.438186
752.832440	5880.536208
753.160421	5813.264531
753.488356	5858.803794
753.816243	5886.328494
754.144082	5740.384570
754.471875	5714.132761
754.799620	5756.826293
755.127318	5763.349546
755.454969	5718.543771
755.782572	5684.445406
756.110129	5729.891408
756.437638	5714.304160
756.765100	5652.847454
757.092515	5652.073637
757.419882	5704.052974
757.747203	5682.615467
758.074477	5748.276496
758.401703	5735.318210
758.728882	5689.504204
759.056014	5745.168625
759.383099	5866.501636
759.710138	5884.649790
760.037129	5868.618921
760.364073	5871.527667
760.690970	5952.523885
761.017820	5934.784065
761.344623	5893.960801
761.671379	5993.231203
761.998088	6112.872907
762.324751	6361.893304
762.651366	6970.816798
762.977935	8295.017008
763.304456	9942.753430
763.630931	10835.733340
763.957359	10422.807388
764.283740	9466.543353
764.610074	8624.958006
764.936362	7626.877600
765.262602	7026.115735
765.588796	6495.027657
765.914943	6158.880998
766.241044	5996.717161
766.567097	5788.043638
766.893104	5532.643661
767.219064	5355.462227
767.544978	5295.359070
767.870845	5215.098860
768.196665	5109.753868
768.522438	5039.651582
768.848165	5008.169577
769.173846	4941.001243
769.499479	4895.083893
769.825066	4841.342672
770.150607	4783.984424
770.476101	4761.226135
770.801548	4756.353860
771.126949	4680.686140
771.452303	4625.871154
771.777611	4581.357766
772.102872	4600.713276
772.428087	4562.748346
772.753256	4521.862068
773.078378	4478.190552
773.403453	4407.148092
773.728482	4393.216863
774.053465	4347.798587
774.378401	4334.636135
774.703291	4332.289478
775.028135	4263.371863
775.352932	4215.843865
775.677683	4201.937842
776.002388	4222.611614
776.327046	4234.009663
776.651658	4157.003517
776.976224	4096.658385
777.300743	4103.993264
777.625216	4123.316007
777.949643	4115.416518
778.274024	4071.487904
778.598359	4028.330586
778.922647	4055.459555
779.246889	4045.173081
779.571086	4038.581772
779.895236	4021.338505
780.219339	4008.319726
780.543397	4001.017614
780.867409	4058.839649
781.191374	4068.843819
781.515294	4004.959797
781.839167	3999.827902
782.162995	4021.013351
782.486776	4001.307481
782.810511	4014.353987
783.134201	4011.435159
783.457844	3967.345227
783.781441	3911.368255
784.104993	3918.352773
784.428498	3936.511010
784.751958	3929.960030
785.075372	3910.629726
785.398739	3875.669324
785.722061	3885.776837
786.045337	3929.733178
786.368568	3959.337354
786.691752	3869.919888
787.014891	3923.643464
787.337983	4052.883526
787.661030	4216.050552
787.984031	4378.811766
788.306987	4544.287641
788.629897	4627.194457
788.952760	4585.922530
789.275579	4516.793188
789.598351	4450.378506
789.921078	4310.773833
790.243759	4108.994088
790.566395	4088.506839
790.888984	4084.675562
791.211529	3976.867967
791.534027	3919.267743
791.856480	3906.939601
792.178888	3843.123635
792.501249	3797.309628
792.823566	3808.947132
793.145836	3835.876976
793.468062	3784.822690
793.790241	3736.898961
794.112375	3767.042541
794.434464	3832.806913
794.756507	3854.990511
795.078505	3836.567614
795.400457	3868.881410
795.722364	4013.779295
796.044226	4118.436170
796.366042	4187.888146
796.687812	4166.385104
797.009538	4173.906506
797.331218	4131.391935
797.652852	4105.150209
797.974442	4081.587856
798.295986	4086.331581
798.617484	4002.789580
798.938938	3916.290942
799.260346	3956.935244
799.581709	3949.655818
799.903026	3877.385837
800.224299	3841.240764
800.545526	3837.996781
800.866708	3793.231335
801.187845	3733.944845
801.508936	3770.689816
801.829983	3768.285185
802.150984	3691.145449
802.471940	3676.256401
802.792851	3690.474976
803.113717	3691.846169
803.434538	3691.735264
803.755314	3636.411121
804.076045	3607.648818
804.396731	3631.052375
804.717372	3657.301663
805.037967	3642.455465
805.358518	3629.260244
805.679024	3657.583967
805.999485	3672.261287
806.319901	3679.240764
806.640272	3688.219059
806.960598	3703.995350
807.280879	3678.666073
807.601115	3690.747198
807.921306	3704.716235
808.241453	3750.905807
808.561554	3721.422619
808.881611	3656.618586
809.201623	3695.674926
809.521590	3706.037018
809.841513	3674.643232
810.161390	3703.448385
810.481223	3683.780323
810.801011	3628.312508
811.120755	3620.718009
811.440453	3657.974657
811.760107	3659.061025
812.079716	3617.227010
812.399281	3586.163420
812.718801	3607.605968
813.038276	3581.525559
813.357707	3578.788212
813.677093	3595.335800
813.996434	3542.363355
814.315731	3552.864078
814.634983	3557.660736
814.954191	3571.264290
815.273354	3600.069443
815.592473	3595.925615
815.911547	3602.201851
816.230577	3644.154333
816.549562	3696.960420
816.868502	3735.699167
817.187399	3759.949637
817.506250	3761.532560
817.825058	3732.099783
818.143821	3823.105213
818.462539	3926.564813
818.781213	3970.052327
819.099843	4033.283519
819.418429	4280.504225
819.736970	4525.811812
820.055466	4774.693577
820.373919	5138.639679
820.692327	5548.319129
821.010691	6000.387121
821.329011	7403.214207
821.647286	10185.421974
821.965517	14784.116267
822.283704	18826.930088
822.601847	20964.467539
822.919945	19098.819680
823.237999	16505.443454
823.556010	13995.518489
823.873976	11880.141950
824.191897	9786.366756
824.509775	8433.699150
824.827609	7311.553427
825.145398	6765.641836
825.463144	6654.272665
825.780845	6763.171671
826.098502	6964.790098
826.416116	7861.760082
826.733685	9199.689874
827.051210	10308.768926
827.368692	10334.612401
827.686129	9054.305518
828.003522	7540.938530
828.320872	6520.916502
828.638177	5812.710004
828.955439	5248.176391
829.272656	4752.227675
829.589830	4474.543277
829.906960	4297.301349
830.224046	4108.283286
830.541088	3987.066221
830.858086	3936.200979
831.175041	3861.705328
831.491952	3846.596990
831.808819	3856.102085
832.125642	3930.567489
832.442421	4079.014347
832.759157	4362.473386
833.075849	4922.376700
833.392497	5788.545233
833.709101	6574.750984
834.025662	6906.224493
834.342179	6535.407299
834.658653	5861.962077
834.975083	5208.832705
835.291469	4632.525477
835.607811	4220.769072
835.924110	4078.772371
836.240366	3881.199470
836.556578	3680.357380
836.872746	3567.269176
837.188871	3526.864328
837.504952	3459.398566
837.820990	3378.830845
838.136984	3333.140347
838.452935	3354.305631
838.768842	3351.560723
839.084706	3374.492932
839.400526	3536.218188
839.716303	3882.769789
840.032037	4414.596396
840.347727	4675.811345
840.663373	4383.094226
840.978977	3998.212212
841.294537	3688.224100
841.610054	3463.812096
841.925527	3356.329655
842.240957	3286.376083
842.556344	3233.229719
842.871687	3173.754186
843.186987	3123.188892
843.502244	3089.148501
843.817458	3053.021072
844.132629	3021.453366
844.447756	3030.172042
844.762840	3015.935823
845.077881	2981.557675
845.392879	2964.364820
845.707833	2961.246866
846.022745	2961.819037
846.337613	2959.795014
846.652438	2948.669187
846.967221	2947.247582
847.281960	2933.886003
847.596656	2928.098759
847.911309	2927.634973
848.225919	2922.926535
848.540485	2920.836977
848.855009	2917.857655
849.169490	2905.506828
849.483928	2897.675395
849.798323	2898.290416
850.112675	2894.554921
850.426984	2906.527662
850.741251	2903.833165
851.055474	2893.259345
851.369654	2886.771380
851.683792	2890.438819
851.997887	2900.624470
852.311938	2905.000192
852.625947	2887.938407
852.939914	2895.389232
853.253837	2899.659089
853.567718	2884.402037
853.881555	2883.174516
854.195350	2898.686147
854.509103	2892.939231
854.822812	2887.968654
855.136479	2880.323744
855.450103	2885.831204
855.763685	2877.735111
856.077224	2873.258567
856.390720	2890.771535
856.704173	2897.945097
857.017584	2890.927811
857.330953	2888.082080
857.644278	2898.817217
857.957561	2904.667476
858.270802	2911.694844
858.584000	2908.221489
858.897155	2894.499468
859.210268	2894.711197
859.523339	2891.626011
859.836367	2891.134498
860.149352	2886.899929
860.462295	2883.547562
860.775195	2890.375805
861.088054	2888.762635
861.400869	2873.404760
861.713642	2867.846888
862.026373	2884.369270
862.339062	2888.883623
862.651708	2893.037534
862.964312	2896.372257
863.276873	2887.910680
863.589392	2898.335787
863.901869	2912.153589
864.214303	2933.732248
864.526696	2950.335288
864.839045	2946.284721
865.151353	2943.827159
865.463619	2943.678445
865.775842	2944.043928
866.088023	2964.495890
866.400162	2967.455047
866.712258	2939.489246
867.024313	2931.594799
867.336325	2938.576797
867.648296	2961.745940
867.960224	2954.118674
868.272110	2940.263063
868.583954	2943.559978
868.895755	2962.885241
869.207515	2942.423198
869.519233	2949.569033
869.830909	2960.830971
870.142542	2972.496201
870.454134	2971.755151
870.765684	2971.450161
871.077191	2972.458392
871.388657	2980.032726
871.700081	2993.984119
872.011463	3004.827641
872.322803	3005.775378
872.634101	3004.736900
872.945357	3020.230887
873.256571	3049.068807
873.567744	3038.784853
873.878874	3033.940304
874.189963	3056.827143
874.501010	3057.817730
874.812015	3049.479661
875.122979	3049.189795
875.433900	3043.997406
875.744780	3051.244065
876.055618	3059.655230
876.366415	3055.337482
876.677169	3063.022721
876.987882	3062.730334
877.298554	3058.039540
877.609183	3077.939495
877.919771	3101.451437
878.230317	3127.920015
878.540822	3179.637212
878.851285	3217.077862
879.161707	3261.941611
879.472087	3368.549412
879.782425	3599.900564
880.092722	4044.608472
880.402977	4574.927774
880.713191	5214.415783
881.023363	6387.550257
881.333494	7677.614293
881.643583	8228.869507
881.953631	7922.304339
882.263637	7281.309025
882.573602	6681.061357
882.883526	6099.811277
883.193408	5524.018247
883.503248	5065.202671
883.813048	4754.765896
884.122806	4444.387095
884.432522	4131.432264
884.742197	3894.014083
885.051831	3700.277499
885.361424	3564.052919
885.670975	3492.357629
885.980485	3404.429824
886.289954	3325.876044
886.599382	3279.651184
886.908768	3243.420411
887.218113	3201.641849
887.527417	3143.935761
887.836680	3089.491299
888.145901	3085.581884
888.455082	3075.854978
888.764221	3022.685928
889.073319	2993.548059
889.382376	2995.728358
889.691392	2999.461333
890.000366	2998.236332
890.309300	2984.224445
890.618193	2998.301867
890.927044	3011.860051
891.235855	3015.368694
891.544625	3001.306395
891.853353	3012.306193
892.162041	3028.667257
892.470687	3072.323650
892.779293	3123.057822
893.087858	3169.703619
893.396381	3243.095257
893.704864	3365.625542
894.013306	3607.535392
894.321707	3915.930499
894.630068	4126.499495
894.938387	4118.221921
895.246665	4072.788522
895.554903	3945.292700
895.863100	3744.274169
896.171256	3575.062799
896.479371	3434.613733
896.787446	3310.989517
897.095480	3206.183928
897.403473	3140.880822
897.711425	3104.944956
898.019336	3095.606219
898.327207	3065.525654
898.635038	3031.318904
898.942827	3013.213600
899.250576	3004.217661
899.558284	2975.382261
899.865952	2955.457101
900.173579	2933.979265
900.481165	2927.324942
900.788711	2912.307344
901.096216	2887.111658
901.403681	2876.515152
901.711105	2885.679970
902.018489	2881.737788
902.325832	2882.378014
902.633135	2889.760784
902.940397	2926.488110
903.247619	3010.834176
903.554800	3208.001264
903.861941	3556.244172
904.169041	3990.426150
904.476101	4291.309938
904.783121	4239.459150
905.090100	3990.768948
905.397039	3709.341494
905.703938	3460.656333
906.010796	3275.209927
906.317614	3164.175993
906.624391	3069.210737
906.931129	2994.631907
907.237826	2933.457505
907.544483	2887.767008
907.851099	2852.471369
908.157675	2833.753565
908.464211	2814.879485
908.770707	2800.451702
909.077163	2786.291101
909.383578	2771.790222
909.689954	2762.895106
909.996289	2759.378901
910.302584	2760.629107
910.608839	2762.068357
910.915054	2755.227511
911.221229	2743.653022
911.527363	2751.529825
911.833458	2757.637183
912.139513	2760.619025
912.445527	2766.827206
912.751502	2775.621499
913.057436	2784.057870
913.363331	2796.191927
913.669186	2819.066163
913.975000	2854.306349
914.280775	2915.805905
914.586510	2986.601349
914.892205	3066.796025
915.197859	3198.876776
915.503475	3396.835326
915.809050	3611.270887
916.114585	3760.652878
916.420081	3778.153244
916.725536	3716.336095
917.030952	3596.162549
917.336328	3463.645738
917.641665	3331.151612
917.946961	3232.208885
918.252218	3158.492092
918.557435	3081.506112
918.862612	3019.552851
919.167750	2971.903865
919.472848	2931.690581
919.777906	2906.383989
920.082925	2876.865512
920.387904	2846.956347
920.692843	2828.581341
920.997743	2820.099599
921.302603	2803.574697
921.607423	2793.686474
921.912204	2783.810853
922.216946	2771.238216
922.521647	2763.106835
922.826310	2752.031420
923.130932	2745.588825
923.435516	2736.552557
923.740059	2731.919736
924.044564	2721.623180
924.349028	2717.655792
924.653454	2712.934751
924.957840	2705.418391
925.262186	2703.074254
925.566493	2697.395394
925.870761	2690.398273
926.174989	2689.523632
926.479178	2681.203208
926.783328	2678.130625
927.087438	2674.944616
927.391509	2675.166426
927.695541	2670.614264
927.999533	2670.362207
928.303486	2667.415652
928.607400	2666.273831
928.911275	2666.500683
929.215110	2663.347441
929.518906	2662.056906
929.822663	2663.372647
930.126381	2663.143274
930.430060	2663.213851
930.733699	2663.997750
931.037299	2664.645538
931.340861	2665.177380
931.644383	2668.668379
931.947866	2665.678975
932.251309	2664.564880
932.554714	2662.815599
932.858080	2658.855773
933.161407	2656.451143
933.464694	2658.812923
933.767943	2656.249497
934.071153	2656.186482
934.374323	2654.006183
934.677455	2659.153201
934.980548	2655.677326
935.283602	2655.805875
935.586617	2652.428302
935.889593	2655.730258
936.192530	2657.199754
936.495428	2657.945845
936.798287	2657.729075
937.101108	2661.383912
937.403890	2665.782318
937.706632	2666.659479
938.009336	2675.423525
938.312002	2684.260668
938.614628	2693.922039
938.917216	2700.533512
939.219765	2700.157947
939.522275	2701.259439
939.824747	2696.999664
940.127179	2692.379446
940.429573	2691.053623
940.731929	2686.821574
941.034246	2684.618590
941.336524	2683.512057
941.638763	2681.188085
941.940964	2673.525531
942.243126	2675.022753
942.545250	2675.952846
942.847335	2670.750376
943.149381	2667.251815
943.451389	2666.344407
943.753359	2659.697646
944.055290	2664.504386
944.357182	2659.039775
944.659036	2656.269661
944.960851	2657.552635
945.262628	2656.935093
945.564367	2657.126657
945.866067	2659.301915
946.167729	2658.656647
946.469352	2659.097748
946.770937	2657.857625
947.072484	2656.499034
947.373992	2657.787048
947.675462	2654.497696
947.976893	2650.225318
948.278286	2647.329175
948.579641	2650.182468
948.880958	2645.078300
949.182236	2647.036788
949.483476	2650.303456
949.784678	2645.589977
950.085841	2646.026037
950.386967	2647.934113
950.688054	2650.311017
950.989103	2651.611635
951.290114	2650.971408
951.591087	2652.629948
951.892021	2655.420227
952.192917	2657.086328
952.493776	2659.294353
952.794596	2660.340393
953.095378	2661.462050
953.396122	2660.068171
953.696828	2658.417193
953.997496	2656.420896
954.298126	2652.224135
954.598718	2652.138436
954.899272	2650.545431
955.199788	2644.140645
955.500266	2644.402785
955.800706	2641.514204
956.101108	2639.477578
956.401472	2637.629995
956.701798	2634.590179
957.002087	2632.908954
957.302337	2632.956845
957.602550	2632.026752
957.902724	2631.046248
958.202861	2630.252266
958.502960	2629.720424
958.803022	2625.745475
959.103045	2627.207409
959.403031	2624.268417
959.702979	2624.742285
960.002889	2623.882768
960.302762	2624.961575
960.602596	2623.154322
960.902393	2624.601133
961.202153	2621.054681
961.501875	2624.462501
961.801559	2622.113323
962.101205	2621.331944
962.400814	2622.652727
962.700385	2620.275823
962.999918	2619.683487
963.299414	2617.974536
963.598873	2618.329937
963.898293	2615.758949
964.197677	2620.298508
964.497022	2617.455297
964.796331	2621.825977
965.095601	2620.747171
965.394835	2619.466717
965.694030	2619.363374
965.993189	2620.847994
966.292309	2617.125102
966.591393	2619.123919
966.890439	2619.980915
967.189447	2619.383538
967.488419	2619.391100
967.787353	2620.114506
968.086249	2618.493775
968.385108	2619.073507
968.683930	2619.539814
968.982714	2618.491254
969.281462	2619.985956
969.580172	2618.234155
969.878844	2618.813888
970.177480	2619.161728
970.476078	2619.935545
970.774639	2617.029320
971.073162	2620.011162
971.371649	2619.461676
971.670098	2621.601646
971.968510	2618.299690
972.266885	2620.096862
972.565223	2622.090638
972.863524	2621.836060
973.161788	2620.288426
973.460014	2619.307921
973.758204	2621.132819
974.056356	2619.882613
974.354471	2617.364556
974.652550	2619.295318
974.950591	2618.440843
975.248595	2622.246914
975.546563	2619.446553
975.844493	2620.669033
976.142386	2618.466048
976.440243	2618.687859
976.738062	2619.441512
977.035845	2617.162910
977.333590	2616.681480
977.631299	2617.929166
977.928971	2615.073352
978.226606	2614.418002
978.524204	2615.579988
978.821765	2614.791047
979.119290	2616.656274
979.416777	2617.737602
979.714228	2618.103085
980.011642	2617.079731
980.309020	2616.522684
980.606360	2615.060749
980.903664	2618.226594
981.200931	2618.024947
981.498162	2616.626027
981.795356	2618.055194
982.092513	2621.757922
982.389633	2621.566358
982.686717	2627.595578
982.983764	2630.718573
983.280775	2634.464150
983.577749	2634.101187
983.874686	2636.634367
984.171587	2632.631691
984.468451	2629.967441
984.765279	2628.704632
985.062070	2627.116668
985.358824	2622.478807
985.655543	2623.834877
985.952224	2619.731378
986.248869	2620.038888
986.545478	2618.118209
986.842050	2618.632407
987.138586	2617.288939
987.435086	2614.995214
987.731549	2617.644340
988.027975	2615.166613
988.324366	2616.666357
988.620719	2615.418671
988.917037	2613.167796
989.213318	2615.766511
989.509563	2613.261057
989.805772	2616.406737
990.101944	2612.928341
990.398080	2612.323402
990.694180	2615.000255
990.990244	2612.961108
991.286271	2614.478496
991.582262	2613.545882
991.878217	2614.607045
992.174136	2615.874895
992.470019	2611.882302
992.765865	2611.781478
993.061676	2610.995058
993.357450	2611.589915
993.653188	2608.865171
993.948890	2613.553444
994.244556	2612.930862
994.540186	2611.726026
994.835780	2614.370111
995.131337	2614.662498
995.426859	2615.585029
995.722345	2615.131325
996.017795	2617.432612
996.313208	2617.530914
996.608586	2617.735081
996.903928	2618.556789
997.199234	2619.524691
997.494504	2621.044599
997.789738	2619.517129
998.084936	2617.263733
998.380099	2614.707868
998.675225	2617.115019
998.970316	2617.246089
999.265371	2615.549741
999.560390	2614.569237
999.855373	2615.995883
1000.150320	2617.682149
1000.445232	2613.044287
1000.740108	2615.879937
1001.034948	2612.252826
1001.329752	2612.774586
1001.624521	2610.695110
1001.919254	2613.109822
1002.213951	2612.850203
1002.508613	2611.279884
1002.803239	2613.818105
1003.097829	2612.076386
1003.392384	2612.966150
1003.686903	2612.424226
1003.981386	2610.306941
1004.275834	2610.528752
1004.570246	2611.300048
1004.864623	2610.838783
1005.158964	2611.204266
1005.453270	2610.876591
1005.747540	2612.759462
1006.041775	2609.306272
1006.335974	2610.692589
1006.630138	2612.300717
1006.924266	2611.310131
1007.218359	2610.309462
1007.512416	2608.630757
1007.806438	2608.129162
1008.100425	2609.177722
1008.394376	2608.348453
1008.688292	2611.912548
1008.982172	2610.420367
1009.276017	2610.629575
1009.569827	2609.858278
1009.863602	2610.851386
1010.157341	2608.986159
1010.451045	2611.872219
1010.744714	2613.190481
1011.038347	2613.525718
1011.331945	2608.305603
1011.625508	2610.319544
1011.919036	2609.492795
1012.212528	2613.515635
1012.505986	2609.172681
1012.799408	2609.994389
1013.092795	2611.484050
1013.386147	2610.624534
1013.679464	2612.537652
1013.972745	2611.126128
1014.265992	2612.129318
1014.559204	2609.883484
1014.852380	2609.442383
1015.145521	2612.535131
1015.438628	2609.142434
1015.731699	2611.456324
1016.024736	2611.935234
1016.317737	2609.898607
1016.610703	2610.062445
1016.903635	2612.232662
1017.196531	2609.366766
1017.489393	2611.305089
1017.782219	2610.357352
1018.075011	2608.154368
1018.367768	2608.166971
1018.660490	2608.189656
1018.953177	2608.189656
1019.245829	2608.189656
