Dividing Wavelength (nm)	Counts (n)	Blue Motor Position (mm): 12.400000	Red Motor Position (mm): 0.000000	
326.493990	2166.859322
326.888308	2166.859322
327.282561	2166.859322
327.676750	2125.529423
328.070874	2119.043978
328.464933	2122.945831
328.858929	2123.127313
329.252859	2128.627212
329.646726	2140.342853
330.040528	2150.571354
330.434265	2164.573159
330.827938	2182.892712
331.221547	2196.982737
331.615091	2215.904708
332.008571	2235.250136
332.401986	2251.853176
332.795338	2274.155241
333.188625	2290.949845
333.581847	2311.323668
333.975006	2329.675989
334.368100	2347.506550
334.761129	2363.587831
335.154095	2381.090717
335.546996	2402.596279
335.939833	2423.645617
336.332606	2440.798143
336.725315	2454.696604
337.117960	2463.939560
337.510540	2477.109574
337.903056	2488.258086
338.295508	2497.720332
338.687896	2504.934223
339.080220	2514.136849
339.472480	2521.945596
339.864676	2524.193951
340.256807	2531.675023
340.648875	2533.668800
341.040879	2535.859181
341.432818	2539.803884
341.824694	2543.504091
342.216506	2543.735984
342.608253	2541.651467
342.999937	2544.905532
343.391557	2544.313196
343.783113	2545.389482
344.174605	2543.801519
344.566033	2541.026364
344.957397	2542.853782
345.348697	2542.727753
345.739934	2539.309851
346.131106	2538.891435
346.522215	2534.558563
346.913260	2532.867256
347.304241	2530.913809
347.695159	2529.769467
348.086012	2527.052285
348.476802	2524.556914
348.867528	2522.532891
349.258191	2519.082221
349.648789	2518.741943
350.039324	2514.953516
350.429796	2517.844618
350.820203	2511.616272
351.210548	2515.271109
351.600828	2510.141735
351.991045	2516.470903
352.381198	2516.228928
352.771288	2511.039060
353.161314	2511.462517
353.551276	2514.421674
353.941175	2510.177023
354.331010	2513.516787
354.720782	2511.860768
355.110490	2510.154338
355.500135	2509.430932
355.889717	2509.791374
356.279235	2509.657784
356.668689	2511.903618
357.058080	2512.329595
357.447408	2511.868330
357.836672	2510.948319
358.225873	2510.476971
358.615010	2511.066786
359.004084	2512.508556
359.393095	2515.094668
359.782043	2513.534431
360.170927	2513.544513
360.559748	2513.196674
360.948505	2517.189268
361.337199	2517.174144
361.725830	2516.818743
362.114398	2515.417302
362.502903	2516.110461
362.891344	2517.040554
363.279722	2517.335461
363.668037	2518.235307
364.056289	2517.736233
364.444478	2521.023065
364.832603	2520.861748
365.220665	2519.263703
365.608665	2519.949299
365.996601	2524.078004
366.384474	2522.142201
366.772284	2521.567510
367.160031	2523.168076
367.547715	2521.330576
367.935336	2520.763446
368.322893	2521.350740
368.710388	2520.352592
369.097820	2521.673374
369.485189	2519.044412
369.872495	2521.161697
370.259738	2523.558766
370.646918	2524.693025
371.034035	2526.510361
371.421090	2525.184538
371.808081	2523.558766
372.195010	2525.539939
372.581875	2527.453057
372.968678	2527.551359
373.355418	2526.585978
373.742096	2524.816533
374.128710	2525.602953
374.515262	2526.873324
374.901751	2526.611184
375.288177	2530.492873
375.674540	2528.257121
376.060841	2529.388860
376.447079	2527.611853
376.833254	2528.650331
377.219367	2530.482790
377.605417	2528.483973
377.991404	2529.179652
378.377329	2531.639735
378.763191	2527.503468
379.148991	2530.525640
379.534727	2530.734848
379.920402	2531.533871
380.306013	2531.148223
380.691563	2529.759385
381.077049	2530.613860
381.462474	2528.607481
381.847835	2530.908768
382.233134	2527.009435
382.618371	2530.888603
383.003545	2531.344828
383.388657	2529.666123
383.773706	2535.080323
384.158693	2530.807945
384.543618	2531.117976
384.928480	2533.903213
385.313280	2530.840712
385.698017	2535.705426
386.082692	2532.589993
386.467305	2532.837009
386.851856	2534.457740
387.236344	2532.703419
387.620770	2532.332894
388.005133	2530.142513
388.389435	2532.027904
388.773674	2529.396422
389.157851	2537.225334
389.541965	2535.254242
389.926018	2535.100487
390.310008	2540.212217
390.693936	2538.034439
391.077802	2535.697864
391.461606	2534.815662
391.845348	2536.446475
392.229027	2534.588810
392.612645	2535.990251
392.996200	2538.523431
393.379694	2537.003523
393.763125	2536.282638
394.146494	2536.123842
394.529801	2539.287166
394.913047	2538.725077
395.296230	2538.026877
395.679351	2537.321116
396.062410	2537.631147
396.445408	2538.619213
396.828343	2538.246167
397.211217	2537.300951
397.594028	2538.876312
397.976778	2539.889583
398.359466	2540.441590
398.742092	2542.710109
399.124656	2540.174409
399.507158	2539.393030
399.889598	2541.051569
400.271977	2539.234233
400.654294	2540.217258
401.036549	2540.968390
401.418742	2542.027033
401.800874	2539.728267
402.182944	2542.163144
402.564952	2541.154913
402.946898	2539.274563
403.328783	2543.380582
403.710606	2544.212373
404.092367	2540.721374
404.474067	2540.998637
404.855705	2543.879657
405.237282	2542.558874
405.618797	2543.173895
406.000250	2544.764379
406.381642	2543.544420
406.762972	2543.005017
407.144240	2538.974614
407.525447	2541.268339
407.906593	2537.343801
408.287677	2545.954092
408.668700	2544.787064
409.049661	2546.254040
409.430560	2543.516694
409.811399	2544.966025
410.192176	2545.308824
410.572891	2548.121788
410.953545	2544.739173
411.334138	2545.611293
411.714669	2544.469472
412.095139	2546.269164
412.475547	2545.253371
412.855894	2547.690769
413.236180	2545.011396
413.616405	2549.127498
413.996568	2547.544576
414.376670	2545.492826
414.756711	2545.482744
415.136691	2547.131201
415.516609	2545.371838
415.896466	2549.097251
416.276262	2545.167672
416.655997	2549.888712
417.035670	2547.007693
417.415283	2546.808567
417.794834	2551.411141
418.174324	2547.947868
418.553753	2545.714637
418.933121	2548.436860
419.312428	2547.889895
419.691674	2546.392672
420.070859	2548.603218
420.449983	2545.119781
420.829045	2548.071376
421.208047	2550.612118
421.586988	2549.813095
421.965867	2550.730585
422.344686	2547.002652
422.723444	2548.749411
423.102141	2549.830739
423.480777	2554.987839
423.859352	2550.097920
424.237866	2547.451314
424.616319	2552.409289
424.994712	2553.077242
425.373044	2549.308979
425.751314	2548.089020
426.129524	2544.648433
426.507673	2546.329658
426.885762	2544.915614
427.263789	2552.628579
427.641756	2552.222766
428.019662	2551.219577
428.397508	2552.018600
428.775292	2548.981304
429.153016	2551.963147
429.530679	2553.099927
429.908282	2551.761501
430.285824	2553.150339
430.663305	2551.917777
431.040726	2551.091027
431.418086	2551.703528
431.795385	2552.618497
432.172624	2551.733774
432.549802	2553.379711
432.926920	2551.406099
433.303977	2555.239897
433.680974	2553.543549
434.057910	2552.487427
434.434786	2549.568599
434.811601	2554.942469
435.188355	2553.256203
435.565050	2552.648744
435.941683	2554.418189
436.318257	2554.103117
436.694770	2552.558003
437.071222	2553.626728
437.447614	2551.048177
437.823946	2553.558672
438.200218	2551.063301
438.576429	2556.225443
438.952580	2554.854249
439.328670	2554.458518
439.704700	2553.278888
440.080670	2553.344423
440.456580	2556.981616
440.832429	2555.731409
441.208218	2555.353323
441.583947	2554.118240
441.959616	2554.123281
442.335224	2553.205791
442.710773	2555.184444
443.086261	2553.997252
443.461689	2554.768549
443.837057	2554.786193
444.212365	2556.227963
444.587612	2553.541028
444.962800	2553.228477
445.337927	2552.527756
445.712995	2550.017262
446.088002	2556.069167
446.462949	2556.129661
446.837837	2556.807696
447.212664	2553.677139
447.587431	2555.166800
447.962139	2555.560010
448.336786	2556.195196
448.711374	2557.238714
449.085901	2554.516491
449.460369	2556.386759
449.834776	2557.079918
450.209124	2560.008828
450.583412	2557.291647
450.957640	2554.844166
451.331808	2556.651420
451.705917	2557.957079
452.079965	2553.304094
452.453954	2556.981616
452.827883	2559.235011
453.201752	2558.400700
453.575562	2560.608726
453.949311	2558.153684
454.323001	2558.075546
454.696632	2557.480690
455.070202	2557.044630
455.443713	2558.120916
455.817164	2558.874569
456.190556	2557.611760
456.563888	2557.319373
456.937160	2557.740309
457.310373	2558.950186
457.683526	2558.103272
458.056619	2559.527398
458.429653	2561.407749
458.802628	2555.786862
459.175542	2556.512788
459.548398	2558.819116
459.921194	2561.092677
460.293930	2560.404559
460.666607	2558.594785
461.039224	2561.574107
461.411782	2559.887841
461.784280	2560.056719
462.156719	2563.207441
462.529099	2561.553942
462.901419	2557.999929
463.273680	2557.982285
463.645882	2557.735268
464.018024	2557.742830
464.390106	2556.255689
464.762130	2561.874055
465.134094	2560.240722
465.505999	2562.078222
465.877845	2564.240877
466.249631	2565.289437
466.621358	2563.318346
466.993026	2565.143244
467.364634	2564.596278
467.736184	2563.222564
468.107674	2563.146947
468.479105	2565.049982
468.850477	2561.034703
469.221790	2562.925136
469.593043	2561.916905
469.964238	2563.940928
470.335373	2562.363047
470.706449	2565.692729
471.077467	2563.391443
471.448425	2563.162070
471.819324	2565.163408
472.190164	2566.436300
472.560945	2567.230281
472.931667	2562.741134
473.302330	2564.603840
473.672934	2563.683830
474.043479	2565.591906
474.413965	2563.782132
474.784393	2564.954200
475.154761	2566.935374
475.525070	2565.672565
475.895321	2563.255332
476.265513	2566.678275
476.635645	2568.256156
477.005719	2566.466547
477.375734	2564.671896
477.745691	2566.206927
478.115588	2566.761454
478.485427	2565.118038
478.855207	2568.876218
479.224928	2567.464695
479.594591	2568.677092
479.964194	2566.839592
480.333739	2571.976528
480.703226	2570.978379
481.072653	2573.471230
481.442022	2569.075344
481.811333	2567.920919
482.180584	2567.754561
482.549777	2567.293296
482.918912	2563.209961
483.287988	2573.199007
483.657005	2569.067782
484.025964	2570.736404
484.394864	2571.966445
484.763706	2570.154151
485.132489	2573.206569
485.501213	2573.297310
485.869879	2568.742627
486.238487	2570.723801
486.607036	2572.306723
486.975527	2571.469892
487.343959	2572.120201
487.712333	2572.904100
488.080648	2569.476115
488.448905	2574.013154
488.817104	2571.162381
489.185244	2570.093657
489.553326	2572.498287
489.921350	2573.032649
490.289315	2575.888463
490.657222	2574.509707
491.025070	2574.640777
491.392861	2575.480130
491.760593	2575.001220
492.128267	2573.715726
492.495883	2574.686148
492.863440	2575.961560
493.230939	2572.142886
493.598380	2574.401323
493.965763	2571.996692
494.333088	2573.935016
494.700354	2572.629357
495.067563	2572.344532
495.434713	2575.051632
495.801805	2573.451065
496.168839	2570.224727
496.535815	2573.819069
496.902733	2572.498287
497.269593	2574.010633
497.636395	2571.979048
498.003139	2573.972825
498.369825	2572.336970
498.736453	2573.413257
499.103023	2574.834862
499.469535	2574.154306
499.835989	2573.103226
500.202385	2571.248081
500.568723	2569.196331
500.935003	2572.972156
501.301226	2569.702967
501.667390	2574.010633
502.033497	2574.691189
502.399546	2577.720923
502.765537	2574.449214
503.131470	2576.387537
503.497345	2575.059193
503.863163	2574.834862
504.228923	2573.133472
504.594625	2573.062896
504.960269	2574.371076
505.325856	2575.344018
505.691385	2574.330747
506.056856	2576.798391
506.422270	2574.008113
506.787625	2576.601786
507.152924	2575.419636
507.518164	2578.477096
507.883347	2577.236972
508.248472	2578.361149
508.613540	2578.260326
508.978550	2577.461303
509.343503	2577.267219
509.708398	2581.867272
510.073236	2579.573547
510.438016	2579.903742
510.802738	2577.017682
511.167403	2580.866603
511.532010	2578.535069
511.896561	2581.254771
512.261053	2582.575554
512.625488	2581.675708
512.989866	2583.500605
513.354186	2584.168558
513.718449	2584.521439
514.082655	2583.079669
514.446803	2582.915832
514.810894	2585.811974
515.174927	2585.252406
515.538904	2588.811461
515.902822	2587.654516
516.266684	2588.413210
516.630488	2588.022520
516.994235	2586.855493
517.357925	2588.713158
517.721558	2589.991091
518.085133	2591.480752
518.448651	2588.889599
518.812112	2589.761718
519.175516	2588.468662
519.538863	2584.949937
519.902152	2594.417224
520.265385	2593.749271
520.628560	2591.919332
520.991678	2594.795311
521.354739	2598.432503
521.717743	2596.277410
522.080690	2597.174735
522.443580	2600.128851
522.806413	2601.860488
523.169189	2600.711105
523.531908	2603.062803
523.894569	2604.318050
524.257174	2602.536002
524.619722	2603.294696
524.982213	2603.768564
525.344647	2606.137907
525.707025	2609.359204
526.069345	2605.064141
526.431608	2607.204111
526.793815	2607.549430
527.155964	2610.402723
527.518057	2607.887187
527.880093	2608.653443
528.242072	2613.785337
528.603995	2613.573609
528.965860	2612.734257
529.327669	2613.303907
529.689421	2615.968157
530.051117	2615.370780
530.412755	2614.380193
530.774337	2617.031840
531.135862	2617.772890
531.497331	2618.375308
531.858743	2618.150976
532.220098	2620.648868
532.581396	2624.233128
532.942638	2623.119033
533.303824	2621.447891
533.664953	2624.888478
534.026025	2623.497120
534.387040	2625.037192
534.747999	2623.865124
535.108902	2626.557100
535.469748	2626.347892
535.830537	2627.882924
536.191270	2629.400311
536.551947	2628.608850
536.912567	2626.231946
537.273131	2629.715383
537.633638	2626.118520
537.994089	2632.051958
538.354483	2633.087915
538.714821	2635.797535
539.075103	2634.176804
539.435328	2634.101187
539.795497	2637.224182
540.155609	2635.880714
540.515665	2633.710498
540.875665	2637.942546
541.235609	2638.678555
541.595496	2639.396919
541.955328	2636.261322
542.315102	2644.286838
542.674821	2641.942702
543.034483	2641.559574
543.394090	2643.082003
543.753640	2643.253402
544.113134	2647.745070
544.472571	2646.240286
544.831953	2647.298928
545.191278	2645.998310
545.550548	2646.353712
545.909761	2649.370842
546.268918	2651.132725
546.628019	2650.109371
546.987064	2651.346974
547.346053	2650.875627
547.704986	2652.796306
548.063863	2656.511637
548.422684	2655.112716
548.781449	2653.207160
549.140158	2657.701349
549.498811	2655.851245
549.857408	2654.573313
550.215949	2659.584220
550.574434	2656.415855
550.932864	2660.862152
551.291237	2657.066163
551.649555	2661.008346
552.007817	2661.038593
552.366022	2663.158398
552.724173	2660.526916
553.082267	2661.031031
553.440305	2668.572597
553.798288	2666.362051
554.156215	2668.174346
554.514086	2666.200734
554.871902	2661.966165
555.229661	2667.763492
555.587365	2664.229643
555.945014	2668.688544
556.302606	2671.854388
556.660143	2672.539985
557.017625	2677.623989
557.375050	2674.712722
557.732421	2674.604338
558.089735	2677.036694
558.446994	2679.428722
558.804197	2682.733198
559.161345	2682.551717
559.518437	2679.973167
559.875474	2682.266892
560.232455	2681.669515
560.589381	2686.382994
560.946251	2686.050277
561.303065	2688.709486
561.659825	2692.180321
562.016528	2689.763087
562.373177	2694.348017
562.729770	2692.192923
563.086307	2697.544108
563.442789	2698.927905
563.799216	2701.456044
564.155587	2702.544933
564.511904	2703.265818
564.868164	2704.475695
565.224370	2709.105995
565.580520	2706.809749
565.936615	2709.839482
566.292654	2710.772096
566.648638	2714.668908
567.004567	2714.933568
567.360441	2718.840463
567.716260	2716.478682
568.072023	2721.860114
568.427732	2722.543190
568.783385	2722.321379
569.138982	2730.982082
569.494525	2733.495097
569.850013	2738.170767
570.205445	2737.364182
570.560823	2737.323853
570.916145	2743.519431
571.271412	2744.426839
571.626625	2751.570154
571.981782	2754.632655
572.336884	2750.859351
572.691931	2754.390680
573.046923	2756.147522
573.401860	2756.966709
573.756743	2768.541198
574.111570	2773.751231
574.466342	2776.516304
574.821059	2779.609052
575.175722	2777.698454
575.530330	2785.262706
575.884882	2790.656740
576.239380	2796.073460
576.593823	2799.670323
576.948211	2804.058648
577.302544	2804.507311
577.656823	2807.020326
578.011047	2817.435350
578.365216	2817.780669
578.719330	2826.327945
579.073389	2828.157884
579.427394	2842.661283
579.781344	2837.657938
580.135239	2847.752849
580.489080	2852.841894
580.842866	2856.784076
581.196597	2875.985831
581.550273	2875.827035
581.903895	2887.915722
582.257463	2898.673544
582.610975	2900.228740
582.964434	2915.400092
583.317837	2920.305135
583.671186	2935.335335
584.024481	2949.054835
584.377721	2947.633230
584.730906	2958.207050
585.084037	2968.836323
585.437113	2975.924185
585.790135	2991.584530
586.143103	2997.016373
586.496016	3000.686333
586.848874	3020.911442
587.201679	3026.968389
587.554428	3034.303267
587.907124	3057.278326
588.259765	3065.260993
588.612352	3088.593974
588.964884	3090.779314
589.317362	3102.268104
589.669786	3122.296608
590.022155	3135.474184
590.374470	3158.708862
590.726731	3166.731858
591.078937	3171.309226
591.431090	3189.401927
591.783188	3194.468287
592.135232	3203.607899
592.487222	3230.860377
592.839157	3246.951740
593.191038	3260.164604
593.542866	3268.422014
593.894639	3283.424488
594.246358	3309.910710
594.598022	3320.308090
594.949633	3326.508709
595.301190	3339.852643
595.652692	3364.466077
596.004141	3386.879047
596.355535	3381.769838
596.706876	3403.235071
597.058162	3418.018254
597.409395	3437.756892
597.760573	3468.399546
598.111698	3471.726707
598.462768	3493.507012
598.813785	3509.326153
599.164748	3519.640354
599.515657	3542.474260
599.866511	3555.213256
600.217312	3599.222529
600.568060	3585.797937
600.918753	3638.755258
601.269392	3656.298473
601.619978	3663.628311
601.970510	3709.134807
602.320988	3721.946899
602.671412	3765.618415
603.021783	3776.829941
603.372100	3789.609266
603.722363	3826.303825
604.072572	3850.448431
604.422728	3877.678224
604.772830	3899.655134
605.122878	3904.867687
605.472872	3947.901497
605.822813	3978.917196
606.172701	4001.562059
606.522534	4048.946384
606.872314	4076.581990
607.222041	4081.492074
607.571714	4136.168428
607.921333	4162.780679
608.270899	4194.592881
608.620411	4256.140328
608.969870	4248.381992
609.319276	4291.892191
609.668627	4339.697453
610.017926	4383.452148
610.367171	4432.643727
610.716362	4488.903004
611.065500	4493.664374
611.414585	4548.219741
611.763616	4574.506837
612.112594	4616.305565
612.461518	4630.372904
612.810389	4698.844377
613.159207	4709.269483
613.507971	4738.941714
613.856682	4835.131971
614.205340	4863.543914
614.553945	4946.337304
614.902496	4925.759314
615.250994	5023.580384
615.599439	5050.500145
615.947830	5087.459365
616.296169	5126.614007
616.644454	5179.868756
616.992686	5201.306263
617.340864	5294.164317
617.688990	5309.446574
618.037063	5401.850924
618.385082	5425.246919
618.733048	5509.751781
619.080961	5536.353950
619.428821	5600.283343
619.776628	5644.872348
620.124382	5657.901211
620.472083	5718.929419
620.819731	5775.619715
621.167326	5749.594758
621.514868	5786.523730
621.862357	5789.618999
622.209793	5828.110729
622.557176	5832.199105
622.904506	5817.622608
623.251783	5839.392831
623.599007	5856.943608
623.946179	5882.298092
624.293297	5907.876906
624.640363	5901.071349
624.987376	5930.673004
625.334336	5923.743938
625.681243	5933.798519
626.028097	5968.315300
626.374899	6027.395102
626.721647	6004.241083
627.068343	6013.302557
627.414987	6043.660385
627.761577	6101.792451
628.108115	6160.892418
628.454600	6112.373833
628.801032	6168.451628
629.147412	6196.402306
629.493739	6249.518423
629.840014	6258.935298
630.186236	6313.326828
630.532405	6296.098685
630.878521	6400.072483
631.224585	6408.644965
631.570597	6429.974087
631.916556	6457.566842
632.262462	6488.738817
632.608316	6530.416557
632.954117	6550.901285
633.299866	6595.699499
633.645562	6625.044055
633.991206	6580.742395
634.336797	6552.232150
634.682336	6609.734071
635.027823	6600.228976
635.373257	6621.651359
635.718639	6601.955571
636.063968	6623.786288
636.409245	6595.412153
636.754470	6636.815150
637.099642	6629.923892
637.444762	6579.819864
637.789829	6645.349823
638.134845	6628.169571
638.479808	6665.539644
638.824719	6691.839344
639.169577	6673.552558
639.514383	6727.213120
639.859137	6701.175561
640.203839	6765.498163
640.548489	6731.651856
640.893086	6791.263501
641.237632	6743.974957
641.582125	6866.502722
641.926566	6836.296128
642.270955	6871.188474
642.615292	6892.283183
642.959576	6935.511077
643.303809	6998.669173
643.647990	6992.861763
643.992118	7070.777837
644.336195	6993.607854
644.680219	7111.311235
645.024192	7140.108826
645.368112	7261.262877
645.711981	7340.030905
646.055797	7437.244516
646.399562	7472.325906
646.743274	7603.474044
647.086935	7791.309957
647.430544	7812.437432
647.774101	7846.959254
648.117606	7988.270358
648.461059	7976.584963
648.804460	8051.466262
649.147810	7966.369065
649.491108	7925.001357
649.834354	7995.118765
650.177548	7887.661530
650.520690	7836.927358
650.863781	7827.465112
651.206820	7881.211374
651.549807	7839.677307
651.892742	7790.649565
652.235626	7787.173690
652.578458	7824.495872
652.921238	7710.989252
653.263967	7836.718150
653.606644	7788.542363
653.949269	7794.506048
654.291843	7756.866273
654.634365	7845.638472
654.976836	7816.056981
655.319255	7857.462498
655.661622	7872.525466
656.003938	7858.566511
656.346203	7856.388732
656.688416	7920.174452
657.030577	7931.668282
657.372687	7933.614168
657.714746	7945.176054
658.056753	8063.113848
658.398708	8019.588526
658.740612	8048.310500
659.082465	8130.652707
659.424266	8120.023434
659.766016	8181.021396
660.107715	8160.854260
660.449362	8224.597130
660.790958	8249.651664
661.132503	8249.571006
661.473996	8300.113614
661.815438	8349.310235
662.156829	8378.397692
662.498168	8406.633195
662.839456	8427.483407
663.180693	8470.184501
663.521879	8561.807472
663.863013	8581.646933
664.204097	8598.348276
664.545129	8691.665075
664.886110	8695.687915
665.227040	8781.732850
665.567918	8820.287594
665.908746	8870.129482
666.249522	8872.453454
666.590248	8935.019215
666.930922	9029.225777
667.271545	9048.399806
667.612118	9132.377867
667.952639	9104.989278
668.293109	9125.436198
668.633528	9143.158375
668.973896	9141.159557
669.314213	9260.660109
669.654480	9099.938042
669.994695	9159.630345
670.334859	9218.873985
670.674973	9209.434424
671.015035	9262.951314
671.355047	9264.561962
671.695008	9254.013348
672.034918	9287.542062
672.374777	9337.557870
672.714585	9315.656577
673.054342	9356.026137
673.394049	9358.612249
673.733705	9430.007590
674.073310	9418.493595
674.412864	9460.947672
674.752368	9400.668075
675.091820	9412.078727
675.431223	9453.494326
675.770574	9385.824397
676.109875	9364.404535
676.449125	9359.693577
676.788324	9338.969393
677.127473	9255.192978
677.466571	9267.984906
677.805619	9239.013395
678.144616	9192.254172
678.483562	9199.906644
678.822458	9120.939489
679.161303	9129.287640
679.500098	9155.657916
679.838842	9136.325091
680.177535	9177.415536
680.516179	9234.103311
680.854771	9225.712310
681.193314	9407.037573
681.531805	9503.565587
681.870247	9830.214712
682.208638	10118.820770
682.546978	10374.550942
682.885268	10464.041506
683.223508	10258.317058
683.561697	10173.844964
683.899836	10115.286921
684.237925	9982.313885
684.575963	9957.392941
684.913951	9922.397251
685.251889	9871.365651
685.589776	9986.243465
685.927614	9941.485580
686.265401	9911.987268
686.603137	9969.363161
686.940824	10098.825033
687.278460	10189.664105
687.616046	10239.374923
687.953582	10383.314988
688.291068	10316.335698
688.628504	10500.398307
688.965889	10522.080310
689.303224	10529.778152
689.640510	10481.796449
689.977745	10282.960739
690.314930	10122.946954
690.652065	10093.012582
690.989150	9889.455831
691.326185	9739.773891
691.663170	9604.865053
692.000105	9424.321169
692.336990	9376.682265
692.673825	9187.702010
693.010610	9104.953990
693.347345	8955.506464
693.684030	8797.816651
694.020665	8776.328733
694.357251	8636.782033
694.693786	8624.940362
695.030272	8480.407961
695.366707	8397.546515
695.703093	8352.806275
696.039429	8360.917491
696.375716	8327.514806
696.711952	8212.165644
697.048139	8256.008559
697.384276	8229.822286
697.720363	8241.605983
698.056400	8203.182308
698.392388	8175.584511
698.728326	8145.400603
699.064214	8105.774613
699.400053	8163.344590
699.735842	8018.834874
700.071581	7995.736307
700.407270	7945.231507
700.742910	7898.240391
701.078501	7830.714136
701.414042	7739.050835
701.749533	7682.322731
702.084974	7578.104437
702.420366	7684.618977
702.755709	7591.218999
703.091002	7492.291396
703.426246	7516.289808
703.761440	7491.078998
704.096584	7458.359389
704.431679	7407.242089
704.766725	7407.562202
705.101721	7367.086778
705.436668	7413.480517
705.771565	7334.339443
706.106413	7405.938951
706.441212	7460.098587
706.775961	7418.889675
707.110661	7451.508461
707.445311	7597.386850
707.779913	7508.171030
708.114465	7636.213817
708.448967	7681.392638
708.783421	7793.369268
709.117825	7962.063920
709.452180	8000.706884
709.786485	8082.716375
710.120742	8325.556318
710.454949	8326.919950
710.789107	8412.475892
711.123216	8584.422088
711.457275	8726.317966
711.791286	8875.100060
712.125247	8864.783339
712.459159	8868.959935
712.793023	9106.297458
713.126837	8733.955314
713.460602	8883.259168
713.794318	8731.981702
714.127985	8779.179505
714.461602	8523.741719
714.795171	8489.219898
715.128691	8283.611397
715.462162	8059.017911
715.795584	8035.826083
716.128957	7927.975637
716.462281	7764.279290
716.795556	7827.568456
717.128782	7653.878020
717.461960	7395.539050
717.795088	7465.147303
718.128167	7390.818010
718.461198	7244.548931
718.794180	7195.891714
719.127113	7199.496139
719.459997	7071.249185
719.792833	6845.082859
720.125619	6912.047026
720.458357	6787.283510
720.791046	6777.102899
721.123686	6789.799045
721.456278	6648.021635
721.788821	6664.665004
722.121315	6564.590538
722.453761	6618.770339
722.786158	6582.264824
723.118506	6600.607062
723.450805	6574.156128
723.783056	6643.850080
724.115259	6535.843359
724.447412	6535.301435
724.779518	6586.358241
725.111574	6591.916113
725.443582	6669.055849
725.775542	6644.449977
726.107453	6827.085940
726.439315	6747.634835
726.771129	6791.618902
727.102895	6948.635721
727.434612	7055.248563
727.766281	7085.097235
728.097901	7160.747310
728.429473	7150.019735
728.760996	7126.790098
729.092471	7116.521267
729.423897	7082.649755
729.755276	7100.916376
730.086606	7041.284567
730.417887	7135.100440
730.749120	7297.377703
731.080305	7482.224211
731.411442	7622.012887
731.742530	7620.845860
732.073570	7729.250832
732.404562	7814.166548
732.735506	7665.349166
733.066401	7805.372255
733.397249	7749.175993
733.728048	7538.322171
734.058798	7225.780715
734.389501	7026.776126
734.720156	6859.480394
735.050762	6632.603266
735.381320	6531.989397
735.711831	6497.354149
736.042293	6389.634774
736.372707	6414.233084
736.703073	6287.483353
737.033391	6317.087529
737.363661	6326.685886
737.693883	6351.120358
738.024056	6425.860505
738.354182	6477.060984
738.684260	6507.900243
739.014290	6606.222908
739.344272	6710.234514
739.674207	6738.656540
740.004093	6796.549150
740.333931	6817.389280
740.663722	6831.963256
740.993464	6907.242807
741.323159	6908.689618
741.652806	6670.633730
741.982405	6663.568553
742.311956	6736.771148
742.641460	6604.453463
742.970915	6414.656541
743.300323	6402.855200
743.629683	6349.671027
743.958996	6229.426904
744.288260	6142.338451
744.617477	6090.961532
744.946647	6113.490448
745.275768	5948.395180
745.604842	5901.449435
745.933869	5884.801025
746.262847	5842.152863
746.591778	5830.543086
746.920662	5800.036543
747.249498	5782.357217
747.578286	5827.049566
747.907027	5903.594446
748.235720	5959.586542
748.564365	5932.747439
748.892963	5946.391322
749.221514	6103.309838
749.550017	5969.517615
749.878473	5833.371173
750.206881	5882.925715
750.535242	5828.481254
750.863555	5762.424494
751.191821	5784.600530
751.520039	5788.242764
751.848210	5697.514597
752.176334	5714.107555
752.504411	5771.516215
752.832440	5693.993352
753.160421	5621.075582
753.488356	5670.108365
753.816243	5710.873655
754.144082	5566.484927
754.471875	5524.986148
754.799620	5570.747222
755.127318	5588.499646
755.454969	5535.693559
755.782572	5501.683415
756.110129	5544.520619
756.437638	5543.207399
756.765100	5481.423017
757.092515	5471.101255
757.419882	5514.624057
757.747203	5501.874978
758.074477	5565.890071
758.401703	5559.427311
758.728882	5502.681563
759.056014	5546.388367
759.383099	5688.899266
759.710138	5694.321027
760.037129	5676.573644
760.364073	5682.935581
760.690970	5767.881543
761.017820	5757.640439
761.344623	5702.961564
761.671379	5797.747859
761.998088	5903.828860
762.324751	6127.930833
762.651366	6687.105700
762.977935	7911.803616
763.304456	9485.409871
763.630931	10415.938816
763.957359	10098.666237
764.283740	9202.107107
764.610074	8409.834328
764.936362	7444.660053
765.262602	6854.638366
765.588796	6320.848229
765.914943	5972.386032
766.241044	5823.064534
766.567097	5641.146936
766.893104	5385.308378
767.219064	5199.020099
767.544978	5143.378364
767.870845	5073.805400
768.196665	4962.431188
768.522438	4888.570722
768.848165	4867.755798
769.173846	4802.233401
769.499479	4758.269498
769.825066	4698.559551
770.150607	4646.580214
770.476101	4616.381182
770.801548	4617.321357
771.126949	4549.071696
771.452303	4492.882995
771.777611	4450.973363
772.102872	4470.107062
772.428087	4433.442750
772.753256	4393.867172
773.078378	4354.145400
773.403453	4289.238024
773.728482	4271.886372
774.053465	4225.046491
774.378401	4211.238771
774.703291	4217.520048
775.028135	4149.368690
775.352932	4099.872121
775.677683	4084.390737
776.002388	4106.264304
776.327046	4121.400368
776.651658	4042.317267
776.976224	3979.144048
777.300743	3988.049246
777.625216	4006.769571
777.949643	4011.846013
778.274024	3965.641317
778.598359	3911.143923
778.922647	3932.175617
779.246889	3930.854835
779.571086	3926.554731
779.895236	3914.576949
780.219339	3895.944845
780.543397	3884.972773
780.867409	3936.274075
781.191374	3952.642702
781.515294	3895.821336
781.839167	3890.573495
782.162995	3905.119745
782.486776	3894.107344
782.810511	3898.039444
783.134201	3902.773087
783.457844	3863.557952
783.781441	3803.646359
784.104993	3807.273469
784.428498	3825.315759
784.751958	3826.883557
785.075372	3807.497800
785.398739	3767.264352
785.722061	3774.397584
786.045337	3818.603462
786.368568	3856.248279
786.691752	3769.361472
787.014891	3809.433603
787.337983	3927.144546
787.661030	4079.611723
787.984031	4240.316146
788.306987	4415.990275
788.629897	4495.569930
788.952760	4447.439514
789.275579	4380.984503
789.598351	4327.628931
789.921078	4200.435578
790.243759	4001.645238
790.566395	3972.212461
790.888984	3974.695229
791.211529	3867.396790
791.534027	3807.205413
791.856480	3806.542502
792.178888	3740.422728
792.501249	3689.300387
792.823566	3696.554607
793.145836	3731.265472
793.468062	3684.284439
793.790241	3634.223260
794.112375	3660.810306
794.434464	3719.965726
794.756507	3746.164602
795.078505	3735.903333
795.400457	3757.746653
795.722364	3887.599214
796.044226	3991.547807
796.366042	4063.406934
796.687812	4052.165161
797.009538	4063.696801
797.331218	4018.134852
797.652852	3987.668639
797.974442	3966.755412
798.295986	3971.236998
798.617484	3894.634145
798.938938	3802.123930
799.260346	3840.514837
799.581709	3839.889734
799.903026	3773.999333
800.224299	3734.559866
800.545526	3728.886047
800.866708	3691.160573
801.187845	3627.689925
801.508936	3663.986233
801.829983	3671.984023
802.150984	3588.505036
802.471940	3573.772264
802.792851	3588.469748
803.113717	3586.682659
803.434538	3592.810182
803.755314	3540.304044
804.076045	3505.391533
804.396731	3523.189326
804.717372	3551.134963
805.037967	3541.269425
805.358518	3531.474463
805.679024	3552.274263
805.999485	3563.624421
806.319901	3568.199268
806.640272	3581.520517
806.960598	3599.666151
807.280879	3573.845361
807.601115	3578.354673
807.921306	3597.067436
808.241453	3639.191317
808.561554	3620.108030
808.881611	3551.644119
809.201623	3582.218717
809.521590	3599.003239
809.841513	3570.571131
810.161390	3599.567848
810.481223	3582.790888
810.801011	3530.962786
811.120755	3515.113398
811.440453	3551.243347
811.760107	3560.332548
812.079716	3519.390817
812.399281	3484.911845
812.718801	3506.334228
813.038276	3478.877584
813.357707	3475.079075
813.677093	3497.948269
813.996434	3446.241154
814.315731	3450.775672
814.634983	3455.106023
814.954191	3463.673464
815.273354	3496.834174
815.592473	3497.635718
815.911547	3496.814009
816.230577	3531.915564
816.549562	3583.723502
816.868502	3626.543062
817.187399	3653.397289
817.506250	3651.317813
817.825058	3619.422433
818.143821	3704.602809
818.462539	3803.066626
818.781213	3850.987835
819.099843	3903.398191
819.418429	4124.767859
819.736970	4361.447511
820.055466	4592.271864
820.373919	4945.329073
820.692327	5343.943190
821.010691	5740.170321
821.329011	6998.452403
821.647286	9541.434734
821.965517	13858.212582
822.283704	17831.753387
822.601847	20155.417799
822.919945	18468.816601
823.237999	16023.025195
823.556010	13611.780817
823.873976	11600.788930
824.191897	9558.355367
824.509775	8206.017957
824.827609	7095.068637
825.145398	6534.739346
825.463144	6426.084837
825.780845	6541.179420
826.098502	6692.154416
826.416116	7477.120043
826.733685	8738.923371
827.051210	9854.432415
827.368692	9994.422737
827.686129	8832.141868
828.003522	7340.109043
828.320872	6339.414799
828.638177	5657.152599
828.955439	5117.905413
829.272656	4632.676712
829.589830	4340.272145
829.906960	4171.096063
830.224046	3994.204495
830.541088	3868.488200
830.858086	3822.480110
831.175041	3751.021754
831.491952	3727.719020
831.808819	3738.129003
832.125642	3801.808858
832.442421	3935.772481
832.759157	4188.082231
833.075849	4705.634811
833.392497	5523.743504
833.709101	6275.800479
834.025662	6644.127343
834.342179	6338.199881
834.658653	5693.577456
834.975083	5069.245676
835.291469	4510.718597
835.607811	4098.720217
835.924110	3964.305411
836.240366	3772.335752
836.556578	3569.696491
836.872746	3462.340079
837.188871	3425.690890
837.504952	3365.471787
837.820990	3285.269550
838.136984	3232.607136
838.452935	3256.020775
838.768842	3255.267123
839.084706	3276.697068
839.400526	3415.724529
839.716303	3727.489648
840.032037	4217.885532
840.347727	4512.097353
840.663373	4266.419241
840.978977	3900.791914
841.294537	3600.475256
841.610054	3370.843137
841.925527	3263.653082
842.240957	3195.095911
842.556344	3143.121614
842.871687	3088.019282
843.186987	3040.375337
843.502244	3002.899400
843.817458	2972.004688
844.132629	2937.349276
844.447756	2944.711881
844.762840	2933.991868
845.077881	2903.480284
845.392879	2885.453118
845.707833	2878.839124
846.022745	2876.331150
846.337613	2879.381048
846.652438	2869.104656
846.967221	2867.796477
847.281960	2853.446832
847.596656	2849.673528
847.911309	2847.520956
848.225919	2841.728670
848.540485	2836.979903
848.855009	2839.790346
849.169490	2827.603357
849.483928	2820.029023
849.798323	2818.030206
850.112675	2816.117088
850.426984	2822.529436
850.741251	2823.835094
851.055474	2816.885864
851.369654	2809.634164
851.683792	2813.621717
851.997887	2818.617500
852.311938	2819.744198
852.625947	2812.326140
852.939914	2815.416367
853.253837	2821.087666
853.567718	2807.126190
853.881555	2802.528658
854.195350	2816.837973
854.509103	2815.749084
854.822812	2809.495532
855.136479	2803.912454
855.450103	2806.914462
855.763685	2797.817699
856.077224	2793.378963
856.390720	2807.784061
856.704173	2819.529949
857.017584	2811.615337
857.330953	2806.727939
857.644278	2816.974084
857.957561	2822.181596
858.270802	2826.842143
858.584000	2826.837102
858.897155	2818.163796
859.210268	2815.572643
859.523339	2812.736994
859.836367	2813.553661
860.149352	2806.629636
860.462295	2801.926240
860.775195	2809.210707
861.088054	2811.955615
861.400869	2794.404838
861.713642	2788.272275
862.026373	2802.251394
862.339062	2807.320274
862.651708	2810.849082
862.964312	2816.459886
863.276873	2812.875626
863.589392	2817.626913
863.901869	2828.150322
864.214303	2848.440966
864.526696	2868.981148
864.839045	2861.575693
865.151353	2861.041330
865.463619	2858.588809
865.775842	2858.959334
866.088023	2875.007847
866.400162	2883.761811
866.712258	2857.908253
867.024313	2846.059021
867.336325	2853.910618
867.648296	2873.288814
867.960224	2868.877804
868.272110	2851.377438
868.583954	2858.855990
868.895755	2875.242261
869.207515	2862.518388
869.519233	2864.411342
869.830909	2872.658669
870.142542	2883.373642
870.454134	2882.090668
870.765684	2886.393293
871.077191	2886.670557
871.388657	2890.264899
871.700081	2903.318967
872.011463	2914.051584
872.322803	2918.593663
872.634101	2916.292377
872.945357	2931.564552
873.256571	2955.550362
873.567744	2951.315793
873.878874	2941.772889
874.189963	2962.749130
874.501010	2968.120479
874.812015	2958.882565
875.122979	2958.428861
875.433900	2954.403500
875.744780	2960.606639
876.055618	2966.043524
876.366415	2961.677885
876.677169	2971.767754
876.987882	2973.065851
877.298554	2964.183338
877.609183	2981.023313
877.919771	3002.218844
878.230317	3025.713141
878.540822	3078.257088
878.851285	3115.793519
879.161707	3155.149807
879.472087	3244.907552
879.782425	3445.376596
880.092722	3848.331147
880.402977	4349.641129
880.713191	4941.127272
881.023363	6013.209295
881.333494	7263.362517
881.643583	7832.919640
881.953631	7558.988382
882.263637	6987.613922
882.573602	6445.019410
882.883526	5878.935642
883.193408	5320.222041
883.503248	4856.728274
883.813048	4570.199172
884.122806	4296.504847
884.432522	3990.678208
884.742197	3763.312087
885.051831	3573.464754
885.361424	3437.124227
885.670975	3371.148126
885.980485	3294.706590
886.289954	3217.874364
886.599382	3177.693847
886.908768	3142.788898
887.218113	3095.515478
887.527417	3046.167623
887.836680	2994.889006
888.145901	2989.610918
888.455082	2983.501040
888.764221	2936.976231
889.073319	2904.811149
889.382376	2903.124883
889.691392	2907.351890
890.000366	2907.828279
890.309300	2894.781773
890.618193	2906.091602
890.927044	2923.077770
891.235855	2924.605239
891.544625	2910.313568
891.853353	2917.136770
892.162041	2932.429110
892.470687	2970.199955
892.779293	3020.747605
893.087858	3064.149419
893.396381	3130.929584
893.704864	3239.211048
894.013306	3461.135243
894.321707	3742.716453
894.630068	3953.648412
894.938387	3957.305769
895.246665	3909.520672
895.554903	3801.836585
895.863100	3613.471351
896.171256	3451.219293
896.479371	3321.654078
896.787446	3205.510934
897.095480	3107.306737
897.403473	3042.507745
897.711425	3003.907630
898.019336	2994.263903
898.327207	2972.821355
898.635038	2940.799946
898.942827	2925.295877
899.250576	2914.772469
899.558284	2884.028992
899.865952	2863.960158
900.173579	2846.500122
900.481165	2840.614575
900.788711	2827.316011
901.096216	2805.253401
901.403681	2790.782769
901.711105	2798.788122
902.018489	2800.252577
902.325832	2795.811320
902.633135	2804.204841
902.940397	2834.746672
903.247619	2906.520100
903.554800	3078.874629
903.861941	3392.424316
904.169041	3795.336017
904.476101	4096.776852
904.783121	4083.697578
905.090100	3854.710727
905.397039	3589.833380
905.703938	3347.386648
906.010796	3170.527847
906.317614	3065.870973
906.624391	2976.100626
906.931129	2907.666962
907.237826	2849.996162
907.544483	2804.303144
907.851099	2772.927002
908.157675	2753.710124
908.464211	2735.884604
908.770707	2721.038406
909.077163	2710.918289
909.383578	2694.005218
909.689954	2686.771162
909.996289	2685.977181
910.302584	2684.855524
910.608839	2685.205884
910.915054	2680.326047
911.221229	2674.223731
911.527363	2672.482012
911.833458	2682.206398
912.139513	2685.851152
912.445527	2689.979857
912.751502	2696.112421
913.057436	2707.250850
913.363331	2717.222252
913.669186	2736.963411
913.975000	2766.865015
914.280775	2820.389466
914.586510	2888.253479
914.892205	2961.461115
915.197859	3076.752303
915.503475	3253.953902
915.809050	3453.560909
916.114585	3593.342023
916.420081	3618.991414
916.725536	3571.125658
917.030952	3460.575675
917.336328	3339.706450
917.641665	3215.056359
917.946961	3122.193264
918.252218	3057.021227
918.557435	2981.106492
918.862612	2926.861156
919.167750	2879.456665
919.472848	2840.959894
919.777906	2817.047181
920.082925	2792.103552
920.387904	2765.665220
920.692843	2748.006058
920.997743	2738.672362
921.302603	2725.847667
921.607423	2715.480534
921.912204	2706.923175
922.216946	2694.037986
922.521647	2685.576409
922.826310	2675.030315
923.130932	2670.175684
923.435516	2663.589417
923.740059	2656.302429
924.044564	2649.423774
924.349028	2646.048722
924.653454	2640.616878
924.957840	2632.760240
925.262186	2629.228912
925.566493	2626.247069
925.870761	2619.514608
926.174989	2615.963116
926.479178	2613.296345
926.783328	2606.790736
927.087438	2606.936930
927.391509	2607.004985
927.695541	2600.958121
927.999533	2597.830085
928.303486	2595.538881
928.607400	2593.184662
928.911275	2594.535691
929.215110	2594.076946
929.518906	2594.044179
929.822663	2593.202306
930.126381	2593.509816
930.430060	2592.781370
930.733699	2593.308170
931.037299	2593.640886
931.340861	2593.686257
931.644383	2597.925867
931.947866	2594.003849
932.251309	2594.573500
932.554714	2592.935125
932.858080	2589.829774
933.161407	2590.830443
933.464694	2587.866245
933.767943	2584.642427
934.071153	2587.513364
934.374323	2587.387335
934.677455	2587.783066
934.980548	2584.924731
935.283602	2587.064701
935.586617	2584.103023
935.889593	2583.172930
936.192530	2586.013621
936.495428	2587.001687
936.798287	2589.330700
937.101108	2591.251379
937.403890	2594.162646
937.706632	2596.174066
938.009336	2604.766713
938.312002	2613.399689
938.614628	2620.180041
938.917216	2628.381998
939.219765	2626.360495
939.522275	2629.571710
939.824747	2624.744806
940.127179	2621.478138
940.429573	2620.346399
940.731929	2617.069649
941.034246	2614.418002
941.336524	2610.405243
941.638763	2607.095726
941.940964	2609.155037
942.243126	2604.355859
942.545250	2606.894080
942.847335	2605.991713
943.149381	2598.306474
943.451389	2593.081318
943.753359	2593.940835
944.055290	2591.634507
944.357182	2593.686257
944.659036	2589.257603
944.960851	2589.676019
945.262628	2583.898857
945.564367	2587.329362
945.866067	2588.299784
946.167729	2588.012438
946.469352	2592.178952
946.770937	2587.551172
947.072484	2587.800710
947.373992	2589.814651
947.675462	2581.269895
947.976893	2581.116140
948.278286	2581.395924
948.579641	2579.891139
948.880958	2578.076324
949.182236	2580.143197
949.483476	2577.599935
949.784678	2579.407188
950.085841	2579.714699
950.386967	2578.567836
950.688054	2582.086562
950.989103	2582.250399
951.290114	2581.524473
951.591087	2583.382138
951.892021	2586.260637
952.192917	2589.900350
952.493776	2592.408324
952.794596	2594.495362
953.095378	2591.909250
953.396122	2590.777511
953.696828	2588.627459
953.997496	2589.202150
954.298126	2584.927252
954.598718	2583.979515
954.899272	2581.902560
955.199788	2584.218970
955.500266	2574.970973
955.800706	2574.771847
956.101108	2571.580797
956.401472	2572.657083
956.701798	2572.591548
957.002087	2567.247925
957.302337	2563.459498
957.602550	2566.476629
957.902724	2562.410938
958.202861	2561.082594
958.502960	2561.831206
958.803022	2559.582851
959.103045	2560.066802
959.403031	2562.002605
959.702979	2558.851884
960.002889	2558.574620
960.302762	2557.831050
960.602596	2560.875907
960.902393	2558.821637
961.202153	2557.795762
961.501875	2556.480021
961.801559	2555.378529
962.101205	2555.527243
962.400814	2559.194682
962.700385	2558.239383
962.999918	2553.510781
963.299414	2551.259906
963.598873	2552.515153
963.898293	2550.831408
964.197677	2556.298539
964.497022	2555.121430
964.796331	2553.578837
965.095601	2552.802499
965.394835	2553.525905
965.694030	2556.149825
965.993189	2554.050185
966.292309	2554.322407
966.591393	2554.448436
966.890439	2552.182437
967.189447	2555.817109
967.488419	2553.258723
967.787353	2555.013045
968.086249	2553.813250
968.385108	2552.976419
968.683930	2554.524053
968.982714	2555.328117
969.281462	2554.798796
969.580172	2552.704197
969.878844	2554.816440
970.177480	2553.629248
970.476078	2555.035730
970.774639	2555.060936
971.073162	2555.456667
971.371649	2554.347613
971.670098	2557.445402
971.968510	2554.551779
972.266885	2555.381049
972.565223	2555.025648
972.863524	2556.696790
973.161788	2555.650751
973.460014	2556.502706
973.758204	2555.872562
974.056356	2555.844835
974.354471	2553.896429
974.652550	2554.203940
974.950591	2555.663354
975.248595	2558.158725
975.546563	2555.958261
975.844493	2554.052705
976.142386	2553.621687
976.440243	2555.837274
976.738062	2554.226625
977.035845	2555.136553
977.333590	2553.130174
977.631299	2551.582540
977.928971	2549.122457
978.226606	2550.521377
978.524204	2549.727395
978.821765	2549.911397
979.119290	2554.705535
979.416777	2553.311656
979.714228	2551.466593
980.011642	2554.771070
980.309020	2553.664536
980.606360	2553.563713
980.903664	2552.563044
981.200931	2555.930535
981.498162	2555.713765
981.795356	2553.135215
982.092513	2558.592264
982.389633	2559.068653
982.686717	2559.378684
982.983764	2562.700805
983.280775	2569.902093
983.577749	2570.673389
983.874686	2570.171795
984.171587	2566.499314
984.468451	2566.143913
984.765279	2562.930177
985.062070	2562.196689
985.358824	2560.535629
985.655543	2557.009342
985.952224	2555.058415
986.248869	2555.262582
986.545478	2555.744012
986.842050	2554.266954
987.138586	2550.586912
987.435086	2551.791748
987.731549	2550.044988
988.027975	2552.202602
988.324366	2550.186140
988.620719	2550.975081
988.917037	2551.854762
989.213318	2550.997766
989.509563	2550.531459
989.805772	2550.939793
990.101944	2551.471634
990.398080	2554.997922
990.694180	2550.092879
990.990244	2552.857952
991.286271	2551.244782
991.582262	2549.737477
991.878217	2547.872251
992.174136	2551.491799
992.470019	2551.761501
992.765865	2549.961809
993.061676	2546.634647
993.357450	2547.093392
993.653188	2545.875954
993.948890	2547.446273
994.244556	2549.682025
994.540186	2549.813095
994.835780	2549.243444
995.131337	2552.328631
995.426859	2553.551110
995.722345	2555.819630
996.017795	2551.569937
996.313208	2554.985319
996.608586	2554.241748
996.903928	2554.246790
997.199234	2554.831563
997.494504	2555.738971
997.789738	2555.207129
998.084936	2555.635627
998.380099	2552.608415
998.675225	2554.579506
998.970316	2552.570606
999.265371	2551.169165
999.560390	2549.525749
999.855373	2552.704197
1000.150320	2551.809392
1000.445232	2549.371994
1000.740108	2550.725544
1001.034948	2550.647406
1001.329752	2549.702189
1001.624521	2549.477858
1001.919254	2548.179761
1002.213951	2551.491799
1002.508613	2549.177909
1002.803239	2548.608259
1003.097829	2548.938455
1003.392384	2550.919628
1003.686903	2549.061963
1003.981386	2550.365101
1004.275834	2550.912066
1004.570246	2550.332334
1004.864623	2551.847200
1005.158964	2550.917107
1005.453270	2550.506253
1005.747540	2551.396017
1006.041775	2548.925852
1006.335974	2550.201264
1006.630138	2548.635985
1006.924266	2552.000956
1007.218359	2552.374001
1007.512416	2546.521221
1007.806438	2547.232024
1008.100425	2543.647764
1008.394376	2542.135418
1008.688292	2549.634134
1008.982172	2549.651778
1009.276017	2550.657488
1009.569827	2547.736139
1009.863602	2550.191181
1010.157341	2549.765204
1010.451045	2546.317055
1010.744714	2551.506922
1011.038347	2550.511295
1011.331945	2550.975081
1011.625508	2548.383928
1011.919036	2547.836962
1012.212528	2547.196736
1012.505986	2549.205636
1012.799408	2547.579864
1013.092795	2547.272353
1013.386147	2547.214380
1013.679464	2549.790410
1013.972745	2549.732436
1014.265992	2550.279402
1014.559204	2549.800492
1014.852380	2546.599359
1015.145521	2548.502395
1015.438628	2548.010882
1015.731699	2547.448794
1016.024736	2550.125646
1016.317737	2550.334854
1016.610703	2548.278063
1016.903635	2548.688918
1017.196531	2552.905843
1017.489393	2549.780327
1017.782219	2547.380738
1018.075011	2549.364432
1018.367768	2549.273691
1018.660490	2547.968033
1018.953177	2547.968033
1019.245829	2547.968033
