Dividing Wavelength (nm)	Counts (n)	Blue Motor Position (mm): 24.200000	Red Motor Position (mm): 0.000000	
326.493990	2196.483663
326.888308	2196.483663
327.282561	2196.483663
327.676750	2153.704431
328.070874	2152.250058
328.464933	2154.173259
328.858929	2159.209371
329.252859	2161.997129
329.646726	2170.998110
330.040528	2183.212825
330.434265	2196.745803
330.827938	2215.781200
331.221547	2230.972717
331.615091	2248.954513
332.008571	2266.626278
332.401986	2285.679318
332.795338	2303.643470
333.188625	2323.432520
333.581847	2341.729388
333.975006	2361.692357
334.368100	2379.901004
334.761129	2398.419683
335.154095	2409.812691
335.546996	2442.983483
335.939833	2472.406178
336.332606	2488.454691
336.725315	2499.767040
337.117960	2516.163393
337.510540	2523.667150
337.903056	2540.991076
338.295508	2545.013916
338.687896	2555.237376
339.080220	2561.611915
339.472480	2570.169274
339.864676	2576.745459
340.256807	2582.434401
340.648875	2583.419947
341.040879	2586.580750
341.432818	2587.163004
341.824694	2591.831112
342.216506	2592.627614
342.608253	2589.938159
342.999937	2594.195413
343.391557	2595.687595
343.783113	2594.336566
344.174605	2592.209199
344.566033	2591.316914
344.957397	2591.662233
345.348697	2589.933118
345.739934	2587.321800
346.131106	2588.022520
346.522215	2585.126377
346.913260	2584.009762
347.304241	2580.402816
347.695159	2579.066911
348.086012	2578.388875
348.476802	2577.332754
348.867528	2573.501477
349.258191	2567.769685
349.648789	2567.585683
350.039324	2566.153995
350.429796	2567.941084
350.820203	2567.008471
351.210548	2564.387071
351.600828	2564.873542
351.991045	2565.019735
352.381198	2560.586041
352.771288	2559.751730
353.161314	2560.921277
353.551276	2561.019580
353.941175	2559.502192
354.331010	2559.083777
354.720782	2556.883313
355.110490	2560.288612
355.500135	2563.225085
355.889717	2558.136040
356.279235	2558.783828
356.668689	2559.222408
357.058080	2559.938252
357.447408	2562.161401
357.836672	2559.819785
358.225873	2559.532439
358.615010	2561.145609
359.004084	2564.213151
359.393095	2561.059909
359.782043	2560.137378
360.170927	2562.879766
360.559748	2564.442523
360.948505	2562.433623
361.337199	2565.004612
361.725830	2563.300702
362.114398	2563.648542
362.502903	2566.358162
362.891344	2566.332956
363.279722	2566.161557
363.668037	2568.886300
364.056289	2567.815055
364.444478	2569.685323
364.832603	2569.009809
365.220665	2569.334963
365.608665	2567.784808
365.996601	2573.256981
366.384474	2569.473595
366.772284	2569.614747
367.160031	2571.374110
367.547715	2571.207752
367.935336	2573.085582
368.322893	2570.363358
368.710388	2569.942422
369.097820	2567.741958
369.485189	2568.853533
369.872495	2572.619275
370.259738	2576.349729
370.646918	2575.056673
371.034035	2573.173802
371.421090	2577.670511
371.808081	2574.081209
372.195010	2575.472568
372.581875	2576.644636
372.968678	2576.130438
373.355418	2575.613720
373.742096	2576.521128
374.128710	2575.308730
374.515262	2574.338308
374.901751	2576.072465
375.288177	2577.970460
375.674540	2574.429049
376.060841	2576.594225
376.447079	2576.712692
376.833254	2579.823084
377.219367	2576.705130
377.605417	2579.664287
377.991404	2578.729153
378.377329	2579.276118
378.763191	2580.629668
379.148991	2580.911973
379.534727	2579.810481
379.920402	2580.521283
380.306013	2580.639751
380.691563	2583.162848
381.077049	2581.365677
381.462474	2578.225038
381.847835	2582.976325
382.233134	2580.261664
382.618371	2580.904411
383.003545	2582.452045
383.388657	2580.612024
383.773706	2583.808116
384.158693	2585.305338
384.543618	2584.299628
384.928480	2584.884402
385.313280	2585.350709
385.698017	2585.179310
386.082692	2582.827611
386.467305	2583.853486
386.851856	2583.656881
387.236344	2583.856007
387.620770	2581.403485
388.005133	2585.532190
388.389435	2584.249217
388.773674	2582.235276
389.157851	2585.617890
389.541965	2585.418764
389.926018	2586.363981
390.310008	2585.673343
390.693936	2587.770463
391.077802	2588.912284
391.461606	2589.988570
391.845348	2588.090576
392.229027	2588.128385
392.612645	2590.124682
392.996200	2589.754157
393.379694	2588.750967
393.763125	2588.209043
394.146494	2588.821543
394.529801	2590.175093
394.913047	2589.731472
395.296230	2590.240628
395.679351	2591.485793
396.062410	2591.440423
396.445408	2589.378591
396.828343	2589.812130
397.211217	2591.526122
397.594028	2591.818509
397.976778	2594.656679
398.359466	2590.180134
398.742092	2593.098962
399.124656	2594.356730
399.507158	2593.943356
399.889598	2594.449992
400.271977	2593.277923
400.654294	2592.491503
401.036549	2594.984354
401.418742	2594.107193
401.800874	2592.400763
402.182944	2595.715321
402.564952	2596.350507
402.946898	2596.005187
403.328783	2596.002667
403.710606	2596.554673
404.092367	2598.714808
404.474067	2597.434355
404.855705	2598.261104
405.237282	2597.580548
405.618797	2597.550301
406.000250	2600.040631
406.381642	2600.206989
406.762972	2595.105342
407.144240	2595.760692
407.525447	2596.206834
407.906593	2592.799014
408.287677	2599.723038
408.668700	2598.795466
409.049661	2599.395363
409.430560	2600.191866
409.811399	2599.145826
410.192176	2602.530961
410.572891	2603.130858
410.953545	2603.866867
411.334138	2603.292175
411.714669	2603.957608
412.095139	2601.832761
412.475547	2601.283276
412.855894	2603.801332
413.236180	2602.730087
413.616405	2601.230343
413.996568	2602.722525
414.376670	2602.157916
414.756711	2602.596496
415.136691	2604.940633
415.516609	2603.161105
415.896466	2603.607247
416.276262	2603.183791
416.655997	2601.714294
417.035670	2605.457351
417.415283	2606.374841
417.794834	2605.359048
418.174324	2605.911055
418.553753	2606.800818
418.933121	2606.311827
419.312428	2606.218565
419.691674	2607.153699
420.070859	2608.726539
420.449983	2606.889039
420.829045	2606.561364
421.208047	2605.837958
421.586988	2605.837958
421.965867	2609.162599
422.344686	2609.785182
422.723444	2607.836776
423.102141	2608.197218
423.480777	2609.765017
423.859352	2610.662342
424.237866	2609.404574
424.616319	2612.025974
424.994712	2610.339708
425.373044	2611.020264
425.751314	2611.771396
426.129524	2608.045983
426.507673	2610.112857
426.885762	2606.631940
427.263789	2611.766355
427.641756	2611.509256
428.019662	2612.749380
428.397508	2610.309462
428.775292	2612.104112
429.153016	2617.046964
429.530679	2613.838269
429.908282	2613.487909
430.285824	2611.599997
430.663305	2616.857920
431.040726	2614.375152
431.418086	2613.039246
431.795385	2613.036726
432.172624	2614.541510
432.549802	2615.736264
432.926920	2613.069493
433.303977	2614.584360
433.680974	2616.537807
434.057910	2617.132663
434.434786	2617.825822
434.811601	2618.113168
435.188355	2617.172992
435.565050	2618.400513
435.941683	2615.895060
436.318257	2619.038219
436.694770	2617.730040
437.071222	2620.054012
437.447614	2621.372274
437.823946	2618.249279
438.200218	2619.305401
438.576429	2619.738940
438.952580	2621.561317
439.328670	2620.769856
439.704700	2622.446039
440.080670	2621.919239
440.456580	2623.930659
440.832429	2624.737244
441.208218	2623.529887
441.583947	2626.655403
441.959616	2625.488376
442.335224	2624.974178
442.710773	2626.486524
443.086261	2626.146246
443.461689	2627.877883
443.837057	2627.368726
444.212365	2630.988275
444.587612	2626.562142
444.962800	2627.777060
445.337927	2626.143726
445.712995	2626.678088
446.088002	2631.991464
446.462949	2632.175466
446.837837	2631.447020
447.212664	2631.784777
447.587431	2634.237298
447.962139	2635.671507
448.336786	2641.105870
448.711374	2642.487147
449.085901	2640.478247
449.460369	2641.168885
449.834776	2642.182157
450.209124	2644.322127
450.583412	2645.080820
450.957640	2647.737508
451.331808	2649.733805
451.705917	2650.285812
452.079965	2648.350008
452.453954	2653.701193
452.827883	2655.962151
453.201752	2659.581699
453.575562	2661.078922
453.949311	2667.365241
454.323001	2668.428924
454.696632	2673.875891
455.070202	2679.897549
455.443713	2686.491378
455.817164	2693.861545
456.190556	2701.761033
456.563888	2715.714947
456.937160	2722.215515
457.310373	2728.990826
457.683526	2736.567680
458.056619	2744.638567
458.429653	2757.453181
458.802628	2764.528440
459.175542	2779.450255
459.548398	2814.236737
459.921194	2840.692713
460.293930	2864.698687
460.666607	2911.709968
461.039224	2973.121304
461.411782	3025.030065
461.784280	3051.367573
462.156719	3080.507963
462.529099	3106.842951
462.901419	3103.236005
463.273680	3128.938328
463.645882	3161.206754
464.018024	3194.712783
464.390106	3254.442894
464.762130	3347.366483
465.134094	3453.994449
465.505999	3676.344621
465.877845	4039.705949
466.249631	4354.054659
466.621358	4391.828025
466.993026	4352.701109
467.364634	4386.154206
467.736184	4363.688304
468.107674	4380.659349
468.479105	4499.529756
468.850477	4561.354467
469.221790	4609.043783
469.593043	4625.760249
469.964238	4666.296167
470.335373	4717.829362
470.706449	4879.473960
471.077467	4914.847737
471.448425	5313.643335
471.819324	6130.148941
472.190164	6644.442415
472.560945	6201.415733
472.931667	5884.685078
473.302330	5899.959774
473.672934	5917.041724
474.043479	6145.804244
474.413965	6242.619604
474.784393	6308.709131
475.154761	6602.903308
475.525070	6750.576348
475.895321	6795.495549
476.265513	7099.093998
476.635645	7398.331850
477.005719	7515.510950
477.375734	7738.892039
477.745691	8064.384219
478.115588	8364.242132
478.485427	8735.959173
478.855207	9230.456036
479.224928	10009.757927
479.594591	11025.285766
479.964194	11258.166909
480.333739	11621.044287
480.703226	11621.306427
481.072653	11754.902045
481.442022	12227.676576
481.811333	12840.184330
482.180584	13085.910333
482.549777	12889.471691
482.918912	13024.713246
483.287988	13289.099080
483.657005	13413.250096
484.025964	13493.764885
484.394864	13709.564078
484.763706	13803.891628
485.132489	13802.389364
485.501213	14062.691864
485.869879	14296.172904
486.238487	14325.464529
486.607036	14712.050452
486.975527	14737.074740
487.343959	15135.502334
487.712333	15379.867226
488.080648	15346.373800
488.448905	15883.937240
488.817104	15922.892757
489.185244	16541.583486
489.553326	16803.728527
489.921350	17549.347948
490.289315	19233.794053
490.657222	20666.187507
491.025070	21280.532762
491.392861	21385.320706
491.760593	21073.326215
492.128267	20786.464397
492.495883	20269.494070
492.863440	19910.599204
493.230939	19464.721749
493.598380	19577.492361
493.965763	19447.659964
494.333088	19312.166352
494.700354	19435.263767
495.067563	19564.231606
495.434713	19523.007570
495.801805	19759.573797
496.168839	19846.705100
496.535815	19872.959429
496.902733	20181.052067
497.269593	20032.050682
497.636395	20380.253261
498.003139	20513.369969
498.369825	20460.579006
498.736453	20738.149978
499.103023	20765.772981
499.469535	20929.824730
499.835989	21232.024259
500.202385	21388.320193
500.568723	21075.393088
500.935003	21416.374214
501.301226	21167.474804
501.667390	21968.312504
502.033497	22335.668947
502.399546	22165.489675
502.765537	21944.714863
503.131470	22354.568233
503.497345	22587.081372
503.863163	21941.559101
504.228923	22611.220937
504.594625	22866.562941
504.960269	22486.442297
505.325856	23043.530126
505.691385	22564.358371
506.056856	23190.230223
506.422270	23244.467998
506.787625	22921.849275
507.152924	23378.303071
507.518164	23436.873717
507.883347	23312.717659
508.248472	23075.851484
508.613540	23873.851014
508.978550	23711.046951
509.343503	23741.301436
509.708398	24067.073400
510.073236	24248.509568
510.438016	24496.577187
510.802738	24215.474887
511.167403	24508.461707
511.532010	24226.509973
511.896561	25029.288517
512.261053	25035.355546
512.625488	24902.659773
512.989866	24827.667569
513.354186	24722.927515
513.718449	24819.931918
514.082655	25237.687296
514.446803	25001.151317
514.810894	25448.780573
515.174927	24972.386493
515.538904	25014.341496
515.902822	25513.458576
516.266684	25291.289885
516.630488	25203.954415
516.994235	25217.704162
517.357925	25500.210424
517.721558	25710.756735
518.085133	25801.517669
518.448651	25750.037406
518.812112	25462.923530
519.175516	25657.239846
519.538863	25839.817835
519.902152	25633.153213
520.265385	25943.882374
520.628560	25729.756844
520.991678	25750.138229
521.354739	25838.083678
521.717743	25880.963733
522.080690	25686.017273
522.443580	26022.519333
522.806413	26028.102411
523.169189	26126.818285
523.531908	26182.031523
523.894569	25779.875995
524.257174	25859.304415
524.619722	26076.220224
524.982213	25764.187925
525.344647	25832.949263
525.707025	25945.246006
526.069345	25955.078777
526.431608	25895.663738
526.793815	26103.044204
527.155964	25535.899273
527.518057	25721.905247
527.880093	25641.985314
528.242072	25883.806944
528.603995	25584.538846
528.965860	25385.017538
529.327669	25439.199860
529.689421	25431.524703
530.051117	25244.150056
530.412755	25435.252636
530.774337	25253.047692
531.135862	25112.223059
531.497331	25321.574617
531.858743	24859.119328
532.220098	25352.325655
532.581396	25014.112123
532.942638	24982.587268
533.303824	25067.429887
533.664953	25097.434835
534.026025	24744.405351
534.387040	24991.744524
534.747999	25057.226592
535.108902	25216.443874
535.469748	24700.968249
535.830537	24903.909980
536.191270	25013.532391
536.551947	24916.593523
536.912567	24573.401851
537.273131	24879.911567
537.633638	24612.838798
537.994089	24809.582429
538.354483	24370.969277
538.714821	24862.113773
539.075103	24915.287864
539.435328	24695.196128
539.795497	24235.077414
540.155609	24658.730942
540.515665	24941.539672
540.875665	24198.067783
541.235609	24463.867660
541.595496	24444.023158
541.955328	24790.375633
542.315102	24710.508633
542.674821	24272.177785
543.034483	24151.119517
543.394090	24313.260669
543.753640	24111.077632
544.113134	24744.054991
544.472571	24324.883049
544.831953	24629.852692
545.191278	24226.777154
545.550548	24172.640203
545.909761	24387.451330
546.268918	24606.726399
546.628019	24569.686521
546.987064	24278.537201
547.346053	24040.733371
547.704986	24167.838504
548.063863	24327.557381
548.422684	24318.705115
548.781449	23878.899730
549.140158	24270.007569
549.498811	23845.570141
549.857408	23585.192024
550.215949	24019.250494
550.574434	23700.458007
550.932864	23923.569394
551.291237	24074.458690
551.649555	23939.900212
552.007817	23985.200020
552.366022	23862.016906
552.724173	23904.778493
553.082267	23836.017155
553.440305	24312.809485
553.798288	23587.006840
554.156215	24114.321614
554.514086	24178.684546
554.871902	23570.681063
555.229661	23856.511966
555.587365	23718.137334
555.945014	23559.580442
556.302606	23837.305169
556.660143	23756.039249
557.017625	24020.619167
557.375050	23559.149424
557.732421	23951.656183
558.089735	23751.068671
558.446994	23811.933042
558.804197	23833.899870
559.161345	23789.489825
559.518437	23538.389952
559.875474	23746.655141
560.232455	23915.327107
560.589381	23755.479681
560.946251	23711.903947
561.303065	24045.025914
561.659825	24130.907011
562.016528	23737.681887
562.373177	23481.946673
562.729770	23820.820596
563.086307	23699.366597
563.442789	23871.388411
563.799216	23689.133055
564.155587	23704.765673
564.511904	23692.931564
564.868164	23616.298464
565.224370	23611.721097
565.580520	23501.869313
565.936615	23651.016891
566.292654	23305.334889
566.648638	23634.335713
567.004567	23447.341673
567.360441	23413.351693
567.716260	23128.513897
568.072023	23464.040495
568.427732	23229.906625
568.783385	23006.739785
569.138982	23234.022727
569.494525	23273.487400
569.850013	23023.990614
570.205445	23118.905458
570.560823	22919.288369
570.916145	22688.592566
571.271412	22860.662270
571.626625	22612.884518
571.981782	22743.694898
572.336884	22528.190612
572.691931	22674.671420
573.046923	22395.446949
573.401860	22289.570116
573.756743	22288.196401
574.111570	22203.505017
574.466342	22140.561170
574.821059	22235.851580
575.175722	21928.757091
575.530330	21911.856623
575.884882	21941.690171
576.239380	21846.966890
576.593823	21730.725444
576.948211	21715.259184
577.302544	21565.748643
577.656823	21434.658479
578.011047	21523.723064
578.365216	21399.887120
578.719330	21290.531890
579.073389	21182.550375
579.427394	21325.782159
579.781344	21112.037236
580.135239	20996.826706
580.489080	20976.762913
580.842866	20729.385932
581.196597	20919.122360
581.550273	20905.780947
581.903895	20796.302208
582.257463	21105.897110
582.610975	20640.664145
582.964434	20930.069226
583.317837	20663.036786
583.671186	20751.224211
584.024481	20715.495033
584.377721	20476.559464
584.730906	20538.167405
585.084037	20575.799619
585.437113	20477.071141
585.790135	20675.352325
586.143103	20143.485388
586.496016	20149.451594
586.848874	20398.371168
587.201679	20336.483443
587.554428	20002.040694
587.907124	20337.383289
588.259765	20115.605287
588.612352	20190.710917
588.964884	19755.969372
589.317362	19934.862277
589.669786	19980.164607
590.022155	20047.368228
590.374470	20205.662980
590.726731	20028.554642
591.078937	19767.130486
591.431090	19872.205776
591.783188	19607.686352
592.135232	19587.897302
592.487222	19688.138126
592.839157	19721.351768
593.191038	19597.785526
593.542866	19485.924842
593.894639	19203.287511
594.246358	19424.770605
594.598022	19335.703499
594.949633	19086.491538
595.301190	19055.135561
595.652692	19209.992245
596.004141	19445.605694
596.355535	18788.355179
596.706876	18800.607703
597.058162	18689.077216
597.409395	18915.515764
597.760573	18994.891252
598.111698	18772.657026
598.462768	18707.101861
598.813785	18668.390841
599.164748	18494.279469
599.515657	18529.655766
599.866511	18310.358012
600.217312	18680.373663
600.568060	18215.390236
600.918753	18514.169342
601.269392	18421.457481
601.619978	18184.152726
601.970510	18415.942459
602.320988	18355.930043
602.671412	18559.307833
603.021783	18461.529613
603.372100	18193.231844
603.722363	18337.970933
604.072572	18272.763607
604.422728	18410.785359
604.772830	18170.609666
605.122878	18119.784753
605.472872	18113.367364
605.822813	18105.230942
606.172701	18065.768789
606.522534	18278.311397
606.872314	18283.876831
607.222041	18118.539588
607.571714	18332.644953
607.921333	18169.624120
608.270899	18238.647599
608.620411	18427.905117
608.969870	18184.104835
609.319276	18199.172844
609.668627	18225.888438
610.017926	18356.295527
610.367171	18478.326738
610.716362	18510.895112
611.065500	18326.711515
611.414585	18473.388928
611.763616	18456.158264
612.112594	18399.306651
612.461518	18370.176344
612.810389	18554.027225
613.159207	18410.117406
613.507971	18315.590730
613.856682	18603.576726
614.205340	18526.177370
614.553945	18678.238735
614.902496	18423.289941
615.250994	18668.799174
615.599439	18600.229400
615.947830	18581.771215
616.296169	18624.016084
616.644454	18597.655891
616.992686	18570.751253
617.340864	18780.952244
617.688990	18537.537610
618.037063	18714.890444
618.385082	18564.553154
618.733048	18842.555144
619.080961	18700.389565
619.428821	18750.773377
619.776628	18641.539135
620.124382	18564.129697
620.472083	18592.803780
620.819731	18623.733779
621.167326	18321.105752
621.514868	18365.699799
621.862357	18114.365512
622.209793	18130.527452
622.557176	17962.599055
622.904506	17799.656360
623.251783	17696.761369
623.599007	17466.925083
623.946179	17417.098318
624.293297	17356.024739
624.640363	17121.764841
624.987376	17125.727188
625.334336	16922.747649
625.681243	16767.470028
626.028097	16774.063857
626.374899	16701.153649
626.721647	16583.508242
627.068343	16398.021507
627.414987	16335.148236
627.761577	16304.435006
628.108115	16354.959970
628.454600	16072.887248
628.801032	16174.088412
629.147412	16111.462157
629.493739	16125.537059
629.840014	15934.978923
630.186236	16043.976231
630.532405	15797.786442
630.878521	16000.289592
631.224585	15889.946296
631.570597	15713.029522
631.916556	15739.868625
632.262462	15727.243055
632.608316	15636.083870
632.954117	15590.831953
633.299866	15576.169757
633.645562	15501.258211
633.991206	15252.530200
634.336797	15121.379542
634.682336	15090.318473
635.027823	14989.621424
635.373257	14862.828843
635.718639	14761.531898
636.063968	14716.398448
636.409245	14473.810563
636.754470	14499.825437
637.099642	14338.810983
637.444762	14114.053660
637.789829	14157.672243
638.134845	13993.592768
638.479808	14025.107541
638.824719	13980.447959
639.169577	13824.623373
639.514383	13871.697668
639.859137	13687.448536
640.203839	13774.158903
640.548489	13613.646044
640.893086	13606.099437
641.237632	13472.186226
641.582125	13617.341210
641.926566	13456.425058
642.270955	13459.326242
642.615292	13431.884721
642.959576	13437.714816
643.303809	13469.844610
643.647990	13403.734918
643.992118	13459.646356
644.336195	13232.383578
644.680219	13431.988065
645.024192	13360.539792
645.368112	13600.781019
645.711981	13658.900482
646.055797	13840.341691
646.399562	13805.993789
646.743274	14068.736207
647.086935	14336.484491
647.430544	14308.783351
647.774101	14336.534902
648.117606	14500.511034
648.461059	14460.040651
648.804460	14454.528149
649.147810	14186.245503
649.491108	14085.198095
649.834354	14103.822638
650.177548	13804.204180
650.520690	13608.123460
650.863781	13531.250905
651.206820	13572.989138
651.549807	13397.509093
651.892742	13212.287019
652.235626	13152.100683
652.578458	13157.071261
652.921238	12833.547651
653.263967	13037.230431
653.606644	12863.955891
653.949269	12830.510356
654.291843	12643.541521
654.634365	12800.132362
654.976836	12642.402220
655.319255	12660.381496
655.661622	12616.926749
656.003938	12527.446269
656.346203	12466.284470
656.688416	12526.551464
657.030577	12488.024446
657.372687	12411.106520
657.714746	12380.642827
658.056753	12573.010738
658.398708	12396.003223
658.740612	12392.439127
659.082465	12497.983245
659.424266	12456.907923
659.766016	12484.762819
660.107715	12396.590518
660.449362	12461.024026
660.790958	12421.682861
661.132503	12365.988193
661.473996	12437.612907
661.815438	12451.125720
662.156829	12465.813122
662.498168	12442.603649
662.839456	12441.363526
663.180693	12467.333030
663.521879	12552.868808
663.863013	12526.054910
664.204097	12501.615396
664.545129	12627.893780
664.886110	12592.487236
665.227040	12679.905884
665.567918	12695.130169
665.908746	12722.042369
666.249522	12702.981766
666.590248	12750.807193
666.930922	12864.023946
667.271545	12848.610618
667.612118	12937.037498
667.952639	12831.206035
668.293109	12843.423271
668.633528	12797.611786
668.973896	12777.308538
669.314213	12862.229296
669.654480	12597.299017
669.994695	12660.746979
670.334859	12688.122965
670.674973	12645.368939
671.015035	12674.902539
671.355047	12608.026592
671.695008	12587.995568
672.034918	12584.970875
672.374777	12634.018782
672.714585	12552.820917
673.054342	12573.986201
673.394049	12533.248637
673.733705	12627.366979
674.073310	12538.506560
674.412864	12553.009960
674.752368	12432.397833
675.091820	12433.572422
675.431223	12425.002461
675.770574	12299.674335
676.109875	12223.162222
676.449125	12180.977847
676.788324	12116.012497
677.127473	11959.499794
677.466571	11950.781118
677.805619	11843.586023
678.144616	11766.388314
678.483562	11739.098027
678.822458	11605.585588
679.161303	11587.757548
679.500098	11575.792369
679.838842	11531.921728
680.177535	11549.386805
680.516179	11612.373502
680.854771	11554.367465
681.193314	11775.507761
681.531805	11918.996643
681.870247	12333.631547
682.208638	12743.888209
682.546978	13060.306312
682.885268	13114.836474
683.223508	12810.948158
683.561697	12644.728713
683.899836	12545.256665
684.237925	12351.615864
684.575963	12268.888008
684.913951	12191.488653
685.251889	12137.820529
685.589776	12231.986762
685.927614	12158.234682
686.265401	12119.853857
686.603137	12177.554904
686.940824	12323.602172
687.278460	12441.418978
687.616046	12493.337822
687.953582	12659.716063
688.291068	12579.884351
688.628504	12814.119044
688.965889	12829.091271
689.303224	12795.807053
689.640510	12687.354189
689.977745	12380.032848
690.314930	12160.026812
690.652065	12070.400137
690.989150	11782.149481
691.326185	11556.658670
691.663170	11355.619975
692.000105	11108.674012
692.336990	11000.130408
692.673825	10747.805535
693.010610	10633.946034
693.347345	10420.682541
693.684030	10221.448580
694.020665	10167.243573
694.357251	9966.736720
694.693786	9918.339122
695.030272	9749.480633
695.366707	9634.209609
695.703093	9564.349299
696.039429	9561.997601
696.375716	9484.812494
696.711952	9352.615797
697.048139	9396.786387
697.384276	9348.121608
697.720363	9366.544505
698.056400	9306.869846
698.392388	9254.220035
698.728326	9218.624448
699.064214	9156.575406
699.400053	9197.290285
699.735842	9014.298921
700.071581	8970.448444
700.407270	8901.303978
700.742910	8817.101585
701.078501	8732.972289
701.414042	8607.762631
701.749533	8543.359370
702.084974	8398.098522
702.420366	8512.913321
702.755709	8395.222543
703.091002	8260.348993
703.426246	8291.238663
703.761440	8245.727126
704.096584	8203.010909
704.431679	8136.646639
704.766725	8124.585678
705.101721	8068.891011
705.436668	8115.463711
705.771565	8006.234510
706.106413	8082.958351
706.441212	8122.233980
706.775961	8087.593692
707.110661	8118.311962
707.445311	8265.483408
707.779913	8163.931884
708.114465	8290.548025
708.448967	8334.118718
708.783421	8467.888255
709.117825	8651.751739
709.452180	8689.835136
709.786485	8768.436807
710.120742	9053.814005
710.454949	9053.645127
710.789107	9156.540118
711.123216	9366.640287
711.457275	9532.998363
711.791286	9691.860245
712.125247	9687.396303
712.459159	9674.165795
712.793023	9934.032234
713.126837	9504.999795
713.460602	9656.332713
713.794318	9478.448038
714.127985	9513.221917
714.461602	9195.341879
714.795171	9141.830031
715.128691	8900.565449
715.462162	8646.456007
715.795584	8590.206812
716.128957	8448.968805
716.462281	8274.756610
716.795556	8323.103796
717.128782	8124.787325
717.461960	7853.180038
717.795088	7924.920698
718.128167	7834.673962
718.461198	7665.011409
718.794180	7610.655167
719.127113	7598.566480
719.459997	7456.937784
719.792833	7222.214099
720.125619	7286.826568
720.458357	7141.850545
720.791046	7132.559698
721.123686	7126.870756
721.456278	6971.572971
721.788821	6994.301013
722.121315	6881.669033
722.453761	6952.719055
722.786158	6891.010291
723.118506	6904.238279
723.450805	6875.670060
723.783056	6941.799916
724.115259	6844.961871
724.447412	6839.898032
724.779518	6889.608850
725.111574	6891.199334
725.443582	6967.640871
725.775542	6949.273427
726.107453	7142.019423
726.439315	7050.441823
726.771129	7109.796368
727.102895	7274.737881
727.434612	7389.247690
727.766281	7420.633914
728.097901	7505.852099
728.429473	7493.065213
728.760996	7476.184909
729.092471	7450.250693
729.423897	7397.217755
729.755276	7407.279898
730.086606	7335.874474
730.417887	7431.255625
730.749120	7615.756815
731.080305	7815.507495
731.411442	7946.771579
731.742530	7933.984693
732.073570	8041.532669
732.404562	8126.476111
732.735506	7973.230075
733.066401	8117.414637
733.397249	8047.322434
733.728048	7816.737537
734.058798	7478.498799
734.389501	7260.763802
734.720156	7079.670433
735.050762	6846.617890
735.381320	6750.117603
735.711831	6697.732453
736.042293	6596.347287
736.372707	6608.935048
736.703073	6479.783207
737.033391	6512.260841
737.363661	6522.958169
737.693883	6550.989505
738.024056	6636.356405
738.354182	6675.856366
738.684260	6713.876748
739.014290	6821.417162
739.344272	6934.117198
739.674207	6960.363965
740.004093	7029.823503
740.333931	7049.269754
740.663722	7056.816362
740.993464	7134.371993
741.323159	7128.912423
741.652806	6875.481017
741.982405	6879.445884
742.311956	6947.236801
742.641460	6785.430886
742.970915	6590.174394
743.300323	6579.676191
743.629683	6528.142996
743.958996	6397.733387
744.288260	6307.274923
744.617477	6255.537561
744.946647	6264.999807
745.275768	6095.014619
745.604842	6053.795625
745.933869	6034.702255
746.262847	5990.856819
746.591778	5983.363144
746.920662	5938.549807
747.249498	5926.622437
747.578286	5976.275282
747.907027	6055.156737
748.235720	6109.848215
748.564365	6080.763278
748.892963	6107.171362
749.221514	6261.884373
749.550017	6099.435711
749.878473	5970.031813
750.206881	6032.461462
750.535242	5972.375949
750.863555	5897.290483
751.191821	5926.017498
751.520039	5923.786788
751.848210	5833.582902
752.176334	5847.057906
752.504411	5906.344396
752.832440	5827.346994
753.160421	5753.567187
753.488356	5800.858251
753.816243	5836.090876
754.144082	5686.005643
754.471875	5659.990769
754.799620	5698.853024
755.127318	5712.317946
755.454969	5667.396224
755.782572	5631.014217
756.110129	5676.369478
756.437638	5659.678217
756.765100	5599.839721
757.092515	5599.224700
757.419882	5646.767822
757.747203	5629.741325
758.074477	5693.506880
758.401703	5681.193862
758.728882	5630.245441
759.056014	5681.766033
759.383099	5810.257483
759.710138	5822.588145
760.037129	5808.790507
760.364073	5819.429862
760.690970	5894.999279
761.017820	5882.237598
761.344623	5833.971070
761.671379	5931.035967
761.998088	6049.326642
762.324751	6285.913033
762.651366	6875.276850
762.977935	8162.747213
763.304456	9787.763155
763.630931	10703.730727
763.957359	10334.199027
764.283740	9389.925376
764.610074	8567.869460
764.936362	7579.367246
765.262602	6981.304918
765.588796	6440.099244
765.914943	6102.402430
766.241044	5941.014931
766.567097	5747.903451
766.893104	5491.180171
767.219064	5310.071677
767.544978	5246.401904
767.870845	5168.080018
768.196665	5062.687135
768.522438	4993.426722
768.848165	4957.538748
769.173846	4892.908635
769.499479	4851.740052
769.825066	4795.979849
770.150607	4736.227053
770.476101	4712.503383
770.801548	4708.099935
771.126949	4638.799193
771.452303	4580.200821
771.777611	4538.273544
772.102872	4557.099733
772.428087	4518.227396
772.753256	4480.133917
773.078378	4440.008853
773.403453	4368.212740
773.728482	4357.175133
774.053465	4308.495231
774.378401	4291.476296
774.703291	4292.454280
775.028135	4225.452304
775.352932	4174.463553
775.677683	4164.532480
776.002388	4180.626364
776.327046	4194.963406
776.651658	4118.022795
776.976224	4055.925862
777.300743	4063.449784
777.625216	4081.222372
777.949643	4077.524686
778.274024	4034.332079
778.598359	3988.664267
778.922647	4013.771733
779.246889	4003.056761
779.571086	3998.872603
779.895236	3987.184688
780.219339	3971.501658
780.543397	3962.331800
780.867409	4013.907845
781.191374	4031.209085
781.515294	3970.412769
781.839167	3960.141418
782.162995	3977.314109
782.486776	3966.044609
782.810511	3975.532061
783.134201	3971.768840
783.457844	3930.262499
783.781441	3874.519941
784.104993	3880.224006
784.428498	3897.764701
784.751958	3898.107500
785.075372	3875.006412
785.398739	3837.336390
785.722061	3848.520190
786.045337	3890.265985
786.368568	3927.260492
786.691752	3836.000484
787.014891	3883.583935
787.337983	4010.799973
787.661030	4167.499199
787.984031	4327.427285
788.306987	4499.300384
788.629897	4582.549998
788.952760	4539.732958
789.275579	4468.902226
789.598351	4405.678595
789.921078	4271.919140
790.243759	4074.633584
790.566395	4046.080488
790.888984	4046.859347
791.211529	3939.608799
791.534027	3879.432545
791.856480	3872.644632
792.178888	3807.432265
792.501249	3757.015686
792.823566	3771.985392
793.145836	3801.922284
793.468062	3747.170312
793.790241	3700.274979
794.112375	3730.683219
794.434464	3793.385090
794.756507	3816.932320
795.078505	3798.786687
795.400457	3828.400945
795.722364	3965.752222
796.044226	4074.404211
796.366042	4142.900889
796.687812	4125.269454
797.009538	4131.535608
797.331218	4088.905090
797.652852	4061.781162
797.974442	4046.314902
798.295986	4045.750293
798.617484	3964.612922
798.938938	3878.399109
799.260346	3917.659615
799.581709	3912.447062
799.903026	3840.655990
800.224299	3804.503355
800.545526	3799.663847
800.866708	3762.263527
801.187845	3697.971171
801.508936	3734.398549
801.829983	3734.779156
802.150984	3654.491219
802.471940	3644.759272
802.792851	3654.226559
803.113717	3653.558606
803.434538	3655.610356
803.755314	3598.788990
804.076045	3574.288982
804.396731	3592.805140
804.717372	3622.845376
805.037967	3605.110597
805.358518	3593.316817
805.679024	3620.672639
805.999485	3633.159577
806.319901	3639.466060
806.640272	3652.099192
806.960598	3666.451357
807.280879	3643.889673
807.601115	3653.407371
807.921306	3669.851615
808.241453	3711.657904
808.561554	3686.976415
808.881611	3620.844038
809.201623	3656.762259
809.521590	3669.760874
809.841513	3640.887666
810.161390	3670.454033
810.481223	3648.966115
810.801011	3594.887137
811.120755	3583.809201
811.440453	3621.330509
811.760107	3624.433340
812.079716	3581.981783
812.399281	3551.666804
812.718801	3573.593303
813.038276	3546.033315
813.357707	3543.157337
813.677093	3562.583423
813.996434	3510.936802
814.315731	3514.710106
814.634983	3524.706714
814.954191	3530.665358
815.273354	3566.510482
815.592473	3560.415727
815.911547	3565.323290
816.230577	3606.690999
816.549562	3654.387876
816.868502	3697.247766
817.187399	3723.456725
817.506250	3719.287690
817.825058	3693.426571
818.143821	3780.928399
818.462539	3886.064183
818.781213	3932.432716
819.099843	3987.030933
819.418429	4225.328796
819.736970	4465.131443
820.055466	4707.721848
820.373919	5073.921346
820.692327	5474.975382
821.010691	5909.477473
821.329011	7254.205261
821.647286	9954.461510
821.965517	14461.681547
822.283704	18502.877157
822.601847	20710.166533
822.919945	18935.506460
823.237999	16370.358175
823.556010	13896.676585
823.873976	11812.414048
824.191897	9728.390966
824.509775	8377.172692
824.827609	7249.562358
825.145398	6695.819335
825.463144	6583.242808
825.780845	6693.507966
826.098502	6872.252158
826.416116	7731.405925
826.733685	9040.669197
827.051210	10158.613117
827.368692	10232.851670
827.686129	9000.884410
828.003522	7486.552042
828.320872	6466.293080
828.638177	5769.794661
828.955439	5212.384198
829.272656	4713.209144
829.589830	4432.978964
829.906960	4255.825256
830.224046	4071.603850
830.541088	3949.242444
830.858086	3896.844691
831.175041	3823.463135
831.491952	3808.047286
831.808819	3818.137156
832.125642	3887.878998
832.442421	4030.614228
832.759157	4300.326042
833.075849	4841.244370
833.392497	5702.094486
833.709101	6477.474359
834.025662	6819.125958
834.342179	6475.392362
834.658653	5810.459129
834.975083	5170.829967
835.291469	4595.248665
835.607811	4183.590563
835.924110	4042.755847
836.240366	3847.431301
836.556578	3642.422697
836.872746	3529.180738
837.188871	3493.960716
837.504952	3426.419337
837.820990	3345.526462
838.136984	3298.547949
838.452935	3324.189778
838.768842	3321.752380
839.084706	3340.460102
839.400526	3495.969616
839.716303	3824.751149
840.032037	4344.307588
840.347727	4616.668528
840.663373	4346.185418
840.978977	3969.525526
841.294537	3660.200326
841.610054	3435.536264
841.925527	3325.240859
842.240957	3254.412647
842.556344	3200.807538
842.871687	3145.589259
843.186987	3092.458018
843.502244	3058.755384
843.817458	3024.452853
844.132629	2989.479848
844.447756	3002.717918
844.762840	2989.484889
845.077881	2957.733182
845.392879	2935.468926
845.707833	2934.087650
846.022745	2930.200920
846.337613	2933.323915
846.652438	2923.281936
846.967221	2919.586771
847.281960	2905.252250
847.596656	2902.507341
847.911309	2897.950138
848.225919	2894.912843
848.540485	2889.302039
848.855009	2890.214488
849.169490	2878.508928
849.483928	2869.265973
849.798323	2871.587424
850.112675	2868.726569
850.426984	2879.711244
850.741251	2874.982641
851.055474	2865.369161
851.369654	2859.402955
851.683792	2863.085518
851.997887	2871.806714
852.311938	2873.084647
852.625947	2862.215919
852.939914	2867.778832
853.253837	2873.399719
853.567718	2857.152080
853.881555	2855.029754
854.195350	2870.889224
854.509103	2869.581045
854.822812	2858.989581
855.136479	2856.705938
855.450103	2855.806092
855.763685	2851.284177
856.077224	2847.253775
856.390720	2859.788604
856.704173	2870.478370
857.017584	2860.554859
857.330953	2858.424972
857.644278	2868.383771
857.957561	2879.093702
858.270802	2881.097561
858.584000	2881.604197
858.897155	2868.058617
859.210268	2867.534337
859.523339	2863.100642
859.836367	2864.549973
860.149352	2857.585619
860.462295	2853.487161
860.775195	2862.432689
861.088054	2862.573841
861.400869	2843.954339
861.713642	2840.440655
862.026373	2855.493541
862.339062	2861.195086
862.651708	2863.755992
862.964312	2867.806559
863.276873	2863.808924
863.589392	2872.280583
863.901869	2883.265257
864.214303	2905.169071
864.526696	2919.158273
864.839045	2915.997469
865.151353	2916.940165
865.463619	2912.322468
865.775842	2915.586615
866.088023	2931.297371
866.400162	2942.508897
866.712258	2913.917993
867.024313	2900.354769
867.336325	2908.292065
867.648296	2933.538164
867.960224	2924.809406
868.272110	2911.306675
868.583954	2916.143663
868.895755	2929.119593
869.207515	2918.228180
869.519233	2920.194230
869.830909	2929.406938
870.142542	2943.139041
870.454134	2938.554112
870.765684	2940.442024
871.077191	2941.006633
871.388657	2946.105760
871.700081	2964.652165
872.011463	2975.011737
872.322803	2977.406285
872.634101	2977.262612
872.945357	2991.234170
873.256571	3018.829446
873.567744	3011.645802
873.878874	3002.007115
874.189963	3026.670961
874.501010	3028.382432
874.812015	3016.974301
875.122979	3018.537059
875.433900	3014.582274
875.744780	3021.077800
876.055618	3028.614325
876.366415	3025.163656
876.677169	3034.482228
876.987882	3032.518699
877.298554	3025.735827
877.609183	3043.274001
877.919771	3069.987075
878.230317	3097.950355
878.540822	3146.282418
878.851285	3186.228521
879.161707	3226.464490
879.472087	3325.545849
879.782425	3548.735373
880.092722	3978.735714
880.402977	4504.828009
880.713191	5123.793481
881.023363	6262.753972
881.333494	7536.736728
881.643583	8109.033719
881.953631	7818.040675
882.263637	7196.451282
882.573602	6615.087777
882.883526	6038.964550
883.193408	5470.035051
883.503248	5003.899719
883.813048	4700.737330
884.122806	4403.833533
884.432522	4088.688321
884.742197	3852.875747
885.051831	3660.679236
885.361424	3526.738299
885.670975	3457.608956
885.980485	3370.278527
886.289954	3293.713483
886.599382	3251.400558
886.908768	3213.291955
887.218113	3163.470232
887.527417	3111.460648
887.836680	3061.470046
888.145901	3058.198337
888.455082	3047.654763
888.764221	2994.803307
889.073319	2966.484625
889.382376	2966.008236
889.691392	2967.966724
890.000366	2965.194089
890.309300	2951.439301
890.618193	2963.641414
890.927044	2983.291832
891.235855	2983.213694
891.544625	2967.298771
891.853353	2980.741008
892.162041	2997.477639
892.470687	3039.478012
892.779293	3088.679673
893.087858	3133.049389
893.396381	3205.568908
893.704864	3322.795899
894.013306	3561.292888
894.321707	3857.014534
894.630068	4064.609249
894.938387	4066.247624
895.246665	4018.540665
895.554903	3902.495824
895.863100	3702.606512
896.171256	3535.835061
896.479371	3398.345151
896.787446	3280.223355
897.095480	3174.812828
897.403473	3107.241202
897.711425	3074.503949
898.019336	3061.296126
898.327207	3037.257384
898.635038	3001.482835
898.942827	2986.220742
899.250576	2974.230358
899.558284	2945.609207
899.865952	2922.301432
900.173579	2904.112949
900.481165	2898.023235
900.788711	2885.039743
901.096216	2861.694160
901.403681	2846.273270
901.711105	2854.082018
902.018489	2854.424816
902.325832	2854.427337
902.633135	2862.994777
902.940397	2895.059037
903.247619	2971.366982
903.554800	3162.341013
903.861941	3502.150071
904.169041	3925.811161
904.476101	4230.274168
904.783121	4187.081562
905.090100	3947.185653
905.397039	3676.473171
905.703938	3426.494954
906.010796	3242.346646
906.317614	3129.964203
906.624391	3038.406767
906.931129	2966.003195
907.237826	2904.881725
907.544483	2856.022862
907.851099	2824.273675
908.157675	2805.424801
908.464211	2787.717748
908.770707	2773.239554
909.077163	2762.030548
909.383578	2745.442632
909.689954	2735.614902
909.996289	2734.921743
910.302584	2734.717577
910.608839	2736.000550
910.915054	2728.597616
911.221229	2723.180896
911.527363	2724.103427
911.833458	2730.651886
912.139513	2736.282855
912.445527	2739.627661
912.751502	2746.198805
913.057436	2756.979312
913.363331	2769.529265
913.669186	2791.359981
913.975000	2826.721155
914.280775	2882.662839
914.586510	2954.305197
914.892205	3032.541384
915.197859	3159.051661
915.503475	3346.406143
915.809050	3558.298442
916.114585	3702.929146
916.420081	3730.678177
916.725536	3671.570649
917.030952	3555.603946
917.336328	3425.244748
917.641665	3295.011580
917.946961	3196.119265
918.252218	3125.112092
918.557435	3047.611914
918.862612	2988.683346
919.167750	2941.293979
919.472848	2900.180849
919.777906	2875.617827
920.082925	2850.613704
920.387904	2818.002479
920.692843	2803.231899
920.997743	2789.961061
921.302603	2778.164761
921.607423	2767.679161
921.912204	2757.075094
922.216946	2745.130080
922.521647	2736.358472
922.826310	2728.239694
923.130932	2721.451780
923.435516	2713.080944
923.740059	2707.999461
924.044564	2697.400435
924.349028	2695.202492
924.653454	2688.452387
924.957840	2681.906449
925.262186	2672.839934
925.566493	2672.040911
925.870761	2667.821465
926.174989	2662.734941
926.479178	2657.698828
926.783328	2654.222953
927.087438	2651.210863
927.391509	2652.534166
927.695541	2646.018475
927.999533	2644.148207
928.303486	2642.837507
928.607400	2642.686272
928.911275	2640.889101
929.215110	2641.216776
929.518906	2639.159985
929.822663	2639.220479
930.126381	2634.297792
930.430060	2638.539923
930.733699	2640.148051
931.037299	2641.839358
931.340861	2642.383803
931.644383	2641.935140
931.947866	2640.082516
932.251309	2641.940181
932.554714	2640.818525
932.858080	2635.830303
933.161407	2634.819552
933.464694	2633.339973
933.767943	2629.430558
934.071153	2633.758389
934.374323	2633.546660
934.677455	2631.890641
934.980548	2629.085239
935.283602	2628.210599
935.586617	2628.873511
935.889593	2631.111783
936.192530	2632.150261
936.495428	2633.559263
936.798287	2632.054479
937.101108	2636.649490
937.403890	2641.015130
937.706632	2644.790954
938.009336	2652.329999
938.312002	2662.765188
938.614628	2668.330622
938.917216	2675.133659
939.219765	2675.685665
939.522275	2672.731549
939.824747	2671.662824
940.127179	2670.715087
940.429573	2670.029491
940.731929	2661.842657
941.034246	2659.843839
941.336524	2659.909374
941.638763	2654.575833
941.940964	2651.009217
942.243126	2649.925369
942.545250	2652.705565
942.847335	2647.303969
943.149381	2642.338432
943.451389	2640.521097
943.753359	2637.761065
944.055290	2637.420787
944.357182	2636.974645
944.659036	2634.368368
944.960851	2633.471043
945.262628	2629.997688
945.564367	2631.071454
945.866067	2631.573048
946.167729	2632.616567
946.469352	2634.494397
946.770937	2633.231588
947.072484	2632.203193
947.373992	2630.791670
947.675462	2631.489869
947.976893	2625.405197
948.278286	2623.953344
948.579641	2625.737913
948.880958	2621.140381
949.182236	2625.856380
949.483476	2625.422841
949.784678	2623.527367
950.085841	2624.061729
950.386967	2623.592902
950.688054	2624.739764
950.989103	2628.878552
951.290114	2626.577265
951.591087	2627.003242
951.892021	2630.574900
952.192917	2633.282000
952.493776	2635.089253
952.794596	2637.186373
953.095378	2634.149078
953.396122	2637.934985
953.696828	2637.269552
953.997496	2632.321660
954.298126	2630.259828
954.598718	2629.004581
954.899272	2625.218674
955.199788	2622.645165
955.500266	2619.812037
955.800706	2617.949330
956.101108	2618.226594
956.401472	2614.309617
956.701798	2613.636623
957.002087	2610.470778
957.302337	2609.777620
957.602550	2607.710747
957.902724	2607.471292
958.202861	2605.071703
958.502960	2605.124635
958.803022	2605.853082
959.103045	2603.145982
959.403031	2603.743359
959.702979	2600.343100
960.002889	2599.786053
960.302762	2601.626074
960.602596	2601.237905
960.902393	2598.787904
961.202153	2598.863522
961.501875	2596.027873
961.801559	2598.929057
962.101205	2599.488625
962.400814	2596.839498
962.700385	2597.396546
962.999918	2595.420414
963.299414	2596.095928
963.598873	2597.840167
963.898293	2589.227356
964.197677	2598.566094
964.497022	2596.108531
964.796331	2597.331011
965.095601	2596.531988
965.394835	2595.478387
965.694030	2594.132399
965.993189	2596.370671
966.292309	2596.370671
966.591393	2595.677512
966.890439	2593.633325
967.189447	2594.644076
967.488419	2592.494024
967.787353	2597.162132
968.086249	2592.723396
968.385108	2595.463263
968.683930	2596.985692
968.982714	2594.117275
969.281462	2595.861515
969.580172	2594.671802
969.878844	2592.834302
970.177480	2597.288161
970.476078	2595.460743
970.774639	2595.861515
971.073162	2593.877821
971.371649	2596.060640
971.670098	2594.971751
971.968510	2594.591144
972.266885	2595.954776
972.565223	2594.258428
972.863524	2595.654827
973.161788	2596.141299
973.460014	2594.959148
973.758204	2595.425455
974.056356	2596.892431
974.354471	2596.446288
974.652550	2596.582400
974.950591	2595.614498
975.248595	2596.960486
975.546563	2597.386464
975.844493	2595.473346
976.142386	2594.329004
976.440243	2594.714652
976.738062	2596.481577
977.035845	2592.420927
977.333590	2593.293047
977.631299	2593.308170
977.928971	2591.460587
978.226606	2588.786255
978.524204	2592.557038
978.821765	2590.724579
979.119290	2590.717017
979.416777	2590.825402
979.714228	2592.937645
980.011642	2591.349682
980.309020	2596.342945
980.606360	2594.389498
980.903664	2592.383118
981.200931	2593.948397
981.498162	2594.084508
981.795356	2595.498552
982.092513	2597.648604
982.389633	2599.657503
982.686717	2603.640015
982.983764	2605.651435
983.280775	2609.089502
983.577749	2612.257867
983.874686	2610.601848
984.171587	2608.154368
984.468451	2605.875767
984.765279	2599.954932
985.062070	2602.173039
985.358824	2600.111207
985.655543	2600.519541
985.952224	2597.376381
986.248869	2595.150712
986.545478	2595.722883
986.842050	2595.979982
987.138586	2592.821699
987.435086	2594.132399
987.731549	2592.035279
988.027975	2592.551997
988.324366	2590.699373
988.620719	2590.931266
988.917037	2590.051585
989.213318	2591.763057
989.509563	2590.475042
989.805772	2586.434557
990.101944	2589.713827
990.398080	2592.665423
990.694180	2590.354054
990.990244	2589.968406
991.286271	2589.040833
991.582262	2590.923704
991.878217	2590.848087
992.174136	2588.879517
992.470019	2589.885227
992.765865	2586.984043
993.061676	2585.655699
993.357450	2587.785586
993.653188	2585.184351
993.948890	2587.137798
994.244556	2590.898499
994.540186	2593.101483
994.835780	2589.262644
995.131337	2590.875813
995.426859	2592.332707
995.722345	2591.657192
996.017795	2594.467636
996.313208	2595.289344
996.608586	2595.309508
996.903928	2596.418562
997.199234	2596.600044
997.494504	2597.588110
997.789738	2594.727255
998.084936	2594.475197
998.380099	2590.868252
998.675225	2594.752461
998.970316	2592.035279
999.265371	2594.175249
999.560390	2593.030907
999.855373	2591.589137
1000.150320	2589.040833
1000.445232	2590.921184
1000.740108	2592.073087
1001.034948	2590.207861
1001.329752	2589.043354
1001.624521	2588.146029
1001.919254	2586.608477
1002.213951	2588.083014
1002.508613	2588.685432
1002.803239	2586.074114
1003.097829	2587.510843
1003.392384	2588.057808
1003.686903	2589.086204
1003.981386	2588.687953
1004.275834	2590.409507
1004.570246	2586.149732
1004.864623	2588.430854
1005.158964	2587.548652
1005.453270	2587.135277
1005.747540	2588.934969
1006.041775	2587.490679
1006.335974	2589.441605
1006.630138	2584.970102
1006.924266	2589.295412
1007.218359	2588.324990
1007.512416	2585.953127
1007.806438	2584.138311
1008.100425	2588.057808
1008.394376	2584.377766
1008.688292	2586.588312
1008.982172	2585.733837
1009.276017	2587.110072
1009.569827	2586.452201
1009.863602	2587.717531
1010.157341	2587.289032
1010.451045	2588.166193
1010.744714	2586.295925
1011.038347	2586.124526
1011.331945	2586.711820
1011.625508	2585.685946
1011.919036	2589.522264
1012.212528	2587.029413
1012.505986	2583.997159
1012.799408	2587.374732
1013.092795	2585.575040
1013.386147	2586.036306
1013.679464	2585.902715
1013.972745	2586.671491
1014.265992	2588.405648
1014.559204	2586.323652
1014.852380	2586.099320
1015.145521	2587.110072
1015.438628	2587.362129
1015.731699	2589.469332
1016.024736	2587.674681
1016.317737	2585.701069
1016.610703	2586.976481
1016.903635	2587.962027
1017.196531	2585.239803
1017.489393	2586.303487
1017.782219	2587.616707
1018.075011	2584.791141
1018.367768	2587.150401
1018.660490	2586.419433
1018.953177	2586.419433
1019.245829	2586.419433
