Dividing Wavelength (nm)	Counts (n)	Blue Motor Position (mm): 44.800000	Red Motor Position (mm): 0.000000	
326.493990	2264.451020
326.888308	2264.451020
327.282561	2264.451020
327.676750	2226.082798
328.070874	2222.927035
328.464933	2223.083311
328.858929	2227.529609
329.252859	2232.364075
329.646726	2239.560323
330.040528	2251.520460
330.434265	2265.232398
330.827938	2286.919442
331.221547	2301.430404
331.615091	2317.783907
332.008571	2336.484067
332.401986	2356.835205
332.795338	2377.012423
333.188625	2393.156718
333.581847	2415.804102
333.975006	2434.184149
334.368100	2454.638631
334.761129	2471.077833
335.154095	2487.083497
335.546996	2516.438136
335.939833	2554.887016
336.332606	2570.232288
336.725315	2579.127404
337.117960	2596.690784
337.510540	2607.325098
337.903056	2613.792899
338.295508	2626.216822
338.687896	2636.881383
339.080220	2640.163175
339.472480	2649.718682
339.864676	2654.608601
340.256807	2657.623211
340.648875	2663.478511
341.040879	2666.112514
341.432818	2667.314829
341.824694	2670.994872
342.216506	2670.342042
342.608253	2674.725325
342.999937	2669.981600
343.391557	2674.516117
343.783113	2673.281035
344.174605	2670.909172
344.566033	2671.589728
344.957397	2669.492608
345.348697	2671.788853
345.739934	2667.786177
346.131106	2665.726866
346.522215	2665.991526
346.913260	2660.857111
347.304241	2663.060095
347.695159	2658.659168
348.086012	2658.830567
348.476802	2653.408806
348.867528	2652.203971
349.258191	2648.594504
349.648789	2646.499905
350.039324	2643.825573
350.429796	2650.164824
350.820203	2648.909577
351.210548	2644.589308
351.600828	2644.342291
351.991045	2643.162661
352.381198	2643.407157
352.771288	2644.246509
353.161314	2642.545120
353.551276	2643.901190
353.941175	2640.286683
354.331010	2642.333391
354.720782	2642.789616
355.110490	2641.378093
355.500135	2642.227527
355.889717	2640.490850
356.279235	2641.511683
356.668689	2641.620068
357.058080	2640.967239
357.447408	2642.913124
357.836672	2641.627630
358.225873	2639.671662
358.615010	2643.384472
359.004084	2645.489154
359.393095	2644.322127
359.782043	2646.910759
360.170927	2650.285812
360.559748	2647.971922
360.948505	2648.775986
361.337199	2648.682725
361.725830	2648.236582
362.114398	2648.839000
362.502903	2649.058291
362.891344	2651.662047
363.279722	2649.890081
363.668037	2650.827736
364.056289	2654.001142
364.444478	2652.720689
364.832603	2653.600370
365.220665	2651.760349
365.608665	2656.418375
365.996601	2659.702687
366.384474	2654.764877
366.772284	2656.758653
367.160031	2657.613129
367.547715	2659.390135
367.935336	2657.905516
368.322893	2656.060453
368.710388	2654.084321
369.097820	2652.483755
369.485189	2655.573982
369.872495	2661.860301
370.259738	2661.716628
370.646918	2663.687719
371.034035	2661.782163
371.421090	2660.758809
371.808081	2664.050682
372.195010	2663.720487
372.581875	2663.972544
372.968678	2664.700991
373.355418	2666.770385
373.742096	2665.835251
374.128710	2669.313647
374.515262	2669.359017
374.901751	2674.337157
375.288177	2676.920748
375.674540	2678.105419
376.060841	2682.098013
376.447079	2689.805937
376.833254	2697.874304
377.219367	2706.411498
377.605417	2720.279712
377.991404	2730.467884
378.377329	2750.556882
378.763191	2769.688061
379.148991	2796.159160
379.534727	2822.035402
379.920402	2850.313755
380.306013	2877.651932
380.691563	2923.775969
381.077049	2948.275977
381.462474	2989.202585
381.847835	3036.972558
382.233134	3078.569639
382.618371	3117.399127
383.003545	3176.151254
383.388657	3213.803632
383.773706	3277.304527
384.158693	3320.532421
384.543618	3359.245962
384.928480	3425.968154
385.313280	3493.219667
385.698017	3528.182589
386.082692	3619.185498
386.467305	3640.249960
386.851856	3690.759801
387.236344	3779.257257
387.620770	3817.716219
388.005133	3882.731980
388.389435	3942.749437
388.773674	3965.298519
389.157851	4045.833472
389.541965	4126.686018
389.926018	4107.612812
390.310008	4212.541909
390.693936	4274.787556
391.077802	4318.010409
391.461606	4326.461904
391.845348	4402.409407
392.229027	4462.585660
392.612645	4472.746106
392.996200	4579.953804
393.379694	4639.898165
393.763125	4748.204834
394.146494	4777.352786
394.529801	4842.169422
394.913047	4926.200415
395.296230	4876.408938
395.679351	4984.461030
396.062410	5037.924987
396.445408	5012.333570
396.828343	5074.110389
397.211217	5130.783041
397.594028	5015.161657
397.976778	5134.027023
398.359466	5182.101987
398.742092	5205.256007
399.124656	5115.664621
399.507158	5238.388990
399.889598	5307.583868
400.271977	5427.870840
400.654294	5419.079068
401.036549	5461.087003
401.418742	5383.271752
401.800874	5589.888483
402.182944	5648.053317
402.564952	5756.274287
402.946898	5810.504499
403.328783	5654.327032
403.710606	5671.668602
404.092367	5993.846223
404.474067	6017.975706
404.855705	5916.081384
405.237282	5850.483370
405.618797	6103.304797
406.000250	6084.042548
406.381642	6287.858919
406.762972	6310.602084
407.144240	6366.909252
407.525447	6351.931984
407.906593	6366.379931
408.287677	6529.037801
408.668700	6443.035716
409.049661	6559.262039
409.430560	6587.406801
409.811399	6448.638959
410.192176	6714.937911
410.572891	6725.489046
410.953545	6924.657473
411.334138	6652.573797
411.714669	6821.611247
412.095139	6618.616584
412.475547	6866.984152
412.855894	6935.639626
413.236180	7114.582944
413.616405	6782.310411
413.996568	7003.450707
414.376670	7047.245731
414.756711	6946.034485
415.136691	7034.174019
415.516609	7244.211174
415.896466	7233.445790
416.276262	7433.728311
416.655997	7416.117040
417.035670	7598.737880
417.415283	7936.401926
417.794834	7995.726224
418.174324	7862.060030
418.553753	7778.460055
418.933121	8083.036488
419.312428	8186.186058
419.691674	7955.893547
420.070859	8438.213503
420.449983	8117.253320
420.829045	8488.088159
421.208047	8250.702745
421.586988	8563.274448
421.965867	8580.555523
422.344686	8685.845062
422.723444	8742.986541
423.102141	8084.833660
423.480777	8848.986883
423.859352	8375.451138
424.237866	8987.434612
424.616319	8849.254064
424.994712	9285.076938
425.373044	8830.518616
425.751314	9312.750352
426.129524	9191.734933
426.507673	9280.192060
426.885762	9433.599413
427.263789	9355.602680
427.641756	9289.480386
428.019662	9370.572387
428.397508	9637.161205
428.775292	9304.603847
429.153016	9690.751191
429.530679	9518.550417
429.908282	9542.475733
430.285824	9268.355431
430.663305	9957.246748
431.040726	9400.148836
431.418086	9379.243171
431.795385	9714.162309
432.172624	9806.233943
432.549802	9718.434687
432.926920	9789.482189
433.303977	9661.320935
433.680974	9872.555363
434.057910	9966.812337
434.434786	10033.468994
434.811601	9863.871976
435.188355	10427.059601
435.565050	10169.691053
435.941683	10090.980998
436.318257	10572.643083
436.694770	10735.348844
437.071222	10783.733838
437.447614	10621.217121
437.823946	10536.523216
438.200218	10638.190686
438.576429	10479.674124
438.952580	10723.522297
439.328670	10753.708726
439.704700	10559.006762
440.080670	10535.835098
440.456580	11067.334030
440.832429	10850.587100
441.208218	10446.919227
441.583947	10753.376010
441.959616	10928.624162
442.335224	10741.516696
442.710773	10858.650426
443.086261	11081.749210
443.461689	10342.975675
443.837057	11026.989676
444.212365	11270.406831
444.587612	10909.424927
444.962800	11121.430652
445.337927	10872.984947
445.712995	10532.581033
446.088002	11576.155332
446.462949	11258.353432
446.837837	11234.228990
447.212664	11167.882364
447.587431	11748.595561
447.962139	12496.475940
448.336786	14788.698676
448.711374	15276.102636
449.085901	13097.719236
449.460369	12749.430958
449.834776	12198.563912
450.209124	13108.809774
450.583412	13545.739181
450.957640	14467.355365
451.331808	13524.165563
451.705917	12584.653283
452.079965	11840.626866
452.453954	12756.032349
452.827883	12403.678380
453.201752	12694.008512
453.575562	12237.852145
453.949311	12650.697439
454.323001	12633.668421
454.696632	12868.359339
455.070202	13139.041574
455.443713	13334.310668
455.817164	13843.436960
456.190556	13805.257781
456.563888	14166.637936
456.937160	14325.114168
457.310373	13677.819932
457.683526	13776.334161
458.056619	13303.297490
458.429653	13503.975742
458.802628	12873.077859
459.175542	13284.050364
459.548398	14240.916817
459.921194	14598.934522
460.293930	14672.595862
460.666607	15521.770666
461.039224	16576.395174
461.411782	17297.509546
461.784280	17087.323678
462.156719	17196.305862
462.529099	16852.514293
462.901419	15814.215562
463.273680	15579.401136
463.645882	15477.826927
464.018024	15200.422314
464.390106	15418.144707
464.762130	16139.841333
465.134094	16923.929799
465.505999	18993.119286
465.877845	22266.007763
466.249631	25071.850979
466.621358	24686.868142
466.993026	23259.220934
467.364634	22686.603831
467.736184	21201.530319
468.107674	20407.077241
468.479105	20540.791326
468.850477	20002.050776
469.221790	19600.689230
469.593043	18909.312624
469.964238	18337.915480
470.335373	17976.195047
470.706449	18480.207088
471.077467	18050.516778
471.448425	19933.700292
471.819324	24043.500965
472.190164	25914.759628
472.560945	22246.284248
472.931667	19938.393606
473.302330	19317.895623
473.672934	18943.194219
474.043479	19180.773718
474.413965	18998.853599
474.784393	18599.707640
475.154761	19364.624598
475.525070	19291.638773
475.895321	19007.620165
476.265513	19605.198542
476.635645	20194.176711
477.005719	19947.475244
477.375734	20130.718666
477.745691	20618.142790
478.115588	21167.956235
478.485427	21725.046584
478.855207	22812.947749
479.224928	24597.203659
479.594591	26825.008011
479.964194	26742.895176
480.333739	26980.464592
480.703226	26555.447432
481.072653	26259.148574
481.442022	26883.747535
481.811333	27804.751220
482.180584	27683.304782
482.549777	26731.260193
482.918912	26409.811018
483.287988	26561.275006
483.657005	26178.545565
484.025964	25964.868698
484.394864	25838.756672
484.763706	25490.039896
485.132489	24962.122704
485.501213	25148.179089
485.869879	25060.236160
486.238487	24900.761779
486.607036	25016.612536
486.975527	24772.287973
487.343959	25064.921913
487.712333	24967.103364
488.080648	24624.307423
488.448905	25131.185360
488.817104	24897.437138
489.185244	25607.269408
489.553326	25545.238010
489.921350	26608.429959
490.289315	28948.891497
490.657222	30677.193119
491.025070	31174.518070
491.392861	30935.963108
491.760593	30061.567412
492.128267	29153.506890
492.495883	28077.896058
492.863440	27224.574906
493.230939	26354.638110
493.598380	26201.255963
493.965763	25807.022609
494.333088	25318.030686
494.700354	25282.916529
495.067563	25127.911130
495.434713	24873.380752
495.801805	25043.363418
496.168839	24821.882845
496.535815	24692.209244
496.902733	24907.078345
497.269593	24593.992444
497.636395	24758.323977
498.003139	24705.091913
498.369825	24454.372647
498.736453	24664.445090
499.103023	24532.379462
499.469535	24535.018506
499.835989	24758.744913
500.202385	24790.254646
500.568723	24312.209588
500.935003	24502.465255
501.301226	24190.385064
501.667390	25028.981007
502.033497	25230.415432
502.399546	24967.282325
502.765537	24502.550954
503.131470	24887.029676
503.497345	25029.873291
503.863163	24267.456745
504.228923	24814.646268
504.594625	25067.069444
504.960269	24618.608398
505.325856	25089.031231
505.691385	24488.055117
506.056856	25090.793114
506.422270	25074.003552
506.787625	24593.347176
507.152924	25042.382914
507.518164	25078.643934
507.883347	24901.817901
508.248472	24571.541665
508.613540	25354.997467
508.978550	25152.058257
509.343503	25172.419478
509.708398	25367.635640
510.073236	25544.567537
510.438016	25747.874751
510.802738	25400.007409
511.167403	25672.693503
511.532010	25412.532156
511.896561	26150.531873
512.261053	26114.081810
512.625488	25936.996158
512.989866	25824.354096
513.354186	25675.050242
513.718449	25803.632433
514.082655	26176.125811
514.446803	25898.811938
514.810894	26385.900826
515.174927	25888.790124
515.538904	25908.090182
515.902822	26408.747335
516.266684	26163.349007
516.630488	26068.842496
516.994235	26018.753591
517.357925	26351.686514
517.721558	26500.594637
518.085133	26635.868960
518.448651	26506.076892
518.812112	26277.833611
519.175516	26488.450498
519.538863	26635.339638
519.902152	26426.451867
520.265385	26681.642637
520.628560	26490.877813
520.991678	26472.913662
521.354739	26535.214761
521.717743	26633.363506
522.080690	26415.837718
522.443580	26755.586281
522.806413	26713.638840
523.169189	26838.886307
523.531908	26853.563627
523.894569	26482.471689
524.257174	26582.752842
524.619722	26711.808901
524.982213	26441.824866
525.344647	26459.786497
525.707025	26638.094629
526.069345	26589.492865
526.431608	26564.481180
526.793815	26737.002068
527.155964	26227.217905
527.518057	26400.857929
527.880093	26310.427191
528.242072	26537.667283
528.603995	26259.786280
528.965860	26049.897839
529.327669	26084.575937
529.689421	26073.087147
530.051117	25924.289930
530.412755	26105.673166
530.774337	25869.295982
531.135862	25757.911688
531.497331	25952.512829
531.858743	25541.142073
532.220098	25997.066547
532.581396	25699.351124
532.942638	25577.539203
533.303824	25711.349071
533.664953	25697.979931
534.026025	25370.506577
534.387040	25613.840552
534.747999	25654.436964
535.108902	25814.375132
535.469748	25318.360881
535.830537	25485.112168
536.191270	25630.546936
536.551947	25446.438957
536.912567	25082.586116
537.273131	25514.910429
537.633638	25174.806464
537.994089	25397.073457
538.354483	24901.091975
538.714821	25403.390023
539.075103	25448.757887
539.435328	25219.340017
539.795497	24817.570138
540.155609	25177.208574
540.515665	25471.029705
540.875665	24686.237998
541.235609	25036.845207
541.595496	24958.495593
541.955328	25330.726832
542.315102	25234.339970
542.674821	24756.206693
543.034483	24648.383973
543.394090	24812.103006
543.753640	24619.309119
544.113134	25251.772280
544.472571	24852.044068
544.831953	25151.934749
545.191278	24781.649396
545.550548	24667.389123
545.909761	24856.906261
546.268918	25112.636434
546.628019	25083.312042
546.987064	24777.984477
547.346053	24501.202446
547.704986	24619.757781
548.063863	24764.685913
548.422684	24808.571678
548.781449	24283.192707
549.140158	24709.071904
549.498811	24282.799497
549.857408	24043.846284
550.215949	24440.953096
550.574434	24148.863601
550.932864	24338.985677
551.291237	24521.951835
551.649555	24361.098698
552.007817	24441.719351
552.366022	24266.889615
552.724173	24306.979391
553.082267	24286.161946
553.440305	24762.372024
553.798288	23979.140553
554.156215	24475.895853
554.514086	24618.139571
554.871902	23989.981555
555.229661	24263.297793
555.587365	24115.473518
555.945014	24027.591083
556.302606	24233.411312
556.660143	24217.110741
557.017625	24447.665392
557.375050	23968.024809
557.732421	24344.107489
558.089735	24176.849566
558.446994	24232.017433
558.804197	24278.035606
559.161345	24172.975439
559.518437	23975.468073
559.875474	24146.663137
560.232455	24325.745086
560.589381	24134.944975
560.946251	24147.492407
561.303065	24443.503919
561.659825	24528.996847
562.016528	24144.354288
562.373177	23876.396797
562.729770	24245.522684
563.086307	24079.053702
563.442789	24253.820424
563.799216	24097.080868
564.155587	24079.119237
564.511904	24066.491147
564.868164	24018.098590
565.224370	23970.545386
565.580520	23921.389095
565.936615	24039.614235
566.292654	23744.391663
566.648638	23990.515917
567.004567	23821.188601
567.360441	23768.969808
567.716260	23511.351723
568.072023	23830.918028
568.427732	23593.593107
568.783385	23355.834648
569.138982	23607.685653
569.494525	23636.674808
569.850013	23394.369228
570.205445	23485.871211
570.560823	23301.453201
570.916145	23061.310276
571.271412	23247.081836
571.626625	22996.518846
571.981782	23104.525567
572.336884	22919.747114
572.691931	23057.841962
573.046923	22795.480151
573.401860	22664.395028
573.756743	22695.289739
574.111570	22575.383374
574.466342	22502.226149
574.821059	22580.318664
575.175722	22292.529273
575.530330	22262.579778
575.884882	22273.319956
576.239380	22192.893388
576.593823	22084.259043
576.948211	22062.806413
577.302544	21913.568094
577.656823	21764.360023
578.011047	21877.846478
578.365216	21748.278742
578.719330	21623.505143
579.073389	21503.954180
579.427394	21670.650014
579.781344	21422.516860
580.135239	21307.578552
580.489080	21257.293043
580.842866	21037.801204
581.196597	21256.471334
581.550273	21213.601362
581.903895	21089.299111
582.257463	21409.850961
582.610975	20935.808579
582.964434	21268.285278
583.317837	20938.482912
583.671186	21022.949965
584.024481	21012.610558
584.377721	20773.521234
584.730906	20856.725478
585.084037	20845.277018
585.437113	20768.608630
585.790135	20978.378603
586.143103	20425.429561
586.496016	20454.108685
586.848874	20687.665343
587.201679	20603.200810
587.554428	20308.830193
587.907124	20629.860952
588.259765	20392.014273
588.612352	20464.881631
588.964884	20035.425735
589.317362	20199.827844
589.669786	20261.871845
590.022155	20264.931826
590.374470	20506.264463
590.726731	20257.866648
591.078937	20063.273069
591.431090	20144.516304
591.783188	19909.550644
592.135232	19867.328460
592.487222	19974.006837
592.839157	19976.784513
593.191038	19852.217601
593.542866	19744.616693
593.894639	19452.723803
594.246358	19668.512914
594.598022	19555.331448
594.949633	19307.256268
595.301190	19298.467016
595.652692	19469.397419
596.004141	19682.270223
596.355535	19017.543677
596.706876	19045.622904
597.058162	18925.492208
597.409395	19169.640329
597.760573	19209.651967
598.111698	18976.027254
598.462768	18936.365976
598.813785	18909.733561
599.164748	18704.762766
599.515657	18774.721378
599.866511	18557.828255
600.217312	18907.475124
600.568060	18419.811545
600.918753	18733.187312
601.269392	18639.885636
601.619978	18435.487012
601.970510	18612.726420
602.320988	18574.993383
602.671412	18769.526469
603.021783	18706.527170
603.372100	18401.388648
603.722363	18562.171209
604.072572	18507.391510
604.422728	18654.820055
604.772830	18415.239218
605.122878	18373.322024
605.472872	18341.875306
605.822813	18334.966405
606.172701	18314.809351
606.522534	18490.700250
606.872314	18531.195839
607.222041	18361.752576
607.571714	18577.400534
607.921333	18395.727432
608.270899	18474.883630
608.620411	18630.619996
608.969870	18432.172454
609.319276	18413.653775
609.668627	18454.461916
610.017926	18591.828317
610.367171	18702.108598
610.716362	18752.194982
611.065500	18569.969874
611.414585	18706.524649
611.763616	18695.078709
612.112594	18616.711452
612.461518	18592.897041
612.810389	18787.992216
613.159207	18643.487541
613.507971	18556.898162
613.856682	18812.613211
614.205340	18742.475638
614.553945	18895.512466
614.902496	18643.139701
615.250994	18855.107617
615.599439	18799.720460
615.947830	18784.506258
616.296169	18872.093785
616.644454	18821.704932
616.992686	18792.221744
617.340864	19014.602163
617.688990	18757.576414
618.037063	18925.766950
618.385082	18787.399880
618.733048	19057.537671
619.080961	18948.270661
619.428821	18975.104723
619.776628	18853.098718
620.124382	18794.354152
620.472083	18843.086986
620.819731	18845.045474
621.167326	18540.310245
621.514868	18575.542869
621.862357	18368.648874
622.209793	18362.312144
622.557176	18196.594293
622.904506	18026.760341
623.251783	17958.682079
623.599007	17696.106019
623.946179	17629.235113
624.293297	17570.054488
624.640363	17309.923387
624.987376	17340.016555
625.334336	17143.784601
625.681243	16986.243502
626.028097	16998.289339
626.374899	16916.541988
626.721647	16779.001667
627.068343	16613.603930
627.414987	16560.341619
627.761577	16536.683484
628.108115	16549.256122
628.454600	16289.215763
628.801032	16382.827469
629.147412	16316.506049
629.493739	16326.656412
629.840014	16141.991385
630.186236	16236.523102
630.532405	16003.992319
630.878521	16195.029365
631.224585	16097.404900
631.570597	15919.832776
631.916556	15944.277331
632.262462	15919.242961
632.608316	15826.382387
632.954117	15783.404030
633.299866	15769.573624
633.645562	15683.974832
633.991206	15448.381548
634.336797	15316.946064
634.682336	15288.513957
635.027823	15159.901519
635.373257	15029.963258
635.718639	14948.525938
636.063968	14885.445980
636.409245	14640.201407
636.754470	14671.219627
637.099642	14516.622562
637.444762	14292.044199
637.789829	14333.351414
638.134845	14167.936033
638.479808	14200.617833
638.824719	14122.729486
639.169577	13999.926978
639.514383	14036.130024
639.859137	13868.176422
640.203839	13956.058857
640.548489	13794.618426
640.893086	13781.786169
641.237632	13661.526923
641.582125	13807.919510
641.926566	13625.243218
642.270955	13640.865754
642.615292	13605.570115
642.959576	13616.716107
643.303809	13639.358449
643.647990	13569.833376
643.992118	13635.832162
644.336195	13401.910021
644.680219	13639.681083
645.024192	13536.198797
645.368112	13791.704639
645.711981	13827.602695
646.055797	14018.501109
646.399562	13990.651255
646.743274	14262.147636
647.086935	14534.221230
647.430544	14496.926774
647.774101	14532.809707
648.117606	14667.237115
648.461059	14644.254495
648.804460	14629.244459
649.147810	14351.164331
649.491108	14269.681641
649.834354	14271.050314
650.177548	13945.739615
650.520690	13766.592131
650.863781	13688.653372
651.206820	13733.544847
651.549807	13574.965270
651.892742	13357.938556
652.235626	13291.322229
652.578458	13307.985763
652.921238	12998.582425
653.263967	13191.774564
653.606644	13024.274665
653.949269	12997.372548
654.291843	12804.089668
654.634365	12965.590593
654.976836	12818.784632
655.319255	12810.723827
655.661622	12771.163372
656.003938	12699.896580
656.346203	12611.966254
656.688416	12703.054863
657.030577	12658.387719
657.372687	12560.170919
657.714746	12549.090463
658.056753	12745.803848
658.398708	12545.281871
658.740612	12550.812017
659.082465	12663.007937
659.424266	12630.636167
659.766016	12658.521310
660.107715	12572.909915
660.449362	12644.264927
660.790958	12596.225251
661.132503	12531.567412
661.473996	12617.892130
661.815438	12634.361580
662.156829	12653.971668
662.498168	12635.324440
662.839456	12629.975776
663.180693	12642.906336
663.521879	12745.350144
663.863013	12703.057383
664.204097	12679.608456
664.545129	12807.731902
664.886110	12786.354889
665.227040	12883.896175
665.567918	12880.679919
665.908746	12902.805543
666.249522	12893.741548
666.590248	12956.571969
666.930922	13062.257239
667.271545	13024.355324
667.612118	13120.900982
667.952639	13020.531609
668.293109	13045.591184
668.633528	12984.434427
668.973896	12968.693424
669.314213	13032.411088
669.654480	12778.709979
669.994695	12859.373482
670.334859	12885.612688
670.674973	12821.600116
671.015035	12865.707692
671.355047	12808.165441
671.695008	12779.080504
672.034918	12788.008388
672.374777	12829.920541
672.714585	12734.796488
673.054342	12778.893981
673.394049	12726.428173
673.733705	12822.129437
674.073310	12727.887587
674.412864	12738.668094
674.752368	12590.712749
675.091820	12638.593629
675.431223	12614.635545
675.770574	12483.971358
676.109875	12385.724311
676.449125	12353.402953
676.788324	12311.165645
677.127473	12129.484981
677.466571	12130.788119
677.805619	12015.378464
678.144616	11960.112294
678.483562	11924.141141
678.822458	11791.389916
679.161303	11779.122268
679.500098	11751.126220
679.838842	11711.696836
680.177535	11743.042730
680.516179	11809.669140
680.854771	11755.731314
681.193314	11969.171248
681.531805	12144.074080
681.870247	12584.736462
682.208638	12990.269562
682.546978	13291.849029
682.885268	13307.940392
683.223508	13016.904498
683.561697	12868.714740
683.899836	12770.916355
684.237925	12564.072772
684.575963	12485.549239
684.913951	12388.128941
685.251889	12353.894465
685.589776	12448.756378
685.927614	12368.642361
686.265401	12342.841735
686.603137	12399.426167
686.940824	12552.788149
687.278460	12686.020804
687.616046	12719.168911
687.953582	12870.433773
688.291068	12820.042400
688.628504	13048.076473
688.965889	13056.533009
689.303224	13008.800844
689.640510	12899.846386
689.977745	12575.974936
690.314930	12357.491328
690.652065	12260.602872
690.989150	11963.288221
691.326185	11740.469221
691.663170	11533.393745
692.000105	11298.891871
692.336990	11169.838332
692.673825	10915.910372
693.010610	10797.781014
693.347345	10591.416340
693.684030	10400.936342
694.020665	10340.442496
694.357251	10148.278752
694.693786	10062.432943
695.030272	9926.674670
695.366707	9804.900558
695.703093	9740.943439
696.039429	9729.605884
696.375716	9643.092122
696.711952	9511.162606
697.048139	9562.489113
697.384276	9518.227783
697.720363	9544.242657
698.056400	9473.542995
698.392388	9413.603676
698.728326	9386.552844
699.064214	9325.340634
699.400053	9360.094348
699.735842	9172.139968
700.071581	9140.814238
700.407270	9066.379081
700.742910	8989.718255
701.078501	8889.152277
701.414042	8758.490610
701.749533	8701.565901
702.084974	8563.055158
702.420366	8683.614352
702.755709	8559.254128
703.091002	8427.750588
703.426246	8448.378990
703.761440	8410.734174
704.096584	8360.370526
704.431679	8300.559756
704.766725	8275.336343
705.101721	8242.720078
705.436668	8287.001573
705.771565	8179.125922
706.106413	8261.258921
706.441212	8294.782594
706.775961	8256.323631
707.110661	8309.911097
707.445311	8436.128986
707.779913	8339.114501
708.114465	8461.201165
708.448967	8495.985126
708.783421	8662.406218
709.117825	8837.682096
709.452180	8872.582004
709.786485	8962.516188
710.120742	9241.533972
710.454949	9248.052183
710.789107	9352.782155
711.123216	9578.945960
711.457275	9747.111291
711.791286	9887.550275
712.125247	9896.271471
712.459159	9876.936126
712.793023	10108.932546
713.126837	9686.985449
713.460602	9853.189771
713.794318	9677.152678
714.127985	9700.614208
714.461602	9354.954892
714.795171	9314.592894
715.128691	9059.276095
715.462162	8822.770363
715.795584	8758.755271
716.128957	8596.294006
716.462281	8438.178215
716.795556	8484.556831
717.128782	8278.855068
717.461960	8023.525667
717.795088	8089.206861
718.128167	7996.479877
718.461198	7827.598703
718.794180	7773.620548
719.127113	7763.974300
719.459997	7591.927281
719.792833	7379.911473
720.125619	7440.047398
720.458357	7294.945346
720.791046	7289.047196
721.123686	7275.368025
721.456278	7112.208560
721.788821	7139.929865
722.121315	7039.321037
722.453761	7106.935513
722.786158	7039.331120
723.118506	7047.623818
723.450805	7017.576020
723.783056	7077.792603
724.115259	7004.259812
724.447412	6999.448031
724.779518	7047.656585
725.111574	7044.490741
725.443582	7124.970241
725.775542	7104.525842
726.107453	7304.193343
726.439315	7211.690690
726.771129	7278.123016
727.102895	7461.608413
727.434612	7567.717139
727.766281	7603.635361
728.097901	7671.701020
728.429473	7676.870723
728.760996	7666.329670
729.092471	7634.923282
729.423897	7568.828714
729.755276	7572.387768
730.086606	7496.495718
730.417887	7605.477902
730.749120	7830.026018
731.080305	8017.413268
731.411442	8117.523022
731.742530	8108.726208
732.073570	8219.823157
732.404562	8308.670973
732.735506	8160.017428
733.066401	8295.304353
733.397249	8219.583702
733.728048	7971.518604
734.058798	7636.975032
734.389501	7401.457365
734.720156	7230.158957
735.050762	7005.983887
735.381320	6918.960969
735.711831	6850.754157
736.042293	6747.102993
736.372707	6760.179746
736.703073	6624.791998
737.033391	6670.187588
737.363661	6680.242169
737.693883	6719.404373
738.024056	6800.808925
738.354182	6841.909453
738.684260	6871.480861
739.014290	7000.524317
739.344272	7108.669670
739.674207	7139.340050
740.004093	7213.127419
740.333931	7217.132616
740.663722	7224.810293
740.993464	7307.066800
741.323159	7281.966895
741.652806	7034.796602
741.982405	7074.702376
742.311956	7115.124868
742.641460	6923.543378
742.970915	6741.235090
743.300323	6729.605148
743.629683	6688.386153
743.958996	6552.947994
744.288260	6457.397964
744.617477	6413.068577
744.946647	6400.183388
745.275768	6242.939717
745.604842	6198.670825
745.933869	6177.137536
746.262847	6139.656557
746.591778	6127.005782
746.920662	6085.562456
747.249498	6079.830664
747.578286	6132.339323
747.907027	6206.877823
748.235720	6265.597183
748.564365	6243.070787
748.892963	6284.148629
749.221514	6414.643938
749.550017	6233.482513
749.878473	6127.265401
750.206881	6179.758936
750.535242	6130.610207
750.863555	6058.758641
751.191821	6072.790693
751.520039	6066.650567
751.848210	5978.006918
752.176334	6007.212843
752.504411	6047.844543
752.832440	5971.350074
753.160421	5906.190640
753.488356	5957.534792
753.816243	5975.330065
754.144082	5830.091903
754.471875	5808.551052
754.799620	5850.516137
755.127318	5863.290421
755.454969	5814.426517
755.782572	5785.351662
756.110129	5828.612324
756.437638	5803.048633
756.765100	5748.886476
757.092515	5755.634060
757.419882	5809.639941
757.747203	5783.995592
758.074477	5846.279048
758.401703	5826.963867
758.728882	5785.296209
759.056014	5857.263722
759.383099	5969.706658
759.710138	5986.256766
760.037129	5972.428881
760.364073	5974.415096
760.690970	6055.774278
761.017820	6032.958016
761.344623	5995.749259
761.671379	6105.570796
761.998088	6228.985803
762.324751	6492.696123
762.651366	7138.518342
762.977935	8510.775872
763.304456	10171.258852
763.630931	11021.772082
763.957359	10555.341843
764.283740	9588.075490
764.610074	8721.112975
764.936362	7715.009573
765.262602	7128.630119
765.588796	6594.764365
765.914943	6270.015755
766.241044	6096.111070
766.567097	5879.706939
766.893104	5623.497856
767.219064	5447.894303
767.544978	5387.546650
767.870845	5301.332837
768.196665	5196.381055
768.522438	5127.528976
768.848165	5096.440180
769.173846	5024.772617
769.499479	4979.364423
769.825066	4930.480355
770.150607	4867.901991
770.476101	4846.078836
770.801548	4833.934697
771.126949	4751.766410
771.452303	4701.412844
771.777611	4664.274664
772.102872	4682.218651
772.428087	4645.330008
772.753256	4602.180252
773.078378	4551.176378
773.403453	4479.312209
773.728482	4467.561279
774.053465	4427.060649
774.378401	4415.229061
774.703291	4405.487031
775.028135	4330.865352
775.352932	4288.050832
775.677683	4278.225623
776.002388	4294.972336
776.327046	4301.523316
776.651658	4228.902974
776.976224	4163.272192
777.300743	4171.398532
777.625216	4195.059188
777.949643	4181.402702
778.274024	4140.876866
778.598359	4107.053244
778.922647	4129.667860
779.246889	4119.630923
779.571086	4109.200776
779.895236	4096.953293
780.219339	4083.085078
780.543397	4081.986107
780.867409	4130.645844
781.191374	4143.664624
781.515294	4074.739448
781.839167	4070.865321
782.162995	4094.752829
782.486776	4081.222372
782.810511	4091.594546
783.134201	4079.452927
783.457844	4033.772511
783.781441	3981.452896
784.104993	3990.935307
784.428498	4007.775281
784.751958	4002.280423
785.075372	3981.767968
785.398739	3946.091722
785.722061	3955.427939
786.045337	4007.770240
786.368568	4031.413251
786.691752	3942.298254
787.014891	4000.334538
787.337983	4136.692708
787.661030	4299.874858
787.984031	4459.921411
788.306987	4628.469869
788.629897	4714.212334
788.952760	4666.815406
789.275579	4597.040795
789.598351	4527.404817
789.921078	4373.921847
790.243759	4175.013039
790.566395	4164.711441
790.888984	4158.551151
791.211529	4049.528638
791.534027	3989.740553
791.856480	3974.624653
792.178888	3914.140889
792.501249	3870.174466
792.823566	3876.697719
793.145836	3903.385588
793.468062	3847.842155
793.790241	3808.463181
794.112375	3837.906040
794.434464	3906.949683
794.756507	3929.465997
795.078505	3906.329622
795.400457	3946.742031
795.722364	4089.394082
796.044226	4194.476934
796.366042	4272.934932
796.687812	4239.396136
797.009538	4246.468874
797.331218	4210.016291
797.652852	4183.822456
797.974442	4159.287160
798.295986	4154.576202
798.617484	4071.399684
798.938938	3988.923886
799.260346	4035.158829
799.581709	4021.514946
799.903026	3948.874439
800.224299	3910.264242
800.545526	3905.966658
800.866708	3864.566182
801.187845	3807.674241
801.508936	3846.143286
801.829983	3830.409845
802.150984	3757.504678
802.471940	3752.259357
802.792851	3756.730861
803.113717	3759.808485
803.434538	3758.790172
803.755314	3698.636604
804.076045	3679.616330
804.396731	3700.645503
804.717372	3728.518043
805.037967	3705.414435
805.358518	3696.816747
805.679024	3727.918146
805.999485	3743.457503
806.319901	3743.507914
806.640272	3759.841252
806.960598	3770.357099
807.280879	3743.777616
807.601115	3758.921242
807.921306	3782.347484
808.241453	3819.362156
808.561554	3784.404275
808.881611	3723.701221
809.201623	3761.542642
809.521590	3772.358438
809.841513	3742.943305
810.161390	3773.338942
810.481223	3747.923965
810.801011	3696.345399
811.120755	3696.418496
811.440453	3725.715162
811.760107	3720.938668
812.079716	3679.979293
812.399281	3655.423833
812.718801	3677.526772
813.038276	3653.210766
813.357707	3647.844458
813.677093	3663.217457
813.996434	3609.415742
814.315731	3621.451497
814.634983	3626.356540
814.954191	3641.671565
815.273354	3667.063857
815.592473	3659.781910
815.911547	3673.950073
816.230577	3718.160993
816.549562	3767.226543
816.868502	3808.309426
817.187399	3829.411696
817.506250	3828.191737
817.825058	3807.591062
818.143821	3904.693767
818.462539	4005.098428
818.781213	4049.339594
819.099843	4115.814770
819.418429	4385.443404
819.736970	4624.348726
820.055466	4879.448754
820.373919	5256.121249
820.692327	5675.741854
821.010691	6160.857130
821.329011	7660.287848
821.647286	10561.837370
821.965517	15303.932326
822.283704	19321.048865
822.601847	21303.974127
822.919945	19367.568632
823.237999	16704.780759
823.556010	14182.719216
823.873976	12020.482632
824.191897	9908.163553
824.509775	8566.858708
824.827609	7439.318951
825.145398	6905.848928
825.463144	6796.839017
825.780845	6903.764410
826.098502	7137.177395
826.416116	8084.740398
826.733685	9457.244945
827.051210	10547.555781
827.368692	10492.208953
827.686129	9150.142893
828.003522	7642.270764
828.320872	6617.930987
828.638177	5900.330299
828.955439	5325.832845
829.272656	4826.504036
829.589830	4553.485226
829.906960	4373.253894
830.224046	4186.254812
830.541088	4063.986667
830.858086	4009.186804
831.175041	3933.357768
831.491952	3926.176644
831.808819	3934.711318
832.125642	4012.128317
832.442421	4173.001619
832.759157	4466.933656
833.075849	5056.075662
833.392497	5950.535150
833.709101	6741.661067
834.025662	7047.409569
834.342179	6621.590865
834.658653	5942.769253
834.975083	5284.341628
835.291469	4698.068039
835.607811	4297.429899
835.924110	4153.509998
836.240366	3946.147175
836.556578	3743.722163
836.872746	3637.714259
837.188871	3590.675253
837.504952	3523.804347
837.820990	3437.885442
838.136984	3398.375398
838.452935	3420.579160
838.768842	3415.565733
839.084706	3440.388374
839.400526	3614.809777
839.716303	3978.919716
840.032037	4531.079818
840.347727	4763.363584
840.663373	4453.574598
840.978977	4060.006676
841.294537	3747.939088
841.610054	3527.023124
841.925527	3416.914242
842.240957	3351.601052
842.556344	3291.991929
842.871687	3230.139492
843.186987	3177.658559
843.502244	3145.480874
843.817458	3106.873198
844.132629	3078.345308
844.447756	3089.645054
844.762840	3071.950604
845.077881	3038.187477
845.392879	3018.892460
845.707833	3016.205525
846.022745	3018.219466
846.337613	3018.718540
846.652438	3004.971314
846.967221	3000.865294
847.281960	2983.906853
847.596656	2985.860300
847.911309	2984.723519
848.225919	2976.156078
848.540485	2973.511993
848.855009	2970.971252
849.169490	2959.905919
849.483928	2950.383179
849.798323	2952.296297
850.112675	2949.410237
850.426984	2962.272741
850.741251	2954.519446
851.055474	2945.387396
851.369654	2939.280038
851.683792	2946.340174
851.997887	2955.915846
852.311938	2956.374591
852.625947	2943.575101
852.939914	2949.069959
853.253837	2951.703962
853.567718	2936.681323
853.881555	2939.166612
854.195350	2953.039868
854.509103	2950.168930
854.822812	2939.663166
855.136479	2938.097888
855.450103	2937.533278
855.763685	2927.952565
856.077224	2929.210333
856.390720	2944.180040
856.704173	2950.514249
857.017584	2941.805656
857.330953	2943.764144
857.644278	2952.785289
857.957561	2961.819037
858.270802	2963.961527
858.584000	2962.799541
858.897155	2948.371759
859.210268	2948.601132
859.523339	2944.727005
859.836367	2947.461831
860.149352	2939.267435
860.462295	2937.548402
860.775195	2944.303548
861.088054	2943.428908
861.400869	2923.206319
861.713642	2924.431319
862.026373	2938.896910
862.339062	2941.495625
862.651708	2947.350925
862.964312	2951.898046
863.276873	2943.335646
863.589392	2955.625979
863.901869	2970.194914
864.214303	2990.818274
864.526696	3006.879391
864.839045	2997.933863
865.151353	3001.959224
865.463619	2997.351610
865.775842	2999.690705
866.088023	3022.015455
866.400162	3024.359592
866.712258	2995.420848
867.024313	2985.338540
867.336325	2994.848677
867.648296	3018.857172
867.960224	3008.411901
868.272110	2994.394973
868.583954	2998.463184
868.895755	3014.327695
869.207515	3001.845798
869.519233	3006.707991
869.830909	3017.987573
870.142542	3027.762370
870.454134	3021.236597
870.765684	3026.086187
871.077191	3027.601053
871.388657	3037.073382
871.700081	3054.160373
872.011463	3062.732855
872.322803	3062.011970
872.634101	3060.088769
872.945357	3080.334043
873.256571	3108.882098
873.567744	3096.937083
873.878874	3093.572113
874.189963	3113.709002
874.501010	3115.518777
874.812015	3105.386057
875.122979	3105.996037
875.433900	3105.867488
875.744780	3110.207921
876.055618	3121.119498
876.366415	3112.294959
876.677169	3123.176289
876.987882	3119.355095
877.298554	3118.034312
877.609183	3144.170174
877.919771	3167.699760
878.230317	3195.398380
878.540822	3247.798653
878.851285	3283.525311
879.161707	3334.002384
879.472087	3448.048408
879.782425	3699.090308
880.092722	4157.316069
880.402977	4702.108524
880.713191	5367.014031
881.023363	6595.727225
881.333494	7902.916062
881.643583	8419.793127
881.953631	8086.600584
882.263637	7406.581698
882.573602	6786.640763
882.883526	6196.873653
883.193408	5630.414319
883.503248	5173.774001
883.813048	4854.802553
884.122806	4524.690155
884.432522	4205.464129
884.742197	3959.634782
885.051831	3767.297119
885.361424	3637.285761
885.670975	3563.379925
885.980485	3469.274186
886.289954	3392.615880
886.599382	3345.493694
886.908768	3309.630926
887.218113	3265.006632
887.527417	3203.549926
887.836680	3152.556134
888.145901	3149.170999
888.455082	3135.403608
888.764221	3082.017789
889.073319	3052.204405
889.382376	3053.018551
889.691392	3058.125240
890.000366	3058.173131
890.309300	3042.815256
890.618193	3055.760939
890.927044	3071.088567
891.235855	3068.373906
891.544625	3060.489541
891.853353	3070.828948
892.162041	3091.038933
892.470687	3133.798000
892.779293	3188.323120
893.087858	3235.944380
893.396381	3312.776606
893.704864	3445.089250
894.013306	3699.150801
894.321707	4010.575642
894.630068	4209.728945
894.938387	4197.042882
895.246665	4156.501922
895.554903	4023.725492
895.863100	3817.887618
896.171256	3643.829179
896.479371	3498.039010
896.787446	3373.716594
897.095480	3262.760798
897.403473	3203.895245
897.711425	3167.755213
898.019336	3157.763646
898.327207	3125.812813
898.635038	3087.689087
898.942827	3075.209710
899.250576	3063.529357
899.558284	3029.244470
899.865952	3011.930627
900.173579	2988.085969
900.481165	2979.871409
900.788711	2967.611323
901.096216	2941.067127
901.403681	2933.495314
901.711105	2939.857250
902.018489	2933.482711
902.325832	2936.633432
902.633135	2948.167592
902.940397	2983.750577
903.247619	3076.772468
903.554800	3282.809467
903.861941	3655.317969
904.169041	4102.443109
904.476101	4392.075042
904.783121	4319.048887
905.090100	4057.851583
905.397039	3775.060496
905.703938	3520.328472
906.010796	3337.672344
906.317614	3219.933676
906.624391	3124.711321
906.931129	3049.467058
907.237826	2984.720999
907.544483	2938.329781
907.851099	2909.527148
908.157675	2889.314642
908.464211	2863.871938
908.770707	2849.766790
909.077163	2836.397650
909.383578	2823.512461
909.689954	2812.159782
909.996289	2812.172385
910.302584	2811.980821
910.608839	2811.577529
910.915054	2805.949081
911.221229	2799.135961
911.527363	2800.983544
911.833458	2808.217600
912.139513	2813.026861
912.445527	2817.198415
912.751502	2826.151505
913.057436	2836.067454
913.363331	2849.423991
913.669186	2871.373175
913.975000	2914.792633
914.280775	2976.776140
914.586510	3046.911193
914.892205	3129.792804
915.197859	3269.944442
915.503475	3480.420177
915.809050	3704.688509
916.114585	3849.989686
916.420081	3861.715410
916.725536	3794.312662
917.030952	3668.011594
917.336328	3532.439844
917.641665	3397.785583
917.946961	3294.404121
918.252218	3221.491392
918.557435	3142.942653
918.862612	3078.463775
919.167750	3025.778676
919.472848	2990.606546
919.777906	2958.640589
920.082925	2933.097063
920.387904	2901.055489
920.692843	2881.571429
920.997743	2871.559698
921.302603	2858.339272
921.607423	2847.399968
921.912204	2833.073009
922.216946	2822.037923
922.521647	2811.050728
922.826310	2802.841209
923.130932	2795.221505
923.435516	2784.700617
923.740059	2780.758435
924.044564	2772.717794
924.349028	2765.450971
924.653454	2761.854108
924.957840	2752.903539
925.262186	2745.641757
925.566493	2741.568505
925.870761	2738.707650
926.174989	2737.061713
926.479178	2731.811352
926.783328	2726.775239
927.087438	2725.847667
927.391509	2723.543859
927.695541	2720.861965
927.999533	2715.707386
928.303486	2712.561706
928.607400	2713.529607
928.911275	2714.242930
929.215110	2710.066334
929.518906	2708.667414
929.822663	2708.856457
930.126381	2710.809905
930.430060	2713.363249
930.733699	2713.890050
931.037299	2713.091027
931.340861	2715.170503
931.644383	2716.347612
931.947866	2713.741336
932.251309	2711.792930
932.554714	2710.895604
932.858080	2709.292517
933.161407	2705.816642
933.464694	2704.669779
933.767943	2702.292875
934.071153	2705.032742
934.374323	2703.091898
934.677455	2702.222299
934.980548	2700.820858
935.283602	2702.827237
935.586617	2704.339584
935.889593	2702.844882
936.192530	2702.696167
936.495428	2701.496373
936.798287	2705.236909
937.101108	2709.032898
937.403890	2714.376521
937.706632	2717.260061
938.009336	2722.331462
938.312002	2733.885786
938.614628	2740.623288
938.917216	2748.608476
939.219765	2748.605956
939.522275	2747.305338
939.824747	2743.796695
940.127179	2741.722260
940.429573	2739.748648
940.731929	2736.613051
941.034246	2732.940570
941.336524	2732.789335
941.638763	2728.229612
941.940964	2724.776421
942.243126	2724.244580
942.545250	2723.606874
942.847335	2720.267109
943.149381	2716.763507
943.451389	2713.010368
943.753359	2708.894266
944.055290	2709.282435
944.357182	2707.780171
944.659036	2706.610623
944.960851	2702.809593
945.262628	2705.282279
945.564367	2703.265818
945.866067	2704.735314
946.167729	2703.850592
946.469352	2706.073741
946.770937	2705.826724
947.072484	2704.357228
947.373992	2703.868236
947.675462	2699.104345
947.976893	2696.747606
948.278286	2695.504962
948.579641	2698.229705
948.880958	2690.957841
949.182236	2694.698377
949.483476	2696.545960
949.784678	2693.468335
950.085841	2694.884900
950.386967	2695.494879
950.688054	2696.301464
950.989103	2697.866742
951.290114	2698.126362
951.591087	2700.036959
951.892021	2702.771785
952.192917	2706.361086
952.493776	2708.637167
952.794596	2709.277394
953.095378	2708.818649
953.396122	2707.389482
953.696828	2703.497711
953.997496	2704.304296
954.298126	2700.689788
954.598718	2701.032587
954.899272	2695.923377
955.199788	2693.506144
955.500266	2689.972295
955.800706	2689.793334
956.101108	2686.793848
956.401472	2685.427695
956.701798	2681.213290
957.002087	2681.331757
957.302337	2682.902077
957.602550	2678.357477
957.902724	2675.668021
958.202861	2673.454955
958.502960	2674.921930
958.803022	2674.793381
959.103045	2674.337157
959.403031	2671.803977
959.702979	2671.471261
960.002889	2674.601817
960.302762	2672.958401
960.602596	2671.904800
960.902393	2669.038904
961.202153	2670.631908
961.501875	2670.624347
961.801559	2670.289110
962.101205	2668.620488
962.400814	2668.741476
962.700385	2668.169305
962.999918	2668.174346
963.299414	2665.908347
963.598873	2665.436999
963.898293	2663.357523
964.197677	2665.729386
964.497022	2666.309119
964.796331	2666.457833
965.095601	2668.370951
965.394835	2665.447082
965.694030	2665.061433
965.993189	2667.549243
966.292309	2665.883142
966.591393	2666.757782
966.890439	2667.188800
967.189447	2669.512772
967.488419	2667.518996
967.787353	2664.897596
968.086249	2661.754437
968.385108	2667.279541
968.683930	2666.094870
968.982714	2665.250477
969.281462	2663.697801
969.580172	2665.628563
969.878844	2667.990344
970.177480	2666.755261
970.476078	2665.865497
970.774639	2665.880621
971.073162	2662.616474
971.371649	2666.185611
971.670098	2666.977072
971.968510	2665.106804
972.266885	2668.227278
972.565223	2669.169974
972.863524	2667.302226
973.161788	2667.977741
973.460014	2667.569407
973.758204	2665.530261
974.056356	2666.750220
974.354471	2666.722494
974.652550	2666.558656
974.950591	2668.491939
975.248595	2667.382885
975.546563	2667.745848
975.844493	2665.830209
976.142386	2664.378357
976.440243	2665.316012
976.738062	2668.436486
977.035845	2666.447751
977.333590	2666.929181
977.631299	2666.709891
977.928971	2660.516833
978.226606	2660.184117
978.524204	2661.678819
978.821765	2659.838798
979.119290	2665.515137
979.416777	2666.707370
979.714228	2663.728048
980.011642	2662.306443
980.309020	2665.285765
980.606360	2664.312822
980.903664	2663.791063
981.200931	2663.997750
981.498162	2666.515806
981.795356	2665.187462
982.092513	2668.204593
982.389633	2669.457320
982.686717	2674.150634
982.983764	2678.501150
983.280775	2681.046932
983.577749	2684.003569
983.874686	2682.100533
984.171587	2679.889987
984.468451	2677.939061
984.765279	2674.034687
985.062070	2673.006292
985.358824	2673.144924
985.655543	2669.666527
985.952224	2667.166115
986.248869	2665.925991
986.545478	2667.655107
986.842050	2664.214520
987.138586	2663.584375
987.435086	2665.371464
987.731549	2662.739982
988.027975	2661.890548
988.324366	2662.954231
988.620719	2660.592451
988.917037	2660.763850
989.213318	2661.441885
989.509563	2660.426092
989.805772	2662.399704
990.101944	2662.699653
990.398080	2662.092194
990.694180	2660.002636
990.990244	2660.100938
991.286271	2660.751247
991.582262	2661.842657
991.878217	2661.426762
992.174136	2664.015394
992.470019	2661.479694
992.765865	2658.331493
993.061676	2656.229332
993.357450	2656.564569
993.653188	2655.289157
993.948890	2660.726041
994.244556	2661.167142
994.540186	2661.492297
994.835780	2659.473314
995.131337	2660.418531
995.426859	2662.185455
995.722345	2662.727379
996.017795	2665.368944
996.313208	2665.366423
996.608586	2665.971362
996.903928	2665.195024
997.199234	2664.610250
997.494504	2664.524551
997.789738	2666.180570
998.084936	2665.439520
998.380099	2665.605878
998.675225	2664.827020
998.970316	2664.184273
999.265371	2662.203099
999.560390	2663.707884
999.855373	2662.419869
1000.150320	2661.373829
1000.445232	2660.781494
1000.740108	2659.415341
1001.034948	2658.777635
1001.329752	2661.000784
1001.624521	2660.431134
1001.919254	2660.758809
1002.213951	2660.894920
1002.508613	2661.658655
1002.803239	2661.638490
1003.097829	2657.708911
1003.392384	2660.295022
1003.686903	2660.841988
1003.981386	2660.342913
1004.275834	2659.165804
1004.570246	2658.207985
1004.864623	2659.886689
1005.158964	2658.157573
1005.453270	2658.235711
1005.747540	2659.233860
1006.041775	2657.726555
1006.335974	2659.364930
1006.630138	2658.873417
1006.924266	2659.291833
1007.218359	2658.109682
1007.512416	2653.562562
1007.806438	2656.005001
1008.100425	2654.200267
1008.394376	2651.823363
1008.688292	2656.370484
1008.982172	2657.456853
1009.276017	2658.470125
1009.569827	2657.509785
1009.863602	2658.172697
1010.157341	2657.419044
1010.451045	2655.112716
1010.744714	2660.287461
1011.038347	2657.159425
1011.331945	2657.159425
1011.625508	2657.313180
1011.919036	2660.022800
1012.212528	2655.717655
1012.505986	2656.231852
1012.799408	2657.419044
1013.092795	2660.143788
1013.386147	2655.531132
1013.679464	2657.776966
1013.972745	2657.658499
1014.265992	2657.963489
1014.559204	2660.441216
1014.852380	2657.696308
1015.145521	2659.175886
1015.438628	2659.183448
1015.731699	2655.778149
1016.024736	2658.991884
1016.317737	2658.003818
1016.610703	2657.204795
1016.903635	2658.414672
1017.196531	2657.396359
1017.489393	2655.979795
1017.782219	2656.889723
1018.075011	2657.993736
1018.367768	2657.731596
1018.660490	2656.395690
1018.953177	2656.395690
1019.245829	2656.395690
