Dividing Wavelength (nm)	Counts (n)	Blue Motor Position (mm): 24.100000	Red Motor Position (mm): 0.000000	
326.493990	2195.298992
326.888308	2195.298992
327.282561	2195.298992
327.676750	2153.888433
328.070874	2154.185862
328.464933	2153.873310
328.858929	2158.002015
329.252859	2161.336738
329.646726	2169.999961
330.040528	2184.067301
330.434265	2195.677078
330.827938	2215.816488
331.221547	2232.240567
331.615091	2245.564337
332.008571	2268.252050
332.401986	2287.010183
332.795338	2305.392751
333.188625	2322.303301
333.581847	2343.057732
333.975006	2358.859228
334.368100	2379.495192
334.761129	2397.318191
335.154095	2414.173289
335.546996	2440.203287
335.939833	2475.070427
336.332606	2487.368322
336.725315	2502.353152
337.117960	2514.582991
337.510540	2526.394415
337.903056	2537.235416
338.295508	2547.289997
338.687896	2555.595298
339.080220	2561.006977
339.472480	2568.450241
339.864676	2571.512742
340.256807	2581.237127
340.648875	2582.646130
341.040879	2586.699217
341.432818	2589.388673
341.824694	2593.628283
342.216506	2594.843202
342.608253	2593.260279
342.999937	2594.863366
343.391557	2595.526278
343.783113	2592.516709
344.174605	2594.699529
344.566033	2593.172059
344.957397	2590.737182
345.348697	2587.687284
345.739934	2589.691142
346.131106	2585.902715
346.522215	2586.931111
346.913260	2582.008424
347.304241	2579.384503
347.695159	2579.606314
348.086012	2578.230079
348.476802	2573.254460
348.867528	2570.539799
349.258191	2568.820765
349.648789	2568.485529
350.039324	2565.352452
350.429796	2569.564336
350.820203	2565.037379
351.210548	2566.521999
351.600828	2565.150805
351.991045	2564.205589
352.381198	2562.526885
352.771288	2560.243242
353.161314	2560.669220
353.551276	2560.210475
353.941175	2559.882800
354.331010	2556.991698
354.720782	2560.099569
355.110490	2558.083108
355.500135	2559.000598
355.889717	2558.652758
356.279235	2558.204095
356.668689	2559.164435
357.058080	2560.427244
357.447408	2561.669889
357.836672	2559.971020
358.225873	2560.225598
358.615010	2560.482697
359.004084	2559.476987
359.393095	2559.953376
359.782043	2563.215002
360.170927	2560.817934
360.559748	2563.935887
360.948505	2563.151988
361.337199	2566.801783
361.725830	2563.887996
362.114398	2564.860939
362.502903	2564.457647
362.891344	2567.694067
363.279722	2568.946794
363.668037	2566.673234
364.056289	2565.082750
364.444478	2567.051320
364.832603	2571.013667
365.220665	2569.120714
365.608665	2572.067268
365.996601	2569.705488
366.384474	2570.030642
366.772284	2570.333112
367.160031	2570.386044
367.547715	2571.653894
367.935336	2570.988462
368.322893	2568.583831
368.710388	2569.566856
369.097820	2570.438976
369.485189	2567.825137
369.872495	2570.983420
370.259738	2575.175140
370.646918	2573.428380
371.034035	2577.365521
371.421090	2572.450396
371.808081	2574.756724
372.195010	2573.814028
372.581875	2575.500294
372.968678	2576.195973
373.355418	2575.434759
373.742096	2575.384348
374.128710	2577.995665
374.515262	2578.668659
374.901751	2576.732856
375.288177	2577.325192
375.674540	2578.550192
376.060841	2575.152455
376.447079	2577.854513
376.833254	2579.495409
377.219367	2580.123032
377.605417	2579.311407
377.991404	2578.865264
378.377329	2577.577250
378.763191	2577.574729
379.148991	2578.068762
379.534727	2578.272929
379.920402	2579.334092
380.306013	2579.883577
380.691563	2581.219483
381.077049	2581.897518
381.462474	2579.470203
381.847835	2582.590677
382.233134	2581.947930
382.618371	2582.285687
383.003545	2583.432550
383.388657	2583.472879
383.773706	2582.144535
384.158693	2585.000349
384.543618	2582.293249
384.928480	2583.384659
385.313280	2584.471027
385.698017	2583.193095
386.082692	2584.080338
386.467305	2583.147725
386.851856	2586.590833
387.236344	2583.906418
387.620770	2584.589495
388.005133	2580.324678
388.389435	2581.040522
388.773674	2581.590008
389.157851	2586.205184
389.541965	2585.801892
389.926018	2589.378591
390.310008	2588.445977
390.693936	2586.091758
391.077802	2588.680391
391.461606	2587.861203
391.845348	2587.173086
392.229027	2589.625607
392.612645	2589.010587
392.996200	2589.928077
393.379694	2589.398755
393.763125	2590.507809
394.146494	2587.919177
394.529801	2589.847418
394.913047	2589.492017
395.296230	2591.011925
395.679351	2590.480083
396.062410	2590.225505
396.445408	2594.787749
396.828343	2592.299939
397.211217	2593.038468
397.594028	2593.192224
397.976778	2592.940166
398.359466	2592.050402
398.742092	2591.931935
399.124656	2591.221132
399.507158	2592.360433
399.889598	2594.525609
400.271977	2595.768253
400.654294	2594.628952
401.036549	2591.566452
401.418742	2592.819178
401.800874	2594.248345
402.182944	2596.048037
402.564952	2592.592326
402.946898	2598.770260
403.328783	2594.679364
403.710606	2596.453850
404.092367	2595.944694
404.474067	2596.438727
404.855705	2596.955445
405.237282	2597.056268
405.618797	2597.318408
406.000250	2598.636670
406.381642	2598.941660
406.762972	2595.775815
407.144240	2596.153902
407.525447	2596.688264
407.906593	2593.030907
408.287677	2600.355703
408.668700	2596.209354
409.049661	2600.086002
409.430560	2602.888883
409.811399	2601.628595
410.192176	2599.352514
410.572891	2601.421907
410.953545	2599.395363
411.334138	2600.393512
411.714669	2602.447782
412.095139	2599.244129
412.475547	2602.785539
412.855894	2606.170674
413.236180	2602.140272
413.616405	2603.486260
413.996568	2601.585745
414.376670	2601.353852
414.756711	2603.508945
415.136691	2602.808225
415.516609	2605.260746
415.896466	2603.100612
416.276262	2602.246136
416.655997	2605.754779
417.035670	2605.338884
417.415283	2606.339553
417.794834	2604.212186
418.174324	2603.145982
418.553753	2605.991713
418.933121	2606.523555
419.312428	2607.667897
419.691674	2605.517845
420.070859	2605.769902
420.449983	2607.385592
420.829045	2606.808380
421.208047	2609.288628
421.586988	2607.937599
421.965867	2605.958946
422.344686	2610.044801
422.723444	2607.874584
423.102141	2609.177722
423.480777	2609.409616
423.859352	2607.753597
424.237866	2608.529934
424.616319	2610.362394
424.994712	2609.437342
425.373044	2610.990017
425.751314	2607.309975
426.129524	2606.624378
426.507673	2608.716457
426.885762	2606.044645
427.263789	2613.392127
427.641756	2611.489092
428.019662	2612.462034
428.397508	2611.108484
428.775292	2612.441870
429.153016	2615.789196
429.530679	2612.860285
429.908282	2614.259206
430.285824	2611.249637
430.663305	2612.593104
431.040726	2614.143259
431.418086	2614.556634
431.795385	2613.717282
432.172624	2615.209463
432.549802	2614.188629
432.926920	2611.741149
433.303977	2615.133846
433.680974	2617.271295
434.057910	2617.677108
434.434786	2616.817591
434.811601	2618.168620
435.188355	2618.869341
435.565050	2616.744494
435.941683	2616.318517
436.318257	2618.995370
436.694770	2620.986625
437.071222	2618.576954
437.447614	2619.302880
437.823946	2621.342027
438.200218	2619.134001
438.576429	2619.023096
438.952580	2621.026955
439.328670	2622.388066
439.704700	2621.747840
440.080670	2622.972840
440.456580	2622.390587
440.832429	2623.330762
441.208218	2623.295474
441.583947	2625.367388
441.959616	2624.694394
442.335224	2623.565176
442.710773	2624.495268
443.086261	2625.629528
443.461689	2624.064250
443.837057	2628.480301
444.212365	2630.005250
444.587612	2623.522326
444.962800	2624.714559
445.337927	2627.293109
445.712995	2623.577778
446.088002	2632.603964
446.462949	2629.105404
446.837837	2630.874849
447.212664	2632.185549
447.587431	2633.501290
447.962139	2635.114459
448.336786	2639.074285
448.711374	2643.432363
449.085901	2640.576549
449.460369	2639.527989
449.834776	2637.675365
450.209124	2642.464461
450.583412	2643.467651
450.957640	2646.444452
451.331808	2646.295738
451.705917	2646.031078
452.079965	2644.914462
452.453954	2649.060811
452.827883	2650.409320
453.201752	2653.043323
453.575562	2654.495175
453.949311	2659.606905
454.323001	2662.818120
454.696632	2665.018584
455.070202	2673.210459
455.443713	2678.118022
455.817164	2683.305369
456.190556	2691.966072
456.563888	2697.458409
456.937160	2706.459389
457.310373	2709.078268
457.683526	2715.972046
458.056619	2724.063098
458.429653	2731.566856
458.802628	2741.669328
459.175542	2754.554517
459.548398	2780.206428
459.921194	2800.842392
460.293930	2823.038592
460.666607	2863.181300
461.039224	2917.303128
461.411782	2961.498924
461.784280	2980.763693
462.156719	3005.089781
462.529099	3027.696835
462.901419	3028.037113
463.273680	3048.857079
463.645882	3077.523600
464.018024	3105.262549
464.390106	3157.801454
464.762130	3237.028228
465.134094	3334.259483
465.505999	3528.543032
465.877845	3847.910210
466.249631	4117.538844
466.621358	4152.100995
466.993026	4122.864823
467.364634	4154.800533
467.736184	4145.161847
468.107674	4165.218077
468.479105	4273.980972
468.850477	4331.432481
469.221790	4380.016602
469.593043	4399.959406
469.964238	4440.623874
470.335373	4492.383921
470.706449	4648.072396
471.077467	4681.137324
471.448425	5048.004774
471.819324	5800.240710
472.190164	6275.727382
472.560945	5867.323344
472.931667	5590.742959
473.302330	5612.651814
473.672934	5630.126973
474.043479	5848.424058
474.413965	5944.024500
474.784393	6006.053378
475.154761	6290.261028
475.525070	6429.348984
475.895321	6479.115254
476.265513	6765.790550
476.635645	7044.400000
477.005719	7165.813670
477.375734	7365.715584
477.745691	7682.163935
478.115588	7969.050959
478.485427	8324.049013
478.855207	8804.675141
479.224928	9532.700935
479.594591	10502.457618
479.964194	10722.869468
480.333739	11078.311143
480.703226	11083.012019
481.072653	11224.287835
481.442022	11684.706498
481.811333	12250.729772
482.180584	12495.404695
482.549777	12323.345073
482.918912	12462.763224
483.287988	12739.469638
483.657005	12853.608922
484.025964	12950.920836
484.394864	13173.510463
484.763706	13278.086679
485.132489	13287.581692
485.501213	13533.816852
485.869879	13777.077731
486.238487	13808.148883
486.607036	14202.614130
486.975527	14234.396084
487.343959	14619.769611
487.712333	14862.395304
488.080648	14846.500546
488.448905	15367.123189
488.817104	15429.691470
489.185244	16037.301743
489.553326	16294.471165
489.921350	17022.902773
490.289315	18660.970262
490.657222	20062.637883
491.025070	20664.594502
491.392861	20776.372007
491.760593	20496.348513
492.128267	20236.207331
492.495883	19739.401619
492.863440	19411.262833
493.230939	18977.380804
493.598380	19108.957440
493.965763	18991.959821
494.333088	18873.114619
494.700354	19008.020937
495.067563	19137.107243
495.434713	19124.438823
495.801805	19354.481797
496.168839	19447.498647
496.535815	19477.296907
496.902733	19805.760848
497.269593	19668.853192
497.636395	20027.513644
498.003139	20161.888120
498.369825	20134.383585
498.736453	20403.636653
499.103023	20446.131059
499.469535	20611.783375
499.835989	20913.902245
500.202385	21098.912592
500.568723	20787.167638
500.935003	21130.588682
501.301226	20905.770864
501.667390	21694.855114
502.033497	22069.213719
502.399546	21920.610586
502.765537	21704.685364
503.131470	22130.335189
503.497345	22366.099872
503.863163	21739.232391
504.228923	22418.386720
504.594625	22675.001615
504.960269	22294.583543
505.325856	22863.460111
505.691385	22397.831415
506.056856	23020.484491
506.422270	23078.104880
506.787625	22762.390017
507.152924	23227.643147
507.518164	23297.286687
507.883347	23177.219005
508.248472	22941.265279
508.613540	23738.271702
508.978550	23595.097892
509.343503	23624.570998
509.708398	23961.277225
510.073236	24148.248580
510.438016	24391.103646
510.802738	24145.090297
511.167403	24418.656072
511.532010	24151.454754
511.896561	24953.772032
512.261053	24961.348887
512.625488	24838.274157
512.989866	24761.676344
513.354186	24661.561550
513.718449	24765.527786
514.082655	25169.770351
514.446803	24945.522184
514.810894	25413.240438
515.174927	24929.703043
515.538904	24979.867565
515.902822	25485.066798
516.266684	25259.865853
516.630488	25172.583315
516.994235	25192.407652
517.357925	25478.866179
517.721558	25696.676792
518.085133	25789.585258
518.448651	25726.328859
518.812112	25454.043537
519.175516	25638.380889
519.538863	25823.055999
519.902152	25615.433557
520.265385	25930.200683
520.628560	25717.524484
520.991678	25747.695790
521.354739	25826.355434
521.717743	25885.546142
522.080690	25685.916449
522.443580	26034.860078
522.806413	26031.268255
523.169189	26131.781301
523.531908	26190.457812
523.894569	25791.122810
524.257174	25854.900968
524.619722	26079.398672
524.982213	25751.348106
525.344647	25850.404258
525.707025	25953.518540
526.069345	25968.281559
526.431608	25915.530925
526.793815	26117.635824
527.155964	25551.511726
527.518057	25736.690951
527.880093	25659.369733
528.242072	25889.241308
528.603995	25593.207110
528.965860	25395.419959
529.327669	25446.285201
529.689421	25430.312305
530.051117	25272.065445
530.412755	25443.270591
530.774337	25265.489260
531.135862	25124.737724
531.497331	25338.137328
531.858743	24884.441043
532.220098	25372.878440
532.581396	25041.677153
532.942638	24995.411963
533.303824	25083.370015
533.664953	25103.048159
534.026025	24768.345791
534.387040	24995.865667
534.747999	25076.945065
535.108902	25237.117646
535.469748	24723.718977
535.830537	24914.118316
536.191270	25028.207189
536.551947	24921.677526
536.912567	24605.907211
537.273131	24896.070985
537.633638	24618.000939
537.994089	24839.294990
538.354483	24388.482246
538.714821	24872.249013
539.075103	24919.719038
539.435328	24729.102929
539.795497	24252.393777
540.155609	24676.932028
540.515665	24950.979233
540.875665	24207.343506
541.235609	24475.048940
541.595496	24452.192348
541.955328	24809.668129
542.315102	24729.148299
542.674821	24303.589215
543.034483	24170.109543
543.394090	24340.581202
543.753640	24118.122644
544.113134	24764.587611
544.472571	24352.354817
544.831953	24639.793847
545.191278	24244.227108
545.550548	24193.976886
545.909761	24411.845473
546.268918	24626.359172
546.628019	24588.200158
546.987064	24284.763026
547.346053	24055.932450
547.704986	24196.061403
548.063863	24333.831097
548.422684	24334.642723
548.781449	23890.101174
549.140158	24281.014928
549.498811	23855.723025
549.857408	23595.158386
550.215949	24051.793663
550.574434	23719.238826
550.932864	23942.025058
551.291237	24088.972172
551.649555	23958.928047
552.007817	24006.579554
552.366022	23883.456933
552.724173	23920.040586
553.082267	23850.316387
553.440305	24324.046217
553.798288	23612.126909
554.156215	24135.025633
554.514086	24211.547828
554.871902	23576.851435
555.229661	23872.227763
555.587365	23727.266863
555.945014	23573.093255
556.302606	23841.441436
556.660143	23770.852679
557.017625	24041.655902
557.375050	23567.469848
557.732421	23964.864006
558.089735	23769.746146
558.446994	23844.566952
558.804197	23853.656152
559.161345	23806.289470
559.518437	23559.240164
559.875474	23759.797429
560.232455	23934.498616
560.589381	23772.206229
560.946251	23727.382810
561.303065	24062.226331
561.659825	24144.389577
562.016528	23750.272169
562.373177	23505.216639
562.729770	23835.369366
563.086307	23712.304719
563.442789	23894.315578
563.799216	23710.999060
564.155587	23727.254260
564.511904	23705.864645
564.868164	23642.550273
565.224370	23631.255568
565.580520	23518.174925
565.936615	23670.637062
566.292654	23338.641793
566.648638	23653.608044
567.004567	23476.784532
567.360441	23416.610799
567.716260	23147.503924
568.072023	23478.642197
568.427732	23235.366194
568.783385	23031.922869
569.138982	23251.893617
569.494525	23290.483650
569.850013	23041.710269
570.205445	23145.608450
570.560823	22946.256021
570.916145	22712.089384
571.271412	22883.987689
571.626625	22635.753712
571.981782	22750.543306
572.336884	22553.131721
572.691931	22683.775743
573.046923	22423.339653
573.401860	22310.354793
573.756743	22308.171973
574.111570	22223.926731
574.466342	22154.809991
574.821059	22249.606368
575.175722	21949.801387
575.530330	21928.411772
575.884882	21962.404272
576.239380	21859.370649
576.593823	21760.470773
576.948211	21733.883727
577.302544	21585.477199
577.656823	21458.283846
578.011047	21549.992517
578.365216	21428.288981
578.719330	21304.102677
579.073389	21203.324970
579.427394	21353.024554
579.781344	21124.572065
580.135239	21022.433247
580.489080	20993.945686
580.842866	20755.788976
581.196597	20937.106677
581.550273	20915.578429
581.903895	20806.833179
582.257463	21129.588013
582.610975	20658.015797
582.964434	20967.588013
583.317837	20670.898465
583.671186	20766.869432
584.024481	20729.151519
584.377721	20509.016933
584.730906	20553.666433
585.084037	20587.575754
585.437113	20489.648820
585.790135	20690.503513
586.143103	20165.432052
586.496016	20173.969246
586.848874	20418.313972
587.201679	20353.023468
587.554428	20015.321613
587.907124	20356.511947
588.259765	20132.752772
588.612352	20210.804957
588.964884	19779.390572
589.317362	19956.544280
589.669786	20004.173102
590.022155	20053.251255
590.374470	20223.722913
590.726731	20032.393481
591.078937	19777.585839
591.431090	19884.544000
591.783188	19639.191043
592.135232	19619.616242
592.487222	19708.448935
592.839157	19731.176977
593.191038	19616.571385
593.542866	19505.716412
593.894639	19227.079236
594.246358	19457.555749
594.598022	19360.155616
594.949633	19116.060426
595.301190	19070.102747
595.652692	19225.118228
596.004141	19477.846393
596.355535	18802.563671
596.706876	18813.122368
597.058162	18704.374597
597.409395	18929.043700
597.760573	19015.524695
598.111698	18794.023956
598.462768	18721.302792
598.813785	18689.755251
599.164748	18511.797479
599.515657	18541.744453
599.866511	18328.697730
600.217312	18699.184729
600.568060	18227.899859
600.918753	18535.445532
601.269392	18441.390204
601.619978	18197.146300
601.970510	18427.889994
602.320988	18379.081542
602.671412	18577.022448
603.021783	18480.854877
603.372100	18216.254793
603.722363	18349.676492
604.072572	18293.218089
604.422728	18427.774047
604.772830	18187.966359
605.122878	18135.392165
605.472872	18134.487278
605.822813	18121.423128
606.172701	18081.550122
606.522534	18281.779711
606.872314	18304.694276
607.222041	18129.786402
607.571714	18348.393518
607.921333	18182.259773
608.270899	18255.502697
608.620411	18453.506617
608.969870	18199.175364
609.319276	18208.282209
609.668627	18240.243124
610.017926	18376.281181
610.367171	18484.292943
610.716362	18527.059572
611.065500	18345.991408
611.414585	18492.938522
611.763616	18468.998083
612.112594	18421.407070
612.461518	18383.847953
612.810389	18580.193334
613.159207	18438.657898
613.507971	18332.095468
613.856682	18624.671434
614.205340	18549.328869
614.553945	18701.097847
614.902496	18433.142876
615.250994	18680.252676
615.599439	18614.586606
615.947830	18598.848123
616.296169	18640.175503
616.644454	18621.117421
616.992686	18582.383715
617.340864	18795.450603
617.688990	18555.927740
618.037063	18731.780830
618.385082	18579.480010
618.733048	18857.260190
619.080961	18715.949086
619.428821	18769.503784
619.776628	18651.523140
620.124382	18575.925997
620.472083	18612.149208
620.819731	18631.514800
621.167326	18324.831165
621.514868	18375.283033
621.862357	18131.848234
622.209793	18148.521850
622.557176	17976.573134
622.904506	17803.142318
623.251783	17717.609061
623.599007	17488.803691
623.946179	17426.462262
624.293297	17371.012090
624.640363	17117.898276
624.987376	17142.673026
625.334336	16930.521108
625.681243	16781.247501
626.028097	16779.362110
626.374899	16726.682052
626.721647	16579.707212
627.068343	16413.676810
627.414987	16352.149527
627.761577	16317.791543
628.108115	16368.636621
628.454600	16071.576548
628.801032	16181.241809
629.147412	16110.431241
629.493739	16129.229704
629.840014	15945.391426
630.186236	16038.904830
630.532405	15811.324460
630.878521	16005.718914
631.224585	15895.738581
631.570597	15720.112343
631.916556	15758.200781
632.262462	15736.095321
632.608316	15651.429143
632.954117	15585.211066
633.299866	15588.661736
633.645562	15511.791702
633.991206	15263.005718
634.336797	15136.931502
634.682336	15102.434886
635.027823	14989.281147
635.373257	14884.478079
635.718639	14771.278969
636.063968	14730.899327
636.409245	14479.454135
636.754470	14501.768802
637.099642	14358.554663
637.444762	14122.369043
637.789829	14162.675589
638.134845	14009.094316
638.479808	14023.194423
638.824719	13982.615656
639.169577	13828.976410
639.514383	13878.278894
639.859137	13701.261298
640.203839	13780.692238
640.548489	13624.224905
640.893086	13615.274337
641.237632	13479.810971
641.582125	13631.264877
641.926566	13463.649032
642.270955	13472.715547
642.615292	13433.389506
642.959576	13440.978963
643.303809	13478.404489
643.647990	13406.290783
643.992118	13467.712202
644.336195	13245.268768
644.680219	13446.078090
645.024192	13369.719733
645.368112	13599.268673
645.711981	13658.479546
646.055797	13837.201052
646.399562	13804.650322
646.743274	14081.482765
647.086935	14356.155073
647.430544	14318.795082
647.774101	14348.343805
648.117606	14502.164533
648.461059	14466.347135
648.804460	14462.233553
649.147810	14192.675495
649.491108	14092.185134
649.834354	14106.643164
650.177548	13803.062358
650.520690	13618.697280
650.863781	13534.618396
651.206820	13579.197319
651.549807	13409.822112
651.892742	13220.766239
652.235626	13158.366837
652.578458	13161.648628
652.921238	12840.922859
653.263967	13040.701265
653.606644	12862.856919
653.949269	12844.950741
654.291843	12644.827015
654.634365	12806.267447
654.976836	12649.956389
655.319255	12663.300324
655.661622	12608.719751
656.003938	12539.545038
656.346203	12460.371196
656.688416	12528.580528
657.030577	12499.493071
657.372687	12419.676482
657.714746	12388.875032
658.056753	12573.356057
658.398708	12392.431566
658.740612	12399.451373
659.082465	12498.603307
659.424266	12457.795167
659.766016	12486.857418
660.107715	12391.204045
660.449362	12467.199439
660.790958	12425.400712
661.132503	12373.338196
661.473996	12430.608224
661.815438	12448.219495
662.156829	12463.151392
662.498168	12441.902929
662.839456	12445.189761
663.180693	12463.063172
663.521879	12556.137996
663.863013	12525.207996
664.204097	12508.171417
664.545129	12624.022173
664.886110	12597.543513
665.227040	12681.430833
665.567918	12680.074763
665.908746	12732.701889
666.249522	12703.627034
666.590248	12752.130496
666.930922	12872.304042
667.271545	12842.412520
667.612118	12925.475612
667.952639	12826.875684
668.293109	12847.486441
668.633528	12801.203608
668.973896	12775.793672
669.314213	12863.676107
669.654480	12594.733070
669.994695	12665.452896
670.334859	12680.785566
670.674973	12636.022640
671.015035	12667.555058
671.355047	12607.154473
671.695008	12581.101790
672.034918	12591.143768
672.374777	12633.141621
672.714585	12543.852704
673.054342	12579.967530
673.394049	12526.334694
673.733705	12623.301288
674.073310	12534.594625
674.412864	12556.700084
674.752368	12433.141404
675.091820	12431.172833
675.431223	12426.018253
675.770574	12302.509984
676.109875	12220.828168
676.449125	12180.798886
676.788324	12120.050462
677.127473	11958.685648
677.466571	11942.448091
677.805619	11839.903460
678.144616	11761.251378
678.483562	11736.748850
678.822458	11599.271543
679.161303	11581.937536
679.500098	11565.210987
679.838842	11521.521827
680.177535	11545.013604
680.516179	11607.821340
680.854771	11549.742207
681.193314	11766.078283
681.531805	11914.073957
681.870247	12320.441368
682.208638	12729.173081
682.546978	13055.870097
682.885268	13106.349691
683.223508	12800.936427
683.561697	12636.244451
683.899836	12537.337012
684.237925	12346.002539
684.575963	12260.093716
684.913951	12191.143334
685.251889	12134.082513
685.589776	12226.076009
685.927614	12154.509269
686.265401	12115.336983
686.603137	12161.597131
686.940824	12314.170173
687.278460	12433.290118
687.616046	12482.544711
687.953582	12650.011842
688.291068	12573.282960
688.628504	12814.028303
688.965889	12815.185248
689.303224	12785.709621
689.640510	12685.491483
689.977745	12374.888350
690.314930	12151.174546
690.652065	12060.801781
690.989150	11773.282092
691.326185	11552.280427
691.663170	11345.545229
692.000105	11098.589184
692.336990	10992.571198
692.673825	10745.612633
693.010610	10620.758376
693.347345	10419.903683
693.684030	10219.258198
694.020665	10158.708899
694.357251	9968.168408
694.693786	9911.621785
695.030272	9743.307740
695.366707	9632.878745
695.703093	9556.530470
696.039429	9548.149551
696.375716	9479.945260
696.711952	9353.500519
697.048139	9388.773473
697.384276	9335.508641
697.720363	9353.497998
698.056400	9296.704359
698.392388	9249.352801
698.728326	9206.129948
699.064214	9141.222572
699.400053	9195.150315
699.735842	9004.882045
700.071581	8965.747568
700.407270	8887.902070
700.742910	8807.004154
701.078501	8721.712872
701.414042	8596.893903
701.749533	8528.561063
702.084974	8394.206751
702.420366	8501.512752
702.755709	8389.924291
703.091002	8256.066533
703.426246	8280.402703
703.761440	8232.915033
704.096584	8194.206534
704.431679	8123.441337
704.766725	8115.987991
705.101721	8061.437665
705.436668	8102.749921
705.771565	7997.233529
706.106413	8079.931138
706.441212	8121.069474
706.775961	8072.495436
707.110661	8107.516332
707.445311	8259.953262
707.779913	8151.162642
708.114465	8284.100389
708.448967	8319.242273
708.783421	8450.781100
709.117825	8637.941498
709.452180	8674.068927
709.786485	8768.086446
710.120742	9042.922592
710.454949	9044.820587
710.789107	9145.041246
711.123216	9357.397331
711.457275	9519.120067
711.791286	9686.567033
712.125247	9671.390639
712.459159	9665.459722
712.793023	9915.886601
713.126837	9494.962858
713.460602	9645.499273
713.794318	9471.803797
714.127985	9500.823199
714.461602	9185.133542
714.795171	9129.514492
715.128691	8889.626145
715.462162	8636.945870
715.795584	8577.518228
716.128957	8436.222248
716.462281	8261.037110
716.795556	8316.754463
717.128782	8108.695962
717.461960	7843.334664
717.795088	7910.366887
718.128167	7824.780698
718.461198	7650.608832
718.794180	7598.422808
719.127113	7591.680264
719.459997	7446.343799
719.792833	7207.090637
720.125619	7276.484641
720.458357	7131.990048
720.791046	7120.657534
721.123686	7123.208358
721.456278	6961.059644
721.788821	6981.158725
722.121315	6868.768720
722.453761	6937.144411
722.786158	6880.254989
723.118506	6897.563791
723.450805	6866.931220
723.783056	6929.091167
724.115259	6836.747311
724.447412	6829.248595
724.779518	6881.464866
725.111574	6878.694752
725.443582	6955.862215
725.775542	6939.538959
726.107453	7127.826055
726.439315	7045.695576
726.771129	7102.227076
727.102895	7273.248220
727.434612	7380.498768
727.766281	7409.223263
728.097901	7492.901375
728.429473	7481.803275
728.760996	7462.692261
729.092471	7440.062521
729.423897	7390.581076
729.755276	7394.969400
730.086606	7317.154149
730.417887	7421.138030
730.749120	7604.217614
731.080305	7800.169784
731.411442	7921.159997
731.742530	7916.486848
732.073570	8023.376953
732.404562	8116.484544
732.735506	7961.675751
733.066401	8100.645239
733.397249	8037.038480
733.728048	7803.146586
734.058798	7470.017057
734.389501	7251.306598
734.720156	7072.012920
735.050762	6836.212949
735.381320	6738.994297
735.711831	6689.391864
736.042293	6583.467139
736.372707	6605.648216
736.703073	6462.081196
737.033391	6504.852865
737.363661	6508.079204
737.693883	6540.415685
738.024056	6626.626978
738.354182	6669.761611
738.684260	6703.449121
739.014290	6813.472304
739.344272	6922.764519
739.674207	6950.994981
740.004093	7017.921339
740.333931	7039.424381
740.663722	7045.342696
740.993464	7124.214068
741.323159	7119.349355
741.652806	6867.415171
741.982405	6871.390120
742.311956	6935.024605
742.641460	6777.221367
742.970915	6579.182158
743.300323	6570.400468
743.629683	6517.251583
743.958996	6386.375668
744.288260	6300.053470
744.617477	6247.938021
744.946647	6252.074288
745.275768	6088.045224
745.604842	6040.207195
745.933869	6026.797726
746.262847	5979.236960
746.591778	5971.103058
746.920662	5929.662253
747.249498	5913.777577
747.578286	5963.869002
747.907027	6039.304828
748.235720	6100.622903
748.564365	6066.093520
748.892963	6094.931440
749.221514	6256.349187
749.550017	6089.371048
749.878473	5968.244724
750.206881	6019.886304
750.535242	5959.926820
750.863555	5891.296551
751.191821	5910.372278
751.520039	5913.031486
751.848210	5815.510365
752.176334	5832.317572
752.504411	5885.721035
752.832440	5817.078164
753.160421	5743.777266
753.488356	5793.873733
753.816243	5828.516542
754.144082	5677.430641
754.471875	5644.519468
754.799620	5694.356315
755.127318	5701.144228
755.454969	5657.863402
755.782572	5621.612465
756.110129	5669.021996
756.437638	5653.346528
756.765100	5593.747487
757.092515	5586.584007
757.419882	5636.441019
757.747203	5620.793277
758.074477	5681.778636
758.401703	5671.388818
758.728882	5623.303772
759.056014	5669.788251
759.383099	5802.506709
759.710138	5813.335107
760.037129	5799.061080
760.364073	5798.095699
760.690970	5883.820520
761.017820	5868.049270
761.344623	5823.409853
761.671379	5920.855357
761.998088	6038.238624
762.324751	6273.978102
762.651366	6859.523244
762.977935	8138.181670
763.304456	9761.639896
763.630931	10673.710656
763.957359	10301.318101
764.283740	9374.580104
764.610074	8553.696256
764.936362	7563.570790
765.262602	6969.080120
765.588796	6431.244457
765.914943	6092.279793
766.241044	5929.427839
766.567097	5735.721502
766.893104	5479.063757
767.219064	5299.127332
767.544978	5237.814299
767.870845	5163.810160
768.196665	5053.489550
768.522438	4984.513962
768.848165	4947.758909
769.173846	4887.640629
769.499479	4841.705635
769.825066	4789.575063
770.150607	4728.118357
770.476101	4703.467115
770.801548	4700.447463
771.126949	4626.980208
771.452303	4571.903082
771.777611	4529.544786
772.102872	4550.062283
772.428087	4509.682640
772.753256	4474.941528
773.078378	4431.169190
773.403453	4362.135629
773.728482	4346.074513
774.053465	4296.610711
774.378401	4285.051345
774.703291	4290.957057
775.028135	4219.506263
775.352932	4169.263603
775.677683	4155.254237
776.002388	4172.832740
776.327046	4187.313455
776.651658	4114.299903
776.976224	4050.766241
777.300743	4057.075245
777.625216	4074.189962
777.949643	4073.479160
778.274024	4026.946789
778.598359	3984.951457
778.922647	4004.831247
779.246889	3999.101976
779.571086	3996.120133
779.895236	3978.113132
780.219339	3964.708704
780.543397	3955.478351
780.867409	4007.606402
781.191374	4021.172147
781.515294	3964.872541
781.839167	3953.386272
782.162995	3973.104745
782.486776	3963.463539
782.810511	3971.032831
783.134201	3969.089466
783.457844	3924.641613
783.781441	3868.878890
784.104993	3872.715208
784.428498	3892.189185
784.751958	3892.796644
785.075372	3868.372254
785.398739	3834.415041
785.722061	3843.506762
786.045337	3883.268863
786.368568	3921.067435
786.691752	3832.317921
787.014891	3878.265518
787.337983	4003.591123
787.661030	4159.400586
787.984031	4319.333712
788.306987	4490.939630
788.629897	4572.374429
788.952760	4531.072256
789.275579	4466.789983
789.598351	4397.587543
789.921078	4263.865896
790.243759	4061.231676
790.566395	4041.220816
790.888984	4042.541598
791.211529	3933.221657
791.534027	3870.716390
791.856480	3864.142726
792.178888	3803.069147
792.501249	3750.207608
792.823566	3761.968619
793.145836	3792.681849
793.468062	3741.897265
793.790241	3695.133002
794.112375	3725.304308
794.434464	3784.374028
794.756507	3811.321516
795.078505	3792.956592
795.400457	3823.866427
795.722364	3960.453970
796.044226	4065.166297
796.366042	4137.902585
796.687812	4118.688227
797.009538	4123.452118
797.331218	4083.054831
797.652852	4052.792785
797.974442	4038.017163
798.295986	4035.725958
798.617484	3958.296356
798.938938	3867.409393
799.260346	3911.395981
799.581709	3906.213675
799.903026	3834.523426
800.224299	3802.439002
800.545526	3794.731078
800.866708	3755.967126
801.187845	3691.669729
801.508936	3727.161973
801.829983	3728.291191
802.150984	3650.551558
802.471940	3639.874394
802.792851	3646.881598
803.113717	3649.611382
803.434538	3652.172289
803.755314	3595.177003
804.076045	3569.908220
804.396731	3590.481168
804.717372	3614.232565
805.037967	3602.562294
805.358518	3587.927824
805.679024	3616.700210
805.999485	3629.771922
806.319901	3633.678816
806.640272	3646.430414
806.960598	3663.625790
807.280879	3638.314157
807.601115	3650.065086
807.921306	3663.940862
808.241453	3702.893858
808.561554	3681.935261
808.881611	3616.191053
809.201623	3650.866630
809.521590	3665.165863
809.841513	3637.207623
810.161390	3665.556552
810.481223	3645.210455
810.801011	3590.518977
811.120755	3580.356011
811.440453	3613.990589
811.760107	3620.934779
812.079716	3581.384406
812.399281	3545.118346
812.718801	3566.230698
813.038276	3540.964435
813.357707	3539.729352
813.677093	3559.919173
813.996434	3505.545288
814.315731	3511.342615
814.634983	3515.640198
814.954191	3529.082435
815.273354	3562.354051
815.592473	3557.844738
815.911547	3558.868093
816.230577	3600.858384
816.549562	3650.891836
816.868502	3692.191488
817.187399	3717.341805
817.506250	3714.511197
817.825058	3683.629089
818.143821	3777.845733
818.462539	3878.784757
818.781213	3924.702107
819.099843	3977.737566
819.418429	4213.179615
819.736970	4454.028302
820.055466	4695.345816
820.373919	5059.649840
820.692327	5465.135049
821.010691	5889.030553
821.329011	7230.486632
821.647286	9908.738245
821.965517	14401.785077
822.283704	18421.893541
822.601847	20634.098042
822.919945	18856.015025
823.237999	16314.817262
823.556010	13841.886805
823.873976	11780.531271
824.191897	9696.591368
824.509775	8352.062705
824.827609	7224.591003
825.145398	6685.013622
825.463144	6561.790177
825.780845	6669.123905
826.098502	6854.068716
826.416116	7702.116822
826.733685	9008.647787
827.051210	10119.808836
827.368692	10186.518425
827.686129	8963.305129
828.003522	7458.271169
828.320872	6442.947496
828.638177	5754.126755
828.955439	5197.399368
829.272656	4707.288309
829.589830	4419.884567
829.906960	4244.457454
830.224046	4063.144794
830.541088	3939.674334
830.858086	3895.458373
831.175041	3816.408040
831.491952	3796.339206
831.808819	3807.701967
832.125642	3881.711147
832.442421	4022.248434
832.759157	4291.647695
833.075849	4828.195343
833.392497	5677.022307
833.709101	6447.812210
834.025662	6795.959335
834.342179	6451.325894
834.658653	5794.173681
834.975083	5156.641640
835.291469	4579.737035
835.607811	4170.632277
835.924110	4033.331410
836.240366	3841.298737
836.556578	3636.874907
836.872746	3529.279040
837.188871	3488.609532
837.504952	3423.382042
837.820990	3342.718539
838.136984	3293.267341
838.452935	3320.507215
838.768842	3314.014209
839.084706	3336.003722
839.400526	3487.187926
839.716303	3815.422494
840.032037	4330.988860
840.347727	4602.991877
840.663373	4336.614788
840.978977	3961.338692
841.294537	3652.520128
841.610054	3430.265738
841.925527	3320.900425
842.240957	3252.537338
842.556344	3198.145809
842.871687	3140.215389
843.186987	3088.523398
843.502244	3055.498799
843.817458	3018.801719
844.132629	2989.968840
844.447756	2997.344048
844.762840	2986.009014
845.077881	2952.142542
845.392879	2932.938267
845.707833	2929.797628
846.022745	2929.447268
846.337613	2930.911723
846.652438	2921.943510
846.967221	2916.370514
847.281960	2904.465830
847.596656	2898.035838
847.911309	2900.737896
848.225919	2893.453429
848.540485	2886.040412
848.855009	2887.971174
849.169490	2879.751573
849.483928	2868.068699
849.798323	2867.841847
850.112675	2865.805221
850.426984	2874.070193
850.741251	2873.747559
851.055474	2863.032586
851.369654	2858.515712
851.683792	2861.737010
851.997887	2871.564739
852.311938	2871.784029
852.625947	2861.870600
852.939914	2865.608616
853.253837	2868.224975
853.567718	2854.230732
853.881555	2850.772500
854.195350	2868.492156
854.509103	2863.302288
854.822812	2857.336082
855.136479	2852.857017
855.450103	2857.197451
855.763685	2849.494567
856.077224	2846.235462
856.390720	2857.154601
856.704173	2870.634646
857.017584	2861.260621
857.330953	2856.017821
857.644278	2866.004346
857.957561	2876.195039
858.270802	2877.089844
858.584000	2876.772251
858.897155	2865.832947
859.210268	2864.555015
859.523339	2860.307843
859.836367	2865.348996
860.149352	2855.637213
860.462295	2850.820391
860.775195	2859.907071
861.088054	2860.406145
861.400869	2844.927282
861.713642	2839.661797
862.026373	2855.715351
862.339062	2859.176103
862.651708	2864.648276
862.964312	2867.819162
863.276873	2858.639221
863.589392	2868.444265
863.901869	2880.563199
864.214303	2904.231416
864.526696	2919.848911
864.839045	2914.046543
865.151353	2915.621903
865.463619	2910.570667
865.775842	2917.837490
866.088023	2933.838113
866.400162	2938.397836
866.712258	2910.454720
867.024313	2901.824265
867.336325	2907.561098
867.648296	2930.147988
867.960224	2918.349167
868.272110	2908.428177
868.583954	2911.962025
868.895755	2928.922988
869.207515	2913.058476
869.519233	2916.320103
869.830909	2927.881989
870.142542	2936.303237
870.454134	2936.149482
870.765684	2940.741973
871.077191	2939.970676
871.388657	2948.081893
871.700081	2961.269551
872.011463	2969.363124
872.322803	2972.675162
872.634101	2972.425625
872.945357	2988.484220
873.256571	3015.643437
873.567744	3006.788650
873.878874	3000.053668
874.189963	3022.484282
874.501010	3026.146681
874.812015	3015.310720
875.122979	3015.078827
875.433900	3009.702437
875.744780	3017.082686
876.055618	3024.760363
876.366415	3022.340609
876.677169	3033.894934
876.987882	3030.983668
877.298554	3021.034951
877.609183	3042.936243
877.919771	3068.285686
878.230317	3092.914243
878.540822	3145.599342
878.851285	3183.934796
879.161707	3218.718757
879.472087	3319.529232
879.782425	3540.941750
880.092722	3967.340186
880.402977	4490.858972
880.713191	5101.188947
881.023363	6237.510395
881.333494	7515.211002
881.643583	8080.210922
881.953631	7789.711911
882.263637	7171.348857
882.573602	6595.631443
882.883526	6015.505541
883.193408	5446.518068
883.503248	4988.055373
883.813048	4686.339794
884.122806	4392.634610
884.432522	4079.707505
884.742197	3849.891384
885.051831	3656.023730
885.361424	3518.332175
885.670975	3445.492543
885.980485	3359.498020
886.289954	3287.956485
886.599382	3245.961153
886.908768	3208.104608
887.218113	3162.162053
887.527417	3105.013012
887.836680	3058.984757
888.145901	3052.713561
888.455082	3043.236192
888.764221	2992.711228
889.073319	2963.180148
889.382376	2961.572020
889.691392	2964.160653
890.000366	2964.057309
890.309300	2952.208077
890.618193	2963.059161
890.927044	2982.880978
891.235855	2984.481544
891.544625	2966.784573
891.853353	2977.408805
892.162041	2994.311794
892.470687	3034.056251
892.779293	3082.751277
893.087858	3130.415386
893.396381	3197.767722
893.704864	3317.096875
894.013306	3553.234603
894.321707	3849.508256
894.630068	4054.804205
894.938387	4053.722878
895.246665	4009.307792
895.554903	3891.828743
895.863100	3692.269626
896.171256	3526.839122
896.479371	3392.336096
896.787446	3271.078702
897.095480	3172.934998
897.403473	3107.793208
897.711425	3069.971952
898.019336	3059.995508
898.327207	3032.465767
898.635038	2998.798421
898.942827	2982.245792
899.250576	2973.012919
899.558284	2938.072682
899.865952	2921.830084
900.173579	2899.127248
900.481165	2895.414438
900.788711	2881.445401
901.096216	2858.319107
901.403681	2844.299658
901.711105	2851.082531
902.018489	2851.080010
902.325832	2848.574557
902.633135	2860.156608
902.940397	2891.076525
903.247619	2969.985706
903.554800	3156.692401
903.861941	3494.880727
904.169041	3915.257505
904.476101	4213.482084
904.783121	4178.635108
905.090100	3938.005712
905.397039	3664.749967
905.703938	3419.298707
906.010796	3236.614854
906.317614	3126.170735
906.624391	3036.128165
906.931129	2962.280303
907.237826	2902.041035
907.544483	2855.067563
907.851099	2826.327945
908.157675	2804.940850
908.464211	2784.758590
908.770707	2771.480191
909.077163	2760.651793
909.383578	2745.180492
909.689954	2732.602813
909.996289	2733.016187
910.302584	2731.715570
910.608839	2735.829151
910.915054	2729.315980
911.221229	2722.528067
911.527363	2722.644013
911.833458	2731.728172
912.139513	2734.319326
912.445527	2739.199162
912.751502	2747.252406
913.057436	2756.127357
913.363331	2769.703184
913.669186	2789.320835
913.975000	2822.053047
914.280775	2881.616800
914.586510	2948.689352
914.892205	3029.751106
915.197859	3153.544200
915.503475	3340.475226
915.809050	3553.587484
916.114585	3693.270295
916.420081	3717.064542
916.725536	3661.223680
917.030952	3544.626833
917.336328	3422.363729
917.641665	3291.828091
917.946961	3187.589632
918.252218	3120.476751
918.557435	3045.746687
918.862612	2986.782831
919.167750	2937.384564
919.472848	2899.023904
919.777906	2871.365613
920.082925	2847.253775
920.387904	2815.978456
920.692843	2798.866259
920.997743	2790.581123
921.302603	2777.043104
921.607423	2765.831578
921.912204	2755.678694
922.216946	2741.775192
922.521647	2735.687999
922.826310	2725.862790
923.130932	2718.790051
923.435516	2709.552137
923.740059	2707.023998
924.044564	2697.501258
924.349028	2692.213088
924.653454	2684.916018
924.957840	2678.090296
925.262186	2675.080727
925.566493	2670.962104
925.870761	2667.952535
926.174989	2663.246618
926.479178	2655.952068
926.783328	2650.981491
927.087438	2651.800678
927.391509	2649.622900
927.695541	2648.995276
927.999533	2643.150058
928.303486	2640.823566
928.607400	2642.086375
928.911275	2644.372538
929.215110	2641.975469
929.518906	2637.892135
929.822663	2636.813328
930.126381	2637.670324
930.430060	2637.874491
930.733699	2637.335087
931.037299	2640.064872
931.340861	2641.184008
931.644383	2641.219296
931.947866	2642.076292
932.251309	2637.249388
932.554714	2639.185191
932.858080	2634.746455
933.161407	2633.007257
933.464694	2633.345014
933.767943	2630.970631
934.071153	2634.973307
934.374323	2629.828809
934.677455	2630.534571
934.980548	2630.204375
935.283602	2631.026083
935.586617	2629.770836
935.889593	2628.167749
936.192530	2628.029117
936.495428	2629.584313
936.798287	2630.650517
937.101108	2635.023718
937.403890	2641.103350
937.706632	2643.691982
938.009336	2650.449649
938.312002	2658.575989
938.614628	2667.854233
938.917216	2671.718277
939.219765	2674.269101
939.522275	2673.384378
939.824747	2671.935047
940.127179	2670.563853
940.429573	2664.315343
940.731929	2661.557832
941.034246	2662.397184
941.336524	2654.043992
941.638763	2652.145997
941.940964	2650.495019
942.243126	2651.548621
942.545250	2652.115750
942.847335	2645.932775
943.149381	2642.840027
943.451389	2636.843575
943.753359	2637.060344
944.055290	2634.673358
944.357182	2634.849798
944.659036	2632.551032
944.960851	2632.263687
945.262628	2633.392905
945.564367	2633.468522
945.866067	2631.099180
946.167729	2633.907103
946.469352	2633.614716
946.770937	2631.346197
947.072484	2632.067082
947.373992	2629.196144
947.675462	2629.743110
947.976893	2624.578447
948.278286	2623.940742
948.579641	2622.791358
948.880958	2619.459156
949.182236	2624.948972
949.483476	2623.572737
949.784678	2622.990484
950.085841	2623.650875
950.386967	2625.195989
950.688054	2623.819754
950.989103	2625.329579
951.290114	2627.406535
951.591087	2627.555249
951.892021	2631.633542
952.192917	2634.149078
952.493776	2634.451547
952.794596	2636.069758
953.095378	2633.897020
953.396122	2633.871815
953.696828	2635.248050
953.997496	2630.703449
954.298126	2628.276134
954.598718	2625.581637
954.899272	2624.729682
955.199788	2623.199692
955.500266	2619.844804
955.800706	2616.636110
956.101108	2613.450100
956.401472	2612.988835
956.701798	2609.691920
957.002087	2609.926334
957.302337	2609.727208
957.602550	2606.634460
957.902724	2605.734614
958.202861	2603.377875
958.502960	2604.796960
958.803022	2603.254367
959.103045	2604.476847
959.403031	2601.442072
959.702979	2600.448965
960.002889	2600.075919
960.302762	2598.987030
960.602596	2598.561052
960.902393	2600.015425
961.202153	2598.868563
961.501875	2598.366968
961.801559	2596.784046
962.101205	2599.027359
962.400814	2599.070209
962.700385	2599.914602
962.999918	2595.412852
963.299414	2593.051071
963.598873	2593.507296
963.898293	2589.625607
964.197677	2596.569797
964.497022	2597.416711
964.796331	2595.183479
965.095601	2596.857143
965.394835	2595.987543
965.694030	2598.059458
965.993189	2597.038624
966.292309	2593.570310
966.591393	2594.979313
966.890439	2597.686412
967.189447	2597.154571
967.488419	2593.114086
967.787353	2591.992429
968.086249	2594.392018
968.385108	2597.575507
968.683930	2597.220106
968.982714	2595.294385
969.281462	2594.530650
969.580172	2593.285485
969.878844	2594.041658
970.177480	2597.439396
970.476078	2594.928901
970.774639	2594.555856
971.073162	2594.427306
971.371649	2596.549632
971.670098	2595.170877
971.968510	2596.715990
972.266885	2596.015270
972.565223	2595.357399
972.863524	2595.274220
973.161788	2593.759353
973.460014	2597.018459
973.758204	2596.945363
974.056356	2596.345465
974.354471	2593.187182
974.652550	2594.102152
974.950591	2595.942173
975.248595	2596.093408
975.546563	2595.337235
975.844493	2597.454519
976.142386	2597.144488
976.440243	2595.894282
976.738062	2593.885382
977.035845	2594.697008
977.333590	2594.409662
977.631299	2594.392018
977.928971	2592.335228
978.226606	2590.220463
978.524204	2590.951431
978.821765	2589.852459
979.119290	2591.717686
979.416777	2593.068715
979.714228	2593.368664
980.011642	2593.620722
980.309020	2593.993767
980.606360	2593.053592
980.903664	2592.100814
981.200931	2595.110383
981.498162	2592.559559
981.795356	2592.431009
982.092513	2600.101125
982.389633	2596.985692
982.686717	2602.972062
982.983764	2606.178236
983.280775	2609.719647
983.577749	2610.221241
983.874686	2611.365583
984.171587	2605.895931
984.468451	2606.006837
984.765279	2600.146495
985.062070	2599.423090
985.358824	2599.014756
985.655543	2597.787235
985.952224	2595.175918
986.248869	2598.324118
986.545478	2594.770105
986.842050	2594.563417
987.138586	2591.916812
987.435086	2592.889754
987.731549	2589.834815
988.027975	2591.924373
988.324366	2590.470001
988.620719	2593.088880
988.917037	2589.560072
989.213318	2590.159970
989.509563	2589.512181
989.805772	2592.257090
990.101944	2590.099476
990.398080	2589.620566
990.694180	2587.929259
990.990244	2589.802048
991.286271	2589.486976
991.582262	2589.277768
991.878217	2587.437747
992.174136	2591.072418
992.470019	2591.256421
992.765865	2584.907087
993.061676	2586.910946
993.357450	2589.784404
993.653188	2583.893815
993.948890	2590.709455
994.244556	2589.529825
994.540186	2591.901688
994.835780	2589.857500
995.131337	2592.083170
995.426859	2592.292378
995.722345	2592.557038
996.017795	2592.183993
996.313208	2594.379415
996.608586	2595.256576
996.903928	2596.393356
997.199234	2594.921339
997.494504	2592.040320
997.789738	2592.783890
998.084936	2592.557038
998.380099	2592.967892
998.675225	2592.592326
998.970316	2590.580906
999.265371	2590.800196
999.560390	2589.340782
999.855373	2590.830443
1000.150320	2589.252562
1000.445232	2589.305494
1000.740108	2590.717017
1001.034948	2588.312387
1001.329752	2586.837849
1001.624521	2586.553024
1001.919254	2587.425144
1002.213951	2587.868765
1002.508613	2587.190730
1002.803239	2586.565627
1003.097829	2586.890781
1003.392384	2586.797520
1003.686903	2585.358271
1003.981386	2589.121492
1004.275834	2586.973960
1004.570246	2587.982191
1004.864623	2588.279619
1005.158964	2586.227870
1005.453270	2585.098651
1005.747540	2587.750298
1006.041775	2589.126533
1006.335974	2588.095617
1006.630138	2587.442788
1006.924266	2588.995463
1007.218359	2584.828949
1007.512416	2584.047571
1007.806438	2585.232242
1008.100425	2583.414906
1008.394376	2583.324165
1008.688292	2587.152921
1008.982172	2587.248703
1009.276017	2586.220308
1009.569827	2583.722416
1009.863602	2587.150401
1010.157341	2587.838518
1010.451045	2587.818354
1010.744714	2588.103179
1011.038347	2586.316090
1011.331945	2587.306677
1011.625508	2585.582602
1011.919036	2586.797520
1012.212528	2585.985894
1012.505986	2586.837849
1012.799408	2589.819692
1013.092795	2585.290215
1013.386147	2589.055957
1013.679464	2587.326841
1013.972745	2585.126378
1014.265992	2586.109403
1014.559204	2583.845924
1014.852380	2587.420102
1015.145521	2588.607294
1015.438628	2588.942531
1015.731699	2585.907756
1016.024736	2587.914136
1016.317737	2585.892633
1016.610703	2587.614187
1016.903635	2587.278950
1017.196531	2586.797520
1017.489393	2586.096800
1017.782219	2585.146542
1018.075011	2586.721903
1018.367768	2587.087386
1018.660490	2587.049578
1018.953177	2587.049578
1019.245829	2587.049578
