Dividing Wavelength (nm)	Counts (n)	Blue Motor Position (mm): 48.500000	Red Motor Position (mm): 0.000000	
326.493990	2280.376025
326.888308	2280.376025
327.282561	2280.376025
327.676750	2238.577298
328.070874	2238.557133
328.464933	2239.663666
328.858929	2242.953019
329.252859	2247.656416
329.646726	2257.771491
330.040528	2269.260280
330.434265	2281.091868
330.827938	2300.530558
331.221547	2316.085038
331.615091	2332.443582
332.008571	2353.117354
332.401986	2374.852289
332.795338	2392.677809
333.188625	2413.003741
333.581847	2431.792122
333.975006	2449.345419
334.368100	2468.017853
334.761129	2487.383446
335.154095	2509.735922
335.546996	2533.373892
335.939833	2571.525344
336.332606	2584.803744
336.725315	2601.018615
337.117960	2613.329113
337.510540	2626.042903
337.903056	2635.505148
338.295508	2642.512352
338.687896	2652.214053
339.080220	2659.765701
339.472480	2665.893224
339.864676	2668.839778
340.256807	2674.732887
340.648875	2677.853361
341.040879	2682.415606
341.432818	2683.726306
341.824694	2685.863755
342.216506	2689.294260
342.608253	2689.914322
342.999937	2687.207222
343.391557	2689.246369
343.783113	2687.955834
344.174605	2687.043385
344.566033	2686.869465
344.957397	2687.171934
345.348697	2684.653878
345.739934	2684.038857
346.131106	2680.973836
346.522215	2680.462158
346.913260	2678.173475
347.304241	2675.252126
347.695159	2674.828669
348.086012	2672.018226
348.476802	2671.075530
348.867528	2667.909685
349.258191	2665.099242
349.648789	2664.632935
350.039324	2662.636638
350.429796	2664.058244
350.820203	2665.653769
351.210548	2662.986999
351.600828	2659.422903
351.991045	2660.637821
352.381198	2661.545229
352.771288	2658.404590
353.161314	2658.540701
353.551276	2659.649755
353.941175	2657.081287
354.331010	2657.305618
354.720782	2657.214877
355.110490	2658.233191
355.500135	2656.584733
355.889717	2657.509785
356.279235	2656.841832
356.668689	2656.390649
357.058080	2656.897285
357.447408	2658.081956
357.836672	2658.157573
358.225873	2658.886020
358.615010	2658.749909
359.004084	2659.170845
359.393095	2661.898109
359.782043	2662.094714
360.170927	2664.287616
360.559748	2661.940959
360.948505	2665.641166
361.337199	2663.912050
361.725830	2667.254335
362.114398	2664.572442
362.502903	2667.932371
362.891344	2664.784170
363.279722	2668.645694
363.668037	2668.184428
364.056289	2669.109480
364.444478	2670.659635
364.832603	2668.917916
365.220665	2669.293482
365.608665	2671.042762
365.996601	2673.994358
366.384474	2673.724656
366.772284	2676.986283
367.160031	2675.645336
367.547715	2673.495284
367.935336	2674.395130
368.322893	2672.161899
368.710388	2673.288597
369.097820	2673.265911
369.485189	2674.294307
369.872495	2681.170441
370.259738	2681.505677
370.646918	2682.387879
371.034035	2685.631862
371.421090	2690.499096
371.808081	2697.763398
372.195010	2700.778008
372.581875	2708.929554
372.968678	2719.145452
373.355418	2728.184241
373.742096	2746.483630
374.128710	2761.745723
374.515262	2771.207969
374.901751	2788.126081
375.288177	2803.562094
375.674540	2823.517502
376.060841	2844.735718
376.447079	2867.327649
376.833254	2897.377967
377.219367	2917.683735
377.605417	2951.454425
377.991404	2973.408650
378.377329	3011.920544
378.763191	3029.005015
379.148991	3075.514700
379.534727	3116.537090
379.920402	3149.491112
380.306013	3174.379289
380.691563	3240.819176
381.077049	3260.356168
381.462474	3302.522899
381.847835	3358.187320
382.233134	3400.270872
382.618371	3426.298349
383.003545	3493.154132
383.388657	3513.908562
383.773706	3575.569435
384.158693	3605.823920
384.543618	3639.171153
384.928480	3693.340872
385.313280	3748.745673
385.698017	3775.524282
386.082692	3865.985267
386.467305	3868.601626
386.851856	3903.171339
387.236344	3983.476919
387.620770	4007.029190
388.005133	4062.179413
388.389435	4104.106690
388.773674	4112.187659
389.157851	4189.478630
389.541965	4256.941872
389.926018	4220.769072
390.310008	4324.321934
390.693936	4379.656159
391.077802	4411.649842
391.461606	4410.208072
391.845348	4472.824244
392.229027	4535.574006
392.612645	4533.010580
392.996200	4634.025220
393.379694	4696.192730
393.763125	4804.900171
394.146494	4828.734747
394.529801	4883.829517
394.913047	4970.227332
395.296230	4916.450823
395.679351	5023.567781
396.062410	5075.622736
396.445408	5047.152819
396.828343	5110.560452
397.211217	5162.927958
397.594028	5047.470412
397.976778	5165.420809
398.359466	5210.622315
398.742092	5233.743567
399.124656	5158.232124
399.507158	5273.528353
399.889598	5335.975647
400.271977	5458.200942
400.654294	5456.320592
401.036549	5505.479403
401.418742	5423.646353
401.800874	5626.721674
402.182944	5689.380696
402.564952	5795.073527
402.946898	5856.313464
403.328783	5686.141754
403.710606	5710.266196
404.092367	6036.703593
404.474067	6060.520524
404.855705	5951.465243
405.237282	5886.865377
405.618797	6153.769267
406.000250	6117.596468
406.381642	6336.057391
406.762972	6357.187387
407.144240	6408.634882
407.525447	6392.208283
407.906593	6402.983749
408.287677	6570.561785
408.668700	6489.920968
409.049661	6600.513801
409.430560	6626.193438
409.811399	6485.527602
410.192176	6748.184320
410.572891	6774.378156
410.953545	6960.285827
411.334138	6692.759354
411.714669	6864.304779
412.095139	6654.862480
412.475547	6903.146869
412.855894	6976.173024
413.236180	7162.521796
413.616405	6813.205123
413.996568	7030.592279
414.376670	7089.500683
414.756711	6985.158880
415.136691	7083.237049
415.516609	7289.097607
415.896466	7259.380006
416.276262	7471.305072
416.655997	7468.862633
417.035670	7628.223588
417.415283	7981.893298
417.794834	8050.180768
418.174324	7907.939571
418.553753	7833.650608
418.933121	8124.807489
419.312428	8227.745330
419.691674	8000.051534
420.070859	8480.624731
420.449983	8165.570259
420.829045	8529.370168
421.208047	8299.538923
421.586988	8611.621634
421.965867	8639.506776
422.344686	8727.326197
422.723444	8811.266450
423.102141	8134.607492
423.480777	8903.882528
423.859352	8428.695805
424.237866	9050.683449
424.616319	8912.134897
424.994712	9348.081279
425.373044	8874.646356
425.751314	9376.657059
426.129524	9258.384028
426.507673	9318.111619
426.885762	9479.957863
427.263789	9402.828209
427.641756	9354.697793
428.019662	9428.941386
428.397508	9706.260301
428.775292	9355.108647
429.153016	9745.193132
429.530679	9576.697606
429.908282	9583.813194
430.285824	9316.442997
430.663305	10008.222895
431.040726	9451.094737
431.418086	9427.610522
431.795385	9774.146999
432.172624	9871.524447
432.549802	9774.996433
432.926920	9845.565025
433.303977	9711.026712
433.680974	9916.998175
434.057910	10024.692345
434.434786	10089.566954
434.811601	9904.012163
435.188355	10478.071037
435.565050	10224.619465
435.941683	10142.123503
436.318257	10612.526172
436.694770	10808.354834
437.071222	10842.969917
437.447614	10663.829994
437.823946	10596.545714
438.200218	10679.944042
438.576429	10530.919973
438.952580	10783.620413
439.328670	10788.623758
439.704700	10609.486356
440.080670	10585.480381
440.456580	11103.431213
440.832429	10906.349823
441.208218	10502.926446
441.583947	10776.900554
441.959616	10976.868004
442.335224	10790.720878
442.710773	10888.746114
443.086261	11119.580549
443.461689	10387.768848
443.837057	11081.630743
444.212365	11307.063581
444.587612	10941.080853
444.962800	11149.151957
445.337927	10882.328725
445.712995	10585.450134
446.088002	11607.639858
446.462949	11314.360651
446.837837	11277.141812
447.212664	11179.945846
447.587431	11804.549848
447.962139	12571.735326
448.336786	14874.017684
448.711374	15340.233674
449.085901	13138.068631
449.460369	12797.679841
449.834776	12249.872776
450.209124	13196.689689
450.583412	13624.222385
450.957640	14538.170974
451.331808	13552.978278
451.705917	12648.610401
452.079965	11870.999818
452.453954	12788.744396
452.827883	12456.585290
453.201752	12740.361922
453.575562	12308.085500
453.949311	12717.129764
454.323001	12714.546173
454.696632	12944.125360
455.070202	13215.460425
455.443713	13399.011357
455.817164	13915.159976
456.190556	13863.712480
456.563888	14229.216299
456.937160	14357.755640
457.310373	13731.750196
457.683526	13849.332589
458.056619	13358.445192
458.429653	13590.151746
458.802628	12927.913010
459.175542	13347.677288
459.548398	14298.335559
459.921194	14676.500236
460.293930	14747.867851
460.666607	15571.337811
461.039224	16639.268444
461.411782	17376.665744
461.784280	17122.072351
462.156719	17247.145899
462.529099	16912.637615
462.901419	15890.500823
463.273680	15641.982020
463.645882	15544.632298
464.018024	15257.745274
464.390106	15496.925339
464.762130	16203.732917
465.134094	17019.376486
465.505999	19098.466799
465.877845	22381.319116
466.249631	25158.500852
466.621358	24745.695887
466.993026	23341.467359
467.364634	22742.016194
467.736184	21265.278230
468.107674	20479.175823
468.479105	20609.577870
468.850477	20060.949097
469.221790	19678.164203
469.593043	18965.917220
469.964238	18396.304644
470.335373	18033.921300
470.706449	18558.382782
471.077467	18153.227767
471.448425	20046.657426
471.819324	24210.103538
472.190164	25969.322557
472.560945	22265.115478
472.931667	19996.109776
473.302330	19402.579446
473.672934	19069.223065
474.043479	19264.547612
474.413965	19061.540347
474.784393	18649.317635
475.154761	19453.248083
475.525070	19335.438838
475.895321	19077.878727
476.265513	19691.130051
476.635645	20272.985069
477.005719	20031.980106
477.375734	20203.822959
477.745691	20691.801610
478.115588	21249.113770
478.485427	21817.866830
478.855207	22925.254574
479.224928	24725.037238
479.594591	26963.533877
479.964194	26824.793762
480.333739	27067.555566
480.703226	26651.690621
481.072653	26386.294036
481.442022	27040.597996
481.811333	27962.214181
482.180584	27824.487337
482.549777	26879.336526
482.918912	26564.423207
483.287988	26705.134413
483.657005	26300.533926
484.025964	26113.290349
484.394864	25956.422244
484.763706	25609.603462
485.132489	25092.759164
485.501213	25274.633913
485.869879	25178.539438
486.238487	25023.070254
486.607036	25149.119264
486.975527	24935.840648
487.343959	25199.974424
487.712333	25099.259732
488.080648	24757.076292
488.448905	25278.437463
488.817104	25056.281375
489.185244	25779.427333
489.553326	25706.580139
489.921350	26776.244930
490.289315	29163.601801
490.657222	30829.786326
491.025070	31350.023320
491.392861	31085.493813
491.760593	30222.254191
492.128267	29286.840368
492.495883	28218.050218
492.863440	27361.104475
493.230939	26491.989388
493.598380	26321.711814
493.965763	25952.737161
494.333088	25442.617762
494.700354	25432.681648
495.067563	25258.678661
495.434713	25009.683470
495.801805	25203.780496
496.168839	24955.198679
496.535815	24828.748896
496.902733	25080.040333
497.269593	24775.476503
497.636395	24933.922489
498.003139	24851.837381
498.369825	24583.305198
498.736453	24825.678834
499.103023	24671.749722
499.469535	24672.755432
499.835989	24897.122066
500.202385	24923.071405
500.568723	24478.189578
500.935003	24629.966118
501.301226	24346.368447
501.667390	25180.046743
502.033497	25381.337496
502.399546	25109.195847
502.765537	24639.685463
503.131470	25026.810790
503.497345	25172.432080
503.863163	24426.227885
504.228923	24949.469407
504.594625	25206.482554
504.960269	24780.986484
505.325856	25251.305973
505.691385	24646.659899
506.056856	25248.230870
506.422270	25252.634318
506.787625	24759.864050
507.152924	25200.362593
507.518164	25243.829942
507.883347	25052.054368
508.248472	24720.391815
508.613540	25488.328424
508.978550	25295.330370
509.343503	25312.132536
509.708398	25501.994992
510.073236	25676.776837
510.438016	25886.012448
510.802738	25552.076335
511.167403	25808.834904
511.532010	25564.331380
511.896561	26297.279862
512.261053	26266.790963
512.625488	26094.446516
512.989866	25989.419117
513.354186	25818.448384
513.718449	25946.619721
514.082655	26324.890261
514.446803	26032.818410
514.810894	26534.209051
515.174927	26034.718925
515.538904	26059.148357
515.902822	26564.879431
516.266684	26311.589177
516.630488	26209.556223
516.994235	26148.349053
517.357925	26502.369123
517.721558	26659.214543
518.085133	26783.945292
518.448651	26664.185121
518.812112	26443.571626
519.175516	26675.981421
519.538863	26811.447307
519.902152	26624.239018
520.265385	26854.652516
520.628560	26670.660483
520.991678	26634.016336
521.354739	26690.809975
521.717743	26802.826934
522.080690	26569.308085
522.443580	26896.728507
522.806413	26861.342127
523.169189	26985.883833
523.531908	27020.156117
523.894569	26660.520202
524.257174	26767.392663
524.619722	26869.833951
524.982213	26597.198268
525.344647	26610.605217
525.707025	26797.143033
526.069345	26721.959264
526.431608	26710.407460
526.793815	26869.256739
527.155964	26375.203497
527.518057	26546.060804
527.880093	26469.241181
528.242072	26691.999687
528.603995	26405.717601
528.965860	26198.853853
529.327669	26245.955874
529.689421	26227.880817
530.051117	26078.488743
530.412755	26249.129281
530.774337	26022.423551
531.135862	25926.699601
531.497331	26097.040190
531.858743	25704.109974
532.220098	26155.071432
532.581396	25851.808220
532.942638	25729.580403
533.303824	25872.025767
533.664953	25854.074218
534.026025	25522.729258
534.387040	25758.105773
534.747999	25799.758306
535.108902	25959.336031
535.469748	25465.328160
535.830537	25616.502282
536.191270	25769.511383
536.551947	25574.723719
536.912567	25194.824886
537.273131	25660.367882
537.633638	25318.912888
537.994089	25541.825149
538.354483	25013.567679
538.714821	25535.138058
539.075103	25582.666057
539.435328	25353.306160
539.795497	24965.810308
540.155609	25273.847493
540.515665	25599.564005
540.875665	24810.071421
541.235609	25176.147411
541.595496	25077.222328
541.955328	25451.018845
542.315102	25375.046136
542.674821	24867.404464
543.034483	24764.544761
543.394090	24924.177939
543.753640	24754.535550
544.113134	25379.361363
544.472571	24950.638955
544.831953	25263.883652
545.191278	24931.492653
545.550548	24807.858355
545.909761	25006.263047
546.268918	25252.692291
546.628019	25231.479115
546.987064	24896.078547
547.346053	24631.289421
547.704986	24726.113525
548.063863	24889.152002
548.422684	24927.560553
548.781449	24419.497945
549.140158	24822.371837
549.498811	24406.864813
549.857408	24174.001314
550.215949	24545.206678
550.574434	24269.405151
550.932864	24439.917138
551.291237	24646.919518
551.649555	24471.724299
552.007817	24542.129053
552.366022	24380.456729
552.724173	24388.341093
553.082267	24375.080338
553.440305	24856.664286
553.798288	24081.070164
554.156215	24565.091509
554.514086	24709.888571
554.871902	24115.261790
555.229661	24381.011256
555.587365	24218.096287
555.945014	24135.401199
556.302606	24330.133411
556.660143	24334.050387
557.017625	24561.661004
557.375050	24079.837602
557.732421	24468.563495
558.089735	24292.990189
558.446994	24339.646068
558.804197	24382.064857
559.161345	24259.385857
559.518437	24071.890222
559.875474	24228.165992
560.232455	24405.130656
560.589381	24226.915786
560.946251	24227.613985
561.303065	24516.134343
561.659825	24611.949034
562.016528	24217.370361
562.373177	23955.318581
562.729770	24317.147398
563.086307	24157.115969
563.442789	24330.723226
563.799216	24184.900289
564.155587	24178.989536
564.511904	24155.371730
564.868164	24116.446461
565.224370	24088.732717
565.580520	24032.460838
565.936615	24135.736436
566.292654	23845.068546
566.648638	24062.629623
567.004567	23910.490120
567.360441	23846.961500
567.716260	23566.176792
568.072023	23858.052038
568.427732	23651.379854
568.783385	23412.562752
569.138982	23671.622607
569.494525	23692.036760
569.850013	23453.640594
570.205445	23562.884919
570.560823	23380.347258
570.916145	23159.118742
571.271412	23359.557540
571.626625	23103.524898
571.981782	23203.306977
572.336884	23015.554243
572.691931	23158.980111
573.046923	22891.133525
573.401860	22769.553497
573.756743	22817.933450
574.111570	22698.264020
574.466342	22619.362400
574.821059	22696.799564
575.175722	22395.051219
575.530330	22338.305470
575.884882	22350.610927
576.239380	22275.033948
576.593823	22175.037621
576.948211	22137.412969
577.302544	22003.451867
577.656823	21847.929751
578.011047	21963.813275
578.365216	21832.077842
578.719330	21710.840613
579.073389	21581.706416
579.427394	21752.712437
579.781344	21486.640337
580.135239	21384.730891
580.489080	21325.051191
580.842866	21110.139241
581.196597	21338.445537
581.550273	21278.959922
581.903895	21154.400572
582.257463	21475.970735
582.610975	21015.632730
582.964434	21346.430725
583.317837	20996.176397
583.671186	21082.415416
584.024481	21076.834858
584.377721	20840.992037
584.730906	20941.787388
585.084037	20905.483518
585.437113	20843.263077
585.790135	21048.720343
586.143103	20496.827423
586.496016	20541.013137
586.848874	20761.213257
587.201679	20665.809421
587.554428	20373.888804
587.907124	20713.171061
588.259765	20453.468459
588.612352	20525.388080
588.964884	20108.983731
589.317362	20263.709346
589.669786	20339.508135
590.022155	20322.466514
590.374470	20573.999927
590.726731	20318.791513
591.078937	20120.472521
591.431090	20197.592093
591.783188	19973.953905
592.135232	19927.013201
592.487222	20036.081085
592.839157	20034.414984
593.191038	19914.783362
593.542866	19800.991917
593.894639	19499.344394
594.246358	19729.364682
594.598022	19605.606876
594.949633	19367.530824
595.301190	19353.372743
595.652692	19530.216420
596.004141	19739.285673
596.355535	19069.064269
596.706876	19096.304144
597.058162	18994.114914
597.409395	19235.019054
597.760573	19260.963352
598.111698	19047.856135
598.462768	18993.643566
598.813785	18978.820053
599.164748	18761.934492
599.515657	18835.608434
599.866511	18631.610582
600.217312	18966.567529
600.568060	18474.334144
600.918753	18782.744375
601.269392	18683.378191
601.619978	18484.723962
601.970510	18664.115942
602.320988	18608.517057
602.671412	18818.281989
603.021783	18756.104397
603.372100	18453.052913
603.722363	18613.144836
604.072572	18570.620182
604.422728	18717.244663
604.772830	18456.070044
605.122878	18417.603519
605.472872	18402.666580
605.822813	18377.291932
606.172701	18376.865955
606.522534	18529.895221
606.872314	18574.128826
607.222041	18419.998067
607.571714	18630.582187
607.921333	18459.679510
608.270899	18530.318678
608.620411	18675.060287
608.969870	18482.057192
609.319276	18477.527715
609.668627	18502.199122
610.017926	18634.519328
610.367171	18744.063601
610.716362	18807.398138
611.065500	18612.711297
611.414585	18770.638044
611.763616	18752.341176
612.112594	18680.111523
612.461518	18663.740376
612.810389	18846.361216
613.159207	18710.429023
613.507971	18623.181773
613.856682	18853.653245
614.205340	18775.545607
614.553945	18939.418395
614.902496	18674.041974
615.250994	18884.817658
615.599439	18840.571450
615.947830	18825.684923
616.296169	18900.142765
616.644454	18860.756230
616.992686	18841.378035
617.340864	19052.672957
617.688990	18798.429925
618.037063	18978.386514
618.385082	18842.701338
618.733048	19103.875957
619.080961	19003.877109
619.428821	19020.185241
619.776628	18899.341222
620.124382	18834.002827
620.472083	18885.833450
620.819731	18894.436179
621.167326	18586.928315
621.514868	18622.286968
621.862357	18425.921423
622.209793	18410.359381
622.557176	18237.054594
622.904506	18074.855469
623.251783	18011.276437
623.599007	17760.887367
623.946179	17701.684056
624.293297	17626.696892
624.640363	17345.395467
624.987376	17377.013583
625.334336	17183.319850
625.681243	17031.422323
626.028097	17060.325778
626.374899	16955.696630
626.721647	16829.516549
627.068343	16670.097621
627.414987	16606.558918
627.761577	16557.752987
628.108115	16585.194508
628.454600	16321.053170
628.801032	16415.819300
629.147412	16366.685694
629.493739	16361.826022
629.840014	16183.512849
630.186236	16278.604134
630.532405	16045.176025
630.878521	16227.842235
631.224585	16145.747045
631.570597	15966.493696
631.916556	15989.667880
632.262462	15963.368181
632.608316	15882.014040
632.954117	15832.744323
633.299866	15818.349308
633.645562	15738.978861
633.991206	15507.108470
634.336797	15375.874632
634.682336	15344.402709
635.027823	15201.395256
635.373257	15070.736110
635.718639	14985.696886
636.063968	14929.034317
636.409245	14678.609958
636.754470	14714.518097
637.099642	14565.773812
637.444762	14354.917470
637.789829	14392.113624
638.134845	14215.564854
638.479808	14247.906377
638.824719	14152.099248
639.169577	14022.125699
639.514383	14053.254824
639.859137	13887.370615
640.203839	13989.413652
640.548489	13843.293287
640.893086	13833.384899
641.237632	13705.881515
641.582125	13867.006874
641.926566	13672.740970
642.270955	13693.850802
642.615292	13647.323472
642.959576	13647.741888
643.303809	13672.922451
643.647990	13609.146814
643.992118	13669.688551
644.336195	13451.522536
644.680219	13679.846476
645.024192	13584.387187
645.368112	13828.971369
645.711981	13857.975647
646.055797	14048.634606
646.399562	14024.217778
646.743274	14286.025062
647.086935	14549.569023
647.430544	14519.906874
647.774101	14573.290172
648.117606	14697.002608
648.461059	14688.954406
648.804460	14659.723276
649.147810	14390.765115
649.491108	14305.688082
649.834354	14317.242407
650.177548	13990.058919
650.520690	13796.337459
650.863781	13726.136871
651.206820	13785.362867
651.549807	13615.362557
651.892742	13375.655691
652.235626	13328.808249
652.578458	13337.663035
652.921238	13037.842931
653.263967	13241.664343
653.606644	13067.968866
653.949269	13051.126371
654.291843	12843.317407
654.634365	13015.538346
654.976836	12865.944626
655.319255	12842.475534
655.661622	12811.956389
656.003938	12740.545924
656.346203	12661.470385
656.688416	12744.472983
657.030577	12695.251157
657.372687	12585.719487
657.714746	12582.104979
658.056753	12776.005400
658.398708	12583.022469
658.740612	12591.405908
659.082465	12702.152496
659.424266	12668.606138
659.766016	12706.820605
660.107715	12619.648973
660.449362	12693.554808
660.790958	12644.693425
661.132503	12576.244638
661.473996	12660.187411
661.815438	12669.155624
662.156829	12700.262064
662.498168	12656.280517
662.839456	12671.822394
663.180693	12677.539063
663.521879	12782.475721
663.863013	12743.903332
664.204097	12716.933159
664.545129	12856.641177
664.886110	12842.624248
665.227040	12925.838575
665.567918	12917.689550
665.908746	12938.106223
666.249522	12938.877519
666.590248	12994.390705
666.930922	13103.783744
667.271545	13070.625554
667.612118	13160.068227
667.952639	13050.125702
668.293109	13094.785284
668.633528	13024.647711
668.973896	13003.157272
669.314213	13065.498701
669.654480	12813.473776
669.994695	12900.413515
670.334859	12916.761977
670.674973	12852.978778
671.015035	12892.302299
671.355047	12841.051408
671.695008	12822.600785
672.034918	12838.644257
672.374777	12870.897560
672.714585	12787.411011
673.054342	12822.310919
673.394049	12773.101696
673.733705	12870.269936
674.073310	12768.214297
674.412864	12780.282819
674.752368	12633.260088
675.091820	12681.450998
675.431223	12651.894713
675.770574	12517.636183
676.109875	12426.010692
676.449125	12395.395764
676.788324	12347.729134
677.127473	12175.021724
677.466571	12172.269254
677.805619	12056.037890
678.144616	11992.494146
678.483562	11974.378760
678.822458	11839.353974
679.161303	11813.112248
679.500098	11797.469548
679.838842	11752.136972
680.177535	11792.572067
680.516179	11870.757842
680.854771	11799.236472
681.193314	12019.479442
681.531805	12191.481091
681.870247	12631.485602
682.208638	13042.296790
682.546978	13332.021984
682.885268	13350.457484
683.223508	13059.285479
683.561697	12912.073704
683.899836	12822.961228
684.237925	12611.888116
684.575963	12521.429652
684.913951	12436.944954
685.251889	12400.870457
685.589776	12499.845951
685.927614	12414.355544
686.265401	12387.491235
686.603137	12450.785442
686.940824	12610.269906
687.278460	12739.822518
687.616046	12766.588525
687.953582	12903.634813
688.291068	12859.197042
688.628504	13088.660282
688.965889	13095.400305
689.303224	13043.849466
689.640510	12920.464705
689.977745	12595.438831
690.314930	12388.406204
690.652065	12296.044704
690.989150	11997.779796
691.326185	11771.235383
691.663170	11568.238200
692.000105	11333.910246
692.336990	11203.122550
692.673825	10943.598909
693.010610	10844.688950
693.347345	10636.295212
693.684030	10442.362023
694.020665	10383.824145
694.357251	10179.511221
694.693786	10096.518705
695.030272	9958.905287
695.366707	9846.396816
695.703093	9777.121280
696.039429	9768.634497
696.375716	9667.340072
696.711952	9546.634685
697.048139	9604.459240
697.384276	9555.607938
697.720363	9580.155837
698.056400	9506.050876
698.392388	9454.326117
698.728326	9422.977701
699.064214	9357.944296
699.400053	9395.536180
699.735842	9217.936330
700.071581	9185.229324
700.407270	9098.745809
700.742910	9022.077421
701.078501	8924.798275
701.414042	8784.661760
701.749533	8738.971262
702.084974	8596.034386
702.420366	8723.762101
702.755709	8591.633459
703.091002	8457.347203
703.426246	8492.693253
703.761440	8448.056356
704.096584	8403.820231
704.431679	8337.544182
704.766725	8319.915267
705.101721	8278.655943
705.436668	8328.903644
705.771565	8213.390645
706.106413	8301.323491
706.441212	8332.192997
706.775961	8304.665776
707.110661	8346.388886
707.445311	8474.981159
707.779913	8374.997434
708.114465	8492.695773
708.448967	8535.555663
708.783421	8704.192342
709.117825	8862.706383
709.452180	8900.081498
709.786485	8989.413265
710.120742	9280.330692
710.454949	9288.588102
710.789107	9396.990553
711.123216	9625.518660
711.457275	9787.884143
711.791286	9928.423951
712.125247	9944.941291
712.459159	9930.934445
712.793023	10146.703392
713.126837	9724.289987
713.460602	9881.838648
713.794318	9711.240961
714.127985	9737.265917
714.461602	9387.734995
714.795171	9348.444242
715.128691	9102.914844
715.462162	8865.713432
715.795584	8797.705746
716.128957	8625.346175
716.462281	8458.335269
716.795556	8504.970983
717.128782	8294.999364
717.461960	8051.352837
717.795088	8111.135880
718.128167	8016.367229
718.461198	7857.147426
718.794180	7806.740928
719.127113	7799.642984
719.459997	7624.906509
719.792833	7398.702374
720.125619	7473.563509
720.458357	7331.602096
720.791046	7323.939542
721.123686	7310.280536
721.456278	7143.773745
721.788821	7164.326529
722.121315	7072.068373
722.453761	7142.783158
722.786158	7075.153559
723.118506	7090.224088
723.450805	7050.154477
723.783056	7098.925120
724.115259	7029.400047
724.447412	7026.889552
724.779518	7081.631442
725.111574	7083.204282
725.443582	7156.328739
725.775542	7126.901003
726.107453	7323.979872
726.439315	7233.163485
726.771129	7318.152298
727.102895	7501.425966
727.434612	7601.654187
727.766281	7647.763101
728.097901	7712.680559
728.429473	7732.076399
728.760996	7728.229998
729.092471	7691.853032
729.423897	7633.670555
729.755276	7623.779811
730.086606	7529.240533
730.417887	7639.301524
730.749120	7865.120011
731.080305	8055.736120
731.411442	8150.212384
731.742530	8134.420970
732.073570	8237.454593
732.404562	8324.346441
732.735506	8193.470525
733.066401	8317.369484
733.397249	8229.154333
733.728048	7987.897312
734.058798	7650.984398
734.389501	7414.350116
734.720156	7249.610249
735.050762	7036.114863
735.381320	6955.431196
735.711831	6887.710856
736.042293	6774.514267
736.372707	6791.944056
736.703073	6668.496281
737.033391	6707.494647
737.363661	6713.879268
737.693883	6754.974755
738.024056	6836.081879
738.354182	6868.917434
738.684260	6899.247537
739.014290	7032.815428
739.344272	7133.792260
739.674207	7169.042529
740.004093	7245.279898
740.333931	7257.630725
740.663722	7262.699605
740.993464	7342.012079
741.323159	7312.929662
741.652806	7065.638381
741.982405	7110.744105
742.311956	7142.110164
742.641460	6958.191228
742.970915	6771.676097
743.300323	6762.042452
743.629683	6722.532409
743.958996	6583.832623
744.288260	6485.910730
744.617477	6437.762669
744.946647	6427.574497
745.275768	6276.723010
745.604842	6227.148303
745.933869	6210.666250
746.262847	6168.640671
746.591778	6153.834803
746.920662	6111.448781
747.249498	6116.875583
747.578286	6160.640360
747.907027	6239.116002
748.235720	6295.193797
748.564365	6270.739160
748.892963	6318.327652
749.221514	6443.391118
749.550017	6250.022538
749.878473	6149.597713
750.206881	6215.566252
750.535242	6165.537841
750.863555	6091.715184
751.191821	6102.967040
751.520039	6095.281801
751.848210	6002.955588
752.176334	6042.369850
752.504411	6081.279996
752.832440	6003.681515
753.160421	5932.835659
753.488356	5985.119986
753.816243	6006.071022
754.144082	5861.866295
754.471875	5837.169683
754.799620	5875.731989
755.127318	5888.289503
755.454969	5845.679150
755.782572	5814.487011
756.110129	5861.541141
756.437638	5833.046019
756.765100	5779.398059
757.092515	5791.320388
757.419882	5847.758626
757.747203	5809.647503
758.074477	5868.523139
758.401703	5851.211817
758.728882	5817.166384
759.056014	5892.372838
759.383099	5998.960474
759.710138	6012.717783
760.037129	6002.380897
760.364073	6007.033882
760.690970	6083.150264
761.017820	6059.552623
761.344623	6026.265884
761.671379	6136.150435
761.998088	6260.578715
762.324751	6529.713316
762.651366	7184.647420
762.977935	8569.134789
763.304456	10238.275951
763.630931	11079.458005
763.957359	10599.270457
764.283740	9628.440009
764.610074	8741.595183
764.936362	7742.650219
765.262602	7153.908985
765.588796	6628.895497
765.914943	6302.301824
766.241044	6123.277848
766.567097	5905.689046
766.893104	5648.915354
767.219064	5480.071988
767.544978	5414.136216
767.870845	5330.170758
768.196665	5226.214604
768.522438	5153.924458
768.848165	5117.575218
769.173846	5045.151481
769.499479	5001.074153
769.825066	4953.828459
770.150607	4894.330240
770.476101	4873.099421
770.801548	4865.575499
771.126949	4778.108959
771.452303	4724.062749
771.777611	4691.385989
772.102872	4708.725038
772.428087	4672.040562
772.753256	4629.173110
773.078378	4572.114810
773.403453	4506.718442
773.728482	4497.094879
774.053465	4448.326757
774.378401	4440.651600
774.703291	4429.404786
775.028135	4353.522817
775.352932	4310.841888
775.677683	4295.978046
776.002388	4309.137978
776.327046	4319.946212
776.651658	4247.351076
776.976224	4188.568702
777.300743	4190.479299
777.625216	4211.853792
777.949643	4202.883058
778.274024	4161.157428
778.598359	4128.846152
778.922647	4154.941685
779.246889	4138.351248
779.571086	4129.035196
779.895236	4117.185963
780.219339	4106.745734
780.543397	4104.958645
780.867409	4154.268691
781.191374	4166.586751
781.515294	4100.814816
781.839167	4097.901029
782.162995	4121.864154
782.486776	4108.318574
782.810511	4123.479844
783.134201	4105.351855
783.457844	4053.243968
783.781441	4005.892410
784.104993	4011.790560
784.428498	4030.523488
784.751958	4017.837424
785.075372	4002.436699
785.398739	3964.249959
785.722061	3981.100015
786.045337	4027.665153
786.368568	4049.881518
786.691752	3959.153352
787.014891	4025.419319
787.337983	4163.022655
787.661030	4322.381090
787.984031	4484.998630
788.306987	4644.281448
788.629897	4736.027927
788.952760	4686.879198
789.275579	4623.527018
789.598351	4546.054565
789.921078	4393.461359
790.243759	4195.749826
790.566395	4192.062222
790.888984	4179.003113
791.211529	4067.770053
791.534027	4008.871732
791.856480	3991.406654
792.178888	3934.451698
792.501249	3888.940161
792.823566	3902.763005
793.145836	3921.208587
793.468062	3869.526678
793.790241	3828.456397
794.112375	3861.854042
794.434464	3930.706121
794.756507	3947.115077
795.078505	3923.956016
795.400457	3968.789518
795.722364	4118.985655
796.044226	4221.353846
796.366042	4294.911842
796.687812	4262.025875
797.009538	4265.247173
797.331218	4231.105958
797.652852	4204.970096
797.974442	4177.707536
798.295986	4175.834747
798.617484	4092.600256
798.938938	4015.788195
799.260346	4057.397879
799.581709	4044.036301
799.903026	3964.807006
800.224299	3933.738375
800.545526	3927.462138
800.866708	3884.390520
801.187845	3830.848425
801.508936	3862.411089
801.829983	3847.408615
802.150984	3776.005712
802.471940	3774.203500
802.792851	3779.012761
803.113717	3778.743059
803.434538	3776.449334
803.755314	3717.006568
804.076045	3698.145091
804.396731	3723.194585
804.717372	3743.797780
805.037967	3726.189030
805.358518	3716.338615
805.679024	3747.157709
805.999485	3764.494238
806.319901	3768.086060
806.640272	3780.061321
806.960598	3791.744195
807.280879	3768.655710
807.601115	3785.430149
807.921306	3800.656955
808.241453	3836.791945
808.561554	3804.871359
808.881611	3740.894076
809.201623	3786.516518
809.521590	3791.776962
809.841513	3765.885596
810.161390	3796.014052
810.481223	3765.749485
810.801011	3717.750138
811.120755	3716.762072
811.440453	3748.420518
811.760107	3745.731063
812.079716	3697.928322
812.399281	3672.510824
812.718801	3701.933518
813.038276	3671.797501
813.357707	3668.341790
813.677093	3679.926361
813.996434	3625.650778
814.315731	3645.162564
814.634983	3649.346722
814.954191	3662.151253
815.273354	3687.382228
815.592473	3681.189170
815.911547	3698.901264
816.230577	3746.419180
816.549562	3793.813588
816.868502	3828.532015
817.187399	3851.643185
817.506250	3851.189481
817.825058	3834.097449
818.143821	3930.703600
818.462539	4027.551727
818.781213	4073.622832
819.099843	4139.946773
819.418429	4412.279986
819.736970	4657.451462
820.055466	4911.124844
820.373919	5288.029232
820.692327	5703.644641
821.010691	6216.609771
821.329011	7738.619817
821.647286	10688.098109
821.965517	15502.044631
822.283704	19493.799125
822.601847	21412.948750
822.919945	19452.875038
823.237999	16766.852487
823.556010	14228.006422
823.873976	12041.705890
824.191897	9923.728116
824.509775	8600.901620
824.827609	7473.540824
825.145398	6952.613191
825.463144	6833.518452
825.780845	6938.528207
826.098502	7184.556680
826.416116	8166.102101
826.733685	9541.026401
827.051210	10627.884047
827.368692	10528.873265
827.686129	9179.651288
828.003522	7674.559354
828.320872	6648.480380
828.638177	5921.508186
828.955439	5347.345969
829.272656	4847.336604
829.589830	4579.074123
829.906960	4398.525198
830.224046	4203.616546
830.541088	4080.982917
830.858086	4032.209754
831.175041	3953.066159
831.491952	3947.422587
831.808819	3956.768886
832.125642	4043.781722
832.442421	4202.487328
832.759157	4503.272813
833.075849	5099.711889
833.392497	6007.875755
833.709101	6796.617206
834.025662	7085.344251
834.342179	6655.822820
834.658653	5970.208253
834.975083	5302.643537
835.291469	4717.300041
835.607811	4323.706913
835.924110	4175.985982
836.240366	3966.944455
836.556578	3767.556738
836.872746	3657.145387
837.188871	3610.655866
837.504952	3541.138355
837.820990	3458.382773
838.136984	3418.456835
838.452935	3441.252932
838.768842	3435.037190
839.084706	3462.627425
839.400526	3637.764671
839.716303	4014.510262
840.032037	4571.056168
840.347727	4791.974653
840.663373	4470.028924
840.978977	4076.289603
841.294537	3764.695884
841.610054	3539.164743
841.925527	3435.952159
842.240957	3366.696788
842.556344	3310.440031
842.871687	3244.325298
843.186987	3196.782177
843.502244	3160.132988
843.817458	3124.325672
844.132629	3099.739965
844.447756	3103.228443
844.762840	3085.927203
845.077881	3051.838921
845.392879	3037.970707
845.707833	3034.835109
846.022745	3033.080788
846.337613	3031.581044
846.652438	3020.500588
846.967221	3014.736029
847.281960	2999.857063
847.596656	3000.368740
847.911309	2999.176508
848.225919	2995.481342
848.540485	2989.817605
848.855009	2985.809888
849.169490	2977.900318
849.483928	2968.153247
849.798323	2970.452013
850.112675	2963.732155
850.426984	2979.185812
850.741251	2972.108032
851.055474	2963.860704
851.369654	2959.086732
851.683792	2967.026549
851.997887	2973.953094
852.311938	2973.847230
852.625947	2965.050417
852.939914	2965.776343
853.253837	2967.407156
853.567718	2956.669498
853.881555	2957.408027
854.195350	2971.976962
854.509103	2962.507154
854.822812	2955.661268
855.136479	2953.803602
855.450103	2954.716051
855.763685	2950.025258
856.077224	2945.820935
856.390720	2958.161680
856.704173	2965.980509
857.017584	2962.446661
857.330953	2962.749130
857.644278	2970.583083
857.957561	2981.552634
858.270802	2982.235710
858.584000	2979.296717
858.897155	2965.252063
859.210268	2968.554018
859.523339	2962.943214
859.836367	2964.183338
860.149352	2957.571865
860.462295	2952.742439
860.775195	2959.681588
861.088054	2957.823923
861.400869	2942.576953
861.713642	2942.695420
862.026373	2958.577575
862.339062	2958.575054
862.651708	2963.805252
862.964312	2966.308184
863.276873	2962.739048
863.589392	2970.741879
863.901869	2987.579333
864.214303	3009.568846
864.526696	3022.121319
864.839045	3016.394568
865.151353	3016.175278
865.463619	3015.741739
865.775842	3019.900691
866.088023	3037.073382
866.400162	3039.251160
866.712258	3011.338291
867.024313	3002.538957
867.336325	3012.585977
867.648296	3036.367620
867.960224	3026.643234
868.272110	3010.821573
868.583954	3018.337933
868.895755	3031.248328
869.207515	3018.736184
869.519233	3028.717669
869.830909	3035.916437
870.142542	3042.280893
870.454134	3042.764844
870.765684	3044.551933
871.077191	3044.204094
871.388657	3054.475445
871.700081	3068.762075
872.011463	3081.654826
872.322803	3080.021492
872.634101	3078.141141
872.945357	3099.056889
873.256571	3124.650827
873.567744	3114.351749
873.878874	3110.651542
874.189963	3133.528299
874.501010	3132.820017
874.812015	3124.504633
875.122979	3123.564458
875.433900	3122.246196
875.744780	3128.330869
876.055618	3138.456027
876.366415	3132.129378
876.677169	3142.453662
876.987882	3136.648773
877.298554	3137.974596
877.609183	3163.722290
877.919771	3186.142821
878.230317	3211.325905
878.540822	3266.614760
878.851285	3304.526758
879.161707	3359.049357
879.472087	3474.078406
879.782425	3731.119278
880.092722	4196.442984
880.402977	4747.118466
880.713191	5420.253657
881.023363	6674.951478
881.333494	7992.116758
881.643583	8505.273452
881.953631	8162.033890
882.263637	7461.933567
882.573602	6824.819941
882.883526	6232.680969
883.193408	5656.716539
883.503248	5206.969999
883.813048	4887.396133
884.122806	4550.460534
884.432522	4224.749063
884.742197	3978.816373
885.051831	3788.394348
885.361424	3664.739885
885.670975	3587.338009
885.980485	3489.791682
886.289954	3411.878129
886.599382	3366.346427
886.908768	3329.498113
887.218113	3285.337606
887.527417	3226.761918
887.836680	3175.740400
888.145901	3172.269566
888.455082	3158.272802
888.764221	3102.121910
889.073319	3075.416398
889.382376	3071.575038
889.691392	3079.406471
890.000366	3077.594176
890.309300	3065.069429
890.618193	3076.144844
890.927044	3092.379880
891.235855	3087.956268
891.544625	3078.826738
891.853353	3093.867021
892.162041	3111.231275
892.470687	3155.492606
892.779293	3205.417673
893.087858	3252.570106
893.396381	3331.418793
893.704864	3466.216726
894.013306	3727.749267
894.321707	4040.716701
894.630068	4231.879775
894.938387	4219.682703
895.246665	4176.883307
895.554903	4045.256260
895.863100	3840.469467
896.171256	3664.263496
896.479371	3516.189684
896.787446	3391.441291
897.095480	3283.820218
897.403473	3221.035168
897.711425	3187.486289
898.019336	3180.141328
898.327207	3145.463230
898.635038	3104.090481
898.942827	3091.648913
899.250576	3080.376893
899.558284	3048.637788
899.865952	3028.155580
900.173579	3004.754544
900.481165	2998.846312
900.788711	2980.819146
901.096216	2959.457256
901.403681	2949.551389
901.711105	2958.958182
902.018489	2952.961730
902.325832	2954.343006
902.633135	2967.815489
902.940397	3001.659276
903.247619	3100.170984
903.554800	3309.152016
903.861941	3686.699151
904.169041	4142.391733
904.476101	4436.381743
904.783121	4352.610369
905.090100	4079.069799
905.397039	3795.701500
905.703938	3538.839588
906.010796	3356.223790
906.317614	3237.292889
906.624391	3139.227323
906.931129	3066.186045
907.237826	3002.183556
907.544483	2955.184878
907.851099	2927.965168
908.157675	2906.535223
908.464211	2882.912376
908.770707	2869.518031
909.077163	2855.826257
909.383578	2838.300685
909.689954	2831.782473
909.996289	2829.672751
910.302584	2829.241732
910.608839	2829.753409
910.915054	2823.194868
911.221229	2814.025009
911.527363	2818.988025
911.833458	2825.743171
912.139513	2831.389263
912.445527	2835.349090
912.751502	2842.721777
913.057436	2853.257789
913.363331	2868.270345
913.669186	2892.523336
913.975000	2934.102773
914.280775	2997.132320
914.586510	3062.080025
914.892205	3148.389620
915.197859	3290.948410
915.503475	3509.116945
915.809050	3737.834095
916.114585	3880.970097
916.420081	3886.187691
916.725536	3816.289573
917.030952	3691.339533
917.336328	3552.352401
917.641665	3421.612597
917.946961	3318.710044
918.252218	3240.562077
918.557435	3157.544356
918.862612	3094.781990
919.167750	3045.847510
919.472848	3007.557426
919.777906	2978.938795
920.082925	2948.810339
920.387904	2917.955957
920.692843	2901.204203
920.997743	2890.648027
921.302603	2874.755789
921.607423	2864.804552
921.912204	2849.247551
922.216946	2838.272959
922.521647	2829.108141
922.826310	2820.596153
923.130932	2813.278918
923.435516	2806.309523
923.740059	2796.804428
924.044564	2786.094496
924.349028	2781.769186
924.653454	2776.811211
924.957840	2768.994902
925.262186	2766.023142
925.566493	2758.937800
925.870761	2754.355392
926.174989	2752.628796
926.479178	2749.498240
926.783328	2741.253433
927.087438	2742.760738
927.391509	2741.051787
927.695541	2739.673031
927.999533	2732.837226
928.303486	2731.581979
928.607400	2729.474777
928.911275	2730.218347
929.215110	2725.898078
929.518906	2727.029817
929.822663	2726.603840
930.126381	2725.910681
930.430060	2728.017883
930.733699	2728.285064
931.037299	2731.871845
931.340861	2728.922770
931.644383	2730.389746
931.947866	2730.805641
932.251309	2728.627863
932.554714	2726.765157
932.858080	2724.441185
933.161407	2723.748026
933.464694	2721.199723
933.767943	2720.985474
934.071153	2721.131667
934.374323	2720.027654
934.677455	2721.842470
934.980548	2720.229301
935.283602	2716.965153
935.586617	2714.764690
935.889593	2718.727037
936.192530	2715.508260
936.495428	2719.042109
936.798287	2721.116544
937.101108	2723.992522
937.403890	2727.770867
937.706632	2732.252452
938.009336	2739.945253
938.312002	2750.007396
938.614628	2759.046185
938.917216	2764.914088
939.219765	2763.489962
939.522275	2765.574479
939.824747	2761.009715
940.127179	2757.869076
940.429573	2756.041657
940.731929	2751.981008
941.034246	2745.672004
941.336524	2748.563106
941.638763	2745.936665
941.940964	2741.689492
942.243126	2740.683782
942.545250	2738.884090
942.847335	2732.859912
943.149381	2730.185579
943.451389	2726.790362
943.753359	2725.071329
944.055290	2724.973026
944.357182	2724.421020
944.659036	2720.708210
944.960851	2718.764845
945.262628	2718.734598
945.564367	2721.350957
945.866067	2720.667881
946.167729	2718.895915
946.469352	2720.471276
946.770937	2721.169476
947.072484	2718.129660
947.373992	2716.551779
947.675462	2715.888867
947.976893	2713.806871
948.278286	2712.281922
948.579641	2711.863506
948.880958	2710.089020
949.182236	2710.053732
949.483476	2712.511294
949.784678	2712.511294
950.085841	2709.443752
950.386967	2712.347457
950.688054	2710.129349
950.989103	2711.737477
951.290114	2712.123125
951.591087	2716.040102
951.892021	2718.971533
952.192917	2722.543190
952.493776	2724.277347
952.794596	2724.068139
953.095378	2725.703994
953.396122	2724.731051
953.696828	2721.542521
953.997496	2718.343909
954.298126	2719.669732
954.598718	2713.993393
954.899272	2713.280070
955.199788	2710.560367
955.500266	2707.500387
955.800706	2705.108360
956.101108	2701.682896
956.401472	2699.857998
956.701798	2701.176260
957.002087	2694.685774
957.302337	2695.482276
957.602550	2694.521937
957.902724	2694.191741
958.202861	2692.593695
958.502960	2689.324507
958.803022	2691.668643
959.103045	2690.257120
959.403031	2689.228725
959.702979	2686.531708
960.002889	2686.173786
960.302762	2687.423992
960.602596	2686.168745
960.902393	2685.352078
961.202153	2684.910977
961.501875	2687.018179
961.801559	2684.479958
962.101205	2684.772345
962.400814	2684.898374
962.700385	2685.488189
962.999918	2681.974505
963.299414	2680.638599
963.598873	2681.036850
963.898293	2677.346725
964.197677	2683.532221
964.497022	2682.952488
964.796331	2682.564320
965.095601	2682.715554
965.394835	2681.241017
965.694030	2680.883095
965.993189	2682.276974
966.292309	2682.382838
966.591393	2682.276974
966.890439	2681.566171
967.189447	2681.878723
967.488419	2682.554237
967.787353	2681.432581
968.086249	2681.679597
968.385108	2681.883764
968.683930	2679.915193
968.982714	2685.233611
969.281462	2679.781603
969.580172	2682.972653
969.878844	2680.341171
970.177480	2680.694052
970.476078	2682.418126
970.774639	2683.567509
971.073162	2683.451563
971.371649	2681.838393
971.670098	2682.448373
971.968510	2680.378979
972.266885	2681.422498
972.565223	2684.968950
972.863524	2683.081038
973.161788	2683.519618
973.460014	2681.354443
973.758204	2682.211439
974.056356	2683.355781
974.354471	2681.795544
974.652550	2682.455935
974.950591	2681.838393
975.248595	2682.029957
975.546563	2681.152797
975.844493	2681.455266
976.142386	2680.595749
976.440243	2681.261181
976.738062	2683.088600
977.035845	2682.730678
977.333590	2679.096006
977.631299	2679.832014
977.928971	2676.464523
978.226606	2674.478309
978.524204	2678.619617
978.821765	2674.914369
979.119290	2679.837055
979.416777	2680.532735
979.714228	2679.549710
980.011642	2679.337981
980.309020	2678.680111
980.606360	2680.424350
980.903664	2682.284536
981.200931	2678.271777
981.498162	2685.074814
981.795356	2683.242355
982.092513	2683.272602
982.389633	2686.420802
982.686717	2688.913653
982.983764	2695.028572
983.280775	2695.837678
983.577749	2698.753985
983.874686	2697.211392
984.171587	2694.511854
984.468451	2692.903726
984.765279	2688.956503
985.062070	2688.696883
985.358824	2687.834846
985.655543	2684.802592
985.952224	2681.709844
986.248869	2684.316121
986.545478	2680.895698
986.842050	2677.566016
987.138586	2679.098526
987.435086	2680.384021
987.731549	2676.887980
988.027975	2675.635254
988.324366	2675.300017
988.620719	2676.363700
988.917037	2673.943947
989.213318	2678.753207
989.509563	2676.207425
989.805772	2677.543330
990.101944	2677.331602
990.398080	2676.983762
990.694180	2675.506704
990.990244	2675.352949
991.286271	2674.460665
991.582262	2675.494101
991.878217	2675.841941
992.174136	2675.642815
992.470019	2677.129956
992.765865	2674.337157
993.061676	2674.085099
993.357450	2675.259688
993.653188	2671.720798
993.948890	2675.806653
994.244556	2674.662311
994.540186	2676.746828
994.835780	2677.006447
995.131337	2678.823783
995.426859	2678.906962
995.722345	2679.509380
996.017795	2679.428722
996.313208	2678.959895
996.608586	2679.353105
996.903928	2682.604649
997.199234	2682.987777
997.494504	2678.982580
997.789738	2680.978877
998.084936	2679.027950
998.380099	2680.290759
998.675225	2677.712209
998.970316	2679.920234
999.265371	2679.290090
999.560390	2677.407219
999.855373	2675.491581
1000.150320	2676.555264
1000.445232	2675.559636
1000.740108	2674.536282
1001.034948	2679.000224
1001.329752	2675.965449
1001.624521	2674.364883
1001.919254	2674.012002
1002.213951	2678.513752
1002.508613	2676.847651
1002.803239	2676.623320
1003.097829	2675.053000
1003.392384	2674.795902
1003.686903	2675.234482
1003.981386	2673.190294
1004.275834	2671.012516
1004.570246	2675.211797
1004.864623	2671.284738
1005.158964	2673.293638
1005.453270	2673.928823
1005.747540	2674.637105
1006.041775	2674.647188
1006.335974	2675.468896
1006.630138	2674.309430
1006.924266	2674.425377
1007.218359	2672.146775
1007.512416	2671.105777
1007.806438	2670.241219
1008.100425	2670.173163
1008.394376	2670.952022
1008.688292	2674.450582
1008.982172	2675.221879
1009.276017	2673.681807
1009.569827	2675.136179
1009.863602	2673.147444
1010.157341	2671.214162
1010.451045	2671.496466
1010.744714	2672.913031
1011.038347	2675.206756
1011.331945	2672.189625
1011.625508	2673.689368
1011.919036	2672.252639
1012.212528	2672.996210
1012.505986	2674.138031
1012.799408	2672.030829
1013.092795	2673.470078
1013.386147	2671.141065
1013.679464	2672.537465
1013.972745	2672.933195
1014.265992	2673.555778
1014.559204	2671.617454
1014.852380	2672.933195
1015.145521	2672.965963
1015.438628	2674.183401
1015.731699	2670.468071
1016.024736	2672.416477
1016.317737	2673.543175
1016.610703	2673.270952
1016.903635	2673.717095
1017.196531	2672.499656
1017.489393	2670.752896
1017.782219	2672.565191
1018.075011	2674.468227
1018.367768	2671.060407
1018.660490	2671.725839
1018.953177	2671.725839
1019.245829	2671.725839
