Dividing Wavelength (nm)	Counts (n)	Blue Motor Position (mm): 0.000000	Red Motor Position (mm): 24.000000	
326.493990	1.000685
326.888308	1.000685
327.282561	1.000685
327.676750	0.999646
328.070874	0.998938
328.464933	1.000762
328.858929	0.999856
329.252859	1.000225
329.646726	0.998936
330.040528	1.000292
330.434265	0.999274
330.827938	0.999685
331.221547	1.001144
331.615091	0.999340
332.008571	0.999085
332.401986	0.998717
332.795338	0.999553
333.188625	0.998670
333.581847	0.999481
333.975006	0.999678
334.368100	1.000072
334.761129	0.999344
335.154095	1.001136
335.546996	0.997218
335.939833	0.992779
336.332606	0.993717
336.725315	0.994846
337.117960	0.995398
337.510540	0.994801
337.903056	0.994995
338.295508	0.993345
338.687896	0.994306
339.080220	0.994541
339.472480	0.994548
339.864676	0.993932
340.256807	0.994030
340.648875	0.996113
341.040879	0.994715
341.432818	0.995279
341.824694	0.993860
342.216506	0.995606
342.608253	0.994935
342.999937	0.994667
343.391557	0.995077
343.783113	0.994845
344.174605	0.995332
344.566033	0.994766
344.957397	0.993726
345.348697	0.994181
345.739934	0.994840
346.131106	0.993331
346.522215	0.993188
346.913260	0.994775
347.304241	0.995429
347.695159	0.995077
348.086012	0.993544
348.476802	0.993370
348.867528	0.994784
349.258191	0.992702
349.648789	0.994472
350.039324	0.994513
350.429796	0.994875
350.820203	0.995265
351.210548	0.994326
351.600828	0.994750
351.991045	0.994962
352.381198	0.994266
352.771288	0.994091
353.161314	0.994071
353.551276	0.995309
353.941175	0.994415
354.331010	0.994742
354.720782	0.993893
355.110490	0.994412
355.500135	0.994966
355.889717	0.994758
356.279235	0.994452
356.668689	0.994026
357.058080	0.994343
357.447408	0.995704
357.836672	0.994836
358.225873	0.994729
358.615010	0.995924
359.004084	0.996279
359.393095	0.994848
359.782043	0.995093
360.170927	0.995622
360.559748	0.995947
360.948505	0.993273
361.337199	0.993950
361.725830	0.994913
362.114398	0.993918
362.502903	0.995008
362.891344	0.995914
363.279722	0.994171
363.668037	0.995082
364.056289	0.994707
364.444478	0.995321
364.832603	0.995430
365.220665	0.994057
365.608665	0.994666
365.996601	0.994198
366.384474	0.995358
366.772284	0.993593
367.160031	0.993446
367.547715	0.992944
367.935336	0.994215
368.322893	0.993172
368.710388	0.993871
369.097820	0.995276
369.485189	0.994293
369.872495	0.993402
370.259738	0.993016
370.646918	0.995449
371.034035	0.994227
371.421090	0.993979
371.808081	0.994211
372.195010	0.994138
372.581875	0.994679
372.968678	0.995115
373.355418	0.994917
373.742096	0.994523
374.128710	0.996464
374.515262	0.995081
374.901751	0.994817
375.288177	0.994856
375.674540	0.995327
376.060841	0.994517
376.447079	0.995123
376.833254	0.994904
377.219367	0.994844
377.605417	0.995733
377.991404	0.995781
378.377329	0.995227
378.763191	0.994134
379.148991	0.995203
379.534727	0.995623
379.920402	0.995933
380.306013	0.995434
380.691563	0.996453
381.077049	0.994672
381.462474	0.995703
381.847835	0.994708
382.233134	0.995710
382.618371	0.995136
383.003545	0.995866
383.388657	0.995580
383.773706	0.995870
384.158693	0.996248
384.543618	0.995737
384.928480	0.996763
385.313280	0.995724
385.698017	0.996997
386.082692	0.997483
386.467305	0.995507
386.851856	0.996033
387.236344	0.995127
387.620770	0.995601
388.005133	0.996516
388.389435	0.996901
388.773674	0.995168
389.157851	0.997210
389.541965	0.996401
389.926018	0.996473
390.310008	0.998075
390.693936	0.996316
391.077802	0.996140
391.461606	0.995494
391.845348	0.997979
392.229027	0.997997
392.612645	0.996024
392.996200	0.997135
393.379694	0.996787
393.763125	0.997352
394.146494	0.996681
394.529801	0.996817
394.913047	0.996844
395.296230	0.996783
395.679351	0.997207
396.062410	0.996070
396.445408	0.996700
396.828343	0.996380
397.211217	0.997110
397.594028	0.996877
397.976778	0.996538
398.359466	0.996605
398.742092	0.997146
399.124656	0.995903
399.507158	0.996927
399.889598	0.996577
400.271977	0.997301
400.654294	0.998035
401.036549	0.996819
401.418742	0.997561
401.800874	0.996287
402.182944	0.996840
402.564952	0.996034
402.946898	0.997767
403.328783	0.997323
403.710606	0.996437
404.092367	0.996393
404.474067	0.996704
404.855705	0.997002
405.237282	0.997170
405.618797	0.996023
406.000250	0.995726
406.381642	0.997463
406.762972	0.996363
407.144240	0.998362
407.525447	0.997846
407.906593	0.997079
408.287677	0.997841
408.668700	0.997139
409.049661	0.995594
409.430560	0.997487
409.811399	0.996535
410.192176	0.995848
410.572891	0.997130
410.953545	0.996979
411.334138	0.995884
411.714669	0.996867
412.095139	0.997293
412.475547	0.996139
412.855894	0.996917
413.236180	0.996968
413.616405	0.997265
413.996568	0.997586
414.376670	0.996873
414.756711	0.996306
415.136691	0.996521
415.516609	0.995719
415.896466	0.996202
416.276262	0.996324
416.655997	0.997553
417.035670	0.996765
417.415283	0.997303
417.794834	0.996522
418.174324	0.996057
418.553753	0.996734
418.933121	0.996643
419.312428	0.996839
419.691674	0.996328
420.070859	0.996135
420.449983	0.996074
420.829045	0.995948
421.208047	0.997481
421.586988	0.996878
421.965867	0.996249
422.344686	0.997511
422.723444	0.995768
423.102141	0.996467
423.480777	0.996323
423.859352	0.995685
424.237866	0.995630
424.616319	0.996077
424.994712	0.996055
425.373044	0.995534
425.751314	0.996026
426.129524	0.995527
426.507673	0.995698
426.885762	0.995745
427.263789	0.994689
427.641756	0.993946
428.019662	0.995248
428.397508	0.993609
428.775292	0.991326
429.153016	0.991940
429.530679	0.992044
429.908282	0.991255
430.285824	0.988974
430.663305	0.987642
431.040726	0.986973
431.418086	0.987242
431.795385	0.985126
432.172624	0.983211
432.549802	0.981063
432.926920	0.980851
433.303977	0.978173
433.680974	0.976032
434.057910	0.973330
434.434786	0.972827
434.811601	0.968955
435.188355	0.966530
435.565050	0.964318
435.941683	0.962155
436.318257	0.958039
436.694770	0.954012
437.071222	0.952048
437.447614	0.948805
437.823946	0.946117
438.200218	0.942621
438.576429	0.938726
438.952580	0.933898
439.328670	0.929636
439.704700	0.926600
440.080670	0.921981
440.456580	0.914899
440.832429	0.910278
441.208218	0.907698
441.583947	0.900510
441.959616	0.895925
442.335224	0.890669
442.710773	0.884139
443.086261	0.876800
443.461689	0.874330
443.837057	0.865533
444.212365	0.857250
444.587612	0.852042
444.962800	0.843368
445.337927	0.837086
445.712995	0.836860
446.088002	0.819890
446.462949	0.815290
446.837837	0.808622
447.212664	0.799844
447.587431	0.786810
447.962139	0.767882
448.336786	0.744396
448.711374	0.741880
449.085901	0.751096
449.460369	0.744605
449.834776	0.736355
450.209124	0.718796
450.583412	0.705799
450.957640	0.696743
451.331808	0.692560
451.705917	0.694859
452.079965	0.687856
452.453954	0.673353
452.827883	0.669903
453.201752	0.658480
453.575562	0.656994
453.949311	0.640727
454.323001	0.637546
454.696632	0.626780
455.070202	0.613768
455.443713	0.601239
455.817164	0.590242
456.190556	0.579190
456.563888	0.569312
456.937160	0.559821
457.310373	0.563381
457.683526	0.554343
458.056619	0.550564
458.429653	0.544530
458.802628	0.539746
459.175542	0.529374
459.548398	0.509378
459.921194	0.498013
460.293930	0.492321
460.666607	0.468519
461.039224	0.453922
461.411782	0.444392
461.784280	0.436553
462.156719	0.433164
462.529099	0.429750
462.901419	0.435915
463.273680	0.434112
463.645882	0.428072
464.018024	0.427093
464.390106	0.416558
464.762130	0.398908
465.134094	0.380908
465.505999	0.352833
465.877845	0.323739
466.249631	0.307219
466.621358	0.306936
466.993026	0.313126
467.364634	0.313693
467.736184	0.317559
468.107674	0.322029
468.479105	0.317537
468.850477	0.321096
469.221790	0.323806
469.593043	0.330447
469.964238	0.331810
470.335373	0.329024
470.706449	0.324416
471.077467	0.323535
471.448425	0.285346
471.819324	0.260605
472.190164	0.257618
472.560945	0.283483
472.931667	0.303419
473.302330	0.305631
473.672934	0.315678
474.043479	0.302655
474.413965	0.303728
474.784393	0.306041
475.154761	0.300070
475.525070	0.296192
475.895321	0.300997
476.265513	0.294354
476.635645	0.289461
477.005719	0.288401
477.375734	0.284801
477.745691	0.277653
478.115588	0.273485
478.485427	0.266501
478.855207	0.253164
479.224928	0.235569
479.594591	0.223438
479.964194	0.226299
480.333739	0.227206
480.703226	0.228387
481.072653	0.226647
481.442022	0.222086
481.811333	0.218395
482.180584	0.221587
482.549777	0.226697
482.918912	0.230013
483.287988	0.229499
483.657005	0.228658
484.025964	0.235262
484.394864	0.232245
484.763706	0.232538
485.132489	0.237652
485.501213	0.238268
485.869879	0.236594
486.238487	0.239982
486.607036	0.237452
486.975527	0.241781
487.343959	0.237849
487.712333	0.236795
488.080648	0.238080
488.448905	0.237270
488.817104	0.238347
489.185244	0.232682
489.553326	0.229796
489.921350	0.219367
490.289315	0.202109
490.657222	0.197072
491.025070	0.198399
491.392861	0.200107
491.760593	0.205866
492.128267	0.211440
492.495883	0.217124
492.863440	0.223017
493.230939	0.229334
493.598380	0.230870
493.965763	0.233027
494.333088	0.235218
494.700354	0.236661
495.067563	0.235184
495.434713	0.238682
495.801805	0.236481
496.168839	0.237908
496.535815	0.239422
496.902733	0.239313
497.269593	0.240821
497.636395	0.238571
498.003139	0.238714
498.369825	0.241917
498.736453	0.238216
499.103023	0.239510
499.469535	0.238916
499.835989	0.239508
500.202385	0.240204
500.568723	0.243355
500.935003	0.238517
501.301226	0.242729
501.667390	0.237009
502.033497	0.235121
502.399546	0.238060
502.765537	0.239596
503.131470	0.238029
503.497345	0.234710
503.863163	0.243275
504.228923	0.236187
504.594625	0.234887
504.960269	0.240095
505.325856	0.235565
505.691385	0.239815
506.056856	0.236297
506.422270	0.235948
506.787625	0.238224
507.152924	0.235722
507.518164	0.236263
507.883347	0.237960
508.248472	0.239824
508.613540	0.234807
508.978550	0.237070
509.343503	0.237332
509.708398	0.235150
510.073236	0.232636
510.438016	0.232986
510.802738	0.233715
511.167403	0.232712
511.532010	0.234618
511.896561	0.230062
512.261053	0.228971
512.625488	0.231241
512.989866	0.231466
513.354186	0.231678
513.718449	0.233433
514.082655	0.229585
514.446803	0.232315
514.810894	0.229683
515.174927	0.232582
515.538904	0.231635
515.902822	0.229021
516.266684	0.231324
516.630488	0.232241
516.994235	0.231199
517.357925	0.229827
517.721558	0.228170
518.085133	0.227776
518.448651	0.227874
518.812112	0.229933
519.175516	0.229525
519.538863	0.227427
519.902152	0.228743
520.265385	0.225939
520.628560	0.227590
520.991678	0.227973
521.354739	0.226810
521.717743	0.227982
522.080690	0.228387
522.443580	0.225804
522.806413	0.226924
523.169189	0.226156
523.531908	0.225028
523.894569	0.228361
524.257174	0.228666
524.619722	0.226253
524.982213	0.227444
525.344647	0.226252
525.707025	0.227313
526.069345	0.225219
526.431608	0.226824
526.793815	0.224760
527.155964	0.228815
527.518057	0.228082
527.880093	0.229018
528.242072	0.227607
528.603995	0.229274
528.965860	0.231088
529.327669	0.229885
529.689421	0.230783
530.051117	0.231604
530.412755	0.229252
530.774337	0.231769
531.135862	0.232061
531.497331	0.231394
531.858743	0.234327
532.220098	0.231328
532.581396	0.233508
532.942638	0.234132
533.303824	0.235104
533.664953	0.234765
534.026025	0.236599
534.387040	0.234233
534.747999	0.234704
535.108902	0.233320
535.469748	0.238341
535.830537	0.235980
536.191270	0.236546
536.551947	0.236129
536.912567	0.235932
537.273131	0.237677
537.633638	0.238057
537.994089	0.238729
538.354483	0.239595
538.714821	0.236296
539.075103	0.236027
539.435328	0.237071
539.795497	0.240570
540.155609	0.237213
540.515665	0.235567
540.875665	0.240979
541.235609	0.239741
541.595496	0.239771
541.955328	0.236287
542.315102	0.238904
542.674821	0.239972
543.034483	0.239860
543.394090	0.239921
543.753640	0.241699
544.113134	0.236529
544.472571	0.239590
544.831953	0.236811
545.191278	0.240618
545.550548	0.240392
545.909761	0.237168
546.268918	0.237954
546.628019	0.236233
546.987064	0.238954
547.346053	0.240892
547.704986	0.238580
548.063863	0.238934
548.422684	0.239182
548.781449	0.241037
549.140158	0.238535
549.498811	0.241387
549.857408	0.244567
550.215949	0.239117
550.574434	0.242264
550.932864	0.240172
551.291237	0.239060
551.649555	0.240541
552.007817	0.239966
552.366022	0.241270
552.724173	0.241088
553.082267	0.241390
553.440305	0.238471
553.798288	0.242999
554.156215	0.239729
554.514086	0.240072
554.871902	0.243330
555.229661	0.242473
555.587365	0.243070
555.945014	0.245487
556.302606	0.242687
556.660143	0.245136
557.017625	0.241568
557.375050	0.243713
557.732421	0.240918
558.089735	0.242932
558.446994	0.242912
558.804197	0.242083
559.161345	0.242045
559.518437	0.245538
559.875474	0.243397
560.232455	0.242736
560.589381	0.243987
560.946251	0.243837
561.303065	0.241504
561.659825	0.243007
562.016528	0.244476
562.373177	0.247352
562.729770	0.244804
563.086307	0.246959
563.442789	0.244388
563.799216	0.247288
564.155587	0.246251
564.511904	0.247157
564.868164	0.247328
565.224370	0.247181
565.580520	0.249127
565.936615	0.248619
566.292654	0.251885
566.648638	0.248811
567.004567	0.249509
567.360441	0.250313
567.716260	0.252402
568.072023	0.249943
568.427732	0.250614
568.783385	0.253200
569.138982	0.251218
569.494525	0.250704
569.850013	0.253989
570.205445	0.252352
570.560823	0.254797
570.916145	0.256910
571.271412	0.254977
571.626625	0.256579
571.981782	0.256799
572.336884	0.257880
572.691931	0.257429
573.046923	0.258699
573.401860	0.260064
573.756743	0.261655
574.111570	0.260509
574.466342	0.261330
574.821059	0.260235
575.175722	0.263006
575.530330	0.262888
575.884882	0.262984
576.239380	0.265160
576.593823	0.265401
576.948211	0.265075
577.302544	0.268240
577.656823	0.267849
578.011047	0.268061
578.365216	0.268322
578.719330	0.270606
579.073389	0.270409
579.427394	0.271646
579.781344	0.272456
580.135239	0.273768
580.489080	0.273725
580.842866	0.276646
581.196597	0.276578
581.550273	0.275017
581.903895	0.276268
582.257463	0.274429
582.610975	0.277537
582.964434	0.276822
583.317837	0.279495
583.671186	0.279848
584.024481	0.279857
584.377721	0.282373
584.730906	0.283011
585.084037	0.282281
585.437113	0.284155
585.790135	0.283475
586.143103	0.286312
586.496016	0.287574
586.848874	0.285200
587.201679	0.285629
587.554428	0.288887
587.907124	0.287932
588.259765	0.288305
588.612352	0.288886
588.964884	0.292833
589.317362	0.292376
589.669786	0.292382
590.022155	0.290991
590.374470	0.290100
590.726731	0.292466
591.078937	0.296828
591.431090	0.293343
591.783188	0.297488
592.135232	0.297857
592.487222	0.297945
592.839157	0.295885
593.191038	0.298278
593.542866	0.300073
593.894639	0.303964
594.246358	0.301533
594.598022	0.301095
594.949633	0.305013
595.301190	0.305654
595.652692	0.304850
596.004141	0.301227
596.355535	0.309096
596.706876	0.309373
597.058162	0.311824
597.409395	0.309424
597.760573	0.306760
598.111698	0.310191
598.462768	0.310708
598.813785	0.311646
599.164748	0.313259
599.515657	0.313526
599.866511	0.317140
600.217312	0.312022
600.568060	0.317375
600.918753	0.313992
601.269392	0.314610
601.619978	0.317938
601.970510	0.315987
602.320988	0.315736
602.671412	0.313600
603.021783	0.316097
603.372100	0.317442
603.722363	0.317043
604.072572	0.317917
604.422728	0.317316
604.772830	0.319814
605.122878	0.319520
605.472872	0.320201
605.822813	0.318571
606.172701	0.321043
606.522534	0.318472
606.872314	0.318731
607.222041	0.319302
607.571714	0.317504
607.921333	0.318716
608.270899	0.318817
608.620411	0.315071
608.969870	0.319020
609.319276	0.318899
609.668627	0.319100
610.017926	0.317699
610.367171	0.316226
610.716362	0.316892
611.065500	0.317154
611.414585	0.315720
611.763616	0.316518
612.112594	0.317066
612.461518	0.316172
612.810389	0.313716
613.159207	0.316262
613.507971	0.317817
613.856682	0.313970
614.205340	0.315494
614.553945	0.312110
614.902496	0.316211
615.250994	0.314083
615.599439	0.315222
615.947830	0.314374
616.296169	0.315291
616.644454	0.314791
616.992686	0.314788
617.340864	0.312622
617.688990	0.316285
618.037063	0.312516
618.385082	0.314796
618.733048	0.311802
619.080961	0.313998
619.428821	0.313429
619.776628	0.312941
620.124382	0.315009
620.472083	0.315037
620.819731	0.314504
621.167326	0.318910
621.514868	0.318266
621.862357	0.322591
622.209793	0.321859
622.557176	0.324089
622.904506	0.325147
623.251783	0.327783
623.599007	0.329820
623.946179	0.329209
624.293297	0.331195
624.640363	0.335122
624.987376	0.335760
625.334336	0.338372
625.681243	0.340338
626.028097	0.341358
626.374899	0.342260
626.721647	0.342168
627.068343	0.345819
627.414987	0.346708
627.761577	0.348611
628.108115	0.346864
628.454600	0.352116
628.801032	0.349518
629.147412	0.351924
629.493739	0.352439
629.840014	0.355067
630.186236	0.352654
630.532405	0.358087
630.878521	0.355898
631.224585	0.357753
631.570597	0.361520
631.916556	0.360031
632.262462	0.359991
632.608316	0.362076
632.954117	0.362841
633.299866	0.363986
633.645562	0.364276
633.991206	0.368666
634.336797	0.371328
634.682336	0.373737
635.027823	0.375229
635.373257	0.375725
635.718639	0.379483
636.063968	0.378334
636.409245	0.384797
636.754470	0.384807
637.099642	0.387340
637.444762	0.390460
637.789829	0.389509
638.134845	0.393205
638.479808	0.394043
638.824719	0.393615
639.169577	0.397763
639.514383	0.396938
639.859137	0.400939
640.203839	0.401120
640.548489	0.400793
640.893086	0.402570
641.237632	0.404517
641.582125	0.402469
641.926566	0.403993
642.270955	0.404406
642.615292	0.404624
642.959576	0.403850
643.303809	0.404509
643.647990	0.403266
643.992118	0.404705
644.336195	0.408024
644.680219	0.406415
645.024192	0.406713
645.368112	0.400517
645.711981	0.400213
646.055797	0.395185
646.399562	0.397916
646.743274	0.389573
647.086935	0.386838
647.430544	0.387367
647.774101	0.386141
648.117606	0.385362
648.461059	0.386038
648.804460	0.388336
649.147810	0.393748
649.491108	0.395919
649.834354	0.397067
650.177548	0.402220
650.520690	0.407493
650.863781	0.408701
651.206820	0.407948
651.549807	0.412590
651.892742	0.416421
652.235626	0.416128
652.578458	0.417404
652.921238	0.423621
653.263967	0.421015
653.606644	0.425233
653.949269	0.424568
654.291843	0.428679
654.634365	0.425366
654.976836	0.428474
655.319255	0.428556
655.661622	0.430855
656.003938	0.430325
656.346203	0.433949
656.688416	0.431284
657.030577	0.434237
657.372687	0.436358
657.714746	0.437309
658.056753	0.434321
658.398708	0.437725
658.740612	0.439487
659.082465	0.435103
659.424266	0.436390
659.766016	0.435789
660.107715	0.437756
660.449362	0.436555
660.790958	0.437374
661.132503	0.438230
661.473996	0.435804
661.815438	0.436438
662.156829	0.437112
662.498168	0.437128
662.839456	0.439399
663.180693	0.436949
663.521879	0.436506
663.863013	0.437701
664.204097	0.436314
664.545129	0.433170
664.886110	0.433461
665.227040	0.430994
665.567918	0.433785
665.908746	0.431281
666.249522	0.431087
666.590248	0.432111
666.930922	0.430127
667.271545	0.429120
667.612118	0.429519
667.952639	0.430646
668.293109	0.429410
668.633528	0.432200
668.973896	0.432214
669.314213	0.432443
669.654480	0.433896
669.994695	0.434843
670.334859	0.435469
670.674973	0.435565
671.015035	0.435630
671.355047	0.435734
671.695008	0.436897
672.034918	0.438699
672.374777	0.438111
672.714585	0.438760
673.054342	0.438944
673.394049	0.439242
673.733705	0.436938
674.073310	0.437556
674.412864	0.440865
674.752368	0.441567
675.091820	0.441936
675.431223	0.446439
675.770574	0.446116
676.109875	0.448495
676.449125	0.449241
676.788324	0.451189
677.127473	0.456715
677.466571	0.456137
677.805619	0.457679
678.144616	0.459053
678.483562	0.460590
678.822458	0.463208
679.161303	0.464612
679.500098	0.464283
679.838842	0.466509
680.177535	0.466304
680.516179	0.464361
680.854771	0.463776
681.193314	0.456764
681.531805	0.448573
681.870247	0.436848
682.208638	0.429458
682.546978	0.428008
682.885268	0.430001
683.223508	0.436089
683.561697	0.439890
683.899836	0.442285
684.237925	0.446251
684.575963	0.448707
684.913951	0.451409
685.251889	0.447253
685.589776	0.449178
685.927614	0.451924
686.265401	0.445832
686.603137	0.447465
686.940824	0.441329
687.278460	0.439621
687.616046	0.439143
687.953582	0.433533
688.291068	0.435187
688.628504	0.431505
688.965889	0.433160
689.303224	0.437594
689.640510	0.441172
689.977745	0.447467
690.314930	0.454709
690.652065	0.459922
690.989150	0.467122
691.326185	0.473176
691.663170	0.478050
692.000105	0.484974
692.336990	0.491961
692.673825	0.494787
693.010610	0.501173
693.347345	0.507108
693.684030	0.508442
694.020665	0.513241
694.357251	0.522105
694.693786	0.521367
695.030272	0.526439
695.366707	0.528903
695.703093	0.532993
696.039429	0.530530
696.375716	0.532356
696.711952	0.535150
697.048139	0.536820
697.384276	0.538797
697.720363	0.537033
698.056400	0.536162
698.392388	0.541672
698.728326	0.544792
699.064214	0.547553
699.400053	0.548522
699.735842	0.551099
700.071581	0.555047
700.407270	0.557783
700.742910	0.559915
701.078501	0.567209
701.414042	0.566687
701.749533	0.569779
702.084974	0.578966
702.420366	0.570760
702.755709	0.578417
703.091002	0.587055
703.426246	0.580151
703.761440	0.585885
704.096584	0.590225
704.431679	0.587869
704.766725	0.589541
705.101721	0.590674
705.436668	0.587704
705.771565	0.593941
706.106413	0.591437
706.441212	0.586033
706.775961	0.584911
707.110661	0.587959
707.445311	0.584681
707.779913	0.582039
708.114465	0.580028
708.448967	0.577039
708.783421	0.568857
709.117825	0.563135
709.452180	0.563611
709.786485	0.557290
710.120742	0.546825
710.454949	0.548770
710.789107	0.541079
711.123216	0.532198
711.457275	0.534088
711.791286	0.524625
712.125247	0.523464
712.459159	0.534435
712.793023	0.527612
713.126837	0.531460
713.460602	0.531566
713.794318	0.540962
714.127985	0.539800
714.461602	0.549836
714.795171	0.553525
715.128691	0.560767
715.462162	0.568318
715.795584	0.574265
716.128957	0.576852
716.462281	0.583724
716.795556	0.587022
717.128782	0.592056
717.461960	0.600850
717.795088	0.599534
718.128167	0.606464
718.461198	0.614501
718.794180	0.615621
719.127113	0.618551
719.459997	0.621677
719.792833	0.627226
720.125619	0.629138
720.458357	0.634570
720.791046	0.634890
721.123686	0.637700
721.456278	0.644862
721.788821	0.642323
722.121315	0.646551
722.453761	0.650344
722.786158	0.648470
723.118506	0.644717
723.450805	0.652952
723.783056	0.648189
724.115259	0.646297
724.447412	0.646041
724.779518	0.646843
725.111574	0.646342
725.443582	0.641128
725.775542	0.643501
726.107453	0.636148
726.439315	0.635615
726.771129	0.634461
727.102895	0.627568
727.434612	0.620893
727.766281	0.618559
728.097901	0.617056
728.429473	0.617572
728.760996	0.616447
729.092471	0.616153
729.423897	0.620467
729.755276	0.619026
730.086606	0.618233
730.417887	0.613675
730.749120	0.604501
731.080305	0.594523
731.411442	0.591186
731.742530	0.596195
732.073570	0.594684
732.404562	0.587035
732.735506	0.589502
733.066401	0.593760
733.397249	0.602647
733.728048	0.614077
734.058798	0.626767
734.389501	0.636939
734.720156	0.646550
735.050762	0.655092
735.381320	0.656517
735.711831	0.664857
736.042293	0.670330
736.372707	0.665886
736.703073	0.671360
737.033391	0.672947
737.363661	0.669601
737.693883	0.664936
738.024056	0.663850
738.354182	0.664260
738.684260	0.654056
739.014290	0.649070
739.344272	0.650168
739.674207	0.644098
740.004093	0.643254
740.333931	0.643523
740.663722	0.643822
740.993464	0.644067
741.323159	0.647492
741.652806	0.653485
741.982405	0.658037
742.311956	0.662794
742.641460	0.664564
742.970915	0.668883
743.300323	0.675762
743.629683	0.682450
743.958996	0.683932
744.288260	0.688696
744.617477	0.693863
744.946647	0.696295
745.275768	0.701898
745.604842	0.701285
745.933869	0.711300
746.262847	0.711005
746.591778	0.705048
746.920662	0.711476
747.249498	0.717754
747.578286	0.709331
747.907027	0.704988
748.235720	0.706545
748.564365	0.700317
748.892963	0.700386
749.221514	0.703636
749.550017	0.707778
749.878473	0.707397
750.206881	0.714696
750.535242	0.715539
750.863555	0.715897
751.191821	0.716262
751.520039	0.720180
751.848210	0.724942
752.176334	0.717606
752.504411	0.716244
752.832440	0.725288
753.160421	0.729050
753.488356	0.726619
753.816243	0.724380
754.144082	0.732191
754.471875	0.736012
754.799620	0.730934
755.127318	0.732958
755.454969	0.732156
755.782572	0.732671
756.110129	0.737352
756.437638	0.740082
756.765100	0.736529
757.092515	0.734801
757.419882	0.733500
757.747203	0.738693
758.074477	0.738353
758.401703	0.735051
758.728882	0.730607
759.056014	0.729202
759.383099	0.728140
759.710138	0.729363
760.037129	0.726068
760.364073	0.719349
760.690970	0.721858
761.017820	0.727197
761.344623	0.723111
761.671379	0.713593
761.998088	0.702036
762.324751	0.680751
762.651366	0.639104
762.977935	0.571751
763.304456	0.519277
763.630931	0.510850
763.957359	0.549233
764.283740	0.594374
764.610074	0.620830
764.936362	0.652074
765.262602	0.677720
765.588796	0.700045
765.914943	0.717870
766.241044	0.735885
766.567097	0.741575
766.893104	0.751627
767.219064	0.758775
767.544978	0.764387
767.870845	0.777929
768.196665	0.782301
768.522438	0.779818
768.848165	0.781154
769.173846	0.790180
769.499479	0.793526
769.825066	0.797901
770.150607	0.802819
770.476101	0.797447
770.801548	0.798741
771.126949	0.811085
771.452303	0.814333
771.777611	0.813482
772.102872	0.812441
772.428087	0.817918
772.753256	0.821597
773.078378	0.823442
773.403453	0.832470
773.728482	0.836911
774.053465	0.829404
774.378401	0.834051
774.703291	0.842170
775.028135	0.841899
775.352932	0.844214
775.677683	0.845866
776.002388	0.846806
776.327046	0.845617
776.651658	0.849504
776.976224	0.852394
777.300743	0.852696
777.625216	0.855607
777.949643	0.856599
778.274024	0.856877
778.598359	0.859518
778.922647	0.857323
779.246889	0.857766
779.571086	0.861507
779.895236	0.864541
780.219339	0.861292
780.543397	0.858567
780.867409	0.856224
781.191374	0.858636
781.515294	0.861369
781.839167	0.859007
782.162995	0.862576
782.486776	0.859362
782.810511	0.860581
783.134201	0.864929
783.457844	0.861335
783.781441	0.865230
784.104993	0.869831
784.428498	0.871181
784.751958	0.865655
785.075372	0.868647
785.398739	0.872620
785.722061	0.869503
786.045337	0.863881
786.368568	0.869888
786.691752	0.871339
787.014891	0.856654
787.337983	0.848847
787.661030	0.841756
787.984031	0.824450
788.306987	0.810288
788.629897	0.813347
788.952760	0.817033
789.275579	0.821586
789.598351	0.837095
789.921078	0.849996
790.243759	0.851513
790.566395	0.856511
790.888984	0.864261
791.211529	0.868978
791.534027	0.871960
791.856480	0.873690
792.178888	0.880250
792.501249	0.881699
792.823566	0.883327
793.145836	0.882640
793.468062	0.884234
793.790241	0.884892
794.112375	0.882876
794.434464	0.879028
794.756507	0.877706
795.078505	0.877909
795.400457	0.872403
795.722364	0.861371
796.044226	0.852563
796.366042	0.852706
796.687812	0.855637
797.009538	0.851751
797.331218	0.854256
797.652852	0.859305
797.974442	0.864675
798.295986	0.864650
798.617484	0.867302
798.938938	0.871702
799.260346	0.875695
799.581709	0.877912
799.903026	0.880693
800.224299	0.880689
800.545526	0.884206
800.866708	0.888960
801.187845	0.893058
801.508936	0.890933
801.829983	0.889640
802.150984	0.892183
802.471940	0.897765
802.792851	0.897281
803.113717	0.897576
803.434538	0.895900
803.755314	0.899082
804.076045	0.900443
804.396731	0.900311
804.717372	0.900226
805.037967	0.901173
805.358518	0.899022
805.679024	0.896984
805.999485	0.896617
806.319901	0.897732
806.640272	0.897700
806.960598	0.896665
807.280879	0.894299
807.601115	0.893631
807.921306	0.896397
808.241453	0.896223
808.561554	0.893482
808.881611	0.894539
809.201623	0.896262
809.521590	0.896268
809.841513	0.897255
810.161390	0.894905
810.481223	0.898922
810.801011	0.901028
811.120755	0.902899
811.440453	0.902480
811.760107	0.900543
812.079716	0.900642
812.399281	0.903284
812.718801	0.907080
813.038276	0.907541
813.357707	0.906557
813.677093	0.903618
813.996434	0.907139
814.315731	0.908395
814.634983	0.910404
814.954191	0.907388
815.273354	0.904808
815.592473	0.901661
815.911547	0.902483
816.230577	0.899186
816.549562	0.896479
816.868502	0.897714
817.187399	0.893746
817.506250	0.888154
817.825058	0.890417
818.143821	0.887415
818.462539	0.881407
818.781213	0.873367
819.099843	0.863284
819.418429	0.846447
819.736970	0.830147
820.055466	0.810608
820.373919	0.785448
820.692327	0.752267
821.010691	0.717989
821.329011	0.640858
821.647286	0.526166
821.965517	0.412911
822.283704	0.369844
822.601847	0.371768
822.919945	0.407337
823.237999	0.441121
823.556010	0.487206
823.873976	0.542891
824.191897	0.593504
824.509775	0.635402
824.827609	0.679814
825.145398	0.703146
825.463144	0.705566
825.780845	0.689104
826.098502	0.670444
826.416116	0.624921
826.733685	0.580764
827.051210	0.572310
827.368692	0.587118
827.686129	0.624205
828.003522	0.676001
828.320872	0.724385
828.638177	0.767789
828.955439	0.800292
829.272656	0.822895
829.589830	0.839125
829.906960	0.856266
830.224046	0.866407
830.541088	0.877688
830.858086	0.881652
831.175041	0.887861
831.491952	0.887000
831.808819	0.884078
832.125642	0.878228
832.442421	0.862013
832.759157	0.840813
833.075849	0.795537
833.392497	0.730758
833.709101	0.690893
834.025662	0.700641
834.342179	0.732136
834.658653	0.770872
834.975083	0.806015
835.291469	0.833796
835.607811	0.855051
835.924110	0.870585
836.240366	0.887785
836.556578	0.901212
836.872746	0.908590
837.188871	0.914543
837.504952	0.920701
837.820990	0.924698
838.136984	0.928248
838.452935	0.929148
838.768842	0.932372
839.084706	0.924535
839.400526	0.899239
839.716303	0.859420
840.032037	0.837491
840.347727	0.841098
840.663373	0.858875
840.978977	0.880756
841.294537	0.902537
841.610054	0.918722
841.925527	0.927171
842.240957	0.933923
842.556344	0.939888
842.871687	0.945952
843.186987	0.950743
843.502244	0.949772
843.817458	0.951898
844.132629	0.956779
844.447756	0.960194
844.762840	0.961150
845.077881	0.959146
845.392879	0.959886
845.707833	0.963362
846.022745	0.963779
846.337613	0.965409
846.652438	0.965298
846.967221	0.964313
847.281960	0.964614
847.596656	0.967171
847.911309	0.965237
848.225919	0.968011
848.540485	0.968752
848.855009	0.969278
849.169490	0.968721
849.483928	0.969437
849.798323	0.969639
850.112675	0.969157
850.426984	0.969066
850.741251	0.970505
851.055474	0.969965
851.369654	0.967913
851.683792	0.969668
851.997887	0.970586
852.311938	0.970871
852.625947	0.970304
852.939914	0.969009
853.253837	0.969303
853.567718	0.970151
853.881555	0.971570
854.195350	0.967607
854.509103	0.970927
854.822812	0.968638
855.136479	0.970548
855.450103	0.969267
855.763685	0.968769
856.077224	0.967000
856.390720	0.970298
856.704173	0.970072
857.017584	0.968280
857.330953	0.966982
857.644278	0.968213
857.957561	0.968374
858.270802	0.969131
858.584000	0.967173
858.897155	0.966729
859.210268	0.968345
859.523339	0.967841
859.836367	0.970598
860.149352	0.971884
860.462295	0.968612
860.775195	0.970525
861.088054	0.969678
861.400869	0.969341
861.713642	0.970298
862.026373	0.970166
862.339062	0.971198
862.651708	0.967835
862.964312	0.967499
863.276873	0.970516
863.589392	0.969039
863.901869	0.966598
864.214303	0.965684
864.526696	0.963353
864.839045	0.963716
865.151353	0.962638
865.463619	0.962069
865.775842	0.963528
866.088023	0.962294
866.400162	0.962476
866.712258	0.963674
867.024313	0.962063
867.336325	0.964337
867.648296	0.963779
867.960224	0.961979
868.272110	0.961933
868.583954	0.964018
868.895755	0.964277
869.207515	0.962940
869.519233	0.959160
869.830909	0.962065
870.142542	0.963125
870.454134	0.962550
870.765684	0.961261
871.077191	0.957892
871.388657	0.959807
871.700081	0.958163
872.011463	0.958742
872.322803	0.957653
872.634101	0.956895
872.945357	0.955150
873.256571	0.954131
873.567744	0.952250
873.878874	0.954518
874.189963	0.951886
874.501010	0.952103
874.812015	0.950233
875.122979	0.950560
875.433900	0.952952
875.744780	0.954831
876.055618	0.951323
876.366415	0.949756
876.677169	0.948849
876.987882	0.951470
877.298554	0.951203
877.609183	0.947886
877.919771	0.945278
878.230317	0.942565
878.540822	0.940707
878.851285	0.934534
879.161707	0.928595
879.472087	0.914881
879.782425	0.899563
880.092722	0.865964
880.402977	0.814721
880.713191	0.754083
881.023363	0.696301
881.333494	0.661887
881.643583	0.634598
881.953631	0.634148
882.263637	0.663460
882.573602	0.701851
882.883526	0.728248
883.193408	0.750763
883.503248	0.772303
883.813048	0.800403
884.122806	0.828624
884.432522	0.851904
884.742197	0.871630
885.051831	0.883537
885.361424	0.892580
885.670975	0.904711
885.980485	0.915066
886.289954	0.919434
886.599382	0.925992
886.908768	0.928958
887.218113	0.935409
887.527417	0.939249
887.836680	0.943645
888.145901	0.943841
888.455082	0.945889
888.764221	0.950416
889.073319	0.952871
889.382376	0.953749
889.691392	0.953403
890.000366	0.953529
890.309300	0.954130
890.618193	0.954417
890.927044	0.951496
891.235855	0.951791
891.544625	0.951345
891.853353	0.951592
892.162041	0.949315
892.470687	0.942665
892.779293	0.938612
893.087858	0.934359
893.396381	0.927241
893.704864	0.914061
894.013306	0.891694
894.321707	0.863878
894.630068	0.850532
894.938387	0.844924
895.246665	0.845734
895.554903	0.858616
895.863100	0.871996
896.171256	0.887878
896.479371	0.907300
896.787446	0.920559
897.095480	0.925387
897.403473	0.929245
897.711425	0.932901
898.019336	0.941189
898.327207	0.944185
898.635038	0.945440
898.942827	0.945650
899.250576	0.948761
899.558284	0.953258
899.865952	0.954476
900.173579	0.955596
900.481165	0.956828
900.788711	0.960445
901.096216	0.962334
901.403681	0.961732
901.711105	0.963101
902.018489	0.963946
902.325832	0.962358
902.633135	0.961979
902.940397	0.956407
903.247619	0.945222
903.554800	0.919331
903.861941	0.879975
904.169041	0.845193
904.476101	0.827759
904.783121	0.829227
905.090100	0.844788
905.397039	0.866222
905.703938	0.887844
906.010796	0.907579
906.317614	0.923947
906.624391	0.934674
906.931129	0.944161
907.237826	0.951766
907.544483	0.959686
907.851099	0.963832
908.157675	0.968315
908.464211	0.971000
908.770707	0.972678
909.077163	0.974861
909.383578	0.974398
909.689954	0.974863
909.996289	0.976175
910.302584	0.977710
910.608839	0.978619
910.915054	0.978004
911.221229	0.978093
911.527363	0.976542
911.833458	0.977641
912.139513	0.978019
912.445527	0.975813
912.751502	0.973476
913.057436	0.973239
913.363331	0.970485
913.669186	0.967264
913.975000	0.962377
914.280775	0.956387
914.586510	0.949254
914.892205	0.936524
915.197859	0.915824
915.503475	0.888091
915.809050	0.869134
916.114585	0.863651
916.420081	0.861228
916.725536	0.857192
917.030952	0.865681
917.336328	0.878242
917.641665	0.894046
917.946961	0.908210
918.252218	0.920264
918.557435	0.928416
918.862612	0.937469
919.167750	0.943432
919.472848	0.947746
919.777906	0.953133
920.082925	0.959483
920.387904	0.962870
920.692843	0.962010
920.997743	0.964702
921.302603	0.967979
921.607423	0.968583
921.912204	0.971497
922.216946	0.971992
922.521647	0.972875
922.826310	0.975792
923.130932	0.976874
923.435516	0.978375
923.740059	0.979792
924.044564	0.978671
924.349028	0.980761
924.653454	0.983534
924.957840	0.985363
925.262186	0.984500
925.566493	0.983814
925.870761	0.985408
926.174989	0.986959
926.479178	0.987737
926.783328	0.988683
927.087438	0.987830
927.391509	0.987994
927.695541	0.989315
927.999533	0.989391
928.303486	0.989878
928.607400	0.992116
928.911275	0.989894
929.215110	0.991053
929.518906	0.990320
929.822663	0.989645
930.126381	0.991628
930.430060	0.990117
930.733699	0.990711
931.037299	0.989707
931.340861	0.990386
931.644383	0.989120
931.947866	0.990703
932.251309	0.990919
932.554714	0.990491
932.858080	0.989900
933.161407	0.990602
933.464694	0.991120
933.767943	0.989665
934.071153	0.990783
934.374323	0.992716
934.677455	0.991390
934.980548	0.991417
935.283602	0.990298
935.586617	0.991104
935.889593	0.991036
936.192530	0.991370
936.495428	0.990974
936.798287	0.990980
937.101108	0.990236
937.403890	0.988643
937.706632	0.989443
938.009336	0.986667
938.312002	0.985018
938.614628	0.984148
938.917216	0.983682
939.219765	0.982538
939.522275	0.984618
939.824747	0.983438
940.127179	0.983326
940.429573	0.984287
940.731929	0.984874
941.034246	0.984605
941.336524	0.985225
941.638763	0.986476
941.940964	0.985874
942.243126	0.986934
942.545250	0.987495
942.847335	0.989242
943.149381	0.988353
943.451389	0.988555
943.753359	0.988837
944.055290	0.990757
944.357182	0.989355
944.659036	0.988209
944.960851	0.989176
945.262628	0.989683
945.564367	0.989792
945.866067	0.990360
946.167729	0.989768
946.469352	0.989711
946.770937	0.989140
947.072484	0.990516
947.373992	0.989678
947.675462	0.989799
947.976893	0.989914
948.278286	0.991386
948.579641	0.991754
948.880958	0.990832
949.182236	0.991281
949.483476	0.991007
949.784678	0.990364
950.085841	0.992294
950.386967	0.990678
950.688054	0.990331
950.989103	0.990856
951.290114	0.988741
951.591087	0.990522
951.892021	0.988671
952.192917	0.989640
952.493776	0.988234
952.794596	0.988114
953.095378	0.988003
953.396122	0.988491
953.696828	0.987325
953.997496	0.988428
954.298126	0.991142
954.598718	0.990648
954.899272	0.990448
955.199788	0.991338
955.500266	0.991760
955.800706	0.993635
956.101108	0.993039
956.401472	0.994133
956.701798	0.993349
957.002087	0.992362
957.302337	0.993269
957.602550	0.994959
957.902724	0.994182
958.202861	0.994557
958.502960	0.995996
958.803022	0.993703
959.103045	0.995921
959.403031	0.995508
959.702979	0.995579
960.002889	0.995584
960.302762	0.994526
960.602596	0.995311
960.902393	0.993690
961.202153	0.994854
961.501875	0.996171
961.801559	0.995527
962.101205	0.996096
962.400814	0.995370
962.700385	0.997507
962.999918	0.995984
963.299414	0.997359
963.598873	0.995849
963.898293	0.996384
964.197677	0.995680
964.497022	0.996121
964.796331	0.996291
965.095601	0.996587
965.394835	0.996875
965.694030	0.997140
965.993189	0.997837
966.292309	0.995930
966.591393	0.998113
966.890439	0.996912
967.189447	0.996896
967.488419	0.997014
967.787353	0.996305
968.086249	0.996786
968.385108	0.996601
968.683930	0.996306
968.982714	0.996881
969.281462	0.996884
969.580172	0.996313
969.878844	0.996739
970.177480	0.997402
970.476078	0.997558
970.774639	0.996680
971.073162	0.996767
971.371649	0.995555
971.670098	0.996460
971.968510	0.996197
972.266885	0.995028
972.565223	0.996368
972.863524	0.995823
973.161788	0.996213
973.460014	0.997614
973.758204	0.995129
974.056356	0.996089
974.354471	0.994629
974.652550	0.996237
974.950591	0.996269
975.248595	0.994549
975.546563	0.996801
975.844493	0.997602
976.142386	0.996065
976.440243	0.997426
976.738062	0.997966
977.035845	0.998347
977.333590	0.995975
977.631299	0.997502
977.928971	0.996101
978.226606	0.996131
978.524204	0.996568
978.821765	0.997785
979.119290	0.996694
979.416777	0.996193
979.714228	0.995405
980.011642	0.995822
980.309020	0.997123
980.606360	0.996298
980.903664	0.998312
981.200931	0.995224
981.498162	0.996230
981.795356	0.994270
982.092513	0.994616
982.389633	0.994778
982.686717	0.991385
982.983764	0.990943
983.280775	0.991019
983.577749	0.991219
983.874686	0.991914
984.171587	0.991649
984.468451	0.994639
984.765279	0.994738
985.062070	0.994559
985.358824	0.994837
985.655543	0.993647
985.952224	0.996033
986.248869	0.996178
986.545478	0.997413
986.842050	0.998609
987.138586	0.995622
987.435086	0.996396
987.731549	0.998857
988.027975	0.996794
988.324366	0.997486
988.620719	0.998401
988.917037	0.996384
989.213318	0.997797
989.509563	0.997655
989.805772	0.998133
990.101944	0.997842
990.398080	0.996864
990.694180	0.997723
990.990244	0.996786
991.286271	0.998262
991.582262	0.997691
991.878217	0.997083
992.174136	0.998111
992.470019	0.999074
992.765865	0.997872
993.061676	0.998306
993.357450	0.997496
993.653188	0.996829
993.948890	0.997760
994.244556	0.997960
994.540186	0.997454
994.835780	0.995780
995.131337	0.997676
995.426859	0.995686
995.722345	0.997292
996.017795	0.996315
996.313208	0.997191
996.608586	0.995357
996.903928	0.997451
997.199234	0.995943
997.494504	0.997248
997.789738	0.995902
998.084936	0.996090
998.380099	0.998387
998.675225	0.996566
998.970316	0.998036
999.265371	0.996933
999.560390	0.997806
999.855373	0.998176
1000.150320	0.999383
1000.445232	0.997592
1000.740108	0.998487
1001.034948	0.998492
1001.329752	0.998804
1001.624521	0.998473
1001.919254	0.998768
1002.213951	0.997395
1002.508613	0.998473
1002.803239	0.998624
1003.097829	0.998132
1003.392384	0.999164
1003.686903	0.996564
1003.981386	0.998082
1004.275834	0.999652
1004.570246	0.997456
1004.864623	0.998726
1005.158964	0.999019
1005.453270	0.998661
1005.747540	0.997358
1006.041775	0.997884
1006.335974	0.998786
1006.630138	0.999406
1006.924266	0.998657
1007.218359	1.000174
1007.512416	0.999729
1007.806438	0.999456
1008.100425	0.998953
1008.394376	0.999080
1008.688292	0.999296
1008.982172	0.999784
1009.276017	0.998930
1009.569827	0.998836
1009.863602	0.999436
1010.157341	0.999899
1010.451045	0.999432
1010.744714	0.999641
1011.038347	0.997981
1011.331945	0.998007
1011.625508	0.996744
1011.919036	0.998981
1012.212528	1.000173
1012.505986	0.997902
1012.799408	0.998648
1013.092795	0.998374
1013.386147	0.998631
1013.679464	0.999040
1013.972745	0.998030
1014.265992	0.997777
1014.559204	0.998109
1014.852380	0.999496
1015.145521	0.999405
1015.438628	0.998676
1015.731699	0.999115
1016.024736	0.999040
1016.317737	0.998433
1016.610703	0.999880
1016.903635	0.999351
1017.196531	0.997936
1017.489393	1.000008
1017.782219	0.998599
1018.075011	0.998426
1018.367768	0.999265
1018.660490	0.999738
1018.953177	0.999738
1019.245829	0.999738
