Dividing Wavelength (nm)	Counts (n)	Blue Motor Position (mm): 0.000000	Red Motor Position (mm): 13.100000	
326.493990	1.000643
326.888308	1.000643
327.282561	1.000643
327.676750	0.999889
328.070874	0.999771
328.464933	1.000685
328.858929	0.998595
329.252859	0.999044
329.646726	0.999118
330.040528	0.999194
330.434265	0.999462
330.827938	0.998753
331.221547	0.999820
331.615091	0.999534
332.008571	1.000318
332.401986	0.999711
332.795338	0.999675
333.188625	0.997970
333.581847	1.000562
333.975006	0.999327
334.368100	1.000107
334.761129	0.999189
335.154095	1.000677
335.546996	0.998046
335.939833	0.991895
336.332606	0.992714
336.725315	0.994693
337.117960	0.994921
337.510540	0.994128
337.903056	0.994574
338.295508	0.993549
338.687896	0.993243
339.080220	0.994278
339.472480	0.993679
339.864676	0.993321
340.256807	0.994624
340.648875	0.994683
341.040879	0.994730
341.432818	0.994183
341.824694	0.993332
342.216506	0.995380
342.608253	0.994044
342.999937	0.993958
343.391557	0.994778
343.783113	0.993144
344.174605	0.994611
344.566033	0.994447
344.957397	0.993145
345.348697	0.993254
345.739934	0.994571
346.131106	0.994141
346.522215	0.992967
346.913260	0.993047
347.304241	0.994064
347.695159	0.994242
348.086012	0.992504
348.476802	0.994031
348.867528	0.994827
349.258191	0.991887
349.648789	0.995073
350.039324	0.993372
350.429796	0.994684
350.820203	0.994042
351.210548	0.993531
351.600828	0.992926
351.991045	0.993956
352.381198	0.993150
352.771288	0.993239
353.161314	0.993294
353.551276	0.994148
353.941175	0.993450
354.331010	0.992649
354.720782	0.993890
355.110490	0.992922
355.500135	0.994371
355.889717	0.993046
356.279235	0.993637
356.668689	0.993247
357.058080	0.993231
357.447408	0.994668
357.836672	0.994143
358.225873	0.994516
358.615010	0.993581
359.004084	0.994747
359.393095	0.993995
359.782043	0.993574
360.170927	0.994778
360.559748	0.994171
360.948505	0.992405
361.337199	0.994363
361.725830	0.993362
362.114398	0.992830
362.502903	0.993207
362.891344	0.995073
363.279722	0.992459
363.668037	0.993490
364.056289	0.993697
364.444478	0.994958
364.832603	0.993940
365.220665	0.992684
365.608665	0.992388
365.996601	0.993670
366.384474	0.992080
366.772284	0.992573
367.160031	0.992103
367.547715	0.992276
367.935336	0.993878
368.322893	0.991476
368.710388	0.992052
369.097820	0.992980
369.485189	0.993692
369.872495	0.992640
370.259738	0.991280
370.646918	0.994075
371.034035	0.992854
371.421090	0.992385
371.808081	0.991910
372.195010	0.992537
372.581875	0.992374
372.968678	0.992873
373.355418	0.993028
373.742096	0.992514
374.128710	0.992760
374.515262	0.992847
374.901751	0.993014
375.288177	0.992357
375.674540	0.992464
376.060841	0.992114
376.447079	0.992662
376.833254	0.992360
377.219367	0.992790
377.605417	0.991905
377.991404	0.992403
378.377329	0.991989
378.763191	0.993313
379.148991	0.992668
379.534727	0.993682
379.920402	0.992476
380.306013	0.992880
380.691563	0.993277
381.077049	0.991919
381.462474	0.992365
381.847835	0.992534
382.233134	0.992229
382.618371	0.992625
383.003545	0.993379
383.388657	0.993030
383.773706	0.993075
384.158693	0.992755
384.543618	0.992356
384.928480	0.993865
385.313280	0.992035
385.698017	0.992532
386.082692	0.993464
386.467305	0.992257
386.851856	0.991585
387.236344	0.991429
387.620770	0.990359
388.005133	0.990916
388.389435	0.989492
388.773674	0.988256
389.157851	0.986902
389.541965	0.984561
389.926018	0.981224
390.310008	0.980797
390.693936	0.977327
391.077802	0.973947
391.461606	0.970136
391.845348	0.965936
392.229027	0.963524
392.612645	0.957707
392.996200	0.953215
393.379694	0.946178
393.763125	0.940351
394.146494	0.935137
394.529801	0.927034
394.913047	0.920204
395.296230	0.914944
395.679351	0.906857
396.062410	0.898237
396.445408	0.892752
396.828343	0.884449
397.211217	0.875876
397.594028	0.872616
397.976778	0.860232
398.359466	0.851690
398.742092	0.840986
399.124656	0.837729
399.507158	0.825083
399.889598	0.816210
400.271977	0.802801
400.654294	0.796409
401.036549	0.787180
401.418742	0.781195
401.800874	0.763693
402.182944	0.753848
402.564952	0.739861
402.946898	0.733775
403.328783	0.725503
403.710606	0.724528
404.092367	0.699197
404.474067	0.694597
404.855705	0.686552
405.237282	0.686325
405.618797	0.668419
406.000250	0.658099
406.381642	0.644612
406.762972	0.640762
407.144240	0.633473
407.525447	0.628294
407.906593	0.616452
408.287677	0.606418
408.668700	0.608276
409.049661	0.596636
409.430560	0.588727
409.811399	0.591557
410.192176	0.570144
410.572891	0.573347
410.953545	0.558384
411.334138	0.566607
411.714669	0.557358
412.095139	0.564916
412.475547	0.547426
412.855894	0.547202
413.236180	0.543941
413.616405	0.545834
413.996568	0.535100
414.376670	0.538995
414.756711	0.542128
415.136691	0.536909
415.516609	0.528090
415.896466	0.523145
416.276262	0.517629
416.655997	0.518889
417.035670	0.499454
417.415283	0.491162
417.794834	0.494584
418.174324	0.499527
418.553753	0.508449
418.933121	0.490340
419.312428	0.483732
419.691674	0.488495
420.070859	0.477110
420.449983	0.484386
420.829045	0.474890
421.208047	0.482632
421.586988	0.476560
421.965867	0.474661
422.344686	0.463855
422.723444	0.475939
423.102141	0.492537
423.480777	0.465728
423.859352	0.486173
424.237866	0.462755
424.616319	0.463725
424.994712	0.454790
425.373044	0.465199
425.751314	0.453371
426.129524	0.469514
426.507673	0.453520
426.885762	0.446363
427.263789	0.452028
427.641756	0.461858
428.019662	0.452344
428.397508	0.450989
428.775292	0.455378
429.153016	0.447289
429.530679	0.454203
429.908282	0.447127
430.285824	0.457159
430.663305	0.435136
431.040726	0.456494
431.418086	0.456768
431.795385	0.447984
432.172624	0.446233
432.549802	0.447802
432.926920	0.446427
433.303977	0.445249
433.680974	0.442893
434.057910	0.440917
434.434786	0.440894
434.811601	0.443488
435.188355	0.425636
435.565050	0.434744
435.941683	0.436665
436.318257	0.420854
436.694770	0.421357
437.071222	0.419361
437.447614	0.424371
437.823946	0.430731
438.200218	0.419874
438.576429	0.429348
438.952580	0.422159
439.328670	0.419223
439.704700	0.425759
440.080670	0.427392
440.456580	0.408303
440.832429	0.415816
441.208218	0.427122
441.583947	0.416247
441.959616	0.415833
442.335224	0.420296
442.710773	0.412051
443.086261	0.409832
443.461689	0.423399
443.837057	0.413027
444.212365	0.403665
444.587612	0.410579
444.962800	0.400349
445.337927	0.401933
445.712995	0.428324
446.088002	0.391024
446.462949	0.400402
446.837837	0.405807
447.212664	0.394430
447.587431	0.385901
447.962139	0.356485
448.336786	0.315982
448.711374	0.326351
449.085901	0.369565
449.460369	0.374219
449.834776	0.377890
450.209124	0.357360
450.583412	0.349980
450.957640	0.343027
451.331808	0.354433
451.705917	0.377910
452.079965	0.382085
452.453954	0.370085
452.827883	0.377588
453.201752	0.372233
453.575562	0.383384
453.949311	0.371871
454.323001	0.377797
454.696632	0.374199
455.070202	0.366449
455.443713	0.358279
455.817164	0.353304
456.190556	0.349193
456.563888	0.345759
456.937160	0.343432
457.310373	0.360588
457.683526	0.359484
458.056619	0.365225
458.429653	0.366069
458.802628	0.369090
459.175542	0.363072
459.548398	0.346149
459.921194	0.338703
460.293930	0.338629
460.666607	0.316042
461.039224	0.304548
461.411782	0.300136
461.784280	0.299653
462.156719	0.303879
462.529099	0.308109
462.901419	0.323655
463.273680	0.328515
463.645882	0.328011
464.018024	0.333564
464.390106	0.326767
464.762130	0.311840
465.134094	0.294624
465.505999	0.263931
465.877845	0.234371
466.249631	0.221450
466.621358	0.228842
466.993026	0.242838
467.364634	0.249048
467.736184	0.257644
468.107674	0.266421
468.479105	0.265374
468.850477	0.272241
469.221790	0.278835
469.593043	0.289316
469.964238	0.293907
470.335373	0.293257
470.706449	0.291450
471.077467	0.292278
471.448425	0.254541
471.819324	0.230146
472.190164	0.229416
472.560945	0.258207
472.931667	0.280411
473.302330	0.284174
473.672934	0.296380
474.043479	0.284424
474.413965	0.286288
474.784393	0.290046
475.154761	0.284877
475.525070	0.281856
475.895321	0.287900
476.265513	0.281865
476.635645	0.277414
477.005719	0.277040
477.375734	0.273696
477.745691	0.267300
478.115588	0.263501
478.485427	0.256894
478.855207	0.243999
479.224928	0.226634
479.594591	0.214530
479.964194	0.217931
480.333739	0.219281
480.703226	0.220758
481.072653	0.219301
481.442022	0.214898
481.811333	0.211065
482.180584	0.214555
482.549777	0.219925
482.918912	0.223241
483.287988	0.222707
483.657005	0.222655
484.025964	0.229391
484.394864	0.226318
484.763706	0.227213
485.132489	0.231969
485.501213	0.232629
485.869879	0.231259
486.238487	0.234687
486.607036	0.232304
486.975527	0.236984
487.343959	0.232740
487.712333	0.231946
488.080648	0.233175
488.448905	0.232312
488.817104	0.233686
489.185244	0.228405
489.553326	0.225309
489.921350	0.215096
490.289315	0.197599
490.657222	0.192595
491.025070	0.193547
491.392861	0.195787
491.760593	0.201426
492.128267	0.207132
492.495883	0.212543
492.863440	0.218747
493.230939	0.225248
493.598380	0.226590
493.965763	0.228589
494.333088	0.230928
494.700354	0.232479
495.067563	0.231399
495.434713	0.234446
495.801805	0.232734
496.168839	0.233864
496.535815	0.235342
496.902733	0.235400
497.269593	0.237160
497.636395	0.234717
498.003139	0.234862
498.369825	0.238148
498.736453	0.234499
499.103023	0.235962
499.469535	0.235393
499.835989	0.235749
500.202385	0.236671
500.568723	0.239849
500.935003	0.234973
501.301226	0.238937
501.667390	0.233431
502.033497	0.231904
502.399546	0.234557
502.765537	0.236576
503.131470	0.234908
503.497345	0.231276
503.863163	0.240120
504.228923	0.232889
504.594625	0.231279
504.960269	0.236788
505.325856	0.232484
505.691385	0.236707
506.056856	0.233353
506.422270	0.232748
506.787625	0.235184
507.152924	0.232605
507.518164	0.232974
507.883347	0.234894
508.248472	0.236255
508.613540	0.231586
508.978550	0.234035
509.343503	0.234573
509.708398	0.232179
510.073236	0.229769
510.438016	0.229734
510.802738	0.230541
511.167403	0.229564
511.532010	0.231593
511.896561	0.227047
512.261053	0.225700
512.625488	0.227818
512.989866	0.228239
513.354186	0.228412
513.718449	0.230276
514.082655	0.226759
514.446803	0.229058
514.810894	0.226688
515.174927	0.229286
515.538904	0.228896
515.902822	0.225600
516.266684	0.227937
516.630488	0.229104
516.994235	0.227942
517.357925	0.226567
517.721558	0.225154
518.085133	0.224429
518.448651	0.224587
518.812112	0.226902
519.175516	0.226561
519.538863	0.224299
519.902152	0.225643
520.265385	0.222328
520.628560	0.224486
520.991678	0.224882
521.354739	0.223470
521.717743	0.224694
522.080690	0.225419
522.443580	0.222774
522.806413	0.223447
523.169189	0.222821
523.531908	0.221953
523.894569	0.225521
524.257174	0.225314
524.619722	0.223073
524.982213	0.224060
525.344647	0.222923
525.707025	0.223935
526.069345	0.222115
526.431608	0.223644
526.793815	0.221678
527.155964	0.225736
527.518057	0.224569
527.880093	0.225738
528.242072	0.224408
528.603995	0.226446
528.965860	0.227867
529.327669	0.226864
529.689421	0.227706
530.051117	0.228728
530.412755	0.226051
530.774337	0.228402
531.135862	0.228811
531.497331	0.228295
531.858743	0.231011
532.220098	0.227733
532.581396	0.230216
532.942638	0.230875
533.303824	0.231780
533.664953	0.231710
534.026025	0.233416
534.387040	0.231537
534.747999	0.231213
535.108902	0.230181
535.469748	0.234733
535.830537	0.232952
536.191270	0.233250
536.551947	0.232710
536.912567	0.233066
537.273131	0.234652
537.633638	0.234629
537.994089	0.235334
538.354483	0.236123
538.714821	0.233370
539.075103	0.232943
539.435328	0.233487
539.795497	0.237305
540.155609	0.234187
540.515665	0.232312
540.875665	0.237602
541.235609	0.236268
541.595496	0.236531
541.955328	0.232970
542.315102	0.235577
542.674821	0.236674
543.034483	0.236631
543.394090	0.236444
543.753640	0.238345
544.113134	0.233206
544.472571	0.236573
544.831953	0.233478
545.191278	0.237529
545.550548	0.237263
545.909761	0.233745
546.268918	0.234554
546.628019	0.232686
546.987064	0.235423
547.346053	0.237451
547.704986	0.235126
548.063863	0.235794
548.422684	0.235742
548.781449	0.237821
549.140158	0.235188
549.498811	0.238080
549.857408	0.241182
550.215949	0.235890
550.574434	0.239060
550.932864	0.237194
551.291237	0.235643
551.649555	0.237028
552.007817	0.236641
552.366022	0.237620
552.724173	0.237867
553.082267	0.238304
553.440305	0.234929
553.798288	0.239524
554.156215	0.236034
554.514086	0.236664
554.871902	0.239891
555.229661	0.239139
555.587365	0.239716
555.945014	0.241932
556.302606	0.239287
556.660143	0.241810
557.017625	0.237926
557.375050	0.240552
557.732421	0.237258
558.089735	0.239220
558.446994	0.239531
558.804197	0.238604
559.161345	0.238777
559.518437	0.242261
559.875474	0.239811
560.232455	0.239309
560.589381	0.240236
560.946251	0.240756
561.303065	0.238034
561.659825	0.239595
562.016528	0.240774
562.373177	0.243560
562.729770	0.241006
563.086307	0.243269
563.442789	0.240569
563.799216	0.243741
564.155587	0.242731
564.511904	0.243745
564.868164	0.243659
565.224370	0.243457
565.580520	0.245399
565.936615	0.245344
566.292654	0.248166
566.648638	0.245029
567.004567	0.246000
567.360441	0.246713
567.716260	0.248741
568.072023	0.246575
568.427732	0.247256
568.783385	0.249785
569.138982	0.247944
569.494525	0.247460
569.850013	0.250200
570.205445	0.248965
570.560823	0.250951
570.916145	0.253096
571.271412	0.251553
571.626625	0.252946
571.981782	0.253332
572.336884	0.254209
572.691931	0.254139
573.046923	0.255242
573.401860	0.256687
573.756743	0.257832
574.111570	0.257030
574.466342	0.257553
574.821059	0.256847
575.175722	0.259291
575.530330	0.259350
575.884882	0.259546
576.239380	0.261624
576.593823	0.262356
576.948211	0.261608
577.302544	0.264955
577.656823	0.264268
578.011047	0.264393
578.365216	0.265267
578.719330	0.267173
579.073389	0.267153
579.427394	0.268223
579.781344	0.268942
580.135239	0.270618
580.489080	0.270140
580.842866	0.272837
581.196597	0.272953
581.550273	0.271706
581.903895	0.272766
582.257463	0.270853
582.610975	0.274414
582.964434	0.273472
583.317837	0.275953
583.671186	0.276350
584.024481	0.276773
584.377721	0.278917
584.730906	0.279595
585.084037	0.278736
585.437113	0.280857
585.790135	0.280267
586.143103	0.282986
586.496016	0.284438
586.848874	0.281868
587.201679	0.282190
587.554428	0.285621
587.907124	0.284300
588.259765	0.285017
588.612352	0.285615
588.964884	0.289200
589.317362	0.289403
589.669786	0.288598
590.022155	0.287175
590.374470	0.286784
590.726731	0.288887
591.078937	0.293645
591.431090	0.289718
591.783188	0.294177
592.135232	0.294573
592.487222	0.294538
592.839157	0.292749
593.191038	0.294847
593.542866	0.296849
593.894639	0.300055
594.246358	0.298370
594.598022	0.298039
594.949633	0.301759
595.301190	0.301984
595.652692	0.301390
596.004141	0.297622
596.355535	0.305585
596.706876	0.306388
597.058162	0.308635
597.409395	0.306054
597.760573	0.303298
598.111698	0.306570
598.462768	0.307208
598.813785	0.308629
599.164748	0.309867
599.515657	0.310037
599.866511	0.313585
600.217312	0.308847
600.568060	0.314323
600.918753	0.310470
601.269392	0.311349
601.619978	0.314584
601.970510	0.312437
602.320988	0.312544
602.671412	0.310310
603.021783	0.312694
603.372100	0.314300
603.722363	0.314086
604.072572	0.314557
604.422728	0.314604
604.772830	0.316748
605.122878	0.315943
605.472872	0.316502
605.822813	0.314955
606.172701	0.317391
606.522534	0.315194
606.872314	0.314767
607.222041	0.315532
607.571714	0.313925
607.921333	0.315507
608.270899	0.314989
608.620411	0.311529
608.969870	0.315993
609.319276	0.315886
609.668627	0.315832
610.017926	0.314524
610.367171	0.312781
610.716362	0.313531
611.065500	0.313866
611.414585	0.312704
611.763616	0.313089
612.112594	0.313597
612.461518	0.313097
612.810389	0.310423
613.159207	0.313090
613.507971	0.314659
613.856682	0.310531
614.205340	0.312555
614.553945	0.309086
614.902496	0.312817
615.250994	0.310631
615.599439	0.311728
615.947830	0.310971
616.296169	0.312329
616.644454	0.311378
616.992686	0.311604
617.340864	0.309243
617.688990	0.312907
618.037063	0.309563
618.385082	0.311532
618.733048	0.308409
619.080961	0.310936
619.428821	0.310184
619.776628	0.309618
620.124382	0.311652
620.472083	0.311756
620.819731	0.311259
621.167326	0.315344
621.514868	0.314931
621.862357	0.319090
622.209793	0.318757
622.557176	0.320927
622.904506	0.322045
623.251783	0.324102
623.599007	0.326671
623.946179	0.326515
624.293297	0.328237
624.640363	0.332047
624.987376	0.332449
625.334336	0.335497
625.681243	0.337521
626.028097	0.337919
626.374899	0.338971
626.721647	0.339420
627.068343	0.342509
627.414987	0.343519
627.761577	0.345545
628.108115	0.343661
628.454600	0.349201
628.801032	0.346598
629.147412	0.348553
629.493739	0.349024
629.840014	0.351754
630.186236	0.349527
630.532405	0.355285
630.878521	0.352459
631.224585	0.354586
631.570597	0.358542
631.916556	0.357009
632.262462	0.356798
632.608316	0.359127
632.954117	0.359620
633.299866	0.360914
633.645562	0.361428
633.991206	0.365165
634.336797	0.368285
634.682336	0.370516
635.027823	0.372525
635.373257	0.372910
635.718639	0.376102
636.063968	0.375670
636.409245	0.381266
636.754470	0.381974
637.099642	0.384034
637.444762	0.387607
637.789829	0.386434
638.134845	0.390562
638.479808	0.391442
638.824719	0.390826
639.169577	0.395179
639.514383	0.393840
639.859137	0.397932
640.203839	0.398213
640.548489	0.398199
640.893086	0.399402
641.237632	0.401747
641.582125	0.400247
641.926566	0.401509
642.270955	0.401922
642.615292	0.401692
642.959576	0.401032
643.303809	0.401911
643.647990	0.400807
643.992118	0.401557
644.336195	0.405443
644.680219	0.403702
645.024192	0.404163
645.368112	0.398218
645.711981	0.397034
646.055797	0.392490
646.399562	0.394298
646.743274	0.386538
647.086935	0.383635
647.430544	0.383971
647.774101	0.382921
648.117606	0.382554
648.461059	0.383191
648.804460	0.384990
649.147810	0.390858
649.491108	0.392996
649.834354	0.394009
650.177548	0.399491
650.520690	0.404830
650.863781	0.406152
651.206820	0.405065
651.549807	0.410304
651.892742	0.413999
652.235626	0.413623
652.578458	0.414368
652.921238	0.420668
653.263967	0.418132
653.606644	0.422492
653.949269	0.421786
654.291843	0.426011
654.634365	0.422606
654.976836	0.426047
655.319255	0.426115
655.661622	0.427724
656.003938	0.427459
656.346203	0.430460
656.688416	0.428650
657.030577	0.431855
657.372687	0.433800
657.714746	0.434280
658.056753	0.431541
658.398708	0.435488
658.740612	0.436475
659.082465	0.432699
659.424266	0.433674
659.766016	0.432685
660.107715	0.435692
660.449362	0.434582
660.790958	0.434738
661.132503	0.435223
661.473996	0.432960
661.815438	0.433690
662.156829	0.434265
662.498168	0.434923
662.839456	0.435862
663.180693	0.433957
663.521879	0.433997
663.863013	0.434707
664.204097	0.433380
664.545129	0.430410
664.886110	0.430947
665.227040	0.428078
665.567918	0.430837
665.908746	0.428631
666.249522	0.428043
666.590248	0.428762
666.930922	0.427587
667.271545	0.426277
667.612118	0.426139
667.952639	0.428068
668.293109	0.426995
668.633528	0.429865
668.973896	0.429301
669.314213	0.430252
669.654480	0.431633
669.994695	0.432153
670.334859	0.432463
670.674973	0.432714
671.015035	0.433147
671.355047	0.432968
671.695008	0.434022
672.034918	0.435839
672.374777	0.435297
672.714585	0.436284
673.054342	0.436545
673.394049	0.436213
673.733705	0.434249
674.073310	0.435308
674.412864	0.437878
674.752368	0.438588
675.091820	0.439187
675.431223	0.443351
675.770574	0.443151
676.109875	0.446105
676.449125	0.445984
676.788324	0.448176
677.127473	0.453814
677.466571	0.453712
677.805619	0.455361
678.144616	0.456286
678.483562	0.457704
678.822458	0.460486
679.161303	0.462009
679.500098	0.462235
679.838842	0.463250
680.177535	0.463649
680.516179	0.461796
680.854771	0.461181
681.193314	0.454363
681.531805	0.445764
681.870247	0.434092
682.208638	0.426303
682.546978	0.425688
682.885268	0.427385
683.223508	0.433603
683.561697	0.437369
683.899836	0.439874
684.237925	0.443490
684.575963	0.445695
684.913951	0.448789
685.251889	0.444982
685.589776	0.446657
685.927614	0.449172
686.265401	0.443302
686.603137	0.445238
686.940824	0.438416
687.278460	0.437326
687.616046	0.436444
687.953582	0.430783
688.291068	0.432236
688.628504	0.428041
688.965889	0.430751
689.303224	0.434540
689.640510	0.438222
689.977745	0.444091
690.314930	0.452342
690.652065	0.456704
690.989150	0.463970
691.326185	0.470522
691.663170	0.475469
692.000105	0.482048
692.336990	0.489578
692.673825	0.491751
693.010610	0.499116
693.347345	0.504364
693.684030	0.506471
694.020665	0.510737
694.357251	0.520060
694.693786	0.519347
695.030272	0.523883
695.366707	0.527068
695.703093	0.529800
696.039429	0.528099
696.375716	0.529542
696.711952	0.532694
697.048139	0.534949
697.384276	0.536212
697.720363	0.534741
698.056400	0.534019
698.392388	0.539608
698.728326	0.542672
699.064214	0.545664
699.400053	0.546102
699.735842	0.549043
700.071581	0.552652
700.407270	0.554586
700.742910	0.557896
701.078501	0.564643
701.414042	0.564158
701.749533	0.567960
702.084974	0.576426
702.420366	0.569207
702.755709	0.576211
703.091002	0.584475
703.426246	0.577992
703.761440	0.583554
704.096584	0.588339
704.431679	0.584906
704.766725	0.586738
705.101721	0.588929
705.436668	0.584792
705.771565	0.592610
706.106413	0.588830
706.441212	0.584076
706.775961	0.582733
707.110661	0.585534
707.445311	0.582235
707.779913	0.579390
708.114465	0.577415
708.448967	0.574424
708.783421	0.566056
709.117825	0.561494
709.452180	0.561145
709.786485	0.555045
710.120742	0.544640
710.454949	0.546246
710.789107	0.538508
711.123216	0.529929
711.457275	0.531610
711.791286	0.521993
712.125247	0.521165
712.459159	0.532195
712.793023	0.524836
713.126837	0.529210
713.460602	0.529340
713.794318	0.538348
714.127985	0.537258
714.461602	0.547508
714.795171	0.550441
715.128691	0.559168
715.462162	0.565984
715.795584	0.572177
716.128957	0.574623
716.462281	0.581545
716.795556	0.584784
717.128782	0.590718
717.461960	0.599811
717.795088	0.597494
718.128167	0.604294
718.461198	0.612507
718.794180	0.613184
719.127113	0.616216
719.459997	0.619886
719.792833	0.625409
720.125619	0.626848
720.458357	0.633449
720.791046	0.632948
721.123686	0.636202
721.456278	0.643136
721.788821	0.640084
722.121315	0.643868
722.453761	0.649007
722.786158	0.646347
723.118506	0.643310
723.450805	0.651009
723.783056	0.646238
724.115259	0.643983
724.447412	0.644270
724.779518	0.644525
725.111574	0.643955
725.443582	0.638659
725.775542	0.641936
726.107453	0.633640
726.439315	0.633564
726.771129	0.632108
727.102895	0.624990
727.434612	0.618960
727.766281	0.615693
728.097901	0.615799
728.429473	0.615377
728.760996	0.614092
729.092471	0.613747
729.423897	0.617869
729.755276	0.616207
730.086606	0.616985
730.417887	0.611587
730.749120	0.601879
731.080305	0.592544
731.411442	0.589341
731.742530	0.594103
732.073570	0.592692
732.404562	0.585327
732.735506	0.586469
733.066401	0.591663
733.397249	0.600650
733.728048	0.611359
734.058798	0.624784
734.389501	0.635410
734.720156	0.644896
735.050762	0.652988
735.381320	0.653879
735.711831	0.663580
736.042293	0.668594
736.372707	0.663583
736.703073	0.668339
737.033391	0.671527
737.363661	0.666936
737.693883	0.663147
738.024056	0.662370
738.354182	0.662231
738.684260	0.650831
739.014290	0.647485
739.344272	0.647622
739.674207	0.641563
740.004093	0.641282
740.333931	0.641583
740.663722	0.642010
740.993464	0.641757
741.323159	0.646288
741.652806	0.651091
741.982405	0.655530
742.311956	0.660255
742.641460	0.662028
742.970915	0.666141
743.300323	0.673391
743.629683	0.680039
743.958996	0.682985
744.288260	0.685930
744.617477	0.692970
744.946647	0.694246
745.275768	0.699546
745.604842	0.699198
745.933869	0.708821
746.262847	0.710233
746.591778	0.702750
746.920662	0.710303
747.249498	0.715565
747.578286	0.707141
747.907027	0.702515
748.235720	0.703847
748.564365	0.698930
748.892963	0.698365
749.221514	0.701195
749.550017	0.706341
749.878473	0.706774
750.206881	0.712465
750.535242	0.714440
750.863555	0.713504
751.191821	0.715330
751.520039	0.718326
751.848210	0.723152
752.176334	0.715906
752.504411	0.714458
752.832440	0.723022
753.160421	0.726975
753.488356	0.725751
753.816243	0.722192
754.144082	0.731003
754.471875	0.735572
754.799620	0.729589
755.127318	0.730581
755.454969	0.731317
755.782572	0.730060
756.110129	0.735560
756.437638	0.738939
756.765100	0.734200
757.092515	0.732673
757.419882	0.731982
757.747203	0.736712
758.074477	0.735808
758.401703	0.733053
758.728882	0.728009
759.056014	0.727280
759.383099	0.726895
759.710138	0.727758
760.037129	0.723368
760.364073	0.717722
760.690970	0.720154
761.017820	0.726366
761.344623	0.721371
761.671379	0.712023
761.998088	0.700960
762.324751	0.678018
762.651366	0.636069
762.977935	0.568914
763.304456	0.516790
763.630931	0.507083
763.957359	0.546686
764.283740	0.591133
764.610074	0.618117
764.936362	0.648891
765.262602	0.676763
765.588796	0.697436
765.914943	0.715365
766.241044	0.734042
766.567097	0.739820
766.893104	0.749191
767.219064	0.757260
767.544978	0.762824
767.870845	0.776452
768.196665	0.779641
768.522438	0.778536
768.848165	0.779970
769.173846	0.788345
769.499479	0.793039
769.825066	0.796318
770.150607	0.800906
770.476101	0.796299
770.801548	0.797752
771.126949	0.809138
771.452303	0.811875
771.777611	0.812075
772.102872	0.810664
772.428087	0.817182
772.753256	0.819738
773.078378	0.822650
773.403453	0.831076
773.728482	0.834985
774.053465	0.828997
774.378401	0.832676
774.703291	0.841362
775.028135	0.839769
775.352932	0.841880
775.677683	0.844927
776.002388	0.845075
776.327046	0.844776
776.651658	0.847505
776.976224	0.851722
777.300743	0.852059
777.625216	0.853811
777.949643	0.855240
778.274024	0.856200
778.598359	0.857463
778.922647	0.855825
779.246889	0.856793
779.571086	0.860720
779.895236	0.863171
780.219339	0.859360
780.543397	0.856249
780.867409	0.854691
781.191374	0.857712
781.515294	0.858965
781.839167	0.857761
782.162995	0.861352
782.486776	0.858580
782.810511	0.858983
783.134201	0.863720
783.457844	0.860245
783.781441	0.863551
784.104993	0.869256
784.428498	0.870202
784.751958	0.864651
785.075372	0.867742
785.398739	0.871278
785.722061	0.867010
786.045337	0.863484
786.368568	0.867908
786.691752	0.871113
787.014891	0.855894
787.337983	0.847521
787.661030	0.840283
787.984031	0.822905
788.306987	0.809273
788.629897	0.811956
788.952760	0.815381
789.275579	0.819374
789.598351	0.834759
789.921078	0.849602
790.243759	0.849771
790.566395	0.855231
790.888984	0.863046
791.211529	0.867546
791.534027	0.870546
791.856480	0.873775
792.178888	0.878903
792.501249	0.880480
792.823566	0.880703
793.145836	0.881510
793.468062	0.884280
793.790241	0.883533
794.112375	0.882461
794.434464	0.876918
794.756507	0.877274
795.078505	0.875800
795.400457	0.870595
795.722364	0.859353
796.044226	0.852125
796.366042	0.851151
796.687812	0.854528
797.009538	0.849502
797.331218	0.853674
797.652852	0.858566
797.974442	0.863685
798.295986	0.862885
798.617484	0.864917
798.938938	0.870010
799.260346	0.874708
799.581709	0.878129
799.903026	0.878345
800.224299	0.879390
800.545526	0.883526
800.866708	0.887619
801.187845	0.890783
801.508936	0.889591
801.829983	0.889058
802.150984	0.891450
802.471940	0.897328
802.792851	0.894863
803.113717	0.896702
803.434538	0.894133
803.755314	0.898005
804.076045	0.899046
804.396731	0.899642
804.717372	0.899250
805.037967	0.901104
805.358518	0.898171
805.679024	0.896053
805.999485	0.896032
806.319901	0.896287
806.640272	0.898098
806.960598	0.895457
807.280879	0.891971
807.601115	0.891186
807.921306	0.894993
808.241453	0.894709
808.561554	0.893019
808.881611	0.892927
809.201623	0.895267
809.521590	0.894918
809.841513	0.896211
810.161390	0.895695
810.481223	0.896779
810.801011	0.900472
811.120755	0.901281
811.440453	0.900144
811.760107	0.899471
812.079716	0.899632
812.399281	0.902199
812.718801	0.905321
813.038276	0.906648
813.357707	0.906158
813.677093	0.902556
813.996434	0.906586
814.315731	0.907246
814.634983	0.908184
814.954191	0.907352
815.273354	0.903871
815.592473	0.900626
815.911547	0.901019
816.230577	0.897825
816.549562	0.894457
816.868502	0.896536
817.187399	0.891401
817.506250	0.886286
817.825058	0.888644
818.143821	0.885624
818.462539	0.879942
818.781213	0.872155
819.099843	0.860183
819.418429	0.845685
819.736970	0.827757
820.055466	0.807995
820.373919	0.782369
820.692327	0.748955
821.010691	0.713503
821.329011	0.636124
821.647286	0.520085
821.965517	0.405678
822.283704	0.362538
822.601847	0.363161
822.919945	0.398750
823.237999	0.433169
823.556010	0.480205
823.873976	0.536664
824.191897	0.588111
824.509775	0.630132
824.827609	0.676274
825.145398	0.697988
825.463144	0.701847
825.780845	0.684434
826.098502	0.666288
826.416116	0.619957
826.733685	0.575677
827.051210	0.566144
827.368692	0.581650
827.686129	0.618975
828.003522	0.671986
828.320872	0.720564
828.638177	0.764521
828.955439	0.797879
829.272656	0.819838
829.589830	0.836277
829.906960	0.853472
830.224046	0.865547
830.541088	0.875017
830.858086	0.880903
831.175041	0.885445
831.491952	0.885021
831.808819	0.881659
832.125642	0.876303
832.442421	0.860343
832.759157	0.838073
833.075849	0.791931
833.392497	0.727093
833.709101	0.686496
834.025662	0.696381
834.342179	0.728433
834.658653	0.767493
834.975083	0.804338
835.291469	0.830084
835.607811	0.853111
835.924110	0.869184
836.240366	0.886231
836.556578	0.900557
836.872746	0.907552
837.188871	0.913420
837.504952	0.918893
837.820990	0.922912
838.136984	0.926439
838.452935	0.929190
838.768842	0.930268
839.084706	0.923886
839.400526	0.896837
839.716303	0.857196
840.032037	0.834772
840.347727	0.837997
840.663373	0.856452
840.978977	0.878298
841.294537	0.900607
841.610054	0.916876
841.925527	0.925376
842.240957	0.932219
842.556344	0.938650
842.871687	0.945665
843.186987	0.949760
843.502244	0.950001
843.817458	0.950692
844.132629	0.954472
844.447756	0.959319
844.762840	0.959551
845.077881	0.959083
845.392879	0.959369
845.707833	0.962158
846.022745	0.964140
846.337613	0.964834
846.652438	0.965509
846.967221	0.964042
847.281960	0.964334
847.596656	0.966827
847.911309	0.965318
848.225919	0.966784
848.540485	0.968951
848.855009	0.968408
849.169490	0.967761
849.483928	0.968663
849.798323	0.968036
850.112675	0.969716
850.426984	0.968504
850.741251	0.969819
851.055474	0.970601
851.369654	0.968088
851.683792	0.968984
851.997887	0.968068
852.311938	0.970267
852.625947	0.969651
852.939914	0.967628
853.253837	0.967959
853.567718	0.970628
853.881555	0.970843
854.195350	0.968296
854.509103	0.969684
854.822812	0.968527
855.136479	0.969896
855.450103	0.969791
855.763685	0.966958
856.077224	0.967492
856.390720	0.971241
856.704173	0.969572
857.017584	0.968533
857.330953	0.965475
857.644278	0.967074
857.957561	0.968700
858.270802	0.967076
858.584000	0.967548
858.897155	0.966864
859.210268	0.966887
859.523339	0.967908
859.836367	0.969189
860.149352	0.970069
860.462295	0.967880
860.775195	0.969455
861.088054	0.969462
861.400869	0.969406
861.713642	0.970620
862.026373	0.969676
862.339062	0.970030
862.651708	0.967328
862.964312	0.967493
863.276873	0.968847
863.589392	0.967293
863.901869	0.966070
864.214303	0.964487
864.526696	0.963968
864.839045	0.961973
865.151353	0.960935
865.463619	0.962143
865.775842	0.962663
866.088023	0.962075
866.400162	0.961499
866.712258	0.962126
867.024313	0.961141
867.336325	0.962561
867.648296	0.963163
867.960224	0.961322
868.272110	0.960607
868.583954	0.963110
868.895755	0.964117
869.207515	0.960819
869.519233	0.957766
869.830909	0.960861
870.142542	0.962087
870.454134	0.960357
870.765684	0.959836
871.077191	0.957391
871.388657	0.958769
871.700081	0.957275
872.011463	0.957338
872.322803	0.957562
872.634101	0.955640
872.945357	0.953874
873.256571	0.952479
873.567744	0.951880
873.878874	0.952615
874.189963	0.951347
874.501010	0.950215
874.812015	0.948484
875.122979	0.951056
875.433900	0.951207
875.744780	0.953700
876.055618	0.950475
876.366415	0.948326
876.677169	0.949150
876.987882	0.950561
877.298554	0.949608
877.609183	0.947178
877.919771	0.944517
878.230317	0.941298
878.540822	0.939281
878.851285	0.933922
879.161707	0.926184
879.472087	0.914343
879.782425	0.896576
880.092722	0.862461
880.402977	0.810078
880.713191	0.747185
881.023363	0.687813
881.333494	0.653426
881.643583	0.625289
881.953631	0.625926
882.263637	0.654917
882.573602	0.693391
882.883526	0.719854
883.193408	0.744078
883.503248	0.766816
883.813048	0.795331
884.122806	0.823777
884.432522	0.847756
884.742197	0.868832
885.051831	0.879131
885.361424	0.889415
885.670975	0.902088
885.980485	0.911882
886.289954	0.917940
886.599382	0.923383
886.908768	0.926856
887.218113	0.933514
887.527417	0.937900
887.836680	0.941264
888.145901	0.942797
888.455082	0.945323
888.764221	0.950113
889.073319	0.951781
889.382376	0.952332
889.691392	0.952021
890.000366	0.951344
890.309300	0.952848
890.618193	0.953092
890.927044	0.950578
891.235855	0.949650
891.544625	0.949867
891.853353	0.950931
892.162041	0.947800
892.470687	0.941844
892.779293	0.935846
893.087858	0.932359
893.396381	0.925256
893.704864	0.910599
894.013306	0.886960
894.321707	0.859954
894.630068	0.845563
894.938387	0.839803
895.246665	0.841664
895.554903	0.854473
895.863100	0.868280
896.171256	0.885897
896.479371	0.904034
896.787446	0.917063
897.095480	0.923758
897.403473	0.926264
897.711425	0.930906
898.019336	0.938724
898.327207	0.942315
898.635038	0.943605
898.942827	0.943956
899.250576	0.946666
899.558284	0.950702
899.865952	0.951883
900.173579	0.954671
900.481165	0.954899
900.788711	0.959333
901.096216	0.960599
901.403681	0.961449
901.711105	0.961874
902.018489	0.963294
902.325832	0.961581
902.633135	0.961645
902.940397	0.954275
903.247619	0.942586
903.554800	0.917252
903.861941	0.876226
904.169041	0.840456
904.476101	0.821652
904.783121	0.823299
905.090100	0.838778
905.397039	0.861196
905.703938	0.883155
906.010796	0.904244
906.317614	0.919764
906.624391	0.932908
906.931129	0.943265
907.237826	0.951000
907.544483	0.958172
907.851099	0.960830
908.157675	0.967059
908.464211	0.969218
908.770707	0.971267
909.077163	0.974507
909.383578	0.973418
909.689954	0.974503
909.996289	0.974946
910.302584	0.977999
910.608839	0.977444
910.915054	0.976952
911.221229	0.976689
911.527363	0.976467
911.833458	0.976667
912.139513	0.976376
912.445527	0.974261
912.751502	0.972700
913.057436	0.971542
913.363331	0.969260
913.669186	0.963981
913.975000	0.960437
914.280775	0.952980
914.586510	0.947702
914.892205	0.933250
915.197859	0.911307
915.503475	0.884918
915.809050	0.864688
916.114585	0.858631
916.420081	0.854381
916.725536	0.852292
917.030952	0.860468
917.336328	0.873861
917.641665	0.889442
917.946961	0.904413
918.252218	0.916932
918.557435	0.925848
918.862612	0.934757
919.167750	0.940029
919.472848	0.945179
919.777906	0.951417
920.082925	0.957448
920.387904	0.959886
920.692843	0.962833
920.997743	0.961628
921.302603	0.966814
921.607423	0.967673
921.912204	0.970705
922.216946	0.971172
922.521647	0.972051
922.826310	0.973489
923.130932	0.976637
923.435516	0.977225
923.740059	0.979707
924.044564	0.977851
924.349028	0.979591
924.653454	0.982019
924.957840	0.984069
925.262186	0.983208
925.566493	0.982248
925.870761	0.984718
926.174989	0.984955
926.479178	0.988156
926.783328	0.988937
927.087438	0.988130
927.391509	0.987212
927.695541	0.989978
927.999533	0.990067
928.303486	0.989281
928.607400	0.990662
928.911275	0.989746
929.215110	0.989970
929.518906	0.990511
929.822663	0.989619
930.126381	0.990545
930.430060	0.989355
930.733699	0.989600
931.037299	0.989084
931.340861	0.990352
931.644383	0.989262
931.947866	0.988896
932.251309	0.989611
932.554714	0.989608
932.858080	0.988902
933.161407	0.989662
933.464694	0.990650
933.767943	0.989980
934.071153	0.990186
934.374323	0.990231
934.677455	0.991642
934.980548	0.991897
935.283602	0.989698
935.586617	0.990796
935.889593	0.990587
936.192530	0.990055
936.495428	0.989748
936.798287	0.991957
937.101108	0.989304
937.403890	0.988412
937.706632	0.988429
938.009336	0.987258
938.312002	0.985382
938.614628	0.984597
938.917216	0.982887
939.219765	0.981487
939.522275	0.981896
939.824747	0.983502
940.127179	0.982848
940.429573	0.984408
940.731929	0.982865
941.034246	0.984657
941.336524	0.984926
941.638763	0.984623
941.940964	0.986605
942.243126	0.986654
942.545250	0.987711
942.847335	0.989060
943.149381	0.987343
943.451389	0.988114
943.753359	0.986746
944.055290	0.989670
944.357182	0.988890
944.659036	0.988537
944.960851	0.988456
945.262628	0.989764
945.564367	0.989879
945.866067	0.989961
946.167729	0.988687
946.469352	0.988677
946.770937	0.988577
947.072484	0.990070
947.373992	0.989848
947.675462	0.991109
947.976893	0.989385
948.278286	0.990326
948.579641	0.989968
948.880958	0.990740
949.182236	0.990972
949.483476	0.991749
949.784678	0.990003
950.085841	0.990698
950.386967	0.990354
950.688054	0.990691
950.989103	0.990569
951.290114	0.988844
951.591087	0.989262
951.892021	0.989710
952.192917	0.988266
952.493776	0.987911
952.794596	0.988485
953.095378	0.987442
953.396122	0.987511
953.696828	0.987479
953.997496	0.989312
954.298126	0.990039
954.598718	0.989828
954.899272	0.990462
955.199788	0.989884
955.500266	0.991215
955.800706	0.992752
956.101108	0.992966
956.401472	0.992384
956.701798	0.994218
957.002087	0.993211
957.302337	0.994243
957.602550	0.995103
957.902724	0.994442
958.202861	0.994491
958.502960	0.994638
958.803022	0.994890
959.103045	0.995900
959.403031	0.995830
959.702979	0.995149
960.002889	0.994496
960.302762	0.994877
960.602596	0.995858
960.902393	0.994086
961.202153	0.996987
961.501875	0.996620
961.801559	0.995327
962.101205	0.995868
962.400814	0.995413
962.700385	0.995976
962.999918	0.997019
963.299414	0.994844
963.598873	0.994761
963.898293	0.996254
964.197677	0.995261
964.497022	0.995899
964.796331	0.996944
965.095601	0.996081
965.394835	0.995798
965.694030	0.996208
965.993189	0.996761
966.292309	0.997343
966.591393	0.997933
966.890439	0.996628
967.189447	0.996212
967.488419	0.996348
967.787353	0.996243
968.086249	0.996333
968.385108	0.996916
968.683930	0.996433
968.982714	0.997473
969.281462	0.996654
969.580172	0.997006
969.878844	0.996329
970.177480	0.996245
970.476078	0.997168
970.774639	0.995278
971.073162	0.997633
971.371649	0.996344
971.670098	0.995935
971.968510	0.997905
972.266885	0.995418
972.565223	0.996645
972.863524	0.995792
973.161788	0.996608
973.460014	0.999321
973.758204	0.996191
974.056356	0.997234
974.354471	0.995296
974.652550	0.995969
974.950591	0.996269
975.248595	0.995902
975.546563	0.996374
975.844493	0.997020
976.142386	0.996270
976.440243	0.996603
976.738062	0.996164
977.035845	0.997314
977.333590	0.997256
977.631299	0.997927
977.928971	0.995840
978.226606	0.997170
978.524204	0.994981
978.821765	0.998540
979.119290	0.995840
979.416777	0.997549
979.714228	0.997501
980.011642	0.995980
980.309020	0.997322
980.606360	0.997145
980.903664	0.998289
981.200931	0.996398
981.498162	0.994836
981.795356	0.994061
982.092513	0.993568
982.389633	0.994678
982.686717	0.990965
982.983764	0.991286
983.280775	0.988926
983.577749	0.989499
983.874686	0.991723
984.171587	0.990804
984.468451	0.993325
984.765279	0.994236
985.062070	0.993987
985.358824	0.994039
985.655543	0.993239
985.952224	0.996220
986.248869	0.996330
986.545478	0.996990
986.842050	0.997644
987.138586	0.994195
987.435086	0.997342
987.731549	0.998300
988.027975	0.996715
988.324366	0.997854
988.620719	0.997574
988.917037	0.996180
989.213318	0.998597
989.509563	0.997380
989.805772	0.998103
990.101944	0.998783
990.398080	0.997033
990.694180	0.997990
990.990244	0.997384
991.286271	0.998349
991.582262	0.997422
991.878217	0.996951
992.174136	0.998178
992.470019	0.999922
992.765865	0.997399
993.061676	0.997869
993.357450	0.997342
993.653188	0.996830
993.948890	0.997843
994.244556	0.997826
994.540186	0.997229
994.835780	0.996155
995.131337	0.996899
995.426859	0.996566
995.722345	0.996507
996.017795	0.996711
996.313208	0.995672
996.608586	0.996102
996.903928	0.996866
997.199234	0.995091
997.494504	0.996535
997.789738	0.996352
998.084936	0.995819
998.380099	0.998245
998.675225	0.997284
998.970316	0.998432
999.265371	0.997994
999.560390	0.997155
999.855373	0.999072
1000.150320	0.997471
1000.445232	0.997907
1000.740108	0.997026
1001.034948	0.998073
1001.329752	0.999160
1001.624521	0.999251
1001.919254	0.998176
1002.213951	0.998254
1002.508613	0.997839
1002.803239	0.998326
1003.097829	0.999271
1003.392384	0.999250
1003.686903	0.997884
1003.981386	0.998994
1004.275834	0.998774
1004.570246	0.998526
1004.864623	0.998947
1005.158964	1.000169
1005.453270	0.999006
1005.747540	0.996683
1006.041775	0.998870
1006.335974	0.999040
1006.630138	0.999004
1006.924266	0.998934
1007.218359	1.000901
1007.512416	0.999100
1007.806438	0.998954
1008.100425	0.998693
1008.394376	0.999130
1008.688292	0.998018
1008.982172	1.000884
1009.276017	0.999515
1009.569827	0.999266
1009.863602	0.999212
1010.157341	0.999242
1010.451045	0.999436
1010.744714	0.999617
1011.038347	0.999374
1011.331945	0.999003
1011.625508	0.997901
1011.919036	0.999042
1012.212528	0.999099
1012.505986	0.997308
1012.799408	0.999211
1013.092795	0.999040
1013.386147	0.999150
1013.679464	0.999298
1013.972745	0.998685
1014.265992	0.997909
1014.559204	0.998539
1014.852380	0.998927
1015.145521	0.998445
1015.438628	0.999136
1015.731699	0.998416
1016.024736	0.998408
1016.317737	0.998852
1016.610703	0.998948
1016.903635	0.998518
1017.196531	0.998194
1017.489393	0.999393
1017.782219	0.998834
1018.075011	0.998322
1018.367768	0.999165
1018.660490	0.999669
1018.953177	0.999669
1019.245829	0.999669
