Dividing Wavelength (nm)	Counts (n)	Blue Motor Position (mm): 0.000000	Red Motor Position (mm): 38.800000	
326.493990	1.001314
326.888308	1.001314
327.282561	1.001314
327.676750	0.999095
328.070874	1.000487
328.464933	0.999610
328.858929	0.998611
329.252859	0.999882
329.646726	0.999166
330.040528	0.999803
330.434265	0.998353
330.827938	1.001969
331.221547	1.000492
331.615091	0.999895
332.008571	0.999223
332.401986	1.001248
332.795338	1.000864
333.188625	0.999200
333.581847	1.000496
333.975006	1.000087
334.368100	1.000320
334.761129	0.999636
335.154095	1.000159
335.546996	0.999058
335.939833	0.996403
336.332606	0.997321
336.725315	0.997976
337.117960	0.998114
337.510540	0.996769
337.903056	0.997319
338.295508	0.996993
338.687896	0.997532
339.080220	0.998089
339.472480	0.997363
339.864676	0.996727
340.256807	0.997209
340.648875	0.997883
341.040879	0.998390
341.432818	0.997718
341.824694	0.997438
342.216506	0.997607
342.608253	0.997622
342.999937	0.997223
343.391557	0.996963
343.783113	0.997826
344.174605	0.997768
344.566033	0.998139
344.957397	0.997050
345.348697	0.997259
345.739934	0.996835
346.131106	0.995939
346.522215	0.997363
346.913260	0.998550
347.304241	0.997674
347.695159	0.997116
348.086012	0.996680
348.476802	0.997243
348.867528	0.996952
349.258191	0.996651
349.648789	0.998155
350.039324	0.997583
350.429796	0.997803
350.820203	0.997983
351.210548	0.996723
351.600828	0.996917
351.991045	0.997821
352.381198	0.996005
352.771288	0.997999
353.161314	0.996222
353.551276	0.999067
353.941175	0.997254
354.331010	0.996838
354.720782	0.998616
355.110490	0.996458
355.500135	0.998555
355.889717	0.996781
356.279235	0.997569
356.668689	0.997312
357.058080	0.996673
357.447408	0.999219
357.836672	0.998222
358.225873	0.997779
358.615010	0.998028
359.004084	0.999001
359.393095	0.998895
359.782043	0.998267
360.170927	0.998154
360.559748	0.998593
360.948505	0.997053
361.337199	0.997012
361.725830	0.998163
362.114398	0.996121
362.502903	0.996965
362.891344	0.998691
363.279722	0.996614
363.668037	0.998667
364.056289	0.997835
364.444478	0.998487
364.832603	0.997058
365.220665	0.997347
365.608665	0.996913
365.996601	0.997014
366.384474	0.997509
366.772284	0.996913
367.160031	0.996222
367.547715	0.996258
367.935336	0.997608
368.322893	0.997312
368.710388	0.996138
369.097820	0.996663
369.485189	0.996126
369.872495	0.996691
370.259738	0.995262
370.646918	0.998159
371.034035	0.997890
371.421090	0.997466
371.808081	0.997576
372.195010	0.997598
372.581875	0.998189
372.968678	0.998101
373.355418	0.997310
373.742096	0.997463
374.128710	0.998372
374.515262	0.997311
374.901751	0.998215
375.288177	0.996920
375.674540	0.998563
376.060841	0.998018
376.447079	0.998824
376.833254	0.998834
377.219367	0.997856
377.605417	0.998002
377.991404	0.998378
378.377329	0.996773
378.763191	0.998346
379.148991	0.998502
379.534727	0.998421
379.920402	0.998624
380.306013	0.998747
380.691563	0.998825
381.077049	0.998627
381.462474	0.999598
381.847835	0.998668
382.233134	0.997108
382.618371	0.998469
383.003545	0.999258
383.388657	0.998481
383.773706	0.999944
384.158693	0.999203
384.543618	0.998677
384.928480	0.999123
385.313280	0.999348
385.698017	0.999583
386.082692	0.998910
386.467305	0.999303
386.851856	0.998547
387.236344	0.998367
387.620770	0.998270
388.005133	0.999106
388.389435	0.999113
388.773674	0.999343
389.157851	0.999096
389.541965	0.998887
389.926018	0.998381
390.310008	1.000098
390.693936	0.999283
391.077802	1.000306
391.461606	0.998857
391.845348	0.999640
392.229027	1.000904
392.612645	0.998947
392.996200	1.000121
393.379694	0.998490
393.763125	1.000873
394.146494	0.999255
394.529801	0.999390
394.913047	1.000944
395.296230	0.999983
395.679351	1.000312
396.062410	0.999802
396.445408	0.999582
396.828343	0.999603
397.211217	1.000122
397.594028	1.000072
397.976778	0.998865
398.359466	1.000016
398.742092	0.999178
399.124656	0.998673
399.507158	1.000142
399.889598	1.000226
400.271977	1.000382
400.654294	0.999600
401.036549	1.000074
401.418742	0.999853
401.800874	0.999612
402.182944	0.999750
402.564952	0.999173
402.946898	1.000410
403.328783	0.999446
403.710606	0.999715
404.092367	0.999509
404.474067	0.999893
404.855705	1.000101
405.237282	1.000007
405.618797	1.000479
406.000250	0.999195
406.381642	1.000160
406.762972	0.999475
407.144240	1.001867
407.525447	1.000671
407.906593	1.000094
408.287677	1.000698
408.668700	1.000161
409.049661	0.998917
409.430560	1.000171
409.811399	0.999871
410.192176	0.999709
410.572891	0.999252
410.953545	0.999315
411.334138	0.998909
411.714669	1.000214
412.095139	0.999879
412.475547	1.000446
412.855894	0.999842
413.236180	1.000186
413.616405	1.000756
413.996568	1.000757
414.376670	1.000115
414.756711	0.999264
415.136691	1.000149
415.516609	1.000538
415.896466	0.999917
416.276262	0.999671
416.655997	1.001329
417.035670	0.999355
417.415283	1.000914
417.794834	1.000125
418.174324	0.999865
418.553753	1.001293
418.933121	0.999790
419.312428	1.000200
419.691674	0.999898
420.070859	1.000809
420.449983	1.000427
420.829045	1.000556
421.208047	1.000248
421.586988	1.001735
421.965867	1.000021
422.344686	1.000459
422.723444	1.000244
423.102141	0.999813
423.480777	1.001278
423.859352	1.000692
424.237866	1.000373
424.616319	1.000200
424.994712	1.000504
425.373044	1.001683
425.751314	1.001242
426.129524	1.000879
426.507673	1.000845
426.885762	1.001516
427.263789	1.000549
427.641756	1.000628
428.019662	1.001259
428.397508	1.000711
428.775292	0.999942
429.153016	1.000541
429.530679	1.001699
429.908282	1.000822
430.285824	1.000523
430.663305	0.999837
431.040726	1.000307
431.418086	1.002199
431.795385	1.000660
432.172624	0.999764
432.549802	1.001163
432.926920	1.000891
433.303977	0.999994
433.680974	1.000661
434.057910	1.000315
434.434786	1.000890
434.811601	1.000319
435.188355	1.000433
435.565050	1.000032
435.941683	1.000725
436.318257	1.001814
436.694770	1.000196
437.071222	1.001002
437.447614	1.001148
437.823946	1.000623
438.200218	1.000477
438.576429	1.001080
438.952580	1.001624
439.328670	1.000352
439.704700	1.000718
440.080670	1.001447
440.456580	1.000444
440.832429	1.000413
441.208218	1.001228
441.583947	1.001408
441.959616	1.001073
442.335224	1.001022
442.710773	1.002243
443.086261	1.001471
443.461689	1.000553
443.837057	1.000828
444.212365	1.000976
444.587612	1.000640
444.962800	1.000249
445.337927	1.001168
445.712995	1.000724
446.088002	1.001661
446.462949	1.000572
446.837837	1.001182
447.212664	1.001616
447.587431	1.000843
447.962139	1.000935
448.336786	1.000983
448.711374	1.001568
449.085901	1.000596
449.460369	1.001376
449.834776	1.001243
450.209124	1.001419
450.583412	1.000306
450.957640	1.000776
451.331808	1.001115
451.705917	1.001092
452.079965	1.000947
452.453954	1.000607
452.827883	1.000655
453.201752	1.001171
453.575562	1.002094
453.949311	1.001318
454.323001	1.000918
454.696632	1.000688
455.070202	1.000755
455.443713	1.000346
455.817164	1.001762
456.190556	1.001281
456.563888	1.001198
456.937160	1.001910
457.310373	1.000338
457.683526	1.001034
458.056619	1.001137
458.429653	1.001490
458.802628	1.000404
459.175542	1.001046
459.548398	1.001111
459.921194	1.000902
460.293930	1.000881
460.666607	1.000976
461.039224	1.000159
461.411782	1.001109
461.784280	1.001324
462.156719	1.001470
462.529099	1.000848
462.901419	1.001112
463.273680	1.000952
463.645882	1.001027
464.018024	1.000768
464.390106	1.001374
464.762130	1.002354
465.134094	1.001686
465.505999	1.001612
465.877845	1.001097
466.249631	1.001734
466.621358	1.001281
466.993026	1.001368
467.364634	1.002006
467.736184	1.001814
468.107674	1.001321
468.479105	1.000939
468.850477	1.001874
469.221790	1.001547
469.593043	1.001457
469.964238	1.002336
470.335373	1.001794
470.706449	1.002201
471.077467	1.001763
471.448425	1.001183
471.819324	1.002318
472.190164	1.001161
472.560945	1.001678
472.931667	1.001306
473.302330	1.001291
473.672934	1.001854
474.043479	1.000947
474.413965	1.000581
474.784393	1.001485
475.154761	1.001442
475.525070	1.001009
475.895321	1.002065
476.265513	1.001543
476.635645	1.000812
477.005719	1.001239
477.375734	1.001623
477.745691	1.001378
478.115588	1.001498
478.485427	1.001248
478.855207	1.000765
479.224928	1.001752
479.594591	1.001950
479.964194	1.001249
480.333739	1.001298
480.703226	1.001485
481.072653	1.002307
481.442022	1.001825
481.811333	1.000803
482.180584	1.002294
482.549777	1.001509
482.918912	1.002011
483.287988	1.001439
483.657005	1.001808
484.025964	1.002433
484.394864	1.002817
484.763706	1.001993
485.132489	1.001498
485.501213	1.001508
485.869879	1.001265
486.238487	1.001574
486.607036	1.001821
486.975527	1.000806
487.343959	1.001460
487.712333	1.001071
488.080648	1.001435
488.448905	1.001351
488.817104	1.001821
489.185244	1.001382
489.553326	1.001929
489.921350	1.001235
490.289315	1.001170
490.657222	1.001153
491.025070	1.001181
491.392861	1.001603
491.760593	1.001890
492.128267	1.001201
492.495883	1.001551
492.863440	1.001509
493.230939	1.001652
493.598380	1.001323
493.965763	1.001653
494.333088	1.001614
494.700354	1.000948
495.067563	1.002146
495.434713	1.000916
495.801805	1.001760
496.168839	1.001621
496.535815	1.001470
496.902733	1.000898
497.269593	1.001125
497.636395	1.000912
498.003139	1.001262
498.369825	1.001951
498.736453	1.001349
499.103023	1.000275
499.469535	1.000130
499.835989	1.001433
500.202385	1.001009
500.568723	1.001707
500.935003	1.001519
501.301226	1.001548
501.667390	1.001155
502.033497	1.001429
502.399546	1.001652
502.765537	1.001358
503.131470	1.001393
503.497345	1.000933
503.863163	1.002166
504.228923	1.001270
504.594625	1.001604
504.960269	1.001442
505.325856	1.001027
505.691385	1.000984
506.056856	1.000989
506.422270	1.000696
506.787625	1.000767
507.152924	1.001217
507.518164	1.001355
507.883347	1.001449
508.248472	1.000719
508.613540	1.001060
508.978550	1.001889
509.343503	0.999834
509.708398	1.000583
510.073236	1.001166
510.438016	1.001853
510.802738	1.000698
511.167403	1.000976
511.532010	1.001121
511.896561	1.001014
512.261053	1.001611
512.625488	1.000649
512.989866	1.000843
513.354186	1.000654
513.718449	1.000562
514.082655	1.001321
514.446803	1.000966
514.810894	1.001685
515.174927	1.000780
515.538904	1.000377
515.902822	1.000400
516.266684	1.000586
516.630488	1.001407
516.994235	1.000075
517.357925	1.000984
517.721558	1.000533
518.085133	1.000266
518.448651	1.001408
518.812112	1.000680
519.175516	1.000380
519.538863	1.001049
519.902152	1.000135
520.265385	1.000699
520.628560	1.000559
520.991678	1.000547
521.354739	1.000673
521.717743	1.000697
522.080690	1.000660
522.443580	1.000114
522.806413	1.000764
523.169189	0.999984
523.531908	0.999652
523.894569	1.000089
524.257174	1.000866
524.619722	1.000313
524.982213	1.000260
525.344647	0.999645
525.707025	0.999905
526.069345	0.999803
526.431608	1.000004
526.793815	1.000741
527.155964	0.999940
527.518057	1.000695
527.880093	1.000592
528.242072	1.000019
528.603995	0.999686
528.965860	1.000904
529.327669	0.999196
529.689421	0.999837
530.051117	1.000288
530.412755	0.999798
530.774337	1.000220
531.135862	0.999757
531.497331	1.000310
531.858743	0.999492
532.220098	1.000430
532.581396	1.000371
532.942638	1.000336
533.303824	1.000000
533.664953	0.999461
534.026025	0.999056
534.387040	0.999016
534.747999	0.999311
535.108902	0.999213
535.469748	0.999004
535.830537	0.999455
536.191270	0.999570
536.551947	0.999199
536.912567	0.998852
537.273131	0.999681
537.633638	0.998816
537.994089	0.998961
538.354483	0.998709
538.714821	0.998929
539.075103	0.998158
539.435328	0.998706
539.795497	0.998565
540.155609	0.998009
540.515665	0.998476
540.875665	0.998164
541.235609	0.998529
541.595496	0.997866
541.955328	0.997535
542.315102	0.998251
542.674821	0.997257
543.034483	0.997529
543.394090	0.997134
543.753640	0.998351
544.113134	0.997876
544.472571	0.997597
544.831953	0.997259
545.191278	0.997294
545.550548	0.997384
545.909761	0.996205
546.268918	0.996787
546.628019	0.996814
546.987064	0.996561
547.346053	0.996115
547.704986	0.996132
548.063863	0.995724
548.422684	0.996375
548.781449	0.995868
549.140158	0.994604
549.498811	0.995765
549.857408	0.995229
550.215949	0.994966
550.574434	0.994280
550.932864	0.993517
551.291237	0.993939
551.649555	0.993661
552.007817	0.993688
552.366022	0.992781
552.724173	0.992898
553.082267	0.992550
553.440305	0.991394
553.798288	0.992292
554.156215	0.991230
554.514086	0.991512
554.871902	0.990553
555.229661	0.990819
555.587365	0.990075
555.945014	0.990898
556.302606	0.988625
556.660143	0.988714
557.017625	0.987515
557.375050	0.987371
557.732421	0.987299
558.089735	0.986737
558.446994	0.987180
558.804197	0.986222
559.161345	0.984964
559.518437	0.985651
559.875474	0.983854
560.232455	0.983668
560.589381	0.983408
560.946251	0.981922
561.303065	0.981859
561.659825	0.980901
562.016528	0.979832
562.373177	0.980076
562.729770	0.979026
563.086307	0.978271
563.442789	0.977947
563.799216	0.976377
564.155587	0.976028
564.511904	0.974877
564.868164	0.973521
565.224370	0.973919
565.580520	0.972460
565.936615	0.971467
566.292654	0.970503
566.648638	0.969465
567.004567	0.968337
567.360441	0.968126
567.716260	0.966872
568.072023	0.965568
568.427732	0.963921
568.783385	0.963631
569.138982	0.962107
569.494525	0.961500
569.850013	0.960086
570.205445	0.958217
570.560823	0.957607
570.916145	0.955688
571.271412	0.954213
571.626625	0.952826
571.981782	0.951889
572.336884	0.950697
572.691931	0.950061
573.046923	0.947264
573.401860	0.946435
573.756743	0.944465
574.111570	0.942969
574.466342	0.942101
574.821059	0.940006
575.175722	0.938746
575.530330	0.937036
575.884882	0.935444
576.239380	0.933445
576.593823	0.932427
576.948211	0.929542
577.302544	0.929332
577.656823	0.926682
578.011047	0.925929
578.365216	0.922354
578.719330	0.921745
579.073389	0.919494
579.427394	0.918222
579.781344	0.916090
580.135239	0.913961
580.489080	0.912088
580.842866	0.909461
581.196597	0.906845
581.550273	0.904597
581.903895	0.902260
582.257463	0.900368
582.610975	0.897552
582.964434	0.895961
583.317837	0.894283
583.671186	0.891735
584.024481	0.889024
584.377721	0.887542
584.730906	0.885157
585.084037	0.882586
585.437113	0.880796
585.790135	0.877795
586.143103	0.875561
586.496016	0.874120
586.848874	0.870513
587.201679	0.868325
587.554428	0.865789
587.907124	0.862569
588.259765	0.860437
588.612352	0.857994
588.964884	0.856230
589.317362	0.853050
589.669786	0.849296
590.022155	0.848202
590.374470	0.844015
590.726731	0.842773
591.078937	0.840280
591.431090	0.836151
591.783188	0.835210
592.135232	0.832432
592.487222	0.830193
592.839157	0.826424
593.191038	0.824118
593.542866	0.822268
593.894639	0.820768
594.246358	0.816836
594.598022	0.813798
594.949633	0.812423
595.301190	0.809687
595.652692	0.806939
596.004141	0.802683
596.355535	0.802451
596.706876	0.799932
597.058162	0.797077
597.409395	0.794574
597.760573	0.790535
598.111698	0.789005
598.462768	0.785815
598.813785	0.784035
599.164748	0.780625
599.515657	0.778535
599.866511	0.775460
600.217312	0.771836
600.568060	0.771251
600.918753	0.767104
601.269392	0.764471
601.619978	0.762705
601.970510	0.758191
602.320988	0.756516
602.671412	0.751143
603.021783	0.750070
603.372100	0.748556
603.722363	0.744330
604.072572	0.741814
604.422728	0.738446
604.772830	0.736351
605.122878	0.732826
605.472872	0.730932
605.822813	0.726363
606.172701	0.725135
606.522534	0.720510
606.872314	0.718085
607.222041	0.714287
607.571714	0.711591
607.921333	0.708026
608.270899	0.704955
608.620411	0.701038
608.969870	0.699392
609.319276	0.696492
609.668627	0.693735
610.017926	0.689694
610.367171	0.685040
610.716362	0.683244
611.065500	0.680562
611.414585	0.676063
611.763616	0.674658
612.112594	0.671389
612.461518	0.667514
612.810389	0.663972
613.159207	0.661903
613.507971	0.659877
613.856682	0.654864
614.205340	0.653585
614.553945	0.648407
614.902496	0.647619
615.250994	0.643944
615.599439	0.641902
615.947830	0.637724
616.296169	0.636004
616.644454	0.632196
616.992686	0.629355
617.340864	0.625166
617.688990	0.624762
618.037063	0.620901
618.385082	0.618753
618.733048	0.613760
619.080961	0.612281
619.428821	0.609248
619.776628	0.605472
620.124382	0.604831
620.472083	0.601422
620.819731	0.598989
621.167326	0.598107
621.514868	0.595278
621.862357	0.595154
622.209793	0.592624
622.557176	0.590524
622.904506	0.588808
623.251783	0.587518
623.599007	0.585592
623.946179	0.583387
624.293297	0.581119
624.640363	0.581216
624.987376	0.578901
625.334336	0.579240
625.681243	0.577462
626.028097	0.575468
626.374899	0.573588
626.721647	0.570480
627.068343	0.570708
627.414987	0.568643
627.761577	0.567406
628.108115	0.564256
628.454600	0.565855
628.801032	0.560480
629.147412	0.560981
629.493739	0.558340
629.840014	0.558000
630.186236	0.554583
630.532405	0.555612
630.878521	0.552117
631.224585	0.551181
631.570597	0.551825
631.916556	0.548146
632.262462	0.547316
632.608316	0.545733
632.954117	0.544146
633.299866	0.542954
633.645562	0.540511
633.991206	0.541934
634.336797	0.541756
634.682336	0.541495
635.027823	0.540003
635.373257	0.538742
635.718639	0.538530
636.063968	0.536241
636.409245	0.538707
636.754470	0.536402
637.099642	0.536558
637.444762	0.536879
637.789829	0.533831
638.134845	0.535443
638.479808	0.534290
638.824719	0.532325
639.169577	0.533694
639.514383	0.530688
639.859137	0.532701
640.203839	0.530530
640.548489	0.528444
640.893086	0.528702
641.237632	0.527826
641.582125	0.524864
641.926566	0.524111
642.270955	0.523289
642.615292	0.521337
642.959576	0.519369
643.303809	0.518905
643.647990	0.516278
643.992118	0.515496
644.336195	0.517387
644.680219	0.514116
645.024192	0.513580
645.368112	0.506773
645.711981	0.505014
646.055797	0.499752
646.399562	0.501021
646.743274	0.492868
647.086935	0.490017
647.430544	0.489232
647.774101	0.486850
648.117606	0.485580
648.461059	0.484339
648.804460	0.484123
649.147810	0.487755
649.491108	0.487926
649.834354	0.487546
650.177548	0.490583
650.520690	0.493387
650.863781	0.493361
651.206820	0.491004
651.549807	0.493745
651.892742	0.495762
652.235626	0.493981
652.578458	0.494136
652.921238	0.497895
653.263967	0.494951
653.606644	0.497685
653.949269	0.496270
654.291843	0.499267
654.634365	0.494500
654.976836	0.496408
655.319255	0.495919
655.661622	0.496329
656.003938	0.495283
656.346203	0.496889
656.688416	0.493693
657.030577	0.496025
657.372687	0.496734
657.714746	0.496269
658.056753	0.492823
658.398708	0.495316
658.740612	0.496034
659.082465	0.491317
659.424266	0.491409
659.766016	0.489230
660.107715	0.490651
660.449362	0.489686
660.790958	0.489149
661.132503	0.488444
661.473996	0.486005
661.815438	0.485620
662.156829	0.485089
662.498168	0.485175
662.839456	0.485560
663.180693	0.482930
663.521879	0.482253
663.863013	0.482435
664.204097	0.480582
664.545129	0.477185
664.886110	0.476369
665.227040	0.473667
665.567918	0.475838
665.908746	0.472821
666.249522	0.472089
666.590248	0.472635
666.930922	0.470847
667.271545	0.468744
667.612118	0.468638
667.952639	0.469351
668.293109	0.467262
668.633528	0.468956
668.973896	0.468916
669.314213	0.468443
669.654480	0.469114
669.994695	0.469128
670.334859	0.469101
670.674973	0.469039
671.015035	0.468331
671.355047	0.467712
671.695008	0.468503
672.034918	0.469525
672.374777	0.468555
672.714585	0.469539
673.054342	0.469232
673.394049	0.468806
673.733705	0.465926
674.073310	0.466657
674.412864	0.469349
674.752368	0.469411
675.091820	0.468801
675.431223	0.472922
675.770574	0.471491
676.109875	0.474321
676.449125	0.473757
676.788324	0.475925
677.127473	0.480277
677.466571	0.480326
677.805619	0.481062
678.144616	0.481642
678.483562	0.482860
678.822458	0.485243
679.161303	0.486030
679.500098	0.485848
679.838842	0.487244
680.177535	0.486102
680.516179	0.484528
680.854771	0.483087
681.193314	0.476697
681.531805	0.468658
681.870247	0.457664
682.208638	0.449697
682.546978	0.448211
682.885268	0.449503
683.223508	0.455445
683.561697	0.458406
683.899836	0.461057
684.237925	0.464421
684.575963	0.466612
684.913951	0.469367
685.251889	0.465202
685.589776	0.467095
685.927614	0.469674
686.265401	0.463842
686.603137	0.464435
686.940824	0.458648
687.278460	0.456877
687.616046	0.456729
687.953582	0.451690
688.291068	0.452636
688.628504	0.448365
688.965889	0.450864
689.303224	0.454274
689.640510	0.457281
689.977745	0.462740
690.314930	0.470294
690.652065	0.474695
690.989150	0.481216
691.326185	0.487278
691.663170	0.491831
692.000105	0.498260
692.336990	0.504929
692.673825	0.507538
693.010610	0.514061
693.347345	0.519090
693.684030	0.520032
694.020665	0.525462
694.357251	0.532883
694.693786	0.532838
695.030272	0.536633
695.366707	0.539885
695.703093	0.543234
696.039429	0.540762
696.375716	0.542969
696.711952	0.545413
697.048139	0.546872
697.384276	0.549135
697.720363	0.546998
698.056400	0.546158
698.392388	0.551442
698.728326	0.554094
699.064214	0.556924
699.400053	0.557327
699.735842	0.560801
700.071581	0.563840
700.407270	0.566837
700.742910	0.568399
701.078501	0.574334
701.414042	0.575267
701.749533	0.577729
702.084974	0.586723
702.420366	0.579472
702.755709	0.586310
703.091002	0.593891
703.426246	0.587550
703.761440	0.593015
704.096584	0.598349
704.431679	0.594505
704.766725	0.596368
705.101721	0.597867
705.436668	0.594648
705.771565	0.601287
706.106413	0.597811
706.441212	0.593328
706.775961	0.591491
707.110661	0.594712
707.445311	0.591721
707.779913	0.588060
708.114465	0.586486
708.448967	0.583805
708.783421	0.575318
709.117825	0.569823
709.452180	0.570059
709.786485	0.564268
710.120742	0.554055
710.454949	0.555634
710.789107	0.548421
711.123216	0.539126
711.457275	0.541414
711.791286	0.532363
712.125247	0.531414
712.459159	0.541826
712.793023	0.534671
713.126837	0.538502
713.460602	0.538591
713.794318	0.548563
714.127985	0.546637
714.461602	0.556783
714.795171	0.559777
715.128691	0.567403
715.462162	0.574397
715.795584	0.580356
716.128957	0.583254
716.462281	0.589650
716.795556	0.593098
717.128782	0.597834
717.461960	0.607159
717.795088	0.605250
718.128167	0.611886
718.461198	0.620614
718.794180	0.621561
719.127113	0.623473
719.459997	0.627149
719.792833	0.633687
720.125619	0.634750
720.458357	0.640319
720.791046	0.639621
721.123686	0.643514
721.456278	0.650467
721.788821	0.648048
722.121315	0.650871
722.453761	0.656121
722.786158	0.653051
723.118506	0.649792
723.450805	0.658627
723.783056	0.653428
724.115259	0.651462
724.447412	0.650821
724.779518	0.652450
725.111574	0.651079
725.443582	0.646605
725.775542	0.648332
726.107453	0.641356
726.439315	0.640615
726.771129	0.639637
727.102895	0.633264
727.434612	0.625697
727.766281	0.623748
728.097901	0.622541
728.429473	0.623001
728.760996	0.620765
729.092471	0.620837
729.423897	0.624919
729.755276	0.624242
730.086606	0.624633
730.417887	0.618843
730.749120	0.610292
731.080305	0.599951
731.411442	0.596286
731.742530	0.601398
732.073570	0.600412
732.404562	0.592420
732.735506	0.594151
733.066401	0.598871
733.397249	0.608936
733.728048	0.619401
734.058798	0.631954
734.389501	0.642035
734.720156	0.652120
735.050762	0.659512
735.381320	0.660548
735.711831	0.670100
736.042293	0.674885
736.372707	0.670551
736.703073	0.675400
737.033391	0.677306
737.363661	0.673797
737.693883	0.669623
738.024056	0.668722
738.354182	0.668894
738.684260	0.658917
739.014290	0.654030
739.344272	0.654786
739.674207	0.649586
740.004093	0.647722
740.333931	0.649129
740.663722	0.648916
740.993464	0.649478
741.323159	0.653693
741.652806	0.657567
741.982405	0.662562
742.311956	0.667259
742.641460	0.669715
742.970915	0.672853
743.300323	0.680547
743.629683	0.686674
743.958996	0.689277
744.288260	0.692442
744.617477	0.698645
744.946647	0.700773
745.275768	0.705620
745.604842	0.705931
745.933869	0.715620
746.262847	0.714888
746.591778	0.709197
746.920662	0.716273
747.249498	0.721458
747.578286	0.713098
747.907027	0.709127
748.235720	0.709991
748.564365	0.705725
748.892963	0.704395
749.221514	0.707434
749.550017	0.712868
749.878473	0.711603
750.206881	0.718130
750.535242	0.719982
750.863555	0.719612
751.191821	0.721202
751.520039	0.724135
751.848210	0.729529
752.176334	0.721204
752.504411	0.720873
752.832440	0.728333
753.160421	0.732767
753.488356	0.730442
753.816243	0.728376
754.144082	0.736859
754.471875	0.739688
754.799620	0.735815
755.127318	0.737106
755.454969	0.736681
755.782572	0.735454
756.110129	0.741631
756.437638	0.743766
756.765100	0.739456
757.092515	0.739074
757.419882	0.737325
757.747203	0.742979
758.074477	0.741601
758.401703	0.739357
758.728882	0.734383
759.056014	0.732939
759.383099	0.732981
759.710138	0.732316
760.037129	0.730265
760.364073	0.723984
760.690970	0.726187
761.017820	0.731730
761.344623	0.727999
761.671379	0.719344
761.998088	0.706728
762.324751	0.684240
762.651366	0.643773
762.977935	0.578109
763.304456	0.525836
763.630931	0.516497
763.957359	0.555475
764.283740	0.599340
764.610074	0.625610
764.936362	0.657147
765.262602	0.682960
765.588796	0.703908
765.914943	0.721808
766.241044	0.739532
766.567097	0.746138
766.893104	0.755270
767.219064	0.763004
767.544978	0.769218
767.870845	0.782317
768.196665	0.786510
768.522438	0.783873
768.848165	0.784133
769.173846	0.794221
769.499479	0.798263
769.825066	0.801785
770.150607	0.807040
770.476101	0.801441
770.801548	0.803370
771.126949	0.814505
771.452303	0.817686
771.777611	0.817396
772.102872	0.817020
772.428087	0.821629
772.753256	0.824632
773.078378	0.827069
773.403453	0.836045
773.728482	0.839865
774.053465	0.832706
774.378401	0.836964
774.703291	0.845134
775.028135	0.844943
775.352932	0.846467
775.677683	0.849545
776.002388	0.850172
776.327046	0.849199
776.651658	0.852483
776.976224	0.855443
777.300743	0.855952
777.625216	0.858634
777.949643	0.859567
778.274024	0.860192
778.598359	0.861681
778.922647	0.860541
779.246889	0.860301
779.571086	0.864655
779.895236	0.866745
780.219339	0.863640
780.543397	0.861530
780.867409	0.860122
781.191374	0.861042
781.515294	0.862779
781.839167	0.862334
782.162995	0.866036
782.486776	0.862379
782.810511	0.863914
783.134201	0.866894
783.457844	0.864254
783.781441	0.867701
784.104993	0.873759
784.428498	0.875203
784.751958	0.870119
785.075372	0.872724
785.398739	0.875893
785.722061	0.872026
786.045337	0.867290
786.368568	0.872113
786.691752	0.874601
787.014891	0.860392
787.337983	0.850941
787.661030	0.845315
787.984031	0.826812
788.306987	0.813751
788.629897	0.817536
788.952760	0.821221
789.275579	0.824429
789.598351	0.840318
789.921078	0.852075
790.243759	0.855293
790.566395	0.859431
790.888984	0.867648
791.211529	0.871713
791.534027	0.874855
791.856480	0.876685
792.178888	0.882752
792.501249	0.885094
792.823566	0.885247
793.145836	0.886285
793.468062	0.887614
793.790241	0.887976
794.112375	0.886116
794.434464	0.881422
794.756507	0.880844
795.078505	0.880086
795.400457	0.875137
795.722364	0.863326
796.044226	0.857421
796.366042	0.856464
796.687812	0.858875
797.009538	0.855488
797.331218	0.858041
797.652852	0.862870
797.974442	0.868027
798.295986	0.866955
798.617484	0.869951
798.938938	0.873924
799.260346	0.878854
799.581709	0.880939
799.903026	0.883282
800.224299	0.883451
800.545526	0.887960
800.866708	0.892295
801.187845	0.895430
801.508936	0.895006
801.829983	0.893229
802.150984	0.895735
802.471940	0.901763
802.792851	0.899923
803.113717	0.900996
803.434538	0.898902
803.755314	0.901376
804.076045	0.902463
804.396731	0.903053
804.717372	0.903227
805.037967	0.904268
805.358518	0.902432
805.679024	0.899788
805.999485	0.900892
806.319901	0.900353
806.640272	0.901180
806.960598	0.899860
807.280879	0.897152
807.601115	0.895754
807.921306	0.898549
808.241453	0.899431
808.561554	0.897050
808.881611	0.898372
809.201623	0.898280
809.521590	0.898644
809.841513	0.900748
810.161390	0.899125
810.481223	0.901024
810.801011	0.903788
811.120755	0.906618
811.440453	0.904834
811.760107	0.903051
812.079716	0.903300
812.399281	0.906754
812.718801	0.909124
813.038276	0.911201
813.357707	0.909884
813.677093	0.906114
813.996434	0.909826
814.315731	0.911389
814.634983	0.912159
814.954191	0.910693
815.273354	0.907158
815.592473	0.904138
815.911547	0.904594
816.230577	0.902607
816.549562	0.899533
816.868502	0.900630
817.187399	0.896992
817.506250	0.890852
817.825058	0.893702
818.143821	0.890513
818.462539	0.885270
818.781213	0.877486
819.099843	0.866174
819.418429	0.851459
819.736970	0.833787
820.055466	0.814898
820.373919	0.789599
820.692327	0.757409
821.010691	0.724400
821.329011	0.649190
821.647286	0.535899
821.965517	0.423701
822.283704	0.381563
822.601847	0.383783
822.919945	0.419180
823.237999	0.451832
823.556010	0.497094
823.873976	0.551977
824.191897	0.602060
824.509775	0.643825
824.827609	0.688157
825.145398	0.710667
825.463144	0.712860
825.780845	0.695671
826.098502	0.676494
826.416116	0.632508
826.733685	0.589523
827.051210	0.581593
827.368692	0.596290
827.686129	0.632308
828.003522	0.684480
828.320872	0.731150
828.638177	0.773711
828.955439	0.806457
829.272656	0.827444
829.589830	0.844438
829.906960	0.858955
830.224046	0.870598
830.541088	0.881672
830.858086	0.885503
831.175041	0.891872
831.491952	0.891007
831.808819	0.886963
832.125642	0.881138
832.442421	0.866864
832.759157	0.845313
833.075849	0.801599
833.392497	0.738125
833.709101	0.698159
834.025662	0.706972
834.342179	0.738743
834.658653	0.776744
834.975083	0.812419
835.291469	0.837651
835.607811	0.859585
835.924110	0.874704
836.240366	0.890344
836.556578	0.905018
836.872746	0.913032
837.188871	0.918246
837.504952	0.923207
837.820990	0.926782
838.136984	0.930423
838.452935	0.933217
838.768842	0.935056
839.084706	0.927568
839.400526	0.903446
839.716303	0.864141
840.032037	0.841937
840.347727	0.846243
840.663373	0.863868
840.978977	0.884025
841.294537	0.906669
841.610054	0.922482
841.925527	0.929056
842.240957	0.936034
842.556344	0.943337
842.871687	0.948601
843.186987	0.953054
843.502244	0.953330
843.817458	0.954344
844.132629	0.959110
844.447756	0.962869
844.762840	0.963101
845.077881	0.962358
845.392879	0.961839
845.707833	0.964882
846.022745	0.967431
846.337613	0.966974
846.652438	0.968957
846.967221	0.967072
847.281960	0.968376
847.596656	0.970226
847.911309	0.967873
848.225919	0.970652
848.540485	0.970886
848.855009	0.970960
849.169490	0.970884
849.483928	0.971198
849.798323	0.970890
850.112675	0.972151
850.426984	0.971558
850.741251	0.971150
851.055474	0.972940
851.369654	0.969870
851.683792	0.971189
851.997887	0.971218
852.311938	0.973333
852.625947	0.970794
852.939914	0.970722
853.253837	0.970931
853.567718	0.972717
853.881555	0.973011
854.195350	0.970178
854.509103	0.971567
854.822812	0.971815
855.136479	0.972070
855.450103	0.972862
855.763685	0.970829
856.077224	0.970978
856.390720	0.972427
856.704173	0.971440
857.017584	0.970270
857.330953	0.969071
857.644278	0.969956
857.957561	0.970742
858.270802	0.970956
858.584000	0.970351
858.897155	0.968775
859.210268	0.970855
859.523339	0.970428
859.836367	0.971839
860.149352	0.973726
860.462295	0.970755
860.775195	0.972655
861.088054	0.971514
861.400869	0.971907
861.713642	0.973026
862.026373	0.973248
862.339062	0.973122
862.651708	0.970509
862.964312	0.970260
863.276873	0.972076
863.589392	0.970756
863.901869	0.969448
864.214303	0.967646
864.526696	0.967140
864.839045	0.966755
865.151353	0.964582
865.463619	0.965546
865.775842	0.964981
866.088023	0.964873
866.400162	0.965616
866.712258	0.964389
867.024313	0.965773
867.336325	0.966276
867.648296	0.965726
867.960224	0.965309
868.272110	0.964568
868.583954	0.965989
868.895755	0.966527
869.207515	0.965221
869.519233	0.962564
869.830909	0.963858
870.142542	0.965187
870.454134	0.964168
870.765684	0.963930
871.077191	0.960437
871.388657	0.961691
871.700081	0.960997
872.011463	0.961798
872.322803	0.961023
872.634101	0.959640
872.945357	0.957913
873.256571	0.954952
873.567744	0.956100
873.878874	0.956981
874.189963	0.954939
874.501010	0.954682
874.812015	0.953013
875.122979	0.953477
875.433900	0.955556
875.744780	0.956856
876.055618	0.954102
876.366415	0.953707
876.677169	0.953707
876.987882	0.955549
877.298554	0.954940
877.609183	0.952053
877.919771	0.948390
878.230317	0.947378
878.540822	0.943718
878.851285	0.939627
879.161707	0.931992
879.472087	0.921129
879.782425	0.904787
880.092722	0.871794
880.402977	0.821989
880.713191	0.763866
881.023363	0.707903
881.333494	0.675008
881.643583	0.646687
881.953631	0.647561
882.263637	0.675167
882.573602	0.713959
882.883526	0.738489
883.193408	0.761024
883.503248	0.782566
883.813048	0.808373
884.122806	0.837018
884.432522	0.859812
884.742197	0.878303
885.051831	0.889008
885.361424	0.896884
885.670975	0.909320
885.980485	0.918287
886.289954	0.925193
886.599382	0.930555
886.908768	0.933580
887.218113	0.939190
887.527417	0.944163
887.836680	0.947147
888.145901	0.947701
888.455082	0.950208
888.764221	0.953830
889.073319	0.957368
889.382376	0.956160
889.691392	0.956629
890.000366	0.955688
890.309300	0.957600
890.618193	0.956264
890.927044	0.955373
891.235855	0.955546
891.544625	0.955650
891.853353	0.954978
892.162041	0.953852
892.470687	0.946514
892.779293	0.941623
893.087858	0.938865
893.396381	0.931131
893.704864	0.919129
894.013306	0.895910
894.321707	0.870863
894.630068	0.857057
894.938387	0.853062
895.246665	0.854004
895.554903	0.866218
895.863100	0.877849
896.171256	0.894619
896.479371	0.912914
896.787446	0.926049
897.095480	0.930732
897.403473	0.933456
897.711425	0.938150
898.019336	0.945697
898.327207	0.948153
898.635038	0.948870
898.942827	0.948974
899.250576	0.951972
899.558284	0.956439
899.865952	0.957696
900.173579	0.958869
900.481165	0.958141
900.788711	0.963224
901.096216	0.964537
901.403681	0.965772
901.711105	0.966399
902.018489	0.967737
902.325832	0.965989
902.633135	0.966072
902.940397	0.960343
903.247619	0.948629
903.554800	0.923280
903.861941	0.887101
904.169041	0.853255
904.476101	0.837900
904.783121	0.838174
905.090100	0.854186
905.397039	0.874861
905.703938	0.893751
906.010796	0.913249
906.317614	0.928665
906.624391	0.939973
906.931129	0.948459
907.237826	0.955860
907.544483	0.963271
907.851099	0.965880
908.157675	0.970797
908.464211	0.972740
908.770707	0.976428
909.077163	0.977615
909.383578	0.977896
909.689954	0.977565
909.996289	0.978631
910.302584	0.980847
910.608839	0.981832
910.915054	0.980856
911.221229	0.980888
911.527363	0.979787
911.833458	0.980392
912.139513	0.979962
912.445527	0.978414
912.751502	0.976595
913.057436	0.975549
913.363331	0.972991
913.669186	0.969149
913.975000	0.964321
914.280775	0.959443
914.586510	0.954734
914.892205	0.941560
915.197859	0.921503
915.503475	0.895030
915.809050	0.876585
916.114585	0.872599
916.420081	0.869870
916.725536	0.867760
917.030952	0.873936
917.336328	0.886512
917.641665	0.900089
917.946961	0.914926
918.252218	0.926512
918.557435	0.934599
918.862612	0.942216
919.167750	0.947706
919.472848	0.952114
919.777906	0.956961
920.082925	0.963076
920.387904	0.966209
920.692843	0.967308
920.997743	0.967008
921.302603	0.972569
921.607423	0.972346
921.912204	0.975559
922.216946	0.973851
922.521647	0.976675
922.826310	0.978802
923.130932	0.979843
923.435516	0.981963
923.740059	0.982001
924.044564	0.982199
924.349028	0.983187
924.653454	0.986168
924.957840	0.986999
925.262186	0.986553
925.566493	0.986022
925.870761	0.986711
926.174989	0.988624
926.479178	0.990128
926.783328	0.990025
927.087438	0.991359
927.391509	0.989752
927.695541	0.992090
927.999533	0.990991
928.303486	0.991683
928.607400	0.992698
928.911275	0.990784
929.215110	0.992301
929.518906	0.992492
929.822663	0.991566
930.126381	0.992808
930.430060	0.992252
930.733699	0.992163
931.037299	0.991510
931.340861	0.992281
931.644383	0.991804
931.947866	0.991442
932.251309	0.992894
932.554714	0.992773
932.858080	0.992448
933.161407	0.992068
933.464694	0.992348
933.767943	0.992486
934.071153	0.991858
934.374323	0.993358
934.677455	0.992361
934.980548	0.992937
935.283602	0.992389
935.586617	0.994148
935.889593	0.993570
936.192530	0.993350
936.495428	0.993344
936.798287	0.993554
937.101108	0.992201
937.403890	0.991346
937.706632	0.991641
938.009336	0.989076
938.312002	0.988117
938.614628	0.986529
938.917216	0.985979
939.219765	0.985779
939.522275	0.984321
939.824747	0.986075
940.127179	0.986331
940.429573	0.986291
940.731929	0.986754
941.034246	0.986644
941.336524	0.987815
941.638763	0.989137
941.940964	0.988617
942.243126	0.988387
942.545250	0.990078
942.847335	0.990796
943.149381	0.989664
943.451389	0.991704
943.753359	0.990529
944.055290	0.992497
944.357182	0.992431
944.659036	0.990283
944.960851	0.991861
945.262628	0.991535
945.564367	0.991682
945.866067	0.993050
946.167729	0.991967
946.469352	0.991650
946.770937	0.991146
947.072484	0.992445
947.373992	0.990806
947.675462	0.993035
947.976893	0.992631
948.278286	0.992766
948.579641	0.992589
948.880958	0.992713
949.182236	0.992765
949.483476	0.993845
949.784678	0.991568
950.085841	0.993281
950.386967	0.991815
950.688054	0.991798
950.989103	0.992904
951.290114	0.991408
951.591087	0.991955
951.892021	0.991802
952.192917	0.991318
952.493776	0.989947
952.794596	0.990429
953.095378	0.990682
953.396122	0.989830
953.696828	0.988525
953.997496	0.991044
954.298126	0.993149
954.598718	0.992698
954.899272	0.993206
955.199788	0.991777
955.500266	0.993600
955.800706	0.995308
956.101108	0.994690
956.401472	0.995001
956.701798	0.994855
957.002087	0.995651
957.302337	0.995999
957.602550	0.996083
957.902724	0.996152
958.202861	0.996744
958.502960	0.996689
958.803022	0.994501
959.103045	0.997432
959.403031	0.997116
959.702979	0.995784
960.002889	0.996806
960.302762	0.996820
960.602596	0.997315
960.902393	0.996901
961.202153	0.997755
961.501875	0.997701
961.801559	0.996495
962.101205	0.996940
962.400814	0.998305
962.700385	0.996757
962.999918	0.997828
963.299414	0.997255
963.598873	0.997055
963.898293	0.996936
964.197677	0.997653
964.497022	0.998433
964.796331	0.998798
965.095601	0.997661
965.394835	0.998481
965.694030	0.997539
965.993189	0.998122
966.292309	0.996998
966.591393	0.999343
966.890439	0.998491
967.189447	0.998859
967.488419	0.999915
967.787353	0.997175
968.086249	0.997826
968.385108	0.998417
968.683930	0.997581
968.982714	0.998400
969.281462	0.998157
969.580172	0.997370
969.878844	0.997768
970.177480	0.998401
970.476078	0.998191
970.774639	0.997556
971.073162	0.997444
971.371649	0.997865
971.670098	0.996968
971.968510	0.998295
972.266885	0.998069
972.565223	0.997934
972.863524	0.997304
973.161788	0.998690
973.460014	0.998661
973.758204	0.996715
974.056356	0.997538
974.354471	0.995848
974.652550	0.996119
974.950591	0.998280
975.248595	0.997020
975.546563	0.997342
975.844493	0.999471
976.142386	0.997781
976.440243	0.998658
976.738062	0.997631
977.035845	0.998641
977.333590	0.997684
977.631299	0.997559
977.928971	0.997637
978.226606	0.997767
978.524204	0.996920
978.821765	0.998868
979.119290	0.996857
979.416777	0.997171
979.714228	0.998156
980.011642	0.997316
980.309020	0.999156
980.606360	0.997959
980.903664	0.998849
981.200931	0.996908
981.498162	0.995920
981.795356	0.996315
982.092513	0.994070
982.389633	0.996097
982.686717	0.993204
982.983764	0.992913
983.280775	0.991266
983.577749	0.991715
983.874686	0.992765
984.171587	0.992636
984.468451	0.995733
984.765279	0.996110
985.062070	0.995813
985.358824	0.996702
985.655543	0.996072
985.952224	0.996989
986.248869	0.997601
986.545478	0.997590
986.842050	0.999260
987.138586	0.995766
987.435086	0.997348
987.731549	1.000060
988.027975	0.998523
988.324366	0.998267
988.620719	0.997972
988.917037	0.997290
989.213318	0.999202
989.509563	0.998858
989.805772	0.999031
990.101944	0.999615
990.398080	0.998461
990.694180	1.000260
990.990244	0.997776
991.286271	0.998266
991.582262	0.998539
991.878217	0.998528
992.174136	0.999523
992.470019	0.999630
992.765865	0.998701
993.061676	0.998575
993.357450	0.998352
993.653188	0.997604
993.948890	0.998064
994.244556	0.998254
994.540186	0.997615
994.835780	0.996848
995.131337	0.998062
995.426859	0.998347
995.722345	0.998000
996.017795	0.997797
996.313208	0.996174
996.608586	0.996729
996.903928	0.997191
997.199234	0.996969
997.494504	0.997010
997.789738	0.996686
998.084936	0.997994
998.380099	0.998354
998.675225	0.999278
998.970316	0.999265
999.265371	0.998834
999.560390	0.998108
999.855373	0.999375
1000.150320	0.999088
1000.445232	0.999575
1000.740108	0.998534
1001.034948	0.999111
1001.329752	0.999268
1001.624521	0.998671
1001.919254	0.999150
1002.213951	0.999748
1002.508613	0.998494
1002.803239	0.999686
1003.097829	0.999594
1003.392384	0.998994
1003.686903	0.998680
1003.981386	0.999712
1004.275834	0.999048
1004.570246	0.998677
1004.864623	0.998997
1005.158964	1.000259
1005.453270	0.999468
1005.747540	0.998610
1006.041775	0.998948
1006.335974	0.999901
1006.630138	0.999562
1006.924266	1.001563
1007.218359	1.000233
1007.512416	1.000402
1007.806438	0.999498
1008.100425	1.001402
1008.394376	0.999865
1008.688292	0.998447
1008.982172	1.000991
1009.276017	1.000145
1009.569827	0.999549
1009.863602	0.999312
1010.157341	0.999739
1010.451045	0.999392
1010.744714	0.998925
1011.038347	0.998723
1011.331945	0.998336
1011.625508	0.999686
1011.919036	0.999755
1012.212528	0.999639
1012.505986	0.997880
1012.799408	0.998628
1013.092795	0.999823
1013.386147	0.999383
1013.679464	1.000132
1013.972745	0.997595
1014.265992	0.998216
1014.559204	0.999156
1014.852380	0.999220
1015.145521	0.999344
1015.438628	0.998712
1015.731699	0.999675
1016.024736	0.998741
1016.317737	0.998253
1016.610703	0.999567
1016.903635	0.999912
1017.196531	0.998364
1017.489393	1.000025
1017.782219	0.999078
1018.075011	1.000192
1018.367768	0.999754
1018.660490	0.999847
1018.953177	0.999847
1019.245829	0.999847
