Dividing Wavelength (nm)	Counts (n)	Blue Motor Position (mm): 0.000000	Red Motor Position (mm): 31.800000	
326.493990	0.999904
326.888308	0.999904
327.282561	0.999904
327.676750	0.999080
328.070874	0.999271
328.464933	1.000759
328.858929	0.999534
329.252859	0.998440
329.646726	0.998939
330.040528	1.000130
330.434265	0.998619
330.827938	1.000655
331.221547	1.000114
331.615091	1.000147
332.008571	1.000554
332.401986	1.000450
332.795338	1.000637
333.188625	0.998112
333.581847	0.999329
333.975006	0.999886
334.368100	0.998234
334.761129	0.999195
335.154095	1.001253
335.546996	0.999041
335.939833	0.994079
336.332606	0.994833
336.725315	0.997060
337.117960	0.996458
337.510540	0.995003
337.903056	0.996833
338.295508	0.994906
338.687896	0.995299
339.080220	0.995916
339.472480	0.995854
339.864676	0.994778
340.256807	0.994208
340.648875	0.997499
341.040879	0.996229
341.432818	0.995319
341.824694	0.996255
342.216506	0.996434
342.608253	0.996774
342.999937	0.995074
343.391557	0.995091
343.783113	0.996174
344.174605	0.995646
344.566033	0.996020
344.957397	0.994127
345.348697	0.996654
345.739934	0.995204
346.131106	0.995629
346.522215	0.995241
346.913260	0.996451
347.304241	0.995809
347.695159	0.995298
348.086012	0.994700
348.476802	0.995650
348.867528	0.996111
349.258191	0.995339
349.648789	0.996108
350.039324	0.995334
350.429796	0.996661
350.820203	0.995932
351.210548	0.996485
351.600828	0.996005
351.991045	0.995193
352.381198	0.995342
352.771288	0.994817
353.161314	0.995748
353.551276	0.996869
353.941175	0.994746
354.331010	0.995309
354.720782	0.995958
355.110490	0.995314
355.500135	0.995022
355.889717	0.994747
356.279235	0.995392
356.668689	0.994799
357.058080	0.995719
357.447408	0.996988
357.836672	0.996098
358.225873	0.996088
358.615010	0.996175
359.004084	0.996682
359.393095	0.995816
359.782043	0.996346
360.170927	0.996393
360.559748	0.995843
360.948505	0.993869
361.337199	0.994557
361.725830	0.996672
362.114398	0.995770
362.502903	0.995663
362.891344	0.997151
363.279722	0.994707
363.668037	0.995406
364.056289	0.994519
364.444478	0.996619
364.832603	0.996192
365.220665	0.994952
365.608665	0.995828
365.996601	0.995581
366.384474	0.995353
366.772284	0.995041
367.160031	0.995672
367.547715	0.994981
367.935336	0.996028
368.322893	0.996229
368.710388	0.994584
369.097820	0.996408
369.485189	0.994943
369.872495	0.996279
370.259738	0.993469
370.646918	0.996638
371.034035	0.995536
371.421090	0.996042
371.808081	0.995622
372.195010	0.995721
372.581875	0.995214
372.968678	0.995259
373.355418	0.996070
373.742096	0.994623
374.128710	0.996109
374.515262	0.995739
374.901751	0.996289
375.288177	0.996160
375.674540	0.997061
376.060841	0.994862
376.447079	0.995847
376.833254	0.996209
377.219367	0.996845
377.605417	0.997151
377.991404	0.996019
378.377329	0.994570
378.763191	0.995900
379.148991	0.997429
379.534727	0.996818
379.920402	0.996647
380.306013	0.996452
380.691563	0.997135
381.077049	0.996674
381.462474	0.997160
381.847835	0.996148
382.233134	0.998267
382.618371	0.996714
383.003545	0.997187
383.388657	0.996497
383.773706	0.997478
384.158693	0.996823
384.543618	0.996513
384.928480	0.997477
385.313280	0.997759
385.698017	0.998043
386.082692	0.997831
386.467305	0.998007
386.851856	0.996685
387.236344	0.996716
387.620770	0.996181
388.005133	0.997462
388.389435	0.998213
388.773674	0.996140
389.157851	0.997560
389.541965	0.997302
389.926018	0.996692
390.310008	0.998303
390.693936	0.997317
391.077802	0.997557
391.461606	0.996738
391.845348	0.998678
392.229027	0.998302
392.612645	0.997846
392.996200	0.999110
393.379694	0.997816
393.763125	0.998480
394.146494	0.998238
394.529801	0.997306
394.913047	0.997457
395.296230	0.997972
395.679351	0.998356
396.062410	0.997439
396.445408	0.998012
396.828343	0.997332
397.211217	0.997412
397.594028	0.998668
397.976778	0.997752
398.359466	0.997789
398.742092	0.996962
399.124656	0.997378
399.507158	0.998239
399.889598	0.997696
400.271977	0.998695
400.654294	0.998639
401.036549	0.998369
401.418742	0.998891
401.800874	0.997314
402.182944	0.998348
402.564952	0.997456
402.946898	0.998762
403.328783	0.997801
403.710606	0.998074
404.092367	0.998209
404.474067	0.997502
404.855705	0.997546
405.237282	0.998608
405.618797	0.997360
406.000250	0.997372
406.381642	0.998261
406.762972	0.997652
407.144240	0.998402
407.525447	0.998734
407.906593	0.998349
408.287677	0.997890
408.668700	0.998679
409.049661	0.997194
409.430560	0.997972
409.811399	0.997965
410.192176	0.997355
410.572891	0.997809
410.953545	0.997587
411.334138	0.997122
411.714669	0.998465
412.095139	0.997766
412.475547	0.999257
412.855894	0.998691
413.236180	0.998572
413.616405	0.998256
413.996568	0.998858
414.376670	0.997889
414.756711	0.998123
415.136691	0.998490
415.516609	0.998519
415.896466	0.998423
416.276262	0.997060
416.655997	0.998313
417.035670	0.997530
417.415283	0.998954
417.794834	0.997762
418.174324	0.998007
418.553753	0.998624
418.933121	0.997806
419.312428	0.998590
419.691674	0.998021
420.070859	0.998542
420.449983	0.998356
420.829045	0.998322
421.208047	0.999111
421.586988	0.998807
421.965867	0.997600
422.344686	0.998700
422.723444	0.998059
423.102141	0.998903
423.480777	0.998492
423.859352	0.997649
424.237866	0.997396
424.616319	0.998247
424.994712	0.998519
425.373044	0.999256
425.751314	0.997946
426.129524	0.998447
426.507673	0.999052
426.885762	0.998880
427.263789	0.998783
427.641756	0.998168
428.019662	0.999137
428.397508	0.998467
428.775292	0.997658
429.153016	0.999009
429.530679	0.999092
429.908282	0.999323
430.285824	0.998262
430.663305	0.998001
431.040726	0.998415
431.418086	0.999492
431.795385	0.999061
432.172624	0.999096
432.549802	0.999427
432.926920	0.998904
433.303977	0.997495
433.680974	0.998556
434.057910	0.998268
434.434786	0.999192
434.811601	0.998318
435.188355	0.998336
435.565050	0.998640
435.941683	0.997749
436.318257	0.999153
436.694770	0.998867
437.071222	0.999152
437.447614	0.998785
437.823946	0.999059
438.200218	0.998140
438.576429	0.998156
438.952580	0.999219
439.328670	0.998363
439.704700	0.999223
440.080670	0.999031
440.456580	0.998252
440.832429	0.998649
441.208218	0.998341
441.583947	0.998817
441.959616	0.998234
442.335224	0.997862
442.710773	0.999113
443.086261	0.998056
443.461689	0.998618
443.837057	0.998756
444.212365	0.998980
444.587612	0.998426
444.962800	0.998113
445.337927	0.998832
445.712995	0.998544
446.088002	0.999620
446.462949	0.998771
446.837837	0.998847
447.212664	0.998270
447.587431	0.998626
447.962139	0.998502
448.336786	0.999560
448.711374	0.999384
449.085901	0.998685
449.460369	0.999392
449.834776	0.998063
450.209124	0.998565
450.583412	0.998285
450.957640	0.998844
451.331808	0.998781
451.705917	0.997972
452.079965	0.998939
452.453954	0.998898
452.827883	0.998608
453.201752	0.998405
453.575562	0.999160
453.949311	0.998841
454.323001	0.997789
454.696632	0.998044
455.070202	0.998362
455.443713	0.997924
455.817164	0.998682
456.190556	0.999032
456.563888	0.998356
456.937160	0.999333
457.310373	0.998485
457.683526	0.998790
458.056619	0.998474
458.429653	0.998260
458.802628	0.997451
459.175542	0.998307
459.548398	0.998928
459.921194	0.997840
460.293930	0.998767
460.666607	0.997793
461.039224	0.997900
461.411782	0.999050
461.784280	0.998286
462.156719	0.999218
462.529099	0.999068
462.901419	0.998793
463.273680	0.998437
463.645882	0.998644
464.018024	0.997887
464.390106	0.998578
464.762130	0.999208
465.134094	0.998428
465.505999	0.999216
465.877845	0.998594
466.249631	0.999125
466.621358	0.998529
466.993026	0.998130
467.364634	0.998517
467.736184	0.998801
468.107674	0.998308
468.479105	0.997479
468.850477	0.998463
469.221790	0.998200
469.593043	0.998331
469.964238	0.998881
470.335373	0.997270
470.706449	0.998479
471.077467	0.998483
471.448425	0.998466
471.819324	0.999177
472.190164	0.998020
472.560945	0.997363
472.931667	0.997099
473.302330	0.997042
473.672934	0.997695
474.043479	0.996387
474.413965	0.996064
474.784393	0.997019
475.154761	0.996201
475.525070	0.995471
475.895321	0.996674
476.265513	0.995072
476.635645	0.995318
477.005719	0.994847
477.375734	0.994022
477.745691	0.994413
478.115588	0.993418
478.485427	0.994005
478.855207	0.992751
479.224928	0.991883
479.594591	0.991326
479.964194	0.991369
480.333739	0.990920
480.703226	0.988856
481.072653	0.989589
481.442022	0.988121
481.811333	0.986337
482.180584	0.985830
482.549777	0.985041
482.918912	0.984274
483.287988	0.983149
483.657005	0.982075
484.025964	0.982240
484.394864	0.980299
484.763706	0.978812
485.132489	0.978120
485.501213	0.976321
485.869879	0.975698
486.238487	0.973950
486.607036	0.972492
486.975527	0.969756
487.343959	0.969186
487.712333	0.966627
488.080648	0.965896
488.448905	0.964048
488.817104	0.961994
489.185244	0.959418
489.553326	0.956734
489.921350	0.953296
490.289315	0.947058
490.657222	0.945502
491.025070	0.942273
491.392861	0.940690
491.760593	0.939569
492.128267	0.938432
492.495883	0.936279
492.863440	0.934437
493.230939	0.931490
493.598380	0.928612
493.965763	0.924782
494.333088	0.923068
494.700354	0.918796
495.067563	0.916076
495.434713	0.912191
495.801805	0.909911
496.168839	0.905528
496.535815	0.900660
496.902733	0.897903
497.269593	0.892886
497.636395	0.890218
498.003139	0.885001
498.369825	0.882204
498.736453	0.876062
499.103023	0.871824
499.469535	0.867017
499.835989	0.863326
500.202385	0.858396
500.568723	0.854429
500.935003	0.849037
501.301226	0.842715
501.667390	0.838175
502.033497	0.831694
502.399546	0.828930
502.765537	0.822621
503.131470	0.816983
503.497345	0.810534
503.863163	0.808490
504.228923	0.800186
504.594625	0.795057
504.960269	0.790568
505.325856	0.783646
505.691385	0.778247
506.056856	0.771744
506.422270	0.765506
506.787625	0.761781
507.152924	0.754038
507.518164	0.748695
507.883347	0.742423
508.248472	0.737679
508.613540	0.729641
508.978550	0.723788
509.343503	0.717969
509.708398	0.711203
510.073236	0.703135
510.438016	0.697834
510.802738	0.690796
511.167403	0.684687
511.532010	0.677629
511.896561	0.670642
512.261053	0.664305
512.625488	0.657335
512.989866	0.651198
513.354186	0.645037
513.718449	0.639089
514.082655	0.631830
514.446803	0.626256
514.810894	0.618979
515.174927	0.612642
515.538904	0.607018
515.902822	0.598363
516.266684	0.594384
516.630488	0.587926
516.994235	0.581963
517.357925	0.573920
517.721558	0.566747
518.085133	0.559851
518.448651	0.554964
518.812112	0.549714
519.175516	0.542220
519.538863	0.534708
519.902152	0.530718
520.265385	0.521346
520.628560	0.517596
520.991678	0.510856
521.354739	0.505309
521.717743	0.500560
522.080690	0.495180
522.443580	0.486288
522.806413	0.481844
523.169189	0.476241
523.531908	0.469544
523.894569	0.466954
524.257174	0.460794
524.619722	0.453536
524.982213	0.450271
525.344647	0.443051
525.707025	0.439194
526.069345	0.432417
526.431608	0.427951
526.793815	0.422150
527.155964	0.420073
527.518057	0.414832
527.880093	0.410834
528.242072	0.405070
528.603995	0.401461
528.965860	0.398858
529.327669	0.393024
529.689421	0.389477
530.051117	0.386083
530.412755	0.378888
530.774337	0.377647
531.135862	0.372926
531.497331	0.368938
531.858743	0.366957
532.220098	0.360344
532.581396	0.359207
532.942638	0.356107
533.303824	0.353423
533.664953	0.349161
534.026025	0.347405
534.387040	0.341886
534.747999	0.338737
535.108902	0.334609
535.469748	0.335838
535.830537	0.330861
536.191270	0.328090
536.551947	0.324486
536.912567	0.321743
537.273131	0.321170
537.633638	0.318012
537.994089	0.315455
538.354483	0.313832
538.714821	0.308660
539.075103	0.305992
539.435328	0.304035
539.795497	0.305211
540.155609	0.299635
540.515665	0.295627
540.875665	0.298786
541.235609	0.295157
541.595496	0.293845
541.955328	0.287885
542.315102	0.288728
542.674821	0.287793
543.034483	0.286087
543.394090	0.284012
543.753640	0.284120
544.113134	0.277510
544.472571	0.279458
544.831953	0.274552
545.191278	0.277278
545.550548	0.275237
545.909761	0.270692
546.268918	0.269842
546.628019	0.267196
546.987064	0.268602
547.346053	0.269175
547.704986	0.265843
548.063863	0.265185
548.422684	0.264147
548.781449	0.265103
549.140158	0.261454
549.498811	0.263547
549.857408	0.265708
550.215949	0.259729
550.574434	0.262172
550.932864	0.259176
551.291237	0.256966
551.649555	0.257754
552.007817	0.256914
552.366022	0.256768
552.724173	0.256451
553.082267	0.256147
553.440305	0.252735
553.798288	0.256403
554.156215	0.252414
554.514086	0.252923
554.871902	0.255582
555.229661	0.254082
555.587365	0.254336
555.945014	0.256456
556.302606	0.253128
556.660143	0.255261
557.017625	0.251201
557.375050	0.253376
557.732421	0.250036
558.089735	0.251735
558.446994	0.251299
558.804197	0.250273
559.161345	0.250170
559.518437	0.253204
559.875474	0.251040
560.232455	0.249957
560.589381	0.250999
560.946251	0.250427
561.303065	0.248322
561.659825	0.249462
562.016528	0.250790
562.373177	0.253493
562.729770	0.250498
563.086307	0.252715
563.442789	0.250181
563.799216	0.252791
564.155587	0.251595
564.511904	0.252490
564.868164	0.252572
565.224370	0.252159
565.580520	0.253728
565.936615	0.253772
566.292654	0.256351
566.648638	0.253445
567.004567	0.254392
567.360441	0.254925
567.716260	0.256828
568.072023	0.254365
568.427732	0.254955
568.783385	0.257591
569.138982	0.255420
569.494525	0.254766
569.850013	0.257774
570.205445	0.255924
570.560823	0.258770
570.916145	0.260412
571.271412	0.258782
571.626625	0.260182
571.981782	0.260479
572.336884	0.261200
572.691931	0.261148
573.046923	0.262138
573.401860	0.263049
573.756743	0.264826
574.111570	0.263950
574.466342	0.264184
574.821059	0.263349
575.175722	0.266309
575.530330	0.266059
575.884882	0.266016
576.239380	0.268079
576.593823	0.268363
576.948211	0.268076
577.302544	0.271325
577.656823	0.270898
578.011047	0.271036
578.365216	0.271384
578.719330	0.273281
579.073389	0.273223
579.427394	0.274600
579.781344	0.275267
580.135239	0.276845
580.489080	0.276169
580.842866	0.279357
581.196597	0.278954
581.550273	0.277967
581.903895	0.278716
582.257463	0.276854
582.610975	0.280142
582.964434	0.279355
583.317837	0.282007
583.671186	0.282721
584.024481	0.282194
584.377721	0.284794
584.730906	0.285566
585.084037	0.284548
585.437113	0.286776
585.790135	0.286115
586.143103	0.289045
586.496016	0.289894
586.848874	0.287447
587.201679	0.288099
587.554428	0.291491
587.907124	0.290143
588.259765	0.290816
588.612352	0.291621
588.964884	0.295046
589.317362	0.294606
589.669786	0.294874
590.022155	0.293372
590.374470	0.292405
590.726731	0.294393
591.078937	0.298900
591.431090	0.295431
591.783188	0.299673
592.135232	0.300173
592.487222	0.300260
592.839157	0.298327
593.191038	0.300673
593.542866	0.302286
593.894639	0.306289
594.246358	0.303911
594.598022	0.303553
594.949633	0.307173
595.301190	0.307838
595.652692	0.306913
596.004141	0.303589
596.355535	0.311113
596.706876	0.311543
597.058162	0.314070
597.409395	0.311223
597.760573	0.308888
598.111698	0.312185
598.462768	0.312952
598.813785	0.313722
599.164748	0.315139
599.515657	0.315682
599.866511	0.319176
600.217312	0.314104
600.568060	0.319587
600.918753	0.315811
601.269392	0.316702
601.619978	0.320077
601.970510	0.317870
602.320988	0.317813
602.671412	0.315735
603.021783	0.318233
603.372100	0.319489
603.722363	0.319048
604.072572	0.319908
604.422728	0.319627
604.772830	0.322117
605.122878	0.321417
605.472872	0.322169
605.822813	0.320155
606.172701	0.322763
606.522534	0.320409
606.872314	0.320370
607.222041	0.321081
607.571714	0.319292
607.921333	0.320711
608.270899	0.320474
608.620411	0.317343
608.969870	0.321031
609.319276	0.321290
609.668627	0.321082
610.017926	0.319650
610.367171	0.318325
610.716362	0.318805
611.065500	0.319267
611.414585	0.318097
611.763616	0.318807
612.112594	0.318794
612.461518	0.318237
612.810389	0.316039
613.159207	0.318436
613.507971	0.320121
613.856682	0.315778
614.205340	0.317831
614.553945	0.314304
614.902496	0.318414
615.250994	0.316366
615.599439	0.316990
615.947830	0.316329
616.296169	0.317611
616.644454	0.316782
616.992686	0.316956
617.340864	0.314481
617.688990	0.317973
618.037063	0.314936
618.385082	0.316813
618.733048	0.313833
619.080961	0.316284
619.428821	0.315149
619.776628	0.315254
620.124382	0.317031
620.472083	0.317330
620.819731	0.316846
621.167326	0.320477
621.514868	0.320412
621.862357	0.324514
622.209793	0.324107
622.557176	0.326518
622.904506	0.327271
623.251783	0.329559
623.599007	0.331948
623.946179	0.331617
624.293297	0.333409
624.640363	0.337463
624.987376	0.337979
625.334336	0.340636
625.681243	0.342576
626.028097	0.343336
626.374899	0.344599
626.721647	0.344899
627.068343	0.347692
627.414987	0.348558
627.761577	0.350982
628.108115	0.348833
628.454600	0.354307
628.801032	0.351570
629.147412	0.353632
629.493739	0.354026
629.840014	0.356967
630.186236	0.354844
630.532405	0.360068
630.878521	0.357618
631.224585	0.359897
631.570597	0.363433
631.916556	0.362060
632.262462	0.362092
632.608316	0.363668
632.954117	0.365035
633.299866	0.365836
633.645562	0.366066
633.991206	0.370532
634.336797	0.373470
634.682336	0.375826
635.027823	0.377694
635.373257	0.377577
635.718639	0.381525
636.063968	0.380355
636.409245	0.386403
636.754470	0.386493
637.099642	0.389026
637.444762	0.392228
637.789829	0.391852
638.134845	0.395406
638.479808	0.396035
638.824719	0.396241
639.169577	0.399619
639.514383	0.398757
639.859137	0.402777
640.203839	0.402631
640.548489	0.402990
640.893086	0.404741
641.237632	0.406123
641.582125	0.404987
641.926566	0.406378
642.270955	0.406480
642.615292	0.406749
642.959576	0.405921
643.303809	0.406785
643.647990	0.405798
643.992118	0.406449
644.336195	0.410095
644.680219	0.408400
645.024192	0.409140
645.368112	0.403022
645.711981	0.401718
646.055797	0.397108
646.399562	0.399796
646.743274	0.391301
647.086935	0.388657
647.430544	0.389011
647.774101	0.388301
648.117606	0.387889
648.461059	0.388524
648.804460	0.390138
649.147810	0.395484
649.491108	0.397649
649.834354	0.398923
650.177548	0.403924
650.520690	0.409498
650.863781	0.410974
651.206820	0.410069
651.549807	0.414845
651.892742	0.418806
652.235626	0.418163
652.578458	0.418745
652.921238	0.425444
653.263967	0.423440
653.606644	0.427179
653.949269	0.426370
654.291843	0.430944
654.634365	0.427126
654.976836	0.430828
655.319255	0.430288
655.661622	0.432544
656.003938	0.432498
656.346203	0.435364
656.688416	0.433141
657.030577	0.436967
657.372687	0.438300
657.714746	0.439475
658.056753	0.436462
658.398708	0.439773
658.740612	0.441379
659.082465	0.437468
659.424266	0.438312
659.766016	0.437202
660.107715	0.440013
660.449362	0.439148
660.790958	0.439909
661.132503	0.439651
661.473996	0.438213
661.815438	0.438577
662.156829	0.438890
662.498168	0.439679
662.839456	0.440434
663.180693	0.438899
663.521879	0.438512
663.863013	0.439916
664.204097	0.438441
664.545129	0.434604
664.886110	0.435728
665.227040	0.432634
665.567918	0.435954
665.908746	0.433303
666.249522	0.433133
666.590248	0.434163
666.930922	0.432481
667.271545	0.431606
667.612118	0.431198
667.952639	0.433011
668.293109	0.431350
668.633528	0.434319
668.973896	0.434713
669.314213	0.435146
669.654480	0.436409
669.994695	0.436540
670.334859	0.437768
670.674973	0.437595
671.015035	0.437986
671.355047	0.437475
671.695008	0.438936
672.034918	0.440289
672.374777	0.439994
672.714585	0.441408
673.054342	0.441174
673.394049	0.441069
673.733705	0.438928
674.073310	0.439718
674.412864	0.443422
674.752368	0.443555
675.091820	0.443883
675.431223	0.448600
675.770574	0.448036
676.109875	0.451192
676.449125	0.451308
676.788324	0.453347
677.127473	0.458849
677.466571	0.458712
677.805619	0.460273
678.144616	0.461190
678.483562	0.462693
678.822458	0.465226
679.161303	0.466692
679.500098	0.466769
679.838842	0.468580
680.177535	0.468005
680.516179	0.466971
680.854771	0.465502
681.193314	0.459316
681.531805	0.450117
681.870247	0.438935
682.208638	0.431422
682.546978	0.430504
682.885268	0.432240
683.223508	0.438989
683.561697	0.442388
683.899836	0.445027
684.237925	0.448763
684.575963	0.450483
684.913951	0.453757
685.251889	0.449594
685.589776	0.451849
685.927614	0.453862
686.265401	0.448016
686.603137	0.449938
686.940824	0.443755
687.278460	0.442303
687.616046	0.441291
687.953582	0.436255
688.291068	0.437384
688.628504	0.433757
688.965889	0.435600
689.303224	0.439303
689.640510	0.443448
689.977745	0.449509
690.314930	0.457296
690.652065	0.461699
690.989150	0.469321
691.326185	0.475701
691.663170	0.480475
692.000105	0.487516
692.336990	0.494483
692.673825	0.497029
693.010610	0.503657
693.347345	0.509406
693.684030	0.510362
694.020665	0.514959
694.357251	0.524570
694.693786	0.524405
695.030272	0.528338
695.366707	0.531436
695.703093	0.535353
696.039429	0.533011
696.375716	0.534087
696.711952	0.537011
697.048139	0.538873
697.384276	0.540877
697.720363	0.539131
698.056400	0.538352
698.392388	0.543791
698.728326	0.547416
699.064214	0.549975
699.400053	0.550450
699.735842	0.554288
700.071581	0.556937
700.407270	0.559487
700.742910	0.561728
701.078501	0.568500
701.414042	0.568884
701.749533	0.572161
702.084974	0.580265
702.420366	0.573370
702.755709	0.580997
703.091002	0.588329
703.426246	0.581509
703.761440	0.587496
704.096584	0.593029
704.431679	0.590178
704.766725	0.592119
705.101721	0.593661
705.436668	0.589547
705.771565	0.596393
706.106413	0.593361
706.441212	0.588693
706.775961	0.587537
707.110661	0.590085
707.445311	0.586344
707.779913	0.583353
708.114465	0.581752
708.448967	0.578429
708.783421	0.570776
709.117825	0.565617
709.452180	0.565700
709.786485	0.559559
710.120742	0.549115
710.454949	0.551044
710.789107	0.543545
711.123216	0.534863
711.457275	0.536252
711.791286	0.526395
712.125247	0.526393
712.459159	0.536565
712.793023	0.529482
713.126837	0.533688
713.460602	0.534420
713.794318	0.543398
714.127985	0.542216
714.461602	0.552126
714.795171	0.555212
715.128691	0.562756
715.462162	0.570289
715.795584	0.576786
716.128957	0.578932
716.462281	0.585670
716.795556	0.589579
717.128782	0.593846
717.461960	0.603334
717.795088	0.601979
718.128167	0.608244
718.461198	0.616892
718.794180	0.617648
719.127113	0.620371
719.459997	0.624069
719.792833	0.629670
720.125619	0.630939
720.458357	0.637132
720.791046	0.636963
721.123686	0.640392
721.456278	0.646995
721.788821	0.644194
722.121315	0.647968
722.453761	0.653004
722.786158	0.650513
723.118506	0.646640
723.450805	0.655133
723.783056	0.651363
724.115259	0.647722
724.447412	0.647893
724.779518	0.649846
725.111574	0.647747
725.443582	0.644652
725.775542	0.645395
726.107453	0.637066
726.439315	0.638281
726.771129	0.635783
727.102895	0.630000
727.434612	0.622720
727.766281	0.620547
728.097901	0.619745
728.429473	0.620261
728.760996	0.618025
729.092471	0.618194
729.423897	0.621756
729.755276	0.621216
730.086606	0.620769
730.417887	0.615619
730.749120	0.606385
731.080305	0.597643
731.411442	0.593365
731.742530	0.598911
732.073570	0.597876
732.404562	0.590171
732.735506	0.591203
733.066401	0.596350
733.397249	0.604680
733.728048	0.616959
734.058798	0.628734
734.389501	0.639333
734.720156	0.649395
735.050762	0.657272
735.381320	0.657751
735.711831	0.666950
736.042293	0.672205
736.372707	0.668222
736.703073	0.671966
737.033391	0.674658
737.363661	0.671012
737.693883	0.667260
738.024056	0.665140
738.354182	0.666253
738.684260	0.655584
739.014290	0.651403
739.344272	0.652694
739.674207	0.646449
740.004093	0.645491
740.333931	0.646115
740.663722	0.646071
740.993464	0.646611
741.323159	0.649774
741.652806	0.654965
741.982405	0.659229
742.311956	0.664641
742.641460	0.666993
742.970915	0.670135
743.300323	0.677421
743.629683	0.684293
743.958996	0.686540
744.288260	0.690145
744.617477	0.696661
744.946647	0.698128
745.275768	0.704090
745.604842	0.702831
745.933869	0.713610
746.262847	0.713031
746.591778	0.708012
746.920662	0.712793
747.249498	0.719149
747.578286	0.711017
747.907027	0.707525
748.235720	0.708103
748.564365	0.702382
748.892963	0.702468
749.221514	0.706427
749.550017	0.710285
749.878473	0.710641
750.206881	0.716758
750.535242	0.718576
750.863555	0.718289
751.191821	0.718589
751.520039	0.721891
751.848210	0.727592
752.176334	0.718985
752.504411	0.718781
752.832440	0.727007
753.160421	0.731084
753.488356	0.728475
753.816243	0.726324
754.144082	0.734835
754.471875	0.738539
754.799620	0.734020
755.127318	0.735141
755.454969	0.734946
755.782572	0.733782
756.110129	0.739220
756.437638	0.741918
756.765100	0.738570
757.092515	0.736493
757.419882	0.735539
757.747203	0.740797
758.074477	0.739443
758.401703	0.737328
758.728882	0.731700
759.056014	0.731422
759.383099	0.729500
759.710138	0.731683
760.037129	0.727752
760.364073	0.722220
760.690970	0.724361
761.017820	0.729609
761.344623	0.725474
761.671379	0.716539
761.998088	0.704749
762.324751	0.682671
762.651366	0.640664
762.977935	0.574888
763.304456	0.523240
763.630931	0.513934
763.957359	0.552624
764.283740	0.596091
764.610074	0.623917
764.936362	0.654194
765.262602	0.680533
765.588796	0.701718
765.914943	0.720386
766.241044	0.737216
766.567097	0.744467
766.893104	0.753407
767.219064	0.759739
767.544978	0.766660
767.870845	0.780003
768.196665	0.783034
768.522438	0.782769
768.848165	0.783425
769.173846	0.791735
769.499479	0.797036
769.825066	0.799237
770.150607	0.804720
770.476101	0.800066
770.801548	0.801740
771.126949	0.812511
771.452303	0.816033
771.777611	0.815141
772.102872	0.814271
772.428087	0.819001
772.753256	0.823029
773.078378	0.824997
773.403453	0.833521
773.728482	0.838577
774.053465	0.831856
774.378401	0.835257
774.703291	0.843306
775.028135	0.842954
775.352932	0.844560
775.677683	0.847507
776.002388	0.847592
776.327046	0.847544
776.651658	0.851141
776.976224	0.853664
777.300743	0.853444
777.625216	0.856454
777.949643	0.858932
778.274024	0.858452
778.598359	0.859425
778.922647	0.858987
779.246889	0.859215
779.571086	0.863338
779.895236	0.864919
780.219339	0.863215
780.543397	0.859067
780.867409	0.858118
781.191374	0.859308
781.515294	0.861832
781.839167	0.860407
782.162995	0.864046
782.486776	0.860499
782.810511	0.861305
783.134201	0.864202
783.457844	0.863205
783.781441	0.865875
784.104993	0.871642
784.428498	0.873122
784.751958	0.867737
785.075372	0.869848
785.398739	0.873277
785.722061	0.869912
786.045337	0.865620
786.368568	0.870497
786.691752	0.873735
787.014891	0.859580
787.337983	0.849488
787.661030	0.842787
787.984031	0.825037
788.306987	0.812589
788.629897	0.814435
788.952760	0.819167
789.275579	0.824128
789.598351	0.837812
789.921078	0.851924
790.243759	0.853248
790.566395	0.858660
790.888984	0.865165
791.211529	0.870594
791.534027	0.872897
791.856480	0.875086
792.178888	0.880234
792.501249	0.882921
792.823566	0.883739
793.145836	0.884612
793.468062	0.886556
793.790241	0.885477
794.112375	0.885122
794.434464	0.879095
794.756507	0.879839
795.078505	0.878840
795.400457	0.874125
795.722364	0.861870
796.044226	0.854046
796.366042	0.854676
796.687812	0.857043
797.009538	0.853410
797.331218	0.856493
797.652852	0.861170
797.974442	0.866186
798.295986	0.865935
798.617484	0.868699
798.938938	0.873285
799.260346	0.877262
799.581709	0.878928
799.903026	0.882326
800.224299	0.881504
800.545526	0.886355
800.866708	0.889816
801.187845	0.894466
801.508936	0.892904
801.829983	0.891903
802.150984	0.893963
802.471940	0.899272
802.792851	0.898992
803.113717	0.899908
803.434538	0.897281
803.755314	0.900215
804.076045	0.900805
804.396731	0.901032
804.717372	0.901493
805.037967	0.902850
805.358518	0.901073
805.679024	0.897958
805.999485	0.898386
806.319901	0.899123
806.640272	0.899868
806.960598	0.898359
807.280879	0.895020
807.601115	0.893055
807.921306	0.897243
808.241453	0.896751
808.561554	0.895202
808.881611	0.895033
809.201623	0.898492
809.521590	0.897677
809.841513	0.898180
810.161390	0.898542
810.481223	0.899779
810.801011	0.902703
811.120755	0.903854
811.440453	0.903579
811.760107	0.902421
812.079716	0.902320
812.399281	0.905967
812.718801	0.907906
813.038276	0.908365
813.357707	0.908096
813.677093	0.905194
813.996434	0.908430
814.315731	0.908610
814.634983	0.912447
814.954191	0.909246
815.273354	0.906259
815.592473	0.902858
815.911547	0.903150
816.230577	0.900363
816.549562	0.896773
816.868502	0.898292
817.187399	0.894464
817.506250	0.890566
817.825058	0.891438
818.143821	0.889111
818.462539	0.883575
818.781213	0.875986
819.099843	0.863599
819.418429	0.848805
819.736970	0.832098
820.055466	0.812916
820.373919	0.787665
820.692327	0.755902
821.010691	0.721559
821.329011	0.645783
821.647286	0.531799
821.965517	0.419828
822.283704	0.377772
822.601847	0.379180
822.919945	0.414841
823.237999	0.447352
823.556010	0.493476
823.873976	0.548696
824.191897	0.597921
824.509775	0.639629
824.827609	0.685010
825.145398	0.706674
825.463144	0.709442
825.780845	0.692353
826.098502	0.674358
826.416116	0.629406
826.733685	0.586569
827.051210	0.578442
827.368692	0.592297
827.686129	0.629580
828.003522	0.681270
828.320872	0.728299
828.638177	0.770798
828.955439	0.803077
829.272656	0.824331
829.589830	0.840867
829.906960	0.856381
830.224046	0.869773
830.541088	0.879716
830.858086	0.883730
831.175041	0.890009
831.491952	0.888781
831.808819	0.885573
832.125642	0.879168
832.442421	0.864679
832.759157	0.842950
833.075849	0.797731
833.392497	0.735120
833.709101	0.694314
834.025662	0.704663
834.342179	0.735524
834.658653	0.773800
834.975083	0.810134
835.291469	0.835595
835.607811	0.857124
835.924110	0.872197
836.240366	0.889890
836.556578	0.903177
836.872746	0.910371
837.188871	0.916260
837.504952	0.922159
837.820990	0.925024
838.136984	0.928980
838.452935	0.930085
838.768842	0.933346
839.084706	0.926719
839.400526	0.901282
839.716303	0.861285
840.032037	0.840022
840.347727	0.843428
840.663373	0.861094
840.978977	0.881898
841.294537	0.904527
841.610054	0.921023
841.925527	0.928415
842.240957	0.934631
842.556344	0.940569
842.871687	0.947029
843.186987	0.951576
843.502244	0.951805
843.817458	0.953001
844.132629	0.956294
844.447756	0.960528
844.762840	0.960965
845.077881	0.960096
845.392879	0.959533
845.707833	0.963415
846.022745	0.965390
846.337613	0.966180
846.652438	0.966376
846.967221	0.965047
847.281960	0.966150
847.596656	0.968542
847.911309	0.966551
848.225919	0.968371
848.540485	0.969398
848.855009	0.969864
849.169490	0.969329
849.483928	0.970119
849.798323	0.969341
850.112675	0.970773
850.426984	0.970715
850.741251	0.969999
851.055474	0.970538
851.369654	0.967327
851.683792	0.970190
851.997887	0.970962
852.311938	0.972414
852.625947	0.971378
852.939914	0.969634
853.253837	0.970069
853.567718	0.970286
853.881555	0.971568
854.195350	0.968766
854.509103	0.970017
854.822812	0.971338
855.136479	0.969910
855.450103	0.969756
855.763685	0.968930
856.077224	0.969428
856.390720	0.970315
856.704173	0.971379
857.017584	0.968885
857.330953	0.968234
857.644278	0.968636
857.957561	0.969606
858.270802	0.968625
858.584000	0.969348
858.897155	0.967347
859.210268	0.968026
859.523339	0.968056
859.836367	0.970611
860.149352	0.972235
860.462295	0.968695
860.775195	0.971137
861.088054	0.970229
861.400869	0.970317
861.713642	0.971675
862.026373	0.971215
862.339062	0.971914
862.651708	0.967620
862.964312	0.969226
863.276873	0.969488
863.589392	0.968964
863.901869	0.967607
864.214303	0.967101
864.526696	0.965063
864.839045	0.964081
865.151353	0.963346
865.463619	0.963286
865.775842	0.962788
866.088023	0.963329
866.400162	0.962980
866.712258	0.963490
867.024313	0.963203
867.336325	0.964434
867.648296	0.964279
867.960224	0.963174
868.272110	0.962472
868.583954	0.964418
868.895755	0.964742
869.207515	0.961962
869.519233	0.960890
869.830909	0.961941
870.142542	0.963387
870.454134	0.963468
870.765684	0.961996
871.077191	0.959977
871.388657	0.960891
871.700081	0.959136
872.011463	0.960190
872.322803	0.960217
872.634101	0.958370
872.945357	0.956175
873.256571	0.953904
873.567744	0.954881
873.878874	0.954819
874.189963	0.953306
874.501010	0.953125
874.812015	0.950841
875.122979	0.952288
875.433900	0.954996
875.744780	0.955170
876.055618	0.953414
876.366415	0.950412
876.677169	0.952086
876.987882	0.953431
877.298554	0.952502
877.609183	0.949051
877.919771	0.946982
878.230317	0.944175
878.540822	0.942325
878.851285	0.937429
879.161707	0.929959
879.472087	0.919114
879.782425	0.902274
880.092722	0.869494
880.402977	0.818678
880.713191	0.760396
881.023363	0.703534
881.333494	0.670041
881.643583	0.642601
881.953631	0.642602
882.263637	0.670791
882.573602	0.709843
882.883526	0.735035
883.193408	0.756530
883.503248	0.778147
883.813048	0.804983
884.122806	0.833758
884.432522	0.856071
884.742197	0.875911
885.051831	0.885687
885.361424	0.895227
885.670975	0.906326
885.980485	0.915893
886.289954	0.922535
886.599382	0.927094
886.908768	0.932214
887.218113	0.936975
887.527417	0.942044
887.836680	0.944227
888.145901	0.945524
888.455082	0.948170
888.764221	0.952629
889.073319	0.954678
889.382376	0.954685
889.691392	0.955142
890.000366	0.953569
890.309300	0.955653
890.618193	0.955261
890.927044	0.953064
891.235855	0.954150
891.544625	0.953768
891.853353	0.954418
892.162041	0.951115
892.470687	0.943929
892.779293	0.940017
893.087858	0.936051
893.396381	0.929431
893.704864	0.916381
894.013306	0.893239
894.321707	0.868227
894.630068	0.854816
894.938387	0.849441
895.246665	0.850867
895.554903	0.862205
895.863100	0.875325
896.171256	0.891620
896.479371	0.909908
896.787446	0.923630
897.095480	0.928332
897.403473	0.931630
897.711425	0.934335
898.019336	0.942245
898.327207	0.945225
898.635038	0.948068
898.942827	0.947739
899.250576	0.949450
899.558284	0.954471
899.865952	0.955662
900.173579	0.957051
900.481165	0.957276
900.788711	0.961872
901.096216	0.962443
901.403681	0.963063
901.711105	0.964503
902.018489	0.964898
902.325832	0.964549
902.633135	0.963306
902.940397	0.957280
903.247619	0.945978
903.554800	0.921219
903.861941	0.883630
904.169041	0.850463
904.476101	0.834578
904.783121	0.834962
905.090100	0.850772
905.397039	0.870231
905.703938	0.891777
906.010796	0.909869
906.317614	0.926834
906.624391	0.936718
906.931129	0.946384
907.237826	0.953306
907.544483	0.961923
907.851099	0.964383
908.157675	0.969195
908.464211	0.971573
908.770707	0.973863
909.077163	0.975381
909.383578	0.975722
909.689954	0.975379
909.996289	0.975761
910.302584	0.977235
910.608839	0.980058
910.915054	0.979299
911.221229	0.979502
911.527363	0.978697
911.833458	0.978520
912.139513	0.978822
912.445527	0.976170
912.751502	0.974777
913.057436	0.973827
913.363331	0.971757
913.669186	0.967756
913.975000	0.963183
914.280775	0.958050
914.586510	0.951631
914.892205	0.938958
915.197859	0.919221
915.503475	0.891786
915.809050	0.873347
916.114585	0.869224
916.420081	0.867468
916.725536	0.863436
917.030952	0.870552
917.336328	0.883816
917.641665	0.896937
917.946961	0.912470
918.252218	0.923230
918.557435	0.931557
918.862612	0.939693
919.167750	0.946358
919.472848	0.949260
919.777906	0.955327
920.082925	0.961087
920.387904	0.963074
920.692843	0.964587
920.997743	0.965292
921.302603	0.969450
921.607423	0.970645
921.912204	0.973040
922.216946	0.973620
922.521647	0.974358
922.826310	0.975866
923.130932	0.977466
923.435516	0.979531
923.740059	0.981215
924.044564	0.979506
924.349028	0.982678
924.653454	0.983718
924.957840	0.985474
925.262186	0.985258
925.566493	0.984384
925.870761	0.985297
926.174989	0.986536
926.479178	0.988902
926.783328	0.988935
927.087438	0.988877
927.391509	0.987411
927.695541	0.989907
927.999533	0.989901
928.303486	0.990391
928.607400	0.991403
928.911275	0.990540
929.215110	0.990366
929.518906	0.990707
929.822663	0.989568
930.126381	0.992006
930.430060	0.990874
930.733699	0.990307
931.037299	0.989269
931.340861	0.992059
931.644383	0.990577
931.947866	0.989233
932.251309	0.991243
932.554714	0.989470
932.858080	0.991507
933.161407	0.991577
933.464694	0.992118
933.767943	0.990025
934.071153	0.991530
934.374323	0.992637
934.677455	0.990634
934.980548	0.993068
935.283602	0.991086
935.586617	0.992170
935.889593	0.989840
936.192530	0.991185
936.495428	0.991100
936.798287	0.990844
937.101108	0.991634
937.403890	0.989799
937.706632	0.989231
938.009336	0.988503
938.312002	0.986083
938.614628	0.985222
938.917216	0.983923
939.219765	0.982683
939.522275	0.984750
939.824747	0.983618
940.127179	0.984442
940.429573	0.985013
940.731929	0.986045
941.034246	0.984227
941.336524	0.986954
941.638763	0.986217
941.940964	0.986471
942.243126	0.986548
942.545250	0.987867
942.847335	0.988178
943.149381	0.988786
943.451389	0.989056
943.753359	0.989114
944.055290	0.991105
944.357182	0.990502
944.659036	0.989654
944.960851	0.989721
945.262628	0.989818
945.564367	0.991022
945.866067	0.990013
946.167729	0.990482
946.469352	0.990435
946.770937	0.989144
947.072484	0.990378
947.373992	0.990618
947.675462	0.990626
947.976893	0.989489
948.278286	0.990901
948.579641	0.991657
948.880958	0.990866
949.182236	0.990611
949.483476	0.991927
949.784678	0.991108
950.085841	0.991864
950.386967	0.990919
950.688054	0.992263
950.989103	0.991203
951.290114	0.989952
951.591087	0.990280
951.892021	0.990989
952.192917	0.990755
952.493776	0.988771
952.794596	0.988798
953.095378	0.988173
953.396122	0.988674
953.696828	0.987507
953.997496	0.990651
954.298126	0.992259
954.598718	0.990082
954.899272	0.991798
955.199788	0.990704
955.500266	0.992502
955.800706	0.993461
956.101108	0.993884
956.401472	0.994171
956.701798	0.993665
957.002087	0.993532
957.302337	0.993859
957.602550	0.995940
957.902724	0.994805
958.202861	0.995562
958.502960	0.995101
958.803022	0.993842
959.103045	0.995821
959.403031	0.996092
959.702979	0.994663
960.002889	0.996010
960.302762	0.994289
960.602596	0.995567
960.902393	0.995318
961.202153	0.996373
961.501875	0.996915
961.801559	0.995753
962.101205	0.995130
962.400814	0.995848
962.700385	0.996926
962.999918	0.995717
963.299414	0.995797
963.598873	0.995461
963.898293	0.995311
964.197677	0.995759
964.497022	0.996834
964.796331	0.996988
965.095601	0.996705
965.394835	0.996449
965.694030	0.996148
965.993189	0.997787
966.292309	0.996961
966.591393	0.997549
966.890439	0.998439
967.189447	0.996227
967.488419	0.997455
967.787353	0.996654
968.086249	0.996326
968.385108	0.997193
968.683930	0.997985
968.982714	0.996475
969.281462	0.997323
969.580172	0.997483
969.878844	0.995745
970.177480	0.997317
970.476078	0.997285
970.774639	0.996773
971.073162	0.996787
971.371649	0.996545
971.670098	0.996762
971.968510	0.996594
972.266885	0.994616
972.565223	0.996371
972.863524	0.995071
973.161788	0.996275
973.460014	0.997738
973.758204	0.996279
974.056356	0.997072
974.354471	0.994191
974.652550	0.996151
974.950591	0.996223
975.248595	0.996957
975.546563	0.996269
975.844493	0.998423
976.142386	0.996917
976.440243	0.997338
976.738062	0.996764
977.035845	0.997592
977.333590	0.996648
977.631299	0.997435
977.928971	0.997948
978.226606	0.996444
978.524204	0.996162
978.821765	0.997049
979.119290	0.996712
979.416777	0.996580
979.714228	0.996837
980.011642	0.995460
980.309020	0.997243
980.606360	0.997309
980.903664	0.998341
981.200931	0.996237
981.498162	0.995143
981.795356	0.996032
982.092513	0.994365
982.389633	0.994447
982.686717	0.991944
982.983764	0.992003
983.280775	0.990880
983.577749	0.990611
983.874686	0.992359
984.171587	0.990956
984.468451	0.995349
984.765279	0.994186
985.062070	0.994688
985.358824	0.994963
985.655543	0.994412
985.952224	0.995337
986.248869	0.997109
986.545478	0.996969
986.842050	0.997683
987.138586	0.995890
987.435086	0.997356
987.731549	0.999405
988.027975	0.998124
988.324366	0.997269
988.620719	0.997381
988.917037	0.996551
989.213318	0.997613
989.509563	0.999762
989.805772	0.997999
990.101944	0.998011
990.398080	0.997246
990.694180	0.997719
990.990244	0.997567
991.286271	0.997187
991.582262	0.998626
991.878217	0.997386
992.174136	0.998959
992.470019	0.997041
992.765865	0.998013
993.061676	0.998632
993.357450	0.997713
993.653188	0.996560
993.948890	0.997284
994.244556	0.996783
994.540186	0.996910
994.835780	0.996723
995.131337	0.996702
995.426859	0.996766
995.722345	0.997660
996.017795	0.996830
996.313208	0.996637
996.608586	0.996339
996.903928	0.997402
997.199234	0.996083
997.494504	0.997109
997.789738	0.996689
998.084936	0.996878
998.380099	0.997493
998.675225	0.996372
998.970316	0.998341
999.265371	0.998006
999.560390	0.996815
999.855373	0.998307
1000.150320	0.997702
1000.445232	0.998640
1000.740108	0.998378
1001.034948	0.998075
1001.329752	0.999037
1001.624521	0.998845
1001.919254	0.997893
1002.213951	0.998601
1002.508613	0.996983
1002.803239	0.998402
1003.097829	0.998864
1003.392384	0.998957
1003.686903	0.998210
1003.981386	0.998604
1004.275834	0.998873
1004.570246	0.998565
1004.864623	0.997482
1005.158964	0.999113
1005.453270	0.998183
1005.747540	0.997861
1006.041775	0.998602
1006.335974	0.998397
1006.630138	0.998328
1006.924266	0.999522
1007.218359	1.000255
1007.512416	0.999215
1007.806438	0.998999
1008.100425	0.999703
1008.394376	0.998721
1008.688292	0.998596
1008.982172	0.999519
1009.276017	0.998181
1009.569827	0.997772
1009.863602	0.998266
1010.157341	0.998564
1010.451045	0.999185
1010.744714	0.998720
1011.038347	0.997990
1011.331945	0.999199
1011.625508	0.998432
1011.919036	0.999007
1012.212528	0.998851
1012.505986	0.997179
1012.799408	0.998843
1013.092795	0.998620
1013.386147	1.000012
1013.679464	0.998202
1013.972745	0.998324
1014.265992	0.997000
1014.559204	0.997749
1014.852380	0.999063
1015.145521	0.998177
1015.438628	0.998823
1015.731699	0.999214
1016.024736	0.998634
1016.317737	0.998450
1016.610703	0.997446
1016.903635	0.999181
1017.196531	0.997887
1017.489393	0.999955
1017.782219	0.998614
1018.075011	0.998609
1018.367768	0.998901
1018.660490	1.000070
1018.953177	1.000070
1019.245829	1.000070
