Dividing Wavelength (nm)	Counts (n)	Blue Motor Position (mm): 0.000000	Red Motor Position (mm): 30.400000	
326.493990	1.000925
326.888308	1.000925
327.282561	1.000925
327.676750	0.998510
328.070874	0.999317
328.464933	0.999960
328.858929	0.998593
329.252859	0.999127
329.646726	0.999924
330.040528	0.999930
330.434265	0.999631
330.827938	1.000453
331.221547	0.998976
331.615091	1.000475
332.008571	1.000568
332.401986	1.000323
332.795338	1.001203
333.188625	0.999226
333.581847	0.999665
333.975006	0.999206
334.368100	0.999203
334.761129	0.999017
335.154095	1.000719
335.546996	0.998204
335.939833	0.995532
336.332606	0.994693
336.725315	0.996560
337.117960	0.997067
337.510540	0.995268
337.903056	0.996280
338.295508	0.994907
338.687896	0.995375
339.080220	0.995647
339.472480	0.995407
339.864676	0.994577
340.256807	0.995655
340.648875	0.996091
341.040879	0.995037
341.432818	0.995035
341.824694	0.995940
342.216506	0.996061
342.608253	0.995470
342.999937	0.994702
343.391557	0.996155
343.783113	0.994684
344.174605	0.995845
344.566033	0.996024
344.957397	0.994792
345.348697	0.995399
345.739934	0.995868
346.131106	0.995500
346.522215	0.994342
346.913260	0.995452
347.304241	0.995417
347.695159	0.995380
348.086012	0.995751
348.476802	0.995640
348.867528	0.996327
349.258191	0.994258
349.648789	0.996940
350.039324	0.995675
350.429796	0.995784
350.820203	0.995330
351.210548	0.995563
351.600828	0.995060
351.991045	0.995266
352.381198	0.995102
352.771288	0.995148
353.161314	0.995412
353.551276	0.997051
353.941175	0.995966
354.331010	0.994873
354.720782	0.995751
355.110490	0.994539
355.500135	0.995593
355.889717	0.995253
356.279235	0.994164
356.668689	0.995266
357.058080	0.995835
357.447408	0.996721
357.836672	0.996023
358.225873	0.996024
358.615010	0.995831
359.004084	0.997539
359.393095	0.996309
359.782043	0.995095
360.170927	0.996987
360.559748	0.996693
360.948505	0.995370
361.337199	0.995710
361.725830	0.995552
362.114398	0.995631
362.502903	0.996006
362.891344	0.996697
363.279722	0.995760
363.668037	0.996264
364.056289	0.995156
364.444478	0.996386
364.832603	0.995962
365.220665	0.996316
365.608665	0.995341
365.996601	0.994691
366.384474	0.995631
366.772284	0.996518
367.160031	0.994019
367.547715	0.994382
367.935336	0.995557
368.322893	0.995299
368.710388	0.993995
369.097820	0.995372
369.485189	0.995355
369.872495	0.995492
370.259738	0.994176
370.646918	0.995943
371.034035	0.996465
371.421090	0.996592
371.808081	0.994796
372.195010	0.996063
372.581875	0.995736
372.968678	0.995940
373.355418	0.995669
373.742096	0.996328
374.128710	0.996972
374.515262	0.995490
374.901751	0.996808
375.288177	0.996035
375.674540	0.997102
376.060841	0.995181
376.447079	0.996026
376.833254	0.995927
377.219367	0.996802
377.605417	0.996627
377.991404	0.996511
378.377329	0.996141
378.763191	0.996628
379.148991	0.996575
379.534727	0.996195
379.920402	0.997189
380.306013	0.996325
380.691563	0.996725
381.077049	0.996644
381.462474	0.997231
381.847835	0.997180
382.233134	0.996761
382.618371	0.997678
383.003545	0.996886
383.388657	0.996166
383.773706	0.996920
384.158693	0.997464
384.543618	0.996886
384.928480	0.997603
385.313280	0.996846
385.698017	0.997769
386.082692	0.997657
386.467305	0.997010
386.851856	0.996876
387.236344	0.997200
387.620770	0.996585
388.005133	0.997650
388.389435	0.998397
388.773674	0.997013
389.157851	0.997606
389.541965	0.997571
389.926018	0.997040
390.310008	0.998875
390.693936	0.997869
391.077802	0.997085
391.461606	0.998411
391.845348	0.997533
392.229027	0.998417
392.612645	0.998270
392.996200	0.999201
393.379694	0.996819
393.763125	0.999326
394.146494	0.998405
394.529801	0.997215
394.913047	0.997582
395.296230	0.998122
395.679351	0.997450
396.062410	0.998346
396.445408	0.998075
396.828343	0.998463
397.211217	0.997814
397.594028	0.997849
397.976778	0.997282
398.359466	0.997415
398.742092	0.997773
399.124656	0.998017
399.507158	0.997964
399.889598	0.996716
400.271977	0.997869
400.654294	0.997895
401.036549	0.998101
401.418742	0.997942
401.800874	0.996415
402.182944	0.998052
402.564952	0.997206
402.946898	0.999211
403.328783	0.998146
403.710606	0.998588
404.092367	0.998161
404.474067	0.999053
404.855705	0.997995
405.237282	0.997558
405.618797	0.997569
406.000250	0.997758
406.381642	0.998964
406.762972	0.998375
407.144240	0.999225
407.525447	0.997617
407.906593	0.998721
408.287677	0.998979
408.668700	0.998459
409.049661	0.996073
409.430560	0.997690
409.811399	0.997683
410.192176	0.998487
410.572891	0.998120
410.953545	0.998045
411.334138	0.996890
411.714669	0.997842
412.095139	0.998912
412.475547	0.998901
412.855894	0.999049
413.236180	0.998851
413.616405	0.998058
413.996568	0.998452
414.376670	0.998692
414.756711	0.997791
415.136691	0.998127
415.516609	0.998605
415.896466	0.997348
416.276262	0.996685
416.655997	0.998603
417.035670	0.997259
417.415283	0.998387
417.794834	0.998742
418.174324	0.998042
418.553753	0.999319
418.933121	0.997999
419.312428	0.999105
419.691674	0.998127
420.070859	0.998559
420.449983	0.998961
420.829045	0.998321
421.208047	0.998983
421.586988	0.999372
421.965867	0.998039
422.344686	0.998392
422.723444	0.998723
423.102141	0.998407
423.480777	0.998653
423.859352	0.998435
424.237866	0.997847
424.616319	0.998766
424.994712	0.998862
425.373044	0.998358
425.751314	0.999222
426.129524	0.997941
426.507673	0.998228
426.885762	0.998754
427.263789	0.998935
427.641756	0.998918
428.019662	0.998676
428.397508	0.997746
428.775292	0.997670
429.153016	0.998529
429.530679	0.999054
429.908282	0.999221
430.285824	0.997991
430.663305	0.998946
431.040726	0.997802
431.418086	0.999382
431.795385	0.998633
432.172624	0.998500
432.549802	0.998845
432.926920	0.998856
433.303977	0.997311
433.680974	0.998677
434.057910	0.998257
434.434786	0.998891
434.811601	0.998554
435.188355	0.998088
435.565050	0.997563
435.941683	0.998215
436.318257	0.999391
436.694770	0.997896
437.071222	0.998625
437.447614	0.998473
437.823946	0.999062
438.200218	0.998199
438.576429	0.998736
438.952580	0.998959
439.328670	0.998604
439.704700	0.998714
440.080670	0.998383
440.456580	0.998552
440.832429	0.997876
441.208218	0.998994
441.583947	0.998275
441.959616	0.998453
442.335224	0.997472
442.710773	0.999166
443.086261	0.997942
443.461689	0.997828
443.837057	0.998031
444.212365	0.998413
444.587612	0.998854
444.962800	0.998613
445.337927	0.998818
445.712995	0.997866
446.088002	0.999591
446.462949	0.998687
446.837837	0.998528
447.212664	0.999279
447.587431	0.999431
447.962139	0.998502
448.336786	0.998743
448.711374	0.999173
449.085901	0.998460
449.460369	0.998830
449.834776	0.997826
450.209124	0.999133
450.583412	0.998412
450.957640	0.998689
451.331808	0.997842
451.705917	0.999342
452.079965	0.998026
452.453954	0.998693
452.827883	0.998527
453.201752	0.998635
453.575562	0.998918
453.949311	0.998871
454.323001	0.998416
454.696632	0.998219
455.070202	0.998591
455.443713	0.997798
455.817164	0.998712
456.190556	0.998229
456.563888	0.998278
456.937160	0.998906
457.310373	0.998193
457.683526	0.998213
458.056619	0.997825
458.429653	0.998409
458.802628	0.997697
459.175542	0.997477
459.548398	0.997816
459.921194	0.998141
460.293930	0.997803
460.666607	0.997376
461.039224	0.997008
461.411782	0.997798
461.784280	0.997205
462.156719	0.998276
462.529099	0.998057
462.901419	0.997839
463.273680	0.997415
463.645882	0.996729
464.018024	0.997173
464.390106	0.996957
464.762130	0.997280
465.134094	0.996014
465.505999	0.995955
465.877845	0.995557
466.249631	0.995109
466.621358	0.994413
466.993026	0.994240
467.364634	0.993976
467.736184	0.993494
468.107674	0.992180
468.479105	0.992085
468.850477	0.991926
469.221790	0.990642
469.593043	0.990380
469.964238	0.990335
470.335373	0.988633
470.706449	0.988196
471.077467	0.987675
471.448425	0.985160
471.819324	0.984677
472.190164	0.982635
472.560945	0.983170
472.931667	0.981032
473.302330	0.980384
473.672934	0.980173
474.043479	0.977159
474.413965	0.976904
474.784393	0.974979
475.154761	0.973064
475.525070	0.970727
475.895321	0.970886
476.265513	0.967897
476.635645	0.966500
477.005719	0.964101
477.375734	0.962163
477.745691	0.960368
478.115588	0.957605
478.485427	0.954762
478.855207	0.950692
479.224928	0.944886
479.594591	0.941903
479.964194	0.939848
480.333739	0.938301
480.703226	0.934636
481.072653	0.932555
481.442022	0.927147
481.811333	0.922620
482.180584	0.920738
482.549777	0.916566
482.918912	0.914220
483.287988	0.909974
483.657005	0.905468
484.025964	0.902942
484.394864	0.898162
484.763706	0.894129
485.132489	0.891311
485.501213	0.886351
485.869879	0.881716
486.238487	0.877133
486.607036	0.872831
486.975527	0.867118
487.343959	0.862066
487.712333	0.856741
488.080648	0.851841
488.448905	0.845203
488.817104	0.841285
489.185244	0.834416
489.553326	0.826996
489.921350	0.817329
490.289315	0.804113
490.657222	0.797636
491.025070	0.791648
491.392861	0.786527
491.760593	0.783923
492.128267	0.779450
492.495883	0.774581
492.863440	0.770281
493.230939	0.765320
493.598380	0.758264
493.965763	0.751420
494.333088	0.747426
494.700354	0.739420
495.067563	0.734481
495.434713	0.727387
495.801805	0.720632
496.168839	0.713939
496.535815	0.706238
496.902733	0.700528
497.269593	0.692833
497.636395	0.686383
498.003139	0.677648
498.369825	0.673491
498.736453	0.664049
499.103023	0.657285
499.469535	0.650172
499.835989	0.644258
500.202385	0.637428
500.568723	0.631811
500.935003	0.623702
501.301226	0.616340
501.667390	0.608273
502.033497	0.600416
502.399546	0.595429
502.765537	0.588999
503.131470	0.580827
503.497345	0.571719
503.863163	0.570508
504.228923	0.558955
504.594625	0.552304
504.960269	0.548391
505.325856	0.538481
505.691385	0.534320
506.056856	0.525844
506.422270	0.518346
506.787625	0.514683
507.152924	0.505818
507.518164	0.500200
507.883347	0.494560
508.248472	0.489953
508.613540	0.480227
508.978550	0.475576
509.343503	0.469644
509.708398	0.462005
510.073236	0.454561
510.438016	0.448791
510.802738	0.443365
511.167403	0.437577
511.532010	0.432906
511.896561	0.424886
512.261053	0.418556
512.625488	0.414172
512.989866	0.409060
513.354186	0.404212
513.718449	0.400461
514.082655	0.392988
514.446803	0.389504
514.810894	0.383031
515.174927	0.379945
515.538904	0.375372
515.902822	0.367790
516.266684	0.365992
516.630488	0.362091
516.994235	0.357055
517.357925	0.351421
517.721558	0.346229
518.085133	0.341501
518.448651	0.338322
518.812112	0.336035
519.175516	0.331806
519.538863	0.326240
519.902152	0.324101
520.265385	0.317193
520.628560	0.316109
520.991678	0.312568
521.354739	0.308697
521.717743	0.306790
522.080690	0.304256
522.443580	0.298531
522.806413	0.296269
523.169189	0.293044
523.531908	0.289338
523.894569	0.290149
524.257174	0.287328
524.619722	0.282574
524.982213	0.281821
525.344647	0.278133
525.707025	0.276896
526.069345	0.272985
526.431608	0.272388
526.793815	0.268455
527.155964	0.270333
527.518057	0.267642
527.880093	0.266820
528.242072	0.263666
528.603995	0.264038
528.965860	0.264286
529.327669	0.261341
529.689421	0.260694
530.051117	0.260260
530.412755	0.256520
530.774337	0.257690
531.135862	0.256626
531.497331	0.254959
531.858743	0.256526
532.220098	0.252351
532.581396	0.253880
532.942638	0.253377
533.303824	0.253558
533.664953	0.252463
534.026025	0.253341
534.387040	0.250513
534.747999	0.249943
535.108902	0.247997
535.469748	0.252145
535.830537	0.249550
536.191270	0.249480
536.551947	0.248327
536.912567	0.247783
537.273131	0.249104
537.633638	0.248989
537.994089	0.248761
538.354483	0.249078
538.714821	0.245928
539.075103	0.245431
539.435328	0.245655
539.795497	0.249145
540.155609	0.245274
540.515665	0.243457
540.875665	0.248521
541.235609	0.247045
541.595496	0.246844
541.955328	0.242954
542.315102	0.245481
542.674821	0.246457
543.034483	0.245953
543.394090	0.245744
543.753640	0.247262
544.113134	0.242205
544.472571	0.245459
544.831953	0.241927
545.191278	0.245984
545.550548	0.245439
545.909761	0.242021
546.268918	0.242740
546.628019	0.240937
546.987064	0.243609
547.346053	0.245204
547.704986	0.242870
548.063863	0.243264
548.422684	0.243243
548.781449	0.245143
549.140158	0.242337
549.498811	0.245434
549.857408	0.248383
550.215949	0.243092
550.574434	0.246087
550.932864	0.244015
551.291237	0.242589
551.649555	0.243725
552.007817	0.243490
552.366022	0.244348
552.724173	0.244503
553.082267	0.244497
553.440305	0.241338
553.798288	0.246009
554.156215	0.242482
554.514086	0.243089
554.871902	0.246143
555.229661	0.245527
555.587365	0.245860
555.945014	0.248217
556.302606	0.245451
556.660143	0.247849
557.017625	0.244123
557.375050	0.246609
557.732421	0.243423
558.089735	0.245378
558.446994	0.245420
558.804197	0.244481
559.161345	0.244584
559.518437	0.247925
559.875474	0.245617
560.232455	0.245264
560.589381	0.246240
560.946251	0.246333
561.303065	0.243655
561.659825	0.245162
562.016528	0.246764
562.373177	0.249466
562.729770	0.246608
563.086307	0.248848
563.442789	0.247091
563.799216	0.249123
564.155587	0.248097
564.511904	0.249263
564.868164	0.249384
565.224370	0.249307
565.580520	0.251006
565.936615	0.250736
566.292654	0.253703
566.648638	0.250493
567.004567	0.251810
567.360441	0.252234
567.716260	0.254349
568.072023	0.252030
568.427732	0.252795
568.783385	0.255240
569.138982	0.253381
569.494525	0.252968
569.850013	0.255697
570.205445	0.254273
570.560823	0.256713
570.916145	0.258741
571.271412	0.256990
571.626625	0.258282
571.981782	0.259015
572.336884	0.259831
572.691931	0.259538
573.046923	0.260797
573.401860	0.261785
573.756743	0.263328
574.111570	0.262085
574.466342	0.262969
574.821059	0.262056
575.175722	0.264646
575.530330	0.264570
575.884882	0.265059
576.239380	0.266979
576.593823	0.267322
576.948211	0.266888
577.302544	0.270074
577.656823	0.269610
578.011047	0.269864
578.365216	0.270395
578.719330	0.272219
579.073389	0.272327
579.427394	0.273360
579.781344	0.274223
580.135239	0.275865
580.489080	0.275202
580.842866	0.278190
581.196597	0.278005
581.550273	0.277069
581.903895	0.277766
582.257463	0.275692
582.610975	0.279478
582.964434	0.278761
583.317837	0.281273
583.671186	0.281862
584.024481	0.281606
584.377721	0.283974
584.730906	0.284827
585.084037	0.283662
585.437113	0.285928
585.790135	0.285188
586.143103	0.288161
586.496016	0.289212
586.848874	0.286818
587.201679	0.287455
587.554428	0.290759
587.907124	0.289332
588.259765	0.290176
588.612352	0.290767
588.964884	0.294279
589.317362	0.293979
589.669786	0.294080
590.022155	0.292676
590.374470	0.292125
590.726731	0.294104
591.078937	0.298637
591.431090	0.294767
591.783188	0.299030
592.135232	0.299593
592.487222	0.299870
592.839157	0.297854
593.191038	0.299971
593.542866	0.301934
593.894639	0.305654
594.246358	0.303307
594.598022	0.303082
594.949633	0.306649
595.301190	0.307338
595.652692	0.306881
596.004141	0.302651
596.355535	0.310590
596.706876	0.311458
597.058162	0.313686
597.409395	0.310869
597.760573	0.308435
598.111698	0.311629
598.462768	0.312328
598.813785	0.313607
599.164748	0.314971
599.515657	0.314908
599.866511	0.318475
600.217312	0.313683
600.568060	0.319242
600.918753	0.315370
601.269392	0.316395
601.619978	0.319422
601.970510	0.317235
602.320988	0.317635
602.671412	0.315233
603.021783	0.317682
603.372100	0.319217
603.722363	0.319046
604.072572	0.319598
604.422728	0.319216
604.772830	0.321266
605.122878	0.321032
605.472872	0.321706
605.822813	0.319818
606.172701	0.322494
606.522534	0.319644
606.872314	0.319546
607.222041	0.320886
607.571714	0.319098
607.921333	0.320448
608.270899	0.319993
608.620411	0.317278
608.969870	0.320833
609.319276	0.320859
609.668627	0.320741
610.017926	0.319003
610.367171	0.317794
610.716362	0.318681
611.065500	0.318782
611.414585	0.317591
611.763616	0.318172
612.112594	0.318551
612.461518	0.317803
612.810389	0.315663
613.159207	0.318331
613.507971	0.319729
613.856682	0.315429
614.205340	0.317173
614.553945	0.313908
614.902496	0.318120
615.250994	0.315680
615.599439	0.317060
615.947830	0.316250
616.296169	0.317045
616.644454	0.316563
616.992686	0.316693
617.340864	0.314831
617.688990	0.318297
618.037063	0.314864
618.385082	0.316396
618.733048	0.313254
619.080961	0.315852
619.428821	0.315032
619.776628	0.314758
620.124382	0.316662
620.472083	0.317130
620.819731	0.316346
621.167326	0.320220
621.514868	0.319983
621.862357	0.324388
622.209793	0.323503
622.557176	0.326007
622.904506	0.327306
623.251783	0.329032
623.599007	0.331843
623.946179	0.331597
624.293297	0.333083
624.640363	0.337043
624.987376	0.337371
625.334336	0.340222
625.681243	0.342449
626.028097	0.342954
626.374899	0.344035
626.721647	0.344432
627.068343	0.347732
627.414987	0.348488
627.761577	0.350641
628.108115	0.349152
628.454600	0.354006
628.801032	0.351361
629.147412	0.353770
629.493739	0.353742
629.840014	0.357269
630.186236	0.354796
630.532405	0.359867
630.878521	0.357402
631.224585	0.359680
631.570597	0.363459
631.916556	0.361684
632.262462	0.361443
632.608316	0.364167
632.954117	0.364743
633.299866	0.365454
633.645562	0.365737
633.991206	0.370073
634.336797	0.373446
634.682336	0.375142
635.027823	0.377140
635.373257	0.377739
635.718639	0.381218
636.063968	0.380530
636.409245	0.386302
636.754470	0.386504
637.099642	0.388858
637.444762	0.392586
637.789829	0.391462
638.134845	0.395094
638.479808	0.395678
638.824719	0.395820
639.169577	0.399369
639.514383	0.398513
639.859137	0.402647
640.203839	0.402185
640.548489	0.403066
640.893086	0.404386
641.237632	0.406319
641.582125	0.404809
641.926566	0.405704
642.270955	0.406514
642.615292	0.406614
642.959576	0.405918
643.303809	0.406576
643.647990	0.405842
643.992118	0.406205
644.336195	0.409833
644.680219	0.408331
645.024192	0.408878
645.368112	0.402843
645.711981	0.401624
646.055797	0.396845
646.399562	0.399525
646.743274	0.391320
647.086935	0.389078
647.430544	0.388942
647.774101	0.387673
648.117606	0.386884
648.461059	0.387884
648.804460	0.390552
649.147810	0.395461
649.491108	0.396977
649.834354	0.398754
650.177548	0.404405
650.520690	0.409730
650.863781	0.410300
651.206820	0.409642
651.549807	0.414966
651.892742	0.418588
652.235626	0.418136
652.578458	0.418964
652.921238	0.424938
653.263967	0.422812
653.606644	0.427259
653.949269	0.426830
654.291843	0.430463
654.634365	0.426960
654.976836	0.430680
655.319255	0.430816
655.661622	0.432267
656.003938	0.432600
656.346203	0.435256
656.688416	0.433117
657.030577	0.436228
657.372687	0.438371
657.714746	0.439413
658.056753	0.435922
658.398708	0.440000
658.740612	0.441347
659.082465	0.437003
659.424266	0.437522
659.766016	0.437737
660.107715	0.439886
660.449362	0.438695
660.790958	0.439713
661.132503	0.439693
661.473996	0.437591
661.815438	0.438458
662.156829	0.438555
662.498168	0.439550
662.839456	0.441112
663.180693	0.438870
663.521879	0.438676
663.863013	0.439752
664.204097	0.438185
664.545129	0.434824
664.886110	0.435307
665.227040	0.432825
665.567918	0.435145
665.908746	0.433046
666.249522	0.433010
666.590248	0.433712
666.930922	0.432554
667.271545	0.431234
667.612118	0.430783
667.952639	0.432886
668.293109	0.431063
668.633528	0.433995
668.973896	0.433877
669.314213	0.434905
669.654480	0.436009
669.994695	0.436692
670.334859	0.437579
670.674973	0.437202
671.015035	0.437369
671.355047	0.437333
671.695008	0.438512
672.034918	0.440464
672.374777	0.439516
672.714585	0.440648
673.054342	0.440373
673.394049	0.441077
673.733705	0.438651
674.073310	0.439730
674.412864	0.443221
674.752368	0.443584
675.091820	0.443481
675.431223	0.447986
675.770574	0.447315
676.109875	0.450733
676.449125	0.450759
676.788324	0.453111
677.127473	0.458569
677.466571	0.457825
677.805619	0.459934
678.144616	0.460740
678.483562	0.462415
678.822458	0.465374
679.161303	0.466064
679.500098	0.466631
679.838842	0.468150
680.177535	0.467271
680.516179	0.466489
680.854771	0.465255
681.193314	0.459092
681.531805	0.450471
681.870247	0.439138
682.208638	0.431481
682.546978	0.430516
682.885268	0.431940
683.223508	0.438064
683.561697	0.442297
683.899836	0.444524
684.237925	0.448146
684.575963	0.450385
684.913951	0.453274
685.251889	0.449584
685.589776	0.451508
685.927614	0.454303
686.265401	0.447813
686.603137	0.449356
686.940824	0.443243
687.278460	0.441748
687.616046	0.441321
687.953582	0.435490
688.291068	0.437711
688.628504	0.432832
688.965889	0.435426
689.303224	0.439378
689.640510	0.443733
689.977745	0.449023
690.314930	0.457078
690.652065	0.461752
690.989150	0.468898
691.326185	0.474920
691.663170	0.480702
692.000105	0.486939
692.336990	0.493873
692.673825	0.496466
693.010610	0.504106
693.347345	0.508856
693.684030	0.510194
694.020665	0.515631
694.357251	0.524328
694.693786	0.523173
695.030272	0.528277
695.366707	0.530691
695.703093	0.534575
696.039429	0.532068
696.375716	0.534500
696.711952	0.536594
697.048139	0.539267
697.384276	0.541000
697.720363	0.539065
698.056400	0.538380
698.392388	0.544030
698.728326	0.546491
699.064214	0.549866
699.400053	0.550227
699.735842	0.553997
700.071581	0.556504
700.407270	0.559258
700.742910	0.561404
701.078501	0.568424
701.414042	0.569161
701.749533	0.571973
702.084974	0.580473
702.420366	0.573199
702.755709	0.580742
703.091002	0.588487
703.426246	0.581668
703.761440	0.587897
704.096584	0.591999
704.431679	0.589391
704.766725	0.591330
705.101721	0.592759
705.436668	0.588939
705.771565	0.596034
706.106413	0.593197
706.441212	0.588332
706.775961	0.586811
707.110661	0.589667
707.445311	0.586300
707.779913	0.583459
708.114465	0.582402
708.448967	0.578714
708.783421	0.570391
709.117825	0.565418
709.452180	0.565597
709.786485	0.559076
710.120742	0.549453
710.454949	0.550590
710.789107	0.543257
711.123216	0.534402
711.457275	0.536079
711.791286	0.526585
712.125247	0.526410
712.459159	0.536620
712.793023	0.529409
713.126837	0.532920
713.460602	0.534088
713.794318	0.542988
714.127985	0.541687
714.461602	0.551814
714.795171	0.555476
715.128691	0.563130
715.462162	0.570814
715.795584	0.575729
716.128957	0.578546
716.462281	0.585280
716.795556	0.588848
717.128782	0.593589
717.461960	0.603848
717.795088	0.601470
718.128167	0.608091
718.461198	0.616795
718.794180	0.617155
719.127113	0.620881
719.459997	0.623375
719.792833	0.629557
720.125619	0.631094
720.458357	0.636885
720.791046	0.637046
721.123686	0.639621
721.456278	0.647150
721.788821	0.643915
722.121315	0.647759
722.453761	0.652849
722.786158	0.650322
723.118506	0.647089
723.450805	0.654736
723.783056	0.650575
724.115259	0.648057
724.447412	0.647911
724.779518	0.648533
725.111574	0.648082
725.443582	0.643785
725.775542	0.644905
726.107453	0.637602
726.439315	0.638109
726.771129	0.635976
727.102895	0.629963
727.434612	0.622235
727.766281	0.620402
728.097901	0.619709
728.429473	0.619930
728.760996	0.618126
729.092471	0.618265
729.423897	0.621682
729.755276	0.621479
730.086606	0.620314
730.417887	0.615152
730.749120	0.606827
731.080305	0.597189
731.411442	0.593288
731.742530	0.598630
732.073570	0.597724
732.404562	0.590106
732.735506	0.591047
733.066401	0.596123
733.397249	0.605369
733.728048	0.617047
734.058798	0.628785
734.389501	0.638971
734.720156	0.648610
735.050762	0.657000
735.381320	0.657498
735.711831	0.666828
736.042293	0.672241
736.372707	0.667858
736.703073	0.672407
737.033391	0.674907
737.363661	0.671314
737.693883	0.666663
738.024056	0.665628
738.354182	0.666550
738.684260	0.655156
739.014290	0.651443
739.344272	0.652212
739.674207	0.646296
740.004093	0.645522
740.333931	0.645733
740.663722	0.646153
740.993464	0.646299
741.323159	0.650882
741.652806	0.654979
741.982405	0.660057
742.311956	0.664182
742.641460	0.666661
742.970915	0.669801
743.300323	0.678346
743.629683	0.684787
743.958996	0.686229
744.288260	0.690449
744.617477	0.696475
744.946647	0.697639
745.275768	0.704092
745.604842	0.703494
745.933869	0.713786
746.262847	0.712682
746.591778	0.706528
746.920662	0.712990
747.249498	0.719856
747.578286	0.710663
747.907027	0.707321
748.235720	0.707299
748.564365	0.702537
748.892963	0.702212
749.221514	0.706077
749.550017	0.710672
749.878473	0.710884
750.206881	0.716772
750.535242	0.717806
750.863555	0.717650
751.191821	0.718947
751.520039	0.722283
751.848210	0.727610
752.176334	0.719412
752.504411	0.718139
752.832440	0.726104
753.160421	0.730524
753.488356	0.729192
753.816243	0.726066
754.144082	0.734433
754.471875	0.738406
754.799620	0.733129
755.127318	0.735418
755.454969	0.734915
755.782572	0.734097
756.110129	0.739303
756.437638	0.742009
756.765100	0.737706
757.092515	0.736490
757.419882	0.734560
757.747203	0.740282
758.074477	0.739476
758.401703	0.737342
758.728882	0.732229
759.056014	0.731068
759.383099	0.729787
759.710138	0.731359
760.037129	0.727510
760.364073	0.722103
760.690970	0.723425
761.017820	0.730229
761.344623	0.725723
761.671379	0.716600
761.998088	0.704748
762.324751	0.682970
762.651366	0.640943
762.977935	0.574568
763.304456	0.523002
763.630931	0.513567
763.957359	0.552386
764.283740	0.596575
764.610074	0.623892
764.936362	0.653734
765.262602	0.680893
765.588796	0.702069
765.914943	0.719663
766.241044	0.736402
766.567097	0.743770
766.893104	0.753551
767.219064	0.759882
767.544978	0.766544
767.870845	0.779487
768.196665	0.784230
768.522438	0.781235
768.848165	0.782513
769.173846	0.791521
769.499479	0.795680
769.825066	0.799726
770.150607	0.804349
770.476101	0.799760
770.801548	0.800407
771.126949	0.811887
771.452303	0.816013
771.777611	0.815896
772.102872	0.814297
772.428087	0.819951
772.753256	0.822204
773.078378	0.825005
773.403453	0.834230
773.728482	0.837857
774.053465	0.831439
774.378401	0.835101
774.703291	0.843010
775.028135	0.843076
775.352932	0.844199
775.677683	0.847640
776.002388	0.847657
776.327046	0.847435
776.651658	0.850607
776.976224	0.854736
777.300743	0.853981
777.625216	0.856405
777.949643	0.858181
778.274024	0.858452
778.598359	0.859699
778.922647	0.858903
779.246889	0.858716
779.571086	0.862715
779.895236	0.865250
780.219339	0.863041
780.543397	0.860188
780.867409	0.857454
781.191374	0.860544
781.515294	0.861667
781.839167	0.860476
782.162995	0.864574
782.486776	0.861254
782.810511	0.861717
783.134201	0.865250
783.457844	0.862663
783.781441	0.866336
784.104993	0.871072
784.428498	0.872526
784.751958	0.867214
785.075372	0.869926
785.398739	0.873646
785.722061	0.869679
786.045337	0.865419
786.368568	0.871054
786.691752	0.872837
787.014891	0.859094
787.337983	0.849447
787.661030	0.843942
787.984031	0.825559
788.306987	0.812612
788.629897	0.814513
788.952760	0.819244
789.275579	0.823369
789.598351	0.838152
789.921078	0.851479
790.243759	0.853807
790.566395	0.857935
790.888984	0.865293
791.211529	0.869744
791.534027	0.873662
791.856480	0.876418
792.178888	0.880214
792.501249	0.883432
792.823566	0.883981
793.145836	0.884634
793.468062	0.886091
793.790241	0.886409
794.112375	0.884068
794.434464	0.878921
794.756507	0.879640
795.078505	0.879357
795.400457	0.873546
795.722364	0.862176
796.044226	0.854953
796.366042	0.853917
796.687812	0.857122
797.009538	0.853107
797.331218	0.857234
797.652852	0.861239
797.974442	0.865700
798.295986	0.865743
798.617484	0.869017
798.938938	0.871594
799.260346	0.878188
799.581709	0.878236
799.903026	0.881549
800.224299	0.881716
800.545526	0.886249
800.866708	0.890551
801.187845	0.894370
801.508936	0.892508
801.829983	0.891204
802.150984	0.894919
802.471940	0.899612
802.792851	0.897366
803.113717	0.899234
803.434538	0.897325
803.755314	0.899054
804.076045	0.901640
804.396731	0.901410
804.717372	0.901522
805.037967	0.902352
805.358518	0.900406
805.679024	0.897322
805.999485	0.898401
806.319901	0.898400
806.640272	0.899248
806.960598	0.898465
807.280879	0.895473
807.601115	0.893355
807.921306	0.897650
808.241453	0.897684
808.561554	0.894481
808.881611	0.895737
809.201623	0.897287
809.521590	0.897890
809.841513	0.899358
810.161390	0.897977
810.481223	0.899422
810.801011	0.903296
811.120755	0.904838
811.440453	0.902180
811.760107	0.901681
812.079716	0.900458
812.399281	0.905617
812.718801	0.907632
813.038276	0.908900
813.357707	0.908549
813.677093	0.905146
813.996434	0.908764
814.315731	0.910177
814.634983	0.910745
814.954191	0.908429
815.273354	0.907043
815.592473	0.902884
815.911547	0.902144
816.230577	0.901028
816.549562	0.896949
816.868502	0.898644
817.187399	0.894871
817.506250	0.890741
817.825058	0.891535
818.143821	0.888794
818.462539	0.883907
818.781213	0.875534
819.099843	0.863910
819.418429	0.848752
819.736970	0.832053
820.055466	0.813151
820.373919	0.787506
820.692327	0.754858
821.010691	0.720799
821.329011	0.645050
821.647286	0.531163
821.965517	0.419146
822.283704	0.376829
822.601847	0.378251
822.919945	0.413930
823.237999	0.446617
823.556010	0.492457
823.873976	0.547988
824.191897	0.597162
824.509775	0.639637
824.827609	0.684225
825.145398	0.706744
825.463144	0.708262
825.780845	0.692053
826.098502	0.674221
826.416116	0.629564
826.733685	0.585601
827.051210	0.577710
827.368692	0.591098
827.686129	0.628378
828.003522	0.680654
828.320872	0.727818
828.638177	0.771100
828.955439	0.803134
829.272656	0.823684
829.589830	0.841012
829.906960	0.856602
830.224046	0.868378
830.541088	0.879445
830.858086	0.882146
831.175041	0.889717
831.491952	0.888989
831.808819	0.886040
832.125642	0.879113
832.442421	0.865209
832.759157	0.843150
833.075849	0.797886
833.392497	0.734889
833.709101	0.694127
834.025662	0.704359
834.342179	0.735128
834.658653	0.774735
834.975083	0.809257
835.291469	0.835209
835.607811	0.856394
835.924110	0.871793
836.240366	0.889438
836.556578	0.902885
836.872746	0.910579
837.188871	0.916146
837.504952	0.922217
837.820990	0.924925
838.136984	0.928590
838.452935	0.930463
838.768842	0.933149
839.084706	0.925796
839.400526	0.900948
839.716303	0.861485
840.032037	0.839141
840.347727	0.843584
840.663373	0.861214
840.978977	0.881176
841.294537	0.903123
841.610054	0.920198
841.925527	0.927824
842.240957	0.933708
842.556344	0.941741
842.871687	0.946638
843.186987	0.952200
843.502244	0.951725
843.817458	0.952799
844.132629	0.957146
844.447756	0.961094
844.762840	0.962329
845.077881	0.961002
845.392879	0.961316
845.707833	0.964189
846.022745	0.965552
846.337613	0.965608
846.652438	0.966326
846.967221	0.965165
847.281960	0.966913
847.596656	0.969092
847.911309	0.966542
848.225919	0.968783
848.540485	0.968496
848.855009	0.969561
849.169490	0.968346
849.483928	0.970617
849.798323	0.970551
850.112675	0.970157
850.426984	0.968955
850.741251	0.972604
851.055474	0.971064
851.369654	0.969189
851.683792	0.970028
851.997887	0.970771
852.311938	0.971465
852.625947	0.970142
852.939914	0.968244
853.253837	0.971022
853.567718	0.970358
853.881555	0.971245
854.195350	0.969112
854.509103	0.971021
854.822812	0.970666
855.136479	0.971956
855.450103	0.971214
855.763685	0.969407
856.077224	0.969081
856.390720	0.971526
856.704173	0.971287
857.017584	0.969852
857.330953	0.967183
857.644278	0.969293
857.957561	0.968561
858.270802	0.968812
858.584000	0.969225
858.897155	0.967256
859.210268	0.968620
859.523339	0.969174
859.836367	0.970666
860.149352	0.971000
860.462295	0.968213
860.775195	0.971136
861.088054	0.969283
861.400869	0.970808
861.713642	0.971497
862.026373	0.971159
862.339062	0.971038
862.651708	0.968199
862.964312	0.968601
863.276873	0.968873
863.589392	0.970882
863.901869	0.966790
864.214303	0.964716
864.526696	0.966087
864.839045	0.964732
865.151353	0.963211
865.463619	0.962794
865.775842	0.964145
866.088023	0.963581
866.400162	0.963562
866.712258	0.963959
867.024313	0.964722
867.336325	0.964433
867.648296	0.964502
867.960224	0.963168
868.272110	0.962790
868.583954	0.965381
868.895755	0.965549
869.207515	0.964036
869.519233	0.961353
869.830909	0.961305
870.142542	0.962661
870.454134	0.963136
870.765684	0.962061
871.077191	0.959019
871.388657	0.959741
871.700081	0.960053
872.011463	0.959049
872.322803	0.959591
872.634101	0.957473
872.945357	0.955985
873.256571	0.953503
873.567744	0.953859
873.878874	0.955045
874.189963	0.953521
874.501010	0.952908
874.812015	0.950378
875.122979	0.952967
875.433900	0.955065
875.744780	0.954206
876.055618	0.952986
876.366415	0.951572
876.677169	0.951505
876.987882	0.953554
877.298554	0.952970
877.609183	0.950370
877.919771	0.947019
878.230317	0.944335
878.540822	0.942537
878.851285	0.937082
879.161707	0.928868
879.472087	0.917770
879.782425	0.902339
880.092722	0.868602
880.402977	0.817989
880.713191	0.759810
881.023363	0.701745
881.333494	0.669033
881.643583	0.640896
881.953631	0.640241
882.263637	0.669141
882.573602	0.707806
882.883526	0.733507
883.193408	0.756002
883.503248	0.776724
883.813048	0.804214
884.122806	0.832110
884.432522	0.855977
884.742197	0.875676
885.051831	0.885093
885.361424	0.894763
885.670975	0.906714
885.980485	0.915416
886.289954	0.922557
886.599382	0.926944
886.908768	0.931430
887.218113	0.937048
887.527417	0.940460
887.836680	0.944183
888.145901	0.944918
888.455082	0.947693
888.764221	0.953613
889.073319	0.953464
889.382376	0.954228
889.691392	0.954546
890.000366	0.954111
890.309300	0.956712
890.618193	0.955277
890.927044	0.953766
891.235855	0.952350
891.544625	0.952635
891.853353	0.953004
892.162041	0.951911
892.470687	0.944905
892.779293	0.939540
893.087858	0.935968
893.396381	0.929552
893.704864	0.917435
894.013306	0.893269
894.321707	0.866691
894.630068	0.853270
894.938387	0.849436
895.246665	0.850332
895.554903	0.861879
895.863100	0.874778
896.171256	0.890961
896.479371	0.910178
896.787446	0.923023
897.095480	0.928918
897.403473	0.930579
897.711425	0.934611
898.019336	0.943349
898.327207	0.945123
898.635038	0.948029
898.942827	0.947806
899.250576	0.949746
899.558284	0.955064
899.865952	0.956574
900.173579	0.956772
900.481165	0.957488
900.788711	0.960824
901.096216	0.962168
901.403681	0.963055
901.711105	0.965084
902.018489	0.965695
902.325832	0.963986
902.633135	0.963924
902.940397	0.957552
903.247619	0.946449
903.554800	0.920843
903.861941	0.883316
904.169041	0.849411
904.476101	0.833020
904.783121	0.833877
905.090100	0.849783
905.397039	0.868901
905.703938	0.890732
906.010796	0.909365
906.317614	0.926162
906.624391	0.936798
906.931129	0.945843
907.237826	0.953632
907.544483	0.961850
907.851099	0.964517
908.157675	0.969136
908.464211	0.971789
908.770707	0.973858
909.077163	0.975188
909.383578	0.974967
909.689954	0.975810
909.996289	0.977058
910.302584	0.979304
910.608839	0.979602
910.915054	0.979358
911.221229	0.979496
911.527363	0.977781
911.833458	0.977821
912.139513	0.978646
912.445527	0.975555
912.751502	0.974559
913.057436	0.973796
913.363331	0.971475
913.669186	0.968160
913.975000	0.963287
914.280775	0.956540
914.586510	0.951759
914.892205	0.938070
915.197859	0.917201
915.503475	0.891913
915.809050	0.873163
916.114585	0.867274
916.420081	0.866171
916.725536	0.863075
917.030952	0.869502
917.336328	0.881868
917.641665	0.897086
917.946961	0.911239
918.252218	0.922922
918.557435	0.931165
918.862612	0.939475
919.167750	0.944995
919.472848	0.950337
919.777906	0.954892
920.082925	0.959970
920.387904	0.962946
920.692843	0.965522
920.997743	0.965390
921.302603	0.969858
921.607423	0.970719
921.912204	0.973172
922.216946	0.973768
922.521647	0.975202
922.826310	0.976305
923.130932	0.978768
923.435516	0.979084
923.740059	0.981212
924.044564	0.979479
924.349028	0.981464
924.653454	0.984344
924.957840	0.985469
925.262186	0.985442
925.566493	0.984323
925.870761	0.985255
926.174989	0.986713
926.479178	0.987522
926.783328	0.989566
927.087438	0.988503
927.391509	0.988990
927.695541	0.990261
927.999533	0.991004
928.303486	0.990177
928.607400	0.991645
928.911275	0.989636
929.215110	0.989977
929.518906	0.990377
929.822663	0.990789
930.126381	0.993196
930.430060	0.990820
930.733699	0.990823
931.037299	0.989737
931.340861	0.991731
931.644383	0.989963
931.947866	0.990042
932.251309	0.992058
932.554714	0.991832
932.858080	0.991508
933.161407	0.991156
933.464694	0.992359
933.767943	0.989786
934.071153	0.990938
934.374323	0.991500
934.677455	0.992129
934.980548	0.991138
935.283602	0.991048
935.586617	0.992019
935.889593	0.990628
936.192530	0.991956
936.495428	0.992458
936.798287	0.991535
937.101108	0.991945
937.403890	0.988872
937.706632	0.988939
938.009336	0.988535
938.312002	0.987394
938.614628	0.985056
938.917216	0.984541
939.219765	0.983167
939.522275	0.984214
939.824747	0.984044
940.127179	0.984125
940.429573	0.985584
940.731929	0.984968
941.034246	0.985159
941.336524	0.986447
941.638763	0.986485
941.940964	0.987536
942.243126	0.987735
942.545250	0.988482
942.847335	0.989510
943.149381	0.989812
943.451389	0.989695
943.753359	0.988724
944.055290	0.991707
944.357182	0.991137
944.659036	0.989394
944.960851	0.989836
945.262628	0.990662
945.564367	0.991767
945.866067	0.990362
946.167729	0.990894
946.469352	0.990725
946.770937	0.988941
947.072484	0.991940
947.373992	0.989715
947.675462	0.990569
947.976893	0.990808
948.278286	0.990873
948.579641	0.991325
948.880958	0.991438
949.182236	0.991676
949.483476	0.992414
949.784678	0.991306
950.085841	0.992137
950.386967	0.991018
950.688054	0.990896
950.989103	0.991715
951.290114	0.990238
951.591087	0.989140
951.892021	0.990309
952.192917	0.988916
952.493776	0.989516
952.794596	0.989470
953.095378	0.987941
953.396122	0.988773
953.696828	0.987909
953.997496	0.989951
954.298126	0.991444
954.598718	0.991696
954.899272	0.991460
955.199788	0.990747
955.500266	0.991968
955.800706	0.993698
956.101108	0.993797
956.401472	0.993872
956.701798	0.993676
957.002087	0.993390
957.302337	0.994699
957.602550	0.995183
957.902724	0.994689
958.202861	0.994877
958.502960	0.995169
958.803022	0.993370
959.103045	0.996854
959.403031	0.994934
959.702979	0.995089
960.002889	0.995807
960.302762	0.994409
960.602596	0.995242
960.902393	0.994154
961.202153	0.998283
961.501875	0.997541
961.801559	0.996485
962.101205	0.995882
962.400814	0.996346
962.700385	0.996389
962.999918	0.996190
963.299414	0.995564
963.598873	0.996024
963.898293	0.996281
964.197677	0.995755
964.497022	0.995990
964.796331	0.998226
965.095601	0.996417
965.394835	0.994895
965.694030	0.996584
965.993189	0.997289
966.292309	0.995528
966.591393	0.998189
966.890439	0.997549
967.189447	0.998059
967.488419	0.997005
967.787353	0.996552
968.086249	0.996260
968.385108	0.996572
968.683930	0.996734
968.982714	0.998003
969.281462	0.997345
969.580172	0.996756
969.878844	0.997341
970.177480	0.996970
970.476078	0.997375
970.774639	0.997085
971.073162	0.997284
971.371649	0.995689
971.670098	0.997482
971.968510	0.998078
972.266885	0.995954
972.565223	0.996877
972.863524	0.996405
973.161788	0.996529
973.460014	0.997888
973.758204	0.995726
974.056356	0.996638
974.354471	0.994840
974.652550	0.996444
974.950591	0.996436
975.248595	0.996111
975.546563	0.996923
975.844493	0.997819
976.142386	0.996877
976.440243	0.997438
976.738062	0.997674
977.035845	0.997491
977.333590	0.997464
977.631299	0.998666
977.928971	0.996717
978.226606	0.997311
978.524204	0.995685
978.821765	0.998774
979.119290	0.995727
979.416777	0.995627
979.714228	0.997878
980.011642	0.995765
980.309020	0.997456
980.606360	0.997421
980.903664	0.996803
981.200931	0.996372
981.498162	0.994614
981.795356	0.995187
982.092513	0.994469
982.389633	0.993498
982.686717	0.991546
982.983764	0.991680
983.280775	0.990806
983.577749	0.990697
983.874686	0.991471
984.171587	0.991199
984.468451	0.995644
984.765279	0.993998
985.062070	0.994649
985.358824	0.994292
985.655543	0.993641
985.952224	0.996916
986.248869	0.996974
986.545478	0.996919
986.842050	0.997915
987.138586	0.995866
987.435086	0.998603
987.731549	0.999214
988.027975	0.997718
988.324366	0.998928
988.620719	0.998950
988.917037	0.996302
989.213318	0.997945
989.509563	0.999162
989.805772	0.998843
990.101944	0.999092
990.398080	0.996532
990.694180	0.998394
990.990244	0.996765
991.286271	0.997656
991.582262	0.997151
991.878217	0.998799
992.174136	0.997837
992.470019	0.998876
992.765865	0.998517
993.061676	0.998662
993.357450	0.997269
993.653188	0.996696
993.948890	0.997590
994.244556	0.998620
994.540186	0.997063
994.835780	0.997119
995.131337	0.997078
995.426859	0.996237
995.722345	0.997942
996.017795	0.995682
996.313208	0.996280
996.608586	0.996901
996.903928	0.996357
997.199234	0.996735
997.494504	0.996601
997.789738	0.996647
998.084936	0.995829
998.380099	0.999244
998.675225	0.997308
998.970316	0.998121
999.265371	0.997837
999.560390	0.998246
999.855373	0.998470
1000.150320	0.997431
1000.445232	0.998449
1000.740108	0.997953
1001.034948	0.998378
1001.329752	0.999591
1001.624521	0.997895
1001.919254	0.998021
1002.213951	0.998382
1002.508613	0.997783
1002.803239	0.998451
1003.097829	0.999181
1003.392384	0.999336
1003.686903	0.998548
1003.981386	0.998732
1004.275834	0.999255
1004.570246	0.997370
1004.864623	1.000051
1005.158964	0.999687
1005.453270	0.999305
1005.747540	0.998462
1006.041775	0.998853
1006.335974	0.999439
1006.630138	0.999075
1006.924266	0.999102
1007.218359	1.000779
1007.512416	0.998473
1007.806438	0.998906
1008.100425	0.999217
1008.394376	0.998219
1008.688292	0.999214
1008.982172	1.001136
1009.276017	0.999572
1009.569827	0.998616
1009.863602	0.999184
1010.157341	0.999100
1010.451045	0.998962
1010.744714	0.998587
1011.038347	0.999143
1011.331945	0.999338
1011.625508	0.998010
1011.919036	0.998991
1012.212528	0.997819
1012.505986	0.998812
1012.799408	0.998457
1013.092795	0.999584
1013.386147	0.998812
1013.679464	0.999636
1013.972745	0.998638
1014.265992	0.997183
1014.559204	0.998723
1014.852380	1.000353
1015.145521	0.999071
1015.438628	1.000139
1015.731699	0.999135
1016.024736	0.998389
1016.317737	0.998131
1016.610703	0.999038
1016.903635	0.999353
1017.196531	0.999204
1017.489393	0.999862
1017.782219	0.999150
1018.075011	0.998552
1018.367768	0.999352
1018.660490	0.999527
1018.953177	0.999527
1019.245829	0.999527
