Dividing Wavelength (nm)	Counts (n)	Blue Motor Position (mm): 0.000000	Red Motor Position (mm): 34.000000	
326.493990	1.001359
326.888308	1.001359
327.282561	1.001359
327.676750	0.999597
328.070874	0.999383
328.464933	0.999008
328.858929	0.999207
329.252859	0.999896
329.646726	0.999778
330.040528	1.000380
330.434265	0.999037
330.827938	1.000518
331.221547	0.999567
331.615091	0.999950
332.008571	0.999154
332.401986	1.000595
332.795338	1.001019
333.188625	0.997562
333.581847	1.000970
333.975006	1.000217
334.368100	0.999104
334.761129	0.999280
335.154095	1.000726
335.546996	0.998228
335.939833	0.994703
336.332606	0.995235
336.725315	0.997417
337.117960	0.996451
337.510540	0.997064
337.903056	0.996868
338.295508	0.995637
338.687896	0.997117
339.080220	0.997096
339.472480	0.995834
339.864676	0.995234
340.256807	0.996741
340.648875	0.997655
341.040879	0.996473
341.432818	0.995838
341.824694	0.995503
342.216506	0.996911
342.608253	0.997364
342.999937	0.995687
343.391557	0.996529
343.783113	0.996193
344.174605	0.997249
344.566033	0.995978
344.957397	0.995983
345.348697	0.996055
345.739934	0.996410
346.131106	0.995959
346.522215	0.996351
346.913260	0.995773
347.304241	0.995067
347.695159	0.995927
348.086012	0.994656
348.476802	0.996736
348.867528	0.997833
349.258191	0.994085
349.648789	0.996754
350.039324	0.996297
350.429796	0.996588
350.820203	0.998047
351.210548	0.996789
351.600828	0.996184
351.991045	0.996730
352.381198	0.995787
352.771288	0.996705
353.161314	0.996095
353.551276	0.998383
353.941175	0.996508
354.331010	0.995809
354.720782	0.997268
355.110490	0.996700
355.500135	0.997238
355.889717	0.995685
356.279235	0.996770
356.668689	0.995692
357.058080	0.996742
357.447408	0.997871
357.836672	0.997817
358.225873	0.996878
358.615010	0.995797
359.004084	0.997820
359.393095	0.996715
359.782043	0.996751
360.170927	0.996652
360.559748	0.996499
360.948505	0.995683
361.337199	0.997244
361.725830	0.997232
362.114398	0.996002
362.502903	0.997234
362.891344	0.997884
363.279722	0.995619
363.668037	0.997873
364.056289	0.997054
364.444478	0.997128
364.832603	0.996749
365.220665	0.996081
365.608665	0.996322
365.996601	0.997655
366.384474	0.997006
366.772284	0.996100
367.160031	0.996025
367.547715	0.995125
367.935336	0.996597
368.322893	0.997190
368.710388	0.995460
369.097820	0.997148
369.485189	0.995628
369.872495	0.996670
370.259738	0.995153
370.646918	0.997708
371.034035	0.998354
371.421090	0.997214
371.808081	0.997223
372.195010	0.997110
372.581875	0.997120
372.968678	0.996818
373.355418	0.995626
373.742096	0.996797
374.128710	0.998004
374.515262	0.996700
374.901751	0.996075
375.288177	0.997179
375.674540	0.997983
376.060841	0.997339
376.447079	0.998097
376.833254	0.996776
377.219367	0.996900
377.605417	0.997787
377.991404	0.997429
378.377329	0.996749
378.763191	0.996826
379.148991	0.997895
379.534727	0.997056
379.920402	0.996533
380.306013	0.998098
380.691563	0.998082
381.077049	0.996616
381.462474	0.997219
381.847835	0.998373
382.233134	0.997610
382.618371	0.998007
383.003545	0.997602
383.388657	0.997624
383.773706	0.998613
384.158693	0.997707
384.543618	0.998137
384.928480	0.997945
385.313280	0.997925
385.698017	0.998638
386.082692	0.998915
386.467305	0.999075
386.851856	0.998309
387.236344	0.997609
387.620770	0.997865
388.005133	0.997667
388.389435	0.998527
388.773674	0.998067
389.157851	0.997937
389.541965	0.997739
389.926018	0.997185
390.310008	0.999830
390.693936	0.998696
391.077802	0.998723
391.461606	0.997016
391.845348	0.998565
392.229027	0.999131
392.612645	0.998946
392.996200	0.999760
393.379694	0.999238
393.763125	0.999385
394.146494	0.999217
394.529801	0.998508
394.913047	0.999077
395.296230	0.999877
395.679351	0.998345
396.062410	0.998379
396.445408	1.000132
396.828343	0.998915
397.211217	0.999680
397.594028	0.999635
397.976778	0.999067
398.359466	0.999752
398.742092	0.998817
399.124656	0.998585
399.507158	0.998648
399.889598	0.998693
400.271977	0.999091
400.654294	0.999448
401.036549	0.999180
401.418742	1.000244
401.800874	0.999360
402.182944	0.999301
402.564952	0.998813
402.946898	1.000052
403.328783	0.999485
403.710606	0.999274
404.092367	0.999051
404.474067	0.999698
404.855705	0.999441
405.237282	0.998757
405.618797	0.999344
406.000250	0.999101
406.381642	0.999289
406.762972	0.998796
407.144240	1.000055
407.525447	0.999336
407.906593	0.998891
408.287677	1.000502
408.668700	0.999950
409.049661	0.998654
409.430560	0.999362
409.811399	0.999369
410.192176	0.999628
410.572891	0.999337
410.953545	0.999247
411.334138	0.998866
411.714669	0.999223
412.095139	0.998778
412.475547	1.000225
412.855894	0.999713
413.236180	1.000126
413.616405	0.999883
413.996568	1.000164
414.376670	0.999055
414.756711	0.998099
415.136691	0.999502
415.516609	1.000066
415.896466	0.998773
416.276262	0.998989
416.655997	1.000153
417.035670	0.998790
417.415283	0.999423
417.794834	0.999491
418.174324	0.999595
418.553753	0.999789
418.933121	1.000078
419.312428	0.998745
419.691674	0.999334
420.070859	1.000080
420.449983	0.999486
420.829045	1.000026
421.208047	0.999930
421.586988	1.000534
421.965867	0.999953
422.344686	1.000381
422.723444	0.999760
423.102141	0.999954
423.480777	0.999820
423.859352	0.999394
424.237866	1.000204
424.616319	0.999920
424.994712	0.999893
425.373044	0.999971
425.751314	0.999488
426.129524	0.999926
426.507673	1.000352
426.885762	1.001072
427.263789	0.999884
427.641756	1.000161
428.019662	1.000848
428.397508	0.999528
428.775292	0.999262
429.153016	0.999796
429.530679	1.000798
429.908282	1.000385
430.285824	0.999138
430.663305	1.000052
431.040726	0.999532
431.418086	1.000840
431.795385	1.000500
432.172624	0.999100
432.549802	0.999435
432.926920	1.000959
433.303977	0.999215
433.680974	1.000472
434.057910	0.999285
434.434786	1.000314
434.811601	0.999577
435.188355	0.999802
435.565050	0.999477
435.941683	0.999588
436.318257	1.001004
436.694770	0.999243
437.071222	0.999315
437.447614	1.000135
437.823946	0.999967
438.200218	1.000836
438.576429	1.000371
438.952580	1.000547
439.328670	0.999230
439.704700	0.999882
440.080670	1.000273
440.456580	1.000283
440.832429	1.000254
441.208218	1.000039
441.583947	1.000296
441.959616	0.999841
442.335224	1.000329
442.710773	1.001109
443.086261	1.000237
443.461689	1.000026
443.837057	1.000198
444.212365	0.999756
444.587612	0.999227
444.962800	0.999461
445.337927	1.000189
445.712995	1.000609
446.088002	1.000807
446.462949	1.000819
446.837837	1.000408
447.212664	1.000425
447.587431	1.000182
447.962139	0.999676
448.336786	1.000265
448.711374	1.000367
449.085901	0.999778
449.460369	1.000553
449.834776	1.000040
450.209124	1.000341
450.583412	1.000454
450.957640	1.000029
451.331808	0.999983
451.705917	0.999850
452.079965	1.000511
452.453954	1.000683
452.827883	1.000367
453.201752	1.000581
453.575562	1.000430
453.949311	1.000630
454.323001	0.999929
454.696632	0.999744
455.070202	0.999721
455.443713	0.999782
455.817164	1.000383
456.190556	0.999399
456.563888	1.000650
456.937160	1.000862
457.310373	0.999721
457.683526	1.000175
458.056619	1.000143
458.429653	0.999936
458.802628	0.999572
459.175542	0.999563
459.548398	0.999888
459.921194	1.000002
460.293930	0.999754
460.666607	0.999378
461.039224	0.998856
461.411782	1.000162
461.784280	0.999941
462.156719	1.000855
462.529099	1.000594
462.901419	1.001034
463.273680	0.999878
463.645882	1.000684
464.018024	1.000678
464.390106	1.000132
464.762130	1.000719
465.134094	1.000286
465.505999	1.001175
465.877845	0.999705
466.249631	1.001001
466.621358	1.000476
466.993026	1.000649
467.364634	1.000669
467.736184	1.001113
468.107674	1.000939
468.479105	1.000262
468.850477	1.000446
469.221790	1.000586
469.593043	1.001009
469.964238	1.001622
470.335373	1.000414
470.706449	1.000337
471.077467	1.001102
471.448425	1.000473
471.819324	1.000811
472.190164	0.999629
472.560945	1.000958
472.931667	1.000247
473.302330	0.999965
473.672934	1.000774
474.043479	1.000045
474.413965	1.000015
474.784393	1.000614
475.154761	1.000245
475.525070	0.999311
475.895321	0.999941
476.265513	1.000399
476.635645	1.000766
477.005719	1.000804
477.375734	0.999743
477.745691	1.000733
478.115588	1.000267
478.485427	1.000789
478.855207	1.000645
479.224928	1.000299
479.594591	0.999873
479.964194	1.000883
480.333739	1.000829
480.703226	1.000502
481.072653	1.001336
481.442022	1.001385
481.811333	0.999585
482.180584	1.000672
482.549777	1.000349
482.918912	1.000723
483.287988	1.000816
483.657005	1.000527
484.025964	1.000569
484.394864	1.000393
484.763706	1.000706
485.132489	1.000454
485.501213	1.000418
485.869879	1.000676
486.238487	1.000124
486.607036	1.000702
486.975527	0.999759
487.343959	1.000102
487.712333	0.999868
488.080648	0.999326
488.448905	0.999898
488.817104	0.999977
489.185244	0.999691
489.553326	1.000016
489.921350	0.999920
490.289315	0.998960
490.657222	0.999879
491.025070	0.999561
491.392861	0.999025
491.760593	0.999780
492.128267	0.998415
492.495883	0.999042
492.863440	0.998623
493.230939	0.999438
493.598380	0.998451
493.965763	0.998255
494.333088	0.997917
494.700354	0.997314
495.067563	0.996669
495.434713	0.997151
495.801805	0.998043
496.168839	0.996562
496.535815	0.995302
496.902733	0.995338
497.269593	0.995673
497.636395	0.995139
498.003139	0.994928
498.369825	0.994899
498.736453	0.993305
499.103023	0.992728
499.469535	0.991882
499.835989	0.992433
500.202385	0.990821
500.568723	0.990609
500.935003	0.990034
501.301226	0.988794
501.667390	0.988469
502.033497	0.987686
502.399546	0.987157
502.765537	0.985853
503.131470	0.985082
503.497345	0.984111
503.863163	0.984535
504.228923	0.982052
504.594625	0.981426
504.960269	0.981263
505.325856	0.979475
505.691385	0.978241
506.056856	0.976322
506.422270	0.975103
506.787625	0.974691
507.152924	0.972702
507.518164	0.971401
507.883347	0.970072
508.248472	0.967732
508.613540	0.966959
508.978550	0.965526
509.343503	0.962398
509.708398	0.961881
510.073236	0.959987
510.438016	0.958386
510.802738	0.955840
511.167403	0.953800
511.532010	0.951719
511.896561	0.949526
512.261053	0.948013
512.625488	0.944911
512.989866	0.943125
513.354186	0.940450
513.718449	0.938160
514.082655	0.935205
514.446803	0.933211
514.810894	0.930942
515.174927	0.926825
515.538904	0.924614
515.902822	0.921300
516.266684	0.918987
516.630488	0.916673
516.994235	0.912409
517.357925	0.909050
517.721558	0.906350
518.085133	0.902777
518.448651	0.900286
518.812112	0.896724
519.175516	0.892383
519.538863	0.889234
519.902152	0.885995
520.265385	0.880614
520.628560	0.878321
520.991678	0.873965
521.354739	0.870430
521.717743	0.866826
522.080690	0.863253
522.443580	0.857872
522.806413	0.854337
523.169189	0.849354
523.531908	0.845518
523.894569	0.842221
524.257174	0.838042
524.619722	0.832465
524.982213	0.829483
525.344647	0.823519
525.707025	0.819298
526.069345	0.813487
526.431608	0.809706
526.793815	0.804421
527.155964	0.800436
527.518057	0.796758
527.880093	0.791837
528.242072	0.786105
528.603995	0.781467
528.965860	0.777645
529.327669	0.771527
529.689421	0.767750
530.051117	0.763317
530.412755	0.755765
530.774337	0.753004
531.135862	0.746467
531.497331	0.742713
531.858743	0.737601
532.220098	0.731555
532.581396	0.726626
532.942638	0.722490
533.303824	0.717659
533.664953	0.710723
534.026025	0.706474
534.387040	0.700681
534.747999	0.695507
535.108902	0.690093
535.469748	0.686250
535.830537	0.680217
536.191270	0.674649
536.551947	0.668872
536.912567	0.664135
537.273131	0.660334
537.633638	0.654966
537.994089	0.649558
538.354483	0.644663
538.714821	0.638347
539.075103	0.633274
539.435328	0.627893
539.795497	0.625470
540.155609	0.617294
540.515665	0.612108
540.875665	0.610033
541.235609	0.603311
541.595496	0.598918
541.955328	0.590372
542.315102	0.588100
542.674821	0.583206
543.034483	0.578476
543.394090	0.572489
543.753640	0.568800
544.113134	0.560573
544.472571	0.557972
544.831953	0.550347
545.191278	0.547382
545.550548	0.543168
545.909761	0.535856
546.268918	0.531160
546.628019	0.525797
546.987064	0.521989
547.346053	0.519334
547.704986	0.512546
548.063863	0.508328
548.422684	0.504600
548.781449	0.500541
549.140158	0.494021
549.498811	0.491325
549.857408	0.490286
550.215949	0.480414
550.574434	0.479049
550.932864	0.472479
551.291237	0.468253
551.649555	0.463272
552.007817	0.459523
552.366022	0.456209
552.724173	0.452514
553.082267	0.448959
553.440305	0.441412
553.798288	0.442560
554.156215	0.434586
554.514086	0.431460
554.871902	0.430219
555.229661	0.425696
555.587365	0.422354
555.945014	0.421656
556.302606	0.413785
556.660143	0.413716
557.017625	0.405801
557.375050	0.404896
557.732421	0.398417
558.089735	0.396584
558.446994	0.393557
558.804197	0.389460
559.161345	0.385721
559.518437	0.385858
559.875474	0.379674
560.232455	0.376385
560.589381	0.374714
560.946251	0.370225
561.303065	0.366631
561.659825	0.364046
562.016528	0.362430
562.373177	0.362607
562.729770	0.356873
563.086307	0.355845
563.442789	0.351778
563.799216	0.350507
564.155587	0.347256
564.511904	0.345340
564.868164	0.343430
565.224370	0.340538
565.580520	0.339280
565.936615	0.337550
566.292654	0.337368
566.648638	0.332711
567.004567	0.331037
567.360441	0.330036
567.716260	0.329371
568.072023	0.325040
568.427732	0.323625
568.783385	0.324561
569.138982	0.320360
569.494525	0.318072
569.850013	0.319064
570.205445	0.315335
570.560823	0.316667
570.916145	0.316111
571.271412	0.312677
571.626625	0.312448
571.981782	0.311523
572.336884	0.310283
572.691931	0.308669
573.046923	0.308147
573.401860	0.308060
573.756743	0.307954
574.111570	0.305444
574.466342	0.304782
574.821059	0.302331
575.175722	0.303904
575.530330	0.302314
575.884882	0.301311
576.239380	0.302144
576.593823	0.301608
576.948211	0.299524
577.302544	0.302126
577.656823	0.300492
578.011047	0.299506
578.365216	0.299226
578.719330	0.299925
579.073389	0.298851
579.427394	0.299595
579.781344	0.299174
580.135239	0.300031
580.489080	0.298570
580.842866	0.300954
581.196597	0.299773
581.550273	0.297681
581.903895	0.298121
582.257463	0.295714
582.610975	0.298356
582.964434	0.297225
583.317837	0.298881
583.671186	0.298662
584.024481	0.298161
584.377721	0.300209
584.730906	0.300177
585.084037	0.298588
585.437113	0.299813
585.790135	0.298890
586.143103	0.301616
586.496016	0.302247
586.848874	0.299397
587.201679	0.299345
587.554428	0.302493
587.907124	0.300843
588.259765	0.301165
588.612352	0.301259
588.964884	0.304590
589.317362	0.303764
589.669786	0.303559
590.022155	0.301821
590.374470	0.300950
590.726731	0.303051
591.078937	0.306794
591.431090	0.303025
591.783188	0.307434
592.135232	0.307252
592.487222	0.306990
592.839157	0.305058
593.191038	0.306940
593.542866	0.308949
593.894639	0.312077
594.246358	0.309818
594.598022	0.309122
594.949633	0.312726
595.301190	0.313147
595.652692	0.311982
596.004141	0.308105
596.355535	0.315979
596.706876	0.316295
597.058162	0.318658
597.409395	0.315845
597.760573	0.313674
598.111698	0.316470
598.462768	0.316816
598.813785	0.318164
599.164748	0.319390
599.515657	0.319717
599.866511	0.322648
600.217312	0.317891
600.568060	0.323238
600.918753	0.319344
601.269392	0.320151
601.619978	0.323909
601.970510	0.321122
602.320988	0.321356
602.671412	0.318774
603.021783	0.321226
603.372100	0.322524
603.722363	0.322025
604.072572	0.323149
604.422728	0.322494
604.772830	0.324835
605.122878	0.324277
605.472872	0.324442
605.822813	0.322778
606.172701	0.325406
606.522534	0.323044
606.872314	0.322680
607.222041	0.323387
607.571714	0.321877
607.921333	0.323028
608.270899	0.322819
608.620411	0.319762
608.969870	0.323083
609.319276	0.323452
609.668627	0.323230
610.017926	0.321419
610.367171	0.320102
610.716362	0.320788
611.065500	0.321146
611.414585	0.319748
611.763616	0.320285
612.112594	0.320929
612.461518	0.320058
612.810389	0.317791
613.159207	0.320089
613.507971	0.321693
613.856682	0.317407
614.205340	0.319249
614.553945	0.315886
614.902496	0.319823
615.250994	0.317993
615.599439	0.318392
615.947830	0.317929
616.296169	0.318737
616.644454	0.318102
616.992686	0.318685
617.340864	0.316434
617.688990	0.320090
618.037063	0.316398
618.385082	0.318447
618.733048	0.315234
619.080961	0.317715
619.428821	0.317058
619.776628	0.315986
620.124382	0.318310
620.472083	0.318702
620.819731	0.317949
621.167326	0.321710
621.514868	0.321642
621.862357	0.325915
622.209793	0.325696
622.557176	0.327519
622.904506	0.328626
623.251783	0.331193
623.599007	0.333109
623.946179	0.332885
624.293297	0.334895
624.640363	0.338365
624.987376	0.339022
625.334336	0.341529
625.681243	0.343648
626.028097	0.344323
626.374899	0.345177
626.721647	0.345420
627.068343	0.348741
627.414987	0.349824
627.761577	0.352077
628.108115	0.350560
628.454600	0.355602
628.801032	0.352544
629.147412	0.354620
629.493739	0.354565
629.840014	0.358094
630.186236	0.355820
630.532405	0.361101
630.878521	0.358862
631.224585	0.360820
631.570597	0.363990
631.916556	0.362528
632.262462	0.362920
632.608316	0.365248
632.954117	0.365617
633.299866	0.367123
633.645562	0.367261
633.991206	0.371668
634.336797	0.374453
634.682336	0.376262
635.027823	0.378400
635.373257	0.379026
635.718639	0.382137
636.063968	0.381737
636.409245	0.387139
636.754470	0.387497
637.099642	0.390411
637.444762	0.393285
637.789829	0.392591
638.134845	0.396176
638.479808	0.396954
638.824719	0.396293
639.169577	0.400810
639.514383	0.399321
639.859137	0.403517
640.203839	0.403803
640.548489	0.404041
640.893086	0.405345
641.237632	0.407053
641.582125	0.405740
641.926566	0.407188
642.270955	0.406959
642.615292	0.407683
642.959576	0.406936
643.303809	0.407438
643.647990	0.406441
643.992118	0.407205
644.336195	0.411102
644.680219	0.409048
645.024192	0.409943
645.368112	0.403322
645.711981	0.402498
646.055797	0.397800
646.399562	0.400937
646.743274	0.392418
647.086935	0.390036
647.430544	0.389884
647.774101	0.388984
648.117606	0.388507
648.461059	0.388472
648.804460	0.391487
649.147810	0.396575
649.491108	0.397881
649.834354	0.399718
650.177548	0.405205
650.520690	0.410507
650.863781	0.411462
651.206820	0.411272
651.549807	0.415761
651.892742	0.419646
652.235626	0.419155
652.578458	0.420166
652.921238	0.426208
653.263967	0.423765
653.606644	0.428232
653.949269	0.427424
654.291843	0.431691
654.634365	0.427751
654.976836	0.431300
655.319255	0.431440
655.661622	0.433781
656.003938	0.433316
656.346203	0.435932
656.688416	0.434215
657.030577	0.437626
657.372687	0.439386
657.714746	0.440401
658.056753	0.437459
658.398708	0.440184
658.740612	0.442037
659.082465	0.438310
659.424266	0.439294
659.766016	0.438164
660.107715	0.440520
660.449362	0.439786
660.790958	0.440581
661.132503	0.440908
661.473996	0.438569
661.815438	0.439447
662.156829	0.439798
662.498168	0.440338
662.839456	0.441553
663.180693	0.439746
663.521879	0.439034
663.863013	0.440630
664.204097	0.438882
664.545129	0.436242
664.886110	0.436877
665.227040	0.433786
665.567918	0.436541
665.908746	0.434285
666.249522	0.433857
666.590248	0.434863
666.930922	0.432948
667.271545	0.431744
667.612118	0.431629
667.952639	0.433919
668.293109	0.432350
668.633528	0.435291
668.973896	0.435262
669.314213	0.435608
669.654480	0.437208
669.994695	0.437143
670.334859	0.437899
670.674973	0.438152
671.015035	0.438360
671.355047	0.438302
671.695008	0.439578
672.034918	0.441438
672.374777	0.440995
672.714585	0.441587
673.054342	0.441523
673.394049	0.442333
673.733705	0.439287
674.073310	0.440792
674.412864	0.443836
674.752368	0.444164
675.091820	0.444564
675.431223	0.448832
675.770574	0.448340
676.109875	0.451651
676.449125	0.451402
676.788324	0.454199
677.127473	0.459401
677.466571	0.459587
677.805619	0.461044
678.144616	0.461703
678.483562	0.463220
678.822458	0.466095
679.161303	0.467458
679.500098	0.467130
679.838842	0.469666
680.177535	0.469043
680.516179	0.467199
680.854771	0.466348
681.193314	0.460010
681.531805	0.451210
681.870247	0.439638
682.208638	0.432394
682.546978	0.431565
682.885268	0.432983
683.223508	0.439120
683.561697	0.442625
683.899836	0.445579
684.237925	0.448939
684.575963	0.451728
684.913951	0.455023
685.251889	0.450278
685.589776	0.452554
685.927614	0.454454
686.265401	0.449303
686.603137	0.449966
686.940824	0.444366
687.278460	0.443258
687.616046	0.442121
687.953582	0.436969
688.291068	0.438565
688.628504	0.434156
688.965889	0.436324
689.303224	0.440446
689.640510	0.444422
689.977745	0.449963
690.314930	0.457828
690.652065	0.462225
690.989150	0.469865
691.326185	0.476294
691.663170	0.481041
692.000105	0.488086
692.336990	0.495052
692.673825	0.497644
693.010610	0.504561
693.347345	0.509927
693.684030	0.511341
694.020665	0.516367
694.357251	0.524697
694.693786	0.524501
695.030272	0.528288
695.366707	0.531906
695.703093	0.535237
696.039429	0.532820
696.375716	0.534760
696.711952	0.537386
697.048139	0.539883
697.384276	0.541509
697.720363	0.539229
698.056400	0.539018
698.392388	0.545015
698.728326	0.546928
699.064214	0.550280
699.400053	0.550719
699.735842	0.555000
700.071581	0.557341
700.407270	0.560312
700.742910	0.563026
701.078501	0.569411
701.414042	0.569455
701.749533	0.572649
702.084974	0.580660
702.420366	0.573965
702.755709	0.581172
703.091002	0.589179
703.426246	0.582293
703.761440	0.588397
704.096584	0.593785
704.431679	0.589748
704.766725	0.591711
705.101721	0.593345
705.436668	0.589950
705.771565	0.596929
706.106413	0.594422
706.441212	0.589356
706.775961	0.588164
707.110661	0.589795
707.445311	0.586853
707.779913	0.584294
708.114465	0.582626
708.448967	0.579114
708.783421	0.571777
709.117825	0.566170
709.452180	0.565689
709.786485	0.559953
710.120742	0.549887
710.454949	0.551891
710.789107	0.544371
711.123216	0.535248
711.457275	0.536716
711.791286	0.527822
712.125247	0.526670
712.459159	0.537487
712.793023	0.530605
713.126837	0.534187
713.460602	0.534405
713.794318	0.543990
714.127985	0.543007
714.461602	0.553244
714.795171	0.556456
715.128691	0.563647
715.462162	0.571466
715.795584	0.576139
716.128957	0.579602
716.462281	0.586115
716.795556	0.589801
717.128782	0.595180
717.461960	0.604249
717.795088	0.602629
718.128167	0.609118
718.461198	0.617799
718.794180	0.618567
719.127113	0.620570
719.459997	0.624426
719.792833	0.631018
720.125619	0.631754
720.458357	0.638165
720.791046	0.637391
721.123686	0.640364
721.456278	0.648334
721.788821	0.644823
722.121315	0.648725
722.453761	0.653905
722.786158	0.651450
723.118506	0.648136
723.450805	0.655356
723.783056	0.651985
724.115259	0.648366
724.447412	0.648359
724.779518	0.650317
725.111574	0.648895
725.443582	0.643964
725.775542	0.645905
726.107453	0.638580
726.439315	0.639041
726.771129	0.636897
727.102895	0.630240
727.434612	0.623520
727.766281	0.621245
728.097901	0.620690
728.429473	0.620641
728.760996	0.618416
729.092471	0.618703
729.423897	0.622368
729.755276	0.621835
730.086606	0.621300
730.417887	0.616030
730.749120	0.607541
731.080305	0.598160
731.411442	0.594413
731.742530	0.598818
732.073570	0.598886
732.404562	0.590936
732.735506	0.591615
733.066401	0.596489
733.397249	0.605929
733.728048	0.617256
734.058798	0.629663
734.389501	0.639898
734.720156	0.650057
735.050762	0.658015
735.381320	0.658582
735.711831	0.667893
736.042293	0.672582
736.372707	0.668567
736.703073	0.672950
737.033391	0.675367
737.363661	0.672329
737.693883	0.667599
738.024056	0.666653
738.354182	0.667039
738.684260	0.656624
739.014290	0.652539
739.344272	0.654166
739.674207	0.646748
740.004093	0.646541
740.333931	0.646803
740.663722	0.646404
740.993464	0.647233
741.323159	0.650689
741.652806	0.655687
741.982405	0.660265
742.311956	0.664771
742.641460	0.667137
742.970915	0.671234
743.300323	0.678138
743.629683	0.685533
743.958996	0.687380
744.288260	0.691281
744.617477	0.697419
744.946647	0.699540
745.275768	0.704172
745.604842	0.703876
745.933869	0.714008
746.262847	0.714159
746.591778	0.707414
746.920662	0.714922
747.249498	0.720708
747.578286	0.710686
747.907027	0.707384
748.235720	0.709127
748.564365	0.703540
748.892963	0.703973
749.221514	0.706134
749.550017	0.711425
749.878473	0.710813
750.206881	0.717656
750.535242	0.718588
750.863555	0.718539
751.191821	0.720357
751.520039	0.723165
751.848210	0.728129
752.176334	0.720258
752.504411	0.718952
752.832440	0.727733
753.160421	0.730646
753.488356	0.729388
753.816243	0.727469
754.144082	0.735340
754.471875	0.738779
754.799620	0.734172
755.127318	0.735183
755.454969	0.735810
755.782572	0.735648
756.110129	0.739729
756.437638	0.741293
756.765100	0.738684
757.092515	0.737348
757.419882	0.735350
757.747203	0.741264
758.074477	0.739977
758.401703	0.737339
758.728882	0.733269
759.056014	0.731664
759.383099	0.730838
759.710138	0.731855
760.037129	0.729306
760.364073	0.721838
760.690970	0.724953
761.017820	0.730279
761.344623	0.726471
761.671379	0.717065
761.998088	0.705282
762.324751	0.683702
762.651366	0.642304
762.977935	0.576184
763.304456	0.524004
763.630931	0.514591
763.957359	0.553308
764.283740	0.597525
764.610074	0.624447
764.936362	0.654777
765.262602	0.681239
765.588796	0.702787
765.914943	0.720218
766.241044	0.738969
766.567097	0.743890
766.893104	0.753782
767.219064	0.760905
767.544978	0.767329
767.870845	0.781597
768.196665	0.784518
768.522438	0.781875
768.848165	0.783760
769.173846	0.792254
769.499479	0.796798
769.825066	0.800566
770.150607	0.804920
770.476101	0.800555
770.801548	0.802103
771.126949	0.812653
771.452303	0.817367
771.777611	0.816567
772.102872	0.815264
772.428087	0.820422
772.753256	0.823757
773.078378	0.825849
773.403453	0.835158
773.728482	0.838640
774.053465	0.833223
774.378401	0.835147
774.703291	0.844162
775.028135	0.843681
775.352932	0.844729
775.677683	0.848295
776.002388	0.849614
776.327046	0.847412
776.651658	0.851919
776.976224	0.855051
777.300743	0.855153
777.625216	0.857298
777.949643	0.859297
778.274024	0.859782
778.598359	0.860630
778.922647	0.858923
779.246889	0.860000
779.571086	0.863483
779.895236	0.866397
780.219339	0.863090
780.543397	0.860923
780.867409	0.859074
781.191374	0.861006
781.515294	0.862413
781.839167	0.860764
782.162995	0.865068
782.486776	0.861491
782.810511	0.862712
783.134201	0.865823
783.457844	0.863869
783.781441	0.867198
784.104993	0.872133
784.428498	0.871950
784.751958	0.868086
785.075372	0.870984
785.398739	0.874720
785.722061	0.870079
786.045337	0.866645
786.368568	0.871796
786.691752	0.873713
787.014891	0.859512
787.337983	0.850620
787.661030	0.843122
787.984031	0.826476
788.306987	0.813316
788.629897	0.815542
788.952760	0.819535
789.275579	0.824032
789.598351	0.839308
789.921078	0.851136
790.243759	0.854215
790.566395	0.859161
790.888984	0.865569
791.211529	0.870802
791.534027	0.874409
791.856480	0.875584
792.178888	0.880742
792.501249	0.883853
792.823566	0.885065
793.145836	0.885070
793.468062	0.886160
793.790241	0.886918
794.112375	0.884781
794.434464	0.879926
794.756507	0.880833
795.078505	0.879464
795.400457	0.874272
795.722364	0.862202
796.044226	0.855193
796.366042	0.855341
796.687812	0.858341
797.009538	0.854390
797.331218	0.857199
797.652852	0.861625
797.974442	0.865374
798.295986	0.866648
798.617484	0.869436
798.938938	0.872594
799.260346	0.877975
799.581709	0.880062
799.903026	0.882633
800.224299	0.882190
800.545526	0.886552
800.866708	0.890475
801.187845	0.894547
801.508936	0.895041
801.829983	0.891676
802.150984	0.894466
802.471940	0.899607
802.792851	0.898789
803.113717	0.900095
803.434538	0.898497
803.755314	0.900483
804.076045	0.901806
804.396731	0.902759
804.717372	0.901784
805.037967	0.903198
805.358518	0.902456
805.679024	0.898357
805.999485	0.898633
806.319901	0.899449
806.640272	0.900415
806.960598	0.897986
807.280879	0.896392
807.601115	0.894588
807.921306	0.898520
808.241453	0.897644
808.561554	0.896387
808.881611	0.896558
809.201623	0.898331
809.521590	0.897683
809.841513	0.899597
810.161390	0.898393
810.481223	0.899155
810.801011	0.904120
811.120755	0.905018
811.440453	0.903713
811.760107	0.903002
812.079716	0.902054
812.399281	0.906011
812.718801	0.908851
813.038276	0.909332
813.357707	0.908118
813.677093	0.906722
813.996434	0.909488
814.315731	0.910275
814.634983	0.911361
814.954191	0.910242
815.273354	0.907605
815.592473	0.903974
815.911547	0.903195
816.230577	0.901182
816.549562	0.898441
816.868502	0.899858
817.187399	0.895619
817.506250	0.890198
817.825058	0.892127
818.143821	0.888635
818.462539	0.883491
818.781213	0.875515
819.099843	0.863973
819.418429	0.849835
819.736970	0.833303
820.055466	0.814322
820.373919	0.788217
820.692327	0.755747
821.010691	0.722174
821.329011	0.646762
821.647286	0.533299
821.965517	0.420712
822.283704	0.378841
822.601847	0.380456
822.919945	0.416207
823.237999	0.448679
823.556010	0.494383
823.873976	0.549791
824.191897	0.599685
824.509775	0.641224
824.827609	0.684983
825.145398	0.707867
825.463144	0.710979
825.780845	0.693501
826.098502	0.675238
826.416116	0.630560
826.733685	0.587521
827.051210	0.579023
827.368692	0.593764
827.686129	0.630230
828.003522	0.682844
828.320872	0.729268
828.638177	0.771708
828.955439	0.804562
829.272656	0.825636
829.589830	0.841697
829.906960	0.856533
830.224046	0.870165
830.541088	0.880363
830.858086	0.883181
831.175041	0.890213
831.491952	0.889179
831.808819	0.885626
832.125642	0.879867
832.442421	0.864350
832.759157	0.844236
833.075849	0.798772
833.392497	0.736624
833.709101	0.696048
834.025662	0.704988
834.342179	0.736380
834.658653	0.775289
834.975083	0.810271
835.291469	0.836771
835.607811	0.857183
835.924110	0.872649
836.240366	0.890638
836.556578	0.904210
836.872746	0.910938
837.188871	0.917399
837.504952	0.922562
837.820990	0.925893
838.136984	0.930130
838.452935	0.932061
838.768842	0.934351
839.084706	0.927041
839.400526	0.901329
839.716303	0.862563
840.032037	0.840787
840.347727	0.844254
840.663373	0.862405
840.978977	0.882095
841.294537	0.904583
841.610054	0.920804
841.925527	0.927217
842.240957	0.935779
842.556344	0.942312
842.871687	0.947937
843.186987	0.953281
843.502244	0.951723
843.817458	0.953431
844.132629	0.956473
844.447756	0.961286
844.762840	0.962495
845.077881	0.960207
845.392879	0.960828
845.707833	0.963477
846.022745	0.966181
846.337613	0.966369
846.652438	0.966651
846.967221	0.965892
847.281960	0.966561
847.596656	0.969093
847.911309	0.966948
848.225919	0.969086
848.540485	0.969678
848.855009	0.969403
849.169490	0.969937
849.483928	0.969657
849.798323	0.970211
850.112675	0.971461
850.426984	0.971227
850.741251	0.971172
851.055474	0.971813
851.369654	0.969612
851.683792	0.970915
851.997887	0.971518
852.311938	0.972328
852.625947	0.971463
852.939914	0.969591
853.253837	0.969964
853.567718	0.973180
853.881555	0.971980
854.195350	0.969290
854.509103	0.971112
854.822812	0.971694
855.136479	0.971966
855.450103	0.970543
855.763685	0.970596
856.077224	0.969732
856.390720	0.971380
856.704173	0.970959
857.017584	0.970011
857.330953	0.967851
857.644278	0.969805
857.957561	0.970524
858.270802	0.970323
858.584000	0.969216
858.897155	0.967217
859.210268	0.969131
859.523339	0.969764
859.836367	0.971893
860.149352	0.972104
860.462295	0.969291
860.775195	0.971053
861.088054	0.969994
861.400869	0.969770
861.713642	0.971578
862.026373	0.972067
862.339062	0.972355
862.651708	0.969040
862.964312	0.969159
863.276873	0.970548
863.589392	0.970904
863.901869	0.967788
864.214303	0.966519
864.526696	0.966115
864.839045	0.965995
865.151353	0.963479
865.463619	0.964779
865.775842	0.964050
866.088023	0.963006
866.400162	0.964003
866.712258	0.963949
867.024313	0.964394
867.336325	0.965062
867.648296	0.965404
867.960224	0.964010
868.272110	0.963452
868.583954	0.964729
868.895755	0.965373
869.207515	0.963695
869.519233	0.961587
869.830909	0.963061
870.142542	0.964403
870.454134	0.962734
870.765684	0.962724
871.077191	0.960362
871.388657	0.960122
871.700081	0.960228
872.011463	0.959953
872.322803	0.959664
872.634101	0.958528
872.945357	0.955729
873.256571	0.955028
873.567744	0.955171
873.878874	0.956284
874.189963	0.953930
874.501010	0.954123
874.812015	0.951910
875.122979	0.954031
875.433900	0.956329
875.744780	0.956202
876.055618	0.953842
876.366415	0.952024
876.677169	0.952191
876.987882	0.953204
877.298554	0.953848
877.609183	0.950623
877.919771	0.947311
878.230317	0.944831
878.540822	0.943739
878.851285	0.937326
879.161707	0.930776
879.472087	0.918587
879.782425	0.903453
880.092722	0.870442
880.402977	0.819848
880.713191	0.762713
881.023363	0.704567
881.333494	0.672565
881.643583	0.644617
881.953631	0.644400
882.263637	0.672827
882.573602	0.711264
882.883526	0.735969
883.193408	0.758715
883.503248	0.779214
883.813048	0.806431
884.122806	0.835098
884.432522	0.858066
884.742197	0.876783
885.051831	0.885872
885.361424	0.896980
885.670975	0.907927
885.980485	0.918342
886.289954	0.923930
886.599382	0.927449
886.908768	0.931668
887.218113	0.937857
887.527417	0.942319
887.836680	0.944405
888.145901	0.946025
888.455082	0.948562
888.764221	0.953155
889.073319	0.954678
889.382376	0.955624
889.691392	0.954883
890.000366	0.955309
890.309300	0.956487
890.618193	0.955454
890.927044	0.954138
891.235855	0.954402
891.544625	0.954269
891.853353	0.954140
892.162041	0.951380
892.470687	0.945320
892.779293	0.940111
893.087858	0.936617
893.396381	0.930939
893.704864	0.918037
894.013306	0.894488
894.321707	0.869246
894.630068	0.855159
894.938387	0.851272
895.246665	0.852420
895.554903	0.864314
895.863100	0.875792
896.171256	0.892883
896.479371	0.911543
896.787446	0.923383
897.095480	0.929560
897.403473	0.932514
897.711425	0.935472
898.019336	0.943516
898.327207	0.946272
898.635038	0.948406
898.942827	0.948325
899.250576	0.951919
899.558284	0.955084
899.865952	0.956324
900.173579	0.956792
900.481165	0.958172
900.788711	0.961764
901.096216	0.962996
901.403681	0.964904
901.711105	0.964491
902.018489	0.965957
902.325832	0.964110
902.633135	0.963603
902.940397	0.958814
903.247619	0.946480
903.554800	0.922429
903.861941	0.885894
904.169041	0.850451
904.476101	0.835678
904.783121	0.835425
905.090100	0.851764
905.397039	0.872310
905.703938	0.892458
906.010796	0.911279
906.317614	0.927722
906.624391	0.938322
906.931129	0.947211
907.237826	0.955403
907.544483	0.961447
907.851099	0.963910
908.157675	0.968518
908.464211	0.972830
908.770707	0.973928
909.077163	0.976223
909.383578	0.976598
909.689954	0.976637
909.996289	0.977659
910.302584	0.979220
910.608839	0.982032
910.915054	0.979947
911.221229	0.979873
911.527363	0.979124
911.833458	0.978984
912.139513	0.979102
912.445527	0.977601
912.751502	0.976529
913.057436	0.974676
913.363331	0.973143
913.669186	0.968665
913.975000	0.964497
914.280775	0.958358
914.586510	0.950974
914.892205	0.940070
915.197859	0.919937
915.503475	0.893758
915.809050	0.875432
916.114585	0.869819
916.420081	0.868361
916.725536	0.864773
917.030952	0.872729
917.336328	0.884211
917.641665	0.898340
917.946961	0.914030
918.252218	0.924748
918.557435	0.931661
918.862612	0.940109
919.167750	0.946092
919.472848	0.950646
919.777906	0.955935
920.082925	0.960610
920.387904	0.964751
920.692843	0.965707
920.997743	0.965810
921.302603	0.970097
921.607423	0.971815
921.912204	0.974488
922.216946	0.973889
922.521647	0.976104
922.826310	0.975631
923.130932	0.978658
923.435516	0.980308
923.740059	0.981730
924.044564	0.979572
924.349028	0.982701
924.653454	0.984920
924.957840	0.987047
925.262186	0.986268
925.566493	0.984831
925.870761	0.985992
926.174989	0.987369
926.479178	0.990476
926.783328	0.989580
927.087438	0.989153
927.391509	0.989719
927.695541	0.990832
927.999533	0.989803
928.303486	0.990934
928.607400	0.992388
928.911275	0.990367
929.215110	0.991562
929.518906	0.991663
929.822663	0.991199
930.126381	0.991138
930.430060	0.991095
930.733699	0.991605
931.037299	0.990602
931.340861	0.992540
931.644383	0.990202
931.947866	0.990187
932.251309	0.991038
932.554714	0.992060
932.858080	0.991682
933.161407	0.992305
933.464694	0.991899
933.767943	0.990881
934.071153	0.991794
934.374323	0.992698
934.677455	0.990921
934.980548	0.993196
935.283602	0.991495
935.586617	0.991633
935.889593	0.991685
936.192530	0.992103
936.495428	0.991627
936.798287	0.992289
937.101108	0.991210
937.403890	0.990065
937.706632	0.990506
938.009336	0.987846
938.312002	0.987630
938.614628	0.986971
938.917216	0.985071
939.219765	0.983270
939.522275	0.984133
939.824747	0.984881
940.127179	0.985167
940.429573	0.985926
940.731929	0.985436
941.034246	0.985624
941.336524	0.986819
941.638763	0.987878
941.940964	0.988049
942.243126	0.986823
942.545250	0.989477
942.847335	0.989702
943.149381	0.989556
943.451389	0.989521
943.753359	0.990145
944.055290	0.991742
944.357182	0.990634
944.659036	0.989558
944.960851	0.990802
945.262628	0.989906
945.564367	0.990831
945.866067	0.991058
946.167729	0.993076
946.469352	0.990538
946.770937	0.990177
947.072484	0.990898
947.373992	0.990889
947.675462	0.990529
947.976893	0.990573
948.278286	0.990920
948.579641	0.993319
948.880958	0.991302
949.182236	0.990879
949.483476	0.991690
949.784678	0.991925
950.085841	0.992556
950.386967	0.991652
950.688054	0.991636
950.989103	0.992150
951.290114	0.989576
951.591087	0.990890
951.892021	0.991318
952.192917	0.990076
952.493776	0.989406
952.794596	0.989095
953.095378	0.988996
953.396122	0.987882
953.696828	0.988570
953.997496	0.991368
954.298126	0.991696
954.598718	0.991578
954.899272	0.990796
955.199788	0.991634
955.500266	0.992448
955.800706	0.993168
956.101108	0.994286
956.401472	0.994522
956.701798	0.995631
957.002087	0.993880
957.302337	0.994013
957.602550	0.995961
957.902724	0.994778
958.202861	0.996084
958.502960	0.995892
958.803022	0.994471
959.103045	0.995879
959.403031	0.996731
959.702979	0.995456
960.002889	0.996657
960.302762	0.995059
960.602596	0.996676
960.902393	0.995831
961.202153	0.996757
961.501875	0.997143
961.801559	0.996791
962.101205	0.995294
962.400814	0.996170
962.700385	0.996725
962.999918	0.995585
963.299414	0.997506
963.598873	0.996063
963.898293	0.996180
964.197677	0.997333
964.497022	0.996663
964.796331	0.996999
965.095601	0.998027
965.394835	0.997953
965.694030	0.996890
965.993189	0.997942
966.292309	0.997069
966.591393	0.997909
966.890439	0.997820
967.189447	0.997920
967.488419	0.998053
967.787353	0.996030
968.086249	0.996769
968.385108	0.997286
968.683930	0.998475
968.982714	0.998179
969.281462	0.998139
969.580172	0.996636
969.878844	0.998053
970.177480	0.997038
970.476078	0.997499
970.774639	0.996217
971.073162	0.997727
971.371649	0.997189
971.670098	0.997627
971.968510	0.998944
972.266885	0.997548
972.565223	0.996166
972.863524	0.996211
973.161788	0.996614
973.460014	0.998374
973.758204	0.995457
974.056356	0.996205
974.354471	0.994465
974.652550	0.995744
974.950591	0.997281
975.248595	0.996306
975.546563	0.996574
975.844493	0.998683
976.142386	0.997696
976.440243	0.997860
976.738062	0.997032
977.035845	0.997998
977.333590	0.996935
977.631299	0.997431
977.928971	0.997602
978.226606	0.997557
978.524204	0.996586
978.821765	0.998575
979.119290	0.996783
979.416777	0.996181
979.714228	0.997681
980.011642	0.995583
980.309020	0.997839
980.606360	0.997634
980.903664	0.997828
981.200931	0.996251
981.498162	0.995658
981.795356	0.994851
982.092513	0.994098
982.389633	0.995180
982.686717	0.992284
982.983764	0.992927
983.280775	0.990641
983.577749	0.991221
983.874686	0.992145
984.171587	0.992521
984.468451	0.995288
984.765279	0.995766
985.062070	0.995113
985.358824	0.995653
985.655543	0.995749
985.952224	0.995125
986.248869	0.997557
986.545478	0.997596
986.842050	0.999046
987.138586	0.995480
987.435086	0.996974
987.731549	0.998621
988.027975	0.997087
988.324366	0.997807
988.620719	0.998676
988.917037	0.996815
989.213318	0.998722
989.509563	0.998356
989.805772	0.998399
990.101944	0.997890
990.398080	0.997656
990.694180	0.998996
990.990244	0.997511
991.286271	0.998214
991.582262	0.998761
991.878217	0.998076
992.174136	0.999258
992.470019	0.999020
992.765865	0.997857
993.061676	0.998487
993.357450	0.997604
993.653188	0.996890
993.948890	0.996751
994.244556	0.997888
994.540186	0.998489
994.835780	0.996360
995.131337	0.997149
995.426859	0.996497
995.722345	0.997938
996.017795	0.996776
996.313208	0.996785
996.608586	0.995944
996.903928	0.997119
997.199234	0.996583
997.494504	0.995730
997.789738	0.996362
998.084936	0.996458
998.380099	0.997833
998.675225	0.998701
998.970316	0.998654
999.265371	0.998185
999.560390	0.998072
999.855373	0.997718
1000.150320	0.998228
1000.445232	0.998922
1000.740108	0.997921
1001.034948	0.999987
1001.329752	0.998563
1001.624521	0.999239
1001.919254	0.998220
1002.213951	0.998523
1002.508613	0.997387
1002.803239	0.998680
1003.097829	0.999214
1003.392384	0.999369
1003.686903	0.998759
1003.981386	1.000116
1004.275834	0.998913
1004.570246	0.998299
1004.864623	0.998279
1005.158964	1.000087
1005.453270	0.998820
1005.747540	0.997865
1006.041775	0.998676
1006.335974	0.999301
1006.630138	0.999515
1006.924266	0.999974
1007.218359	1.000280
1007.512416	0.998891
1007.806438	0.998534
1008.100425	0.998859
1008.394376	0.999227
1008.688292	0.997882
1008.982172	1.001388
1009.276017	0.999423
1009.569827	0.999251
1009.863602	0.998885
1010.157341	1.000181
1010.451045	0.999189
1010.744714	0.998585
1011.038347	0.998385
1011.331945	0.998873
1011.625508	0.997200
1011.919036	0.999386
1012.212528	0.999034
1012.505986	0.998374
1012.799408	0.998428
1013.092795	0.998772
1013.386147	0.999176
1013.679464	0.999019
1013.972745	0.997663
1014.265992	0.997947
1014.559204	0.998660
1014.852380	0.998713
1015.145521	0.998628
1015.438628	0.998889
1015.731699	0.999432
1016.024736	0.999487
1016.317737	0.999556
1016.610703	0.998669
1016.903635	1.001105
1017.196531	0.998575
1017.489393	1.000582
1017.782219	0.998931
1018.075011	0.998399
1018.367768	0.999543
1018.660490	0.999403
1018.953177	0.999403
1019.245829	0.999403
