Dividing Wavelength (nm)	Counts (n)	Blue Motor Position (mm): 0.000000	Red Motor Position (mm): 29.800000	
326.493990	1.001210
326.888308	1.001210
327.282561	1.001210
327.676750	0.999278
328.070874	1.000123
328.464933	1.000635
328.858929	0.999965
329.252859	1.000241
329.646726	1.000232
330.040528	0.999191
330.434265	0.999111
330.827938	1.000554
331.221547	1.001922
331.615091	0.999538
332.008571	0.999640
332.401986	1.000461
332.795338	1.000062
333.188625	0.999629
333.581847	1.000395
333.975006	0.999684
334.368100	0.998933
334.761129	0.999595
335.154095	1.000300
335.546996	0.997628
335.939833	0.995218
336.332606	0.994621
336.725315	0.995147
337.117960	0.995860
337.510540	0.996830
337.903056	0.995048
338.295508	0.994800
338.687896	0.995635
339.080220	0.995101
339.472480	0.995348
339.864676	0.994085
340.256807	0.996034
340.648875	0.995383
341.040879	0.996354
341.432818	0.995707
341.824694	0.995459
342.216506	0.996436
342.608253	0.995703
342.999937	0.995405
343.391557	0.995924
343.783113	0.995532
344.174605	0.996057
344.566033	0.996304
344.957397	0.994656
345.348697	0.994704
345.739934	0.995098
346.131106	0.995409
346.522215	0.995318
346.913260	0.994799
347.304241	0.994719
347.695159	0.995468
348.086012	0.995087
348.476802	0.994744
348.867528	0.995807
349.258191	0.993322
349.648789	0.995941
350.039324	0.994680
350.429796	0.996718
350.820203	0.995109
351.210548	0.995571
351.600828	0.995190
351.991045	0.994590
352.381198	0.994924
352.771288	0.995582
353.161314	0.994904
353.551276	0.996523
353.941175	0.994282
354.331010	0.995225
354.720782	0.995903
355.110490	0.994474
355.500135	0.995388
355.889717	0.994649
356.279235	0.994419
356.668689	0.994875
357.058080	0.994595
357.447408	0.996003
357.836672	0.995622
358.225873	0.996010
358.615010	0.995217
359.004084	0.996089
359.393095	0.994997
359.782043	0.995629
360.170927	0.996448
360.559748	0.996614
360.948505	0.995436
361.337199	0.994797
361.725830	0.995336
362.114398	0.994250
362.502903	0.996369
362.891344	0.996810
363.279722	0.994907
363.668037	0.995457
364.056289	0.995129
364.444478	0.997233
364.832603	0.996029
365.220665	0.995639
365.608665	0.994607
365.996601	0.994760
366.384474	0.994677
366.772284	0.995507
367.160031	0.994468
367.547715	0.994555
367.935336	0.995376
368.322893	0.995894
368.710388	0.993885
369.097820	0.995621
369.485189	0.994315
369.872495	0.995445
370.259738	0.993552
370.646918	0.996110
371.034035	0.995994
371.421090	0.994994
371.808081	0.995078
372.195010	0.996386
372.581875	0.995715
372.968678	0.996766
373.355418	0.995599
373.742096	0.994904
374.128710	0.996789
374.515262	0.994938
374.901751	0.996026
375.288177	0.996574
375.674540	0.995419
376.060841	0.994920
376.447079	0.996716
376.833254	0.995915
377.219367	0.996029
377.605417	0.996457
377.991404	0.996983
378.377329	0.995568
378.763191	0.995767
379.148991	0.997580
379.534727	0.996861
379.920402	0.997398
380.306013	0.997447
380.691563	0.996566
381.077049	0.996923
381.462474	0.997339
381.847835	0.998249
382.233134	0.995635
382.618371	0.997023
383.003545	0.997105
383.388657	0.997255
383.773706	0.997381
384.158693	0.997080
384.543618	0.996960
384.928480	0.997691
385.313280	0.997527
385.698017	0.997814
386.082692	0.997669
386.467305	0.998354
386.851856	0.996995
387.236344	0.997082
387.620770	0.997336
388.005133	0.997640
388.389435	0.997976
388.773674	0.998271
389.157851	0.997746
389.541965	0.997716
389.926018	0.996824
390.310008	0.999068
390.693936	0.997562
391.077802	0.997777
391.461606	0.997066
391.845348	0.997152
392.229027	0.999419
392.612645	0.997026
392.996200	0.999106
393.379694	0.997921
393.763125	0.998680
394.146494	0.998170
394.529801	0.997618
394.913047	0.998395
395.296230	0.998862
395.679351	0.998022
396.062410	0.998105
396.445408	0.998945
396.828343	0.998394
397.211217	0.998274
397.594028	0.998211
397.976778	0.998384
398.359466	0.999120
398.742092	0.998131
399.124656	0.997852
399.507158	0.998131
399.889598	0.997860
400.271977	0.997885
400.654294	0.998472
401.036549	0.998281
401.418742	0.999306
401.800874	0.998353
402.182944	0.999248
402.564952	0.997526
402.946898	0.999640
403.328783	0.998524
403.710606	0.998312
404.092367	0.998295
404.474067	0.998473
404.855705	0.997410
405.237282	0.998868
405.618797	0.998712
406.000250	0.997977
406.381642	0.998511
406.762972	0.997959
407.144240	0.999093
407.525447	0.998459
407.906593	0.998129
408.287677	0.999051
408.668700	0.999116
409.049661	0.997805
409.430560	0.998088
409.811399	0.997951
410.192176	0.998469
410.572891	0.998499
410.953545	0.998658
411.334138	0.998286
411.714669	0.998739
412.095139	0.997585
412.475547	0.998907
412.855894	0.999364
413.236180	0.997583
413.616405	0.998604
413.996568	0.999080
414.376670	0.998913
414.756711	0.998012
415.136691	0.998337
415.516609	0.998500
415.896466	0.998262
416.276262	0.998500
416.655997	0.998454
417.035670	0.998208
417.415283	0.999158
417.794834	0.998572
418.174324	0.998680
418.553753	0.998853
418.933121	0.997881
419.312428	0.998616
419.691674	0.998160
420.070859	0.999011
420.449983	0.998046
420.829045	0.999191
421.208047	0.998970
421.586988	0.999063
421.965867	0.998940
422.344686	0.999128
422.723444	0.998975
423.102141	0.999237
423.480777	0.999539
423.859352	0.998590
424.237866	0.999008
424.616319	0.998839
424.994712	0.998940
425.373044	0.999940
425.751314	0.999332
426.129524	0.998311
426.507673	0.999101
426.885762	0.999790
427.263789	0.998634
427.641756	0.999259
428.019662	0.999891
428.397508	0.998207
428.775292	0.998429
429.153016	0.998631
429.530679	0.999766
429.908282	0.999540
430.285824	0.998611
430.663305	0.998909
431.040726	0.998035
431.418086	1.000313
431.795385	0.998914
432.172624	0.998607
432.549802	0.999569
432.926920	0.999245
433.303977	0.998151
433.680974	0.999328
434.057910	0.998856
434.434786	0.999915
434.811601	0.998855
435.188355	0.999167
435.565050	0.997870
435.941683	0.998707
436.318257	0.999849
436.694770	0.998192
437.071222	0.999155
437.447614	0.999390
437.823946	0.999104
438.200218	0.998962
438.576429	0.998820
438.952580	0.999499
439.328670	0.998155
439.704700	0.999333
440.080670	0.999854
440.456580	0.999104
440.832429	0.998575
441.208218	0.999283
441.583947	0.998752
441.959616	0.999474
442.335224	0.998540
442.710773	1.000164
443.086261	0.998483
443.461689	0.998909
443.837057	0.998735
444.212365	0.999729
444.587612	0.999205
444.962800	0.998615
445.337927	0.999339
445.712995	0.999423
446.088002	0.999874
446.462949	0.999612
446.837837	0.999295
447.212664	0.998921
447.587431	0.999039
447.962139	0.998748
448.336786	0.999616
448.711374	0.999769
449.085901	0.998865
449.460369	0.999745
449.834776	0.998821
450.209124	0.999272
450.583412	0.999259
450.957640	0.998580
451.331808	0.999076
451.705917	0.998836
452.079965	0.998343
452.453954	0.998665
452.827883	0.997891
453.201752	0.998834
453.575562	0.999774
453.949311	0.998804
454.323001	0.998552
454.696632	0.998521
455.070202	0.998397
455.443713	0.998374
455.817164	0.998791
456.190556	0.998940
456.563888	0.998722
456.937160	0.998488
457.310373	0.997998
457.683526	0.997445
458.056619	0.998182
458.429653	0.998078
458.802628	0.996738
459.175542	0.996992
459.548398	0.997216
459.921194	0.996475
460.293930	0.997348
460.666607	0.996334
461.039224	0.994682
461.411782	0.995820
461.784280	0.995435
462.156719	0.994656
462.529099	0.994732
462.901419	0.994067
463.273680	0.993203
463.645882	0.993430
464.018024	0.993234
464.390106	0.992328
464.762130	0.992126
465.134094	0.990000
465.505999	0.988627
465.877845	0.986592
466.249631	0.986453
466.621358	0.985477
466.993026	0.985479
467.364634	0.985003
467.736184	0.984579
468.107674	0.982997
468.479105	0.981257
468.850477	0.979967
469.221790	0.979586
469.593043	0.978553
469.964238	0.977031
470.335373	0.975555
470.706449	0.974075
471.077467	0.972030
471.448425	0.967542
471.819324	0.964265
472.190164	0.962971
472.560945	0.962562
472.931667	0.960862
473.302330	0.959155
473.672934	0.957632
474.043479	0.954749
474.413965	0.952113
474.784393	0.949426
475.154761	0.946745
475.525070	0.943166
475.895321	0.941925
476.265513	0.936952
476.635645	0.933652
477.005719	0.930347
477.375734	0.926701
477.745691	0.922957
478.115588	0.918544
478.485427	0.913968
478.855207	0.907413
479.224928	0.899003
479.594591	0.893176
479.964194	0.890100
480.333739	0.887564
480.703226	0.882474
481.072653	0.877527
481.442022	0.869754
481.811333	0.863413
482.180584	0.860478
482.549777	0.855105
482.918912	0.850021
483.287988	0.845095
483.657005	0.838899
484.025964	0.834877
484.394864	0.828781
484.763706	0.822241
485.132489	0.818681
485.501213	0.812457
485.869879	0.806281
486.238487	0.799742
486.607036	0.794958
486.975527	0.787241
487.343959	0.780358
487.712333	0.773172
488.080648	0.767272
488.448905	0.759327
488.817104	0.753492
489.185244	0.744923
489.553326	0.736159
489.921350	0.724366
490.289315	0.708398
490.657222	0.700925
491.025070	0.692847
491.392861	0.687520
491.760593	0.683858
492.128267	0.678470
492.495883	0.673362
492.863440	0.668870
493.230939	0.663237
493.598380	0.656042
493.965763	0.648588
494.333088	0.643947
494.700354	0.636468
495.067563	0.629088
495.434713	0.622642
495.801805	0.615080
496.168839	0.608090
496.535815	0.600292
496.902733	0.594369
497.269593	0.586780
497.636395	0.579550
498.003139	0.571156
498.369825	0.567338
498.736453	0.556434
499.103023	0.550962
499.469535	0.543365
499.835989	0.537171
500.202385	0.529818
500.568723	0.525246
500.935003	0.516653
501.301226	0.510456
501.667390	0.501766
502.033497	0.493614
502.399546	0.489735
502.765537	0.483687
503.131470	0.475853
503.497345	0.466382
503.863163	0.467343
504.228923	0.455372
504.594625	0.449179
504.960269	0.447195
505.325856	0.437487
505.691385	0.434716
506.056856	0.426643
506.422270	0.420437
506.787625	0.417602
507.152924	0.409511
507.518164	0.404833
507.883347	0.400436
508.248472	0.397045
508.613540	0.388182
508.978550	0.384673
509.343503	0.380546
509.708398	0.373609
510.073236	0.366670
510.438016	0.362091
510.802738	0.358594
511.167403	0.353286
511.532010	0.350361
511.896561	0.342865
512.261053	0.337830
512.625488	0.335329
512.989866	0.331329
513.354186	0.327862
513.718449	0.325942
514.082655	0.319152
514.446803	0.317815
514.810894	0.312400
515.174927	0.311387
515.538904	0.307759
515.902822	0.301872
516.266684	0.301096
516.630488	0.299355
516.994235	0.295431
517.357925	0.291153
517.721558	0.287379
518.085133	0.284049
518.448651	0.282096
518.812112	0.281521
519.175516	0.278723
519.538863	0.274217
519.902152	0.273946
520.265385	0.268454
520.628560	0.268537
520.991678	0.266879
521.354739	0.263982
521.717743	0.263687
522.080690	0.262343
522.443580	0.257836
522.806413	0.257135
523.169189	0.255045
523.531908	0.252361
523.894569	0.254892
524.257174	0.253526
524.619722	0.249770
524.982213	0.250339
525.344647	0.247664
525.707025	0.247600
526.069345	0.244442
526.431608	0.245338
526.793815	0.242231
527.155964	0.245491
527.518057	0.243662
527.880093	0.244119
528.242072	0.241997
528.603995	0.243315
528.965860	0.244282
529.327669	0.242320
529.689421	0.242658
530.051117	0.243009
530.412755	0.239969
530.774337	0.242095
531.135862	0.241937
531.497331	0.240758
531.858743	0.243085
532.220098	0.239865
532.581396	0.241913
532.942638	0.242190
533.303824	0.242463
533.664953	0.241937
534.026025	0.243401
534.387040	0.241192
534.747999	0.241042
535.108902	0.239632
535.469748	0.244414
535.830537	0.241845
536.191270	0.242204
536.551947	0.241566
536.912567	0.241546
537.273131	0.243053
537.633638	0.243009
537.994089	0.243382
538.354483	0.244225
538.714821	0.241036
539.075103	0.240640
539.435328	0.241245
539.795497	0.245031
540.155609	0.241575
540.515665	0.239630
540.875665	0.245103
541.235609	0.243617
541.595496	0.243649
541.955328	0.239924
542.315102	0.242391
542.674821	0.243506
543.034483	0.243328
543.394090	0.243077
543.753640	0.244850
544.113134	0.239956
544.472571	0.242981
544.831953	0.239702
545.191278	0.243888
545.550548	0.243280
545.909761	0.239888
546.268918	0.240834
546.628019	0.239019
546.987064	0.241653
547.346053	0.243555
547.704986	0.241372
548.063863	0.241565
548.422684	0.241663
548.781449	0.243418
549.140158	0.241153
549.498811	0.243752
549.857408	0.246851
550.215949	0.241763
550.574434	0.244744
550.932864	0.242802
551.291237	0.241296
551.649555	0.242776
552.007817	0.242451
552.366022	0.243222
552.724173	0.243450
553.082267	0.243811
553.440305	0.240552
553.798288	0.244563
554.156215	0.241509
554.514086	0.242188
554.871902	0.245402
555.229661	0.244590
555.587365	0.245265
555.945014	0.247654
556.302606	0.244427
556.660143	0.246904
557.017625	0.243272
557.375050	0.245759
557.732421	0.242782
558.089735	0.244788
558.446994	0.244660
558.804197	0.243870
559.161345	0.243909
559.518437	0.247046
559.875474	0.245058
560.232455	0.244476
560.589381	0.245692
560.946251	0.245680
561.303065	0.243415
561.659825	0.244861
562.016528	0.246029
562.373177	0.248964
562.729770	0.246253
563.086307	0.248549
563.442789	0.246148
563.799216	0.249030
564.155587	0.247663
564.511904	0.248702
564.868164	0.249075
565.224370	0.248778
565.580520	0.250505
565.936615	0.250195
566.292654	0.253420
566.648638	0.250455
567.004567	0.251292
567.360441	0.251949
567.716260	0.253895
568.072023	0.251628
568.427732	0.252484
568.783385	0.254803
569.138982	0.252936
569.494525	0.252690
569.850013	0.255296
570.205445	0.254030
570.560823	0.256342
570.916145	0.258334
571.271412	0.256517
571.626625	0.257891
571.981782	0.258589
572.336884	0.259535
572.691931	0.258983
573.046923	0.260071
573.401860	0.261573
573.756743	0.263227
574.111570	0.261946
574.466342	0.262344
574.821059	0.261603
575.175722	0.264437
575.530330	0.264356
575.884882	0.264485
576.239380	0.266459
576.593823	0.267366
576.948211	0.266527
577.302544	0.269701
577.656823	0.269604
578.011047	0.269548
578.365216	0.270239
578.719330	0.272516
579.073389	0.271925
579.427394	0.273490
579.781344	0.274278
580.135239	0.275504
580.489080	0.275050
580.842866	0.278144
581.196597	0.277691
581.550273	0.276803
581.903895	0.277534
582.257463	0.275571
582.610975	0.279139
582.964434	0.278628
583.317837	0.280696
583.671186	0.281516
584.024481	0.281432
584.377721	0.283732
584.730906	0.284342
585.084037	0.283509
585.437113	0.285905
585.790135	0.285049
586.143103	0.287815
586.496016	0.288927
586.848874	0.286486
587.201679	0.287175
587.554428	0.290831
587.907124	0.289157
588.259765	0.289723
588.612352	0.290568
588.964884	0.294444
589.317362	0.293901
589.669786	0.293712
590.022155	0.292348
590.374470	0.291765
590.726731	0.293771
591.078937	0.298247
591.431090	0.294640
591.783188	0.299096
592.135232	0.299198
592.487222	0.299531
592.839157	0.297525
593.191038	0.299936
593.542866	0.301744
593.894639	0.305276
594.246358	0.303276
594.598022	0.302783
594.949633	0.306380
595.301190	0.307081
595.652692	0.306141
596.004141	0.302535
596.355535	0.310554
596.706876	0.311172
597.058162	0.313263
597.409395	0.310670
597.760573	0.308469
598.111698	0.311881
598.462768	0.312168
598.813785	0.313412
599.164748	0.314619
599.515657	0.314549
599.866511	0.318400
600.217312	0.313546
600.568060	0.319360
600.918753	0.315680
601.269392	0.316164
601.619978	0.319384
601.970510	0.317199
602.320988	0.317299
602.671412	0.315319
603.021783	0.317595
603.372100	0.318907
603.722363	0.318679
604.072572	0.319322
604.422728	0.319407
604.772830	0.321306
605.122878	0.320707
605.472872	0.320944
605.822813	0.319490
606.172701	0.322158
606.522534	0.319874
606.872314	0.319843
607.222041	0.320901
607.571714	0.318737
607.921333	0.320042
608.270899	0.319845
608.620411	0.316612
608.969870	0.320866
609.319276	0.320794
609.668627	0.320490
610.017926	0.318903
610.367171	0.317777
610.716362	0.318344
611.065500	0.318897
611.414585	0.317329
611.763616	0.318114
612.112594	0.318447
612.461518	0.317979
612.810389	0.315441
613.159207	0.317804
613.507971	0.319306
613.856682	0.315304
614.205340	0.316801
614.553945	0.313708
614.902496	0.317623
615.250994	0.315941
615.599439	0.316501
615.947830	0.315641
616.296169	0.316857
616.644454	0.316560
616.992686	0.316612
617.340864	0.314022
617.688990	0.317762
618.037063	0.314444
618.385082	0.316495
618.733048	0.313200
619.080961	0.315979
619.428821	0.314989
619.776628	0.314478
620.124382	0.316557
620.472083	0.316757
620.819731	0.316429
621.167326	0.320154
621.514868	0.319705
621.862357	0.324208
622.209793	0.323397
622.557176	0.325806
622.904506	0.327019
623.251783	0.329233
623.599007	0.331181
623.946179	0.331122
624.293297	0.333079
624.640363	0.336870
624.987376	0.337007
625.334336	0.339876
625.681243	0.341976
626.028097	0.342856
626.374899	0.344099
626.721647	0.343884
627.068343	0.347196
627.414987	0.348718
627.761577	0.350181
628.108115	0.348815
628.454600	0.354170
628.801032	0.351389
629.147412	0.353313
629.493739	0.353741
629.840014	0.356669
630.186236	0.354098
630.532405	0.360127
630.878521	0.357542
631.224585	0.359240
631.570597	0.363217
631.916556	0.361303
632.262462	0.361798
632.608316	0.363812
632.954117	0.364124
633.299866	0.365426
633.645562	0.365794
633.991206	0.369814
634.336797	0.373007
634.682336	0.375139
635.027823	0.376689
635.373257	0.377299
635.718639	0.380978
636.063968	0.380205
636.409245	0.386108
636.754470	0.386378
637.099642	0.388739
637.444762	0.392012
637.789829	0.391368
638.134845	0.395053
638.479808	0.395574
638.824719	0.395174
639.169577	0.399624
639.514383	0.398687
639.859137	0.402637
640.203839	0.402079
640.548489	0.403434
640.893086	0.404186
641.237632	0.405928
641.582125	0.403891
641.926566	0.405723
642.270955	0.406394
642.615292	0.406385
642.959576	0.404958
643.303809	0.405754
643.647990	0.405233
643.992118	0.406237
644.336195	0.409481
644.680219	0.408170
645.024192	0.409054
645.368112	0.402108
645.711981	0.401207
646.055797	0.396260
646.399562	0.399346
646.743274	0.391302
647.086935	0.388828
647.430544	0.388851
647.774101	0.387792
648.117606	0.387516
648.461059	0.387929
648.804460	0.390008
649.147810	0.395471
649.491108	0.397022
649.834354	0.398340
650.177548	0.404526
650.520690	0.409109
650.863781	0.410726
651.206820	0.409488
651.549807	0.414676
651.892742	0.418429
652.235626	0.417900
652.578458	0.419083
652.921238	0.424411
653.263967	0.422471
653.606644	0.426857
653.949269	0.426344
654.291843	0.430392
654.634365	0.427207
654.976836	0.430201
655.319255	0.430475
655.661622	0.432004
656.003938	0.431970
656.346203	0.435058
656.688416	0.433079
657.030577	0.436057
657.372687	0.438066
657.714746	0.438639
658.056753	0.436078
658.398708	0.439810
658.740612	0.440485
659.082465	0.436995
659.424266	0.437597
659.766016	0.437180
660.107715	0.439909
660.449362	0.438193
660.790958	0.439323
661.132503	0.439406
661.473996	0.437875
661.815438	0.438219
662.156829	0.438426
662.498168	0.439287
662.839456	0.440765
663.180693	0.438791
663.521879	0.438364
663.863013	0.439001
664.204097	0.438028
664.545129	0.435104
664.886110	0.435416
665.227040	0.432212
665.567918	0.434669
665.908746	0.433050
666.249522	0.432941
666.590248	0.434220
666.930922	0.431777
667.271545	0.430625
667.612118	0.430406
667.952639	0.432682
668.293109	0.431205
668.633528	0.434339
668.973896	0.433798
669.314213	0.434646
669.654480	0.435783
669.994695	0.436499
670.334859	0.437155
670.674973	0.437668
671.015035	0.437428
671.355047	0.437147
671.695008	0.438853
672.034918	0.440523
672.374777	0.439757
672.714585	0.440786
673.054342	0.440403
673.394049	0.440489
673.733705	0.437845
674.073310	0.439795
674.412864	0.442927
674.752368	0.443338
675.091820	0.443042
675.431223	0.448015
675.770574	0.447609
676.109875	0.450284
676.449125	0.450856
676.788324	0.452831
677.127473	0.458408
677.466571	0.458253
677.805619	0.459628
678.144616	0.460754
678.483562	0.462575
678.822458	0.465231
679.161303	0.466549
679.500098	0.466496
679.838842	0.468322
680.177535	0.468143
680.516179	0.466372
680.854771	0.465449
681.193314	0.458961
681.531805	0.449964
681.870247	0.438335
682.208638	0.431158
682.546978	0.430084
682.885268	0.431877
683.223508	0.438065
683.561697	0.441486
683.899836	0.445027
684.237925	0.447829
684.575963	0.450564
684.913951	0.453132
685.251889	0.448920
685.589776	0.451400
685.927614	0.453430
686.265401	0.447828
686.603137	0.449068
686.940824	0.443369
687.278460	0.441906
687.616046	0.440423
687.953582	0.436049
688.291068	0.437499
688.628504	0.432939
688.965889	0.435289
689.303224	0.439381
689.640510	0.442944
689.977745	0.448870
690.314930	0.456554
690.652065	0.461170
690.989150	0.468771
691.326185	0.474966
691.663170	0.480146
692.000105	0.487248
692.336990	0.494177
692.673825	0.496861
693.010610	0.503284
693.347345	0.509131
693.684030	0.510614
694.020665	0.514836
694.357251	0.523553
694.693786	0.523524
695.030272	0.527318
695.366707	0.530668
695.703093	0.534718
696.039429	0.531862
696.375716	0.534525
696.711952	0.536789
697.048139	0.538514
697.384276	0.539924
697.720363	0.538629
698.056400	0.537394
698.392388	0.543562
698.728326	0.546546
699.064214	0.549889
699.400053	0.550306
699.735842	0.553249
700.071581	0.556519
700.407270	0.559551
700.742910	0.561821
701.078501	0.567945
701.414042	0.569103
701.749533	0.571611
702.084974	0.580444
702.420366	0.572042
702.755709	0.580176
703.091002	0.588365
703.426246	0.581218
703.761440	0.586755
704.096584	0.592587
704.431679	0.589103
704.766725	0.591047
705.101721	0.592773
705.436668	0.588937
705.771565	0.595523
706.106413	0.592560
706.441212	0.588041
706.775961	0.587050
707.110661	0.590039
707.445311	0.586091
707.779913	0.583040
708.114465	0.582022
708.448967	0.578108
708.783421	0.570808
709.117825	0.565225
709.452180	0.564995
709.786485	0.558588
710.120742	0.549027
710.454949	0.551391
710.789107	0.543134
711.123216	0.533983
711.457275	0.536432
711.791286	0.526805
712.125247	0.525771
712.459159	0.536827
712.793023	0.529868
713.126837	0.533268
713.460602	0.533582
713.794318	0.542700
714.127985	0.541522
714.461602	0.552257
714.795171	0.555216
715.128691	0.562645
715.462162	0.570127
715.795584	0.576379
716.128957	0.578367
716.462281	0.584749
716.795556	0.588741
717.128782	0.593786
717.461960	0.603170
717.795088	0.601784
718.128167	0.608122
718.461198	0.616579
718.794180	0.617379
719.127113	0.620540
719.459997	0.624140
719.792833	0.630129
720.125619	0.631125
720.458357	0.637146
720.791046	0.636290
721.123686	0.639775
721.456278	0.646086
721.788821	0.644676
722.121315	0.648362
722.453761	0.652037
722.786158	0.649290
723.118506	0.646773
723.450805	0.654567
723.783056	0.650289
724.115259	0.648279
724.447412	0.646560
724.779518	0.648909
725.111574	0.647880
725.443582	0.643531
725.775542	0.645060
726.107453	0.637965
726.439315	0.637474
726.771129	0.635609
727.102895	0.629156
727.434612	0.621512
727.766281	0.620073
728.097901	0.619277
728.429473	0.619915
728.760996	0.617505
729.092471	0.617753
729.423897	0.621927
729.755276	0.621118
730.086606	0.621110
730.417887	0.615234
730.749120	0.606227
731.080305	0.597317
731.411442	0.592789
731.742530	0.598212
732.073570	0.597294
732.404562	0.589750
732.735506	0.590933
733.066401	0.595470
733.397249	0.604978
733.728048	0.616651
734.058798	0.629081
734.389501	0.639019
734.720156	0.648856
735.050762	0.656793
735.381320	0.657575
735.711831	0.667263
736.042293	0.672087
736.372707	0.667814
736.703073	0.671598
737.033391	0.675581
737.363661	0.671153
737.693883	0.666323
738.024056	0.665494
738.354182	0.666311
738.684260	0.654866
739.014290	0.651100
739.344272	0.651964
739.674207	0.645931
740.004093	0.645430
740.333931	0.645543
740.663722	0.645777
740.993464	0.646311
741.323159	0.650345
741.652806	0.654697
741.982405	0.659577
742.311956	0.663904
742.641460	0.666692
742.970915	0.669063
743.300323	0.677953
743.629683	0.684046
743.958996	0.686254
744.288260	0.690173
744.617477	0.696213
744.946647	0.697356
745.275768	0.702532
745.604842	0.702524
745.933869	0.712216
746.262847	0.713036
746.591778	0.707173
746.920662	0.714066
747.249498	0.719456
747.578286	0.710384
747.907027	0.706985
748.235720	0.707456
748.564365	0.701958
748.892963	0.702091
749.221514	0.705331
749.550017	0.710449
749.878473	0.710554
750.206881	0.715531
750.535242	0.717713
750.863555	0.717673
751.191821	0.718955
751.520039	0.722325
751.848210	0.726709
752.176334	0.718771
752.504411	0.718266
752.832440	0.725190
753.160421	0.729570
753.488356	0.728166
753.816243	0.726263
754.144082	0.734679
754.471875	0.737453
754.799620	0.732972
755.127318	0.734094
755.454969	0.734967
755.782572	0.733986
756.110129	0.739279
756.437638	0.741198
756.765100	0.737835
757.092515	0.737268
757.419882	0.734374
757.747203	0.740119
758.074477	0.739911
758.401703	0.736795
758.728882	0.731417
759.056014	0.731052
759.383099	0.729213
759.710138	0.731138
760.037129	0.727913
760.364073	0.721263
760.690970	0.723914
761.017820	0.729365
761.344623	0.725266
761.671379	0.716322
761.998088	0.704172
762.324751	0.681988
762.651366	0.640586
762.977935	0.574442
763.304456	0.522869
763.630931	0.513489
763.957359	0.551942
764.283740	0.596015
764.610074	0.623294
764.936362	0.654501
765.262602	0.681091
765.588796	0.701529
765.914943	0.719844
766.241044	0.736918
766.567097	0.743453
766.893104	0.753913
767.219064	0.760142
767.544978	0.765845
767.870845	0.778655
768.196665	0.783110
768.522438	0.780309
768.848165	0.782509
769.173846	0.790839
769.499479	0.796652
769.825066	0.798358
770.150607	0.804442
770.476101	0.799585
770.801548	0.800535
771.126949	0.812028
771.452303	0.814951
771.777611	0.814805
772.102872	0.813475
772.428087	0.819075
772.753256	0.822372
773.078378	0.824483
773.403453	0.833868
773.728482	0.837952
774.053465	0.832258
774.378401	0.834101
774.703291	0.843004
775.028135	0.842304
775.352932	0.844005
775.677683	0.848346
776.002388	0.847554
776.327046	0.847079
776.651658	0.850553
776.976224	0.853862
777.300743	0.854160
777.625216	0.856332
777.949643	0.859182
778.274024	0.858373
778.598359	0.859805
778.922647	0.857288
779.246889	0.859286
779.571086	0.862519
779.895236	0.865377
780.219339	0.862439
780.543397	0.859749
780.867409	0.857544
781.191374	0.861371
781.515294	0.861373
781.839167	0.860948
782.162995	0.864161
782.486776	0.860884
782.810511	0.861741
783.134201	0.864683
783.457844	0.863059
783.781441	0.865420
784.104993	0.871762
784.428498	0.872318
784.751958	0.866572
785.075372	0.870233
785.398739	0.873894
785.722061	0.869783
786.045337	0.864951
786.368568	0.870503
786.691752	0.873312
787.014891	0.858352
787.337983	0.848733
787.661030	0.842283
787.984031	0.824741
788.306987	0.812434
788.629897	0.814744
788.952760	0.818116
789.275579	0.822555
789.598351	0.837641
789.921078	0.851050
790.243759	0.854478
790.566395	0.857863
790.888984	0.864937
791.211529	0.868994
791.534027	0.873821
791.856480	0.875658
792.178888	0.880240
792.501249	0.883049
792.823566	0.884478
793.145836	0.884710
793.468062	0.885530
793.790241	0.886602
794.112375	0.883901
794.434464	0.879991
794.756507	0.879676
795.078505	0.878963
795.400457	0.872980
795.722364	0.861157
796.044226	0.854145
796.366042	0.853719
796.687812	0.856503
797.009538	0.853832
797.331218	0.855653
797.652852	0.860978
797.974442	0.866802
798.295986	0.866135
798.617484	0.867585
798.938938	0.872020
799.260346	0.878117
799.581709	0.880114
799.903026	0.881667
800.224299	0.881603
800.545526	0.885193
800.866708	0.889508
801.187845	0.893053
801.508936	0.892856
801.829983	0.891102
802.150984	0.894303
802.471940	0.898436
802.792851	0.898341
803.113717	0.899065
803.434538	0.897164
803.755314	0.899269
804.076045	0.901407
804.396731	0.901436
804.717372	0.901163
805.037967	0.902908
805.358518	0.901155
805.679024	0.898319
805.999485	0.898025
806.319901	0.898055
806.640272	0.899448
806.960598	0.897620
807.280879	0.894575
807.601115	0.893617
807.921306	0.897854
808.241453	0.897362
808.561554	0.895394
808.881611	0.895315
809.201623	0.897778
809.521590	0.897112
809.841513	0.898699
810.161390	0.897468
810.481223	0.899358
810.801011	0.902897
811.120755	0.903585
811.440453	0.902160
811.760107	0.902295
812.079716	0.901813
812.399281	0.904138
812.718801	0.907840
813.038276	0.908610
813.357707	0.908729
813.677093	0.905389
813.996434	0.908130
814.315731	0.909443
814.634983	0.910132
814.954191	0.907469
815.273354	0.905797
815.592473	0.902485
815.911547	0.903477
816.230577	0.900277
816.549562	0.897022
816.868502	0.898186
817.187399	0.895029
817.506250	0.889414
817.825058	0.891381
818.143821	0.888003
818.462539	0.881786
818.781213	0.874845
819.099843	0.864402
819.418429	0.847819
819.736970	0.831048
820.055466	0.812238
820.373919	0.786955
820.692327	0.754437
821.010691	0.720371
821.329011	0.644374
821.647286	0.530725
821.965517	0.418198
822.283704	0.375989
822.601847	0.377907
822.919945	0.413475
823.237999	0.445737
823.556010	0.491888
823.873976	0.547304
824.191897	0.597274
824.509775	0.638963
824.827609	0.684243
825.145398	0.706644
825.463144	0.708830
825.780845	0.691798
826.098502	0.673168
826.416116	0.628137
826.733685	0.584673
827.051210	0.576934
827.368692	0.591298
827.686129	0.627790
828.003522	0.680256
828.320872	0.727241
828.638177	0.769590
828.955439	0.803310
829.272656	0.824410
829.589830	0.841026
829.906960	0.856001
830.224046	0.868867
830.541088	0.878654
830.858086	0.884136
831.175041	0.889951
831.491952	0.888329
831.808819	0.884611
832.125642	0.878793
832.442421	0.864720
832.759157	0.842253
833.075849	0.797916
833.392497	0.734383
833.709101	0.693195
834.025662	0.703644
834.342179	0.735383
834.658653	0.773439
834.975083	0.808754
835.291469	0.834569
835.607811	0.856416
835.924110	0.872687
836.240366	0.889394
836.556578	0.902993
836.872746	0.910023
837.188871	0.915925
837.504952	0.922075
837.820990	0.924788
838.136984	0.928908
838.452935	0.931307
838.768842	0.932626
839.084706	0.926743
839.400526	0.900615
839.716303	0.860884
840.032037	0.839476
840.347727	0.842086
840.663373	0.861520
840.978977	0.882072
841.294537	0.903168
841.610054	0.919915
841.925527	0.926534
842.240957	0.933089
842.556344	0.940360
842.871687	0.947085
843.186987	0.950896
843.502244	0.951120
843.817458	0.952551
844.132629	0.955864
844.447756	0.961228
844.762840	0.960903
845.077881	0.960914
845.392879	0.960619
845.707833	0.963022
846.022745	0.964943
846.337613	0.965426
846.652438	0.967200
846.967221	0.965329
847.281960	0.965599
847.596656	0.967488
847.911309	0.965872
848.225919	0.969052
848.540485	0.969480
848.855009	0.969571
849.169490	0.968760
849.483928	0.968755
849.798323	0.969926
850.112675	0.970117
850.426984	0.970058
850.741251	0.970425
851.055474	0.970695
851.369654	0.968890
851.683792	0.969483
851.997887	0.970047
852.311938	0.970587
852.625947	0.970139
852.939914	0.968584
853.253837	0.969585
853.567718	0.970509
853.881555	0.971010
854.195350	0.970137
854.509103	0.970471
854.822812	0.970707
855.136479	0.971055
855.450103	0.969951
855.763685	0.969084
856.077224	0.969361
856.390720	0.971890
856.704173	0.971515
857.017584	0.969875
857.330953	0.967332
857.644278	0.969313
857.957561	0.967726
858.270802	0.969132
858.584000	0.969060
858.897155	0.967481
859.210268	0.967694
859.523339	0.969234
859.836367	0.970854
860.149352	0.971594
860.462295	0.968167
860.775195	0.970430
861.088054	0.969623
861.400869	0.970552
861.713642	0.971106
862.026373	0.970258
862.339062	0.970477
862.651708	0.968097
862.964312	0.968404
863.276873	0.969194
863.589392	0.969961
863.901869	0.967908
864.214303	0.966446
864.526696	0.964440
864.839045	0.964902
865.151353	0.962420
865.463619	0.963009
865.775842	0.963132
866.088023	0.962080
866.400162	0.963612
866.712258	0.962826
867.024313	0.963911
867.336325	0.964392
867.648296	0.964401
867.960224	0.963965
868.272110	0.963586
868.583954	0.964910
868.895755	0.965580
869.207515	0.963548
869.519233	0.959227
869.830909	0.961576
870.142542	0.962251
870.454134	0.962239
870.765684	0.962412
871.077191	0.958496
871.388657	0.959821
871.700081	0.958126
872.011463	0.959604
872.322803	0.958548
872.634101	0.957544
872.945357	0.955500
873.256571	0.954398
873.567744	0.953982
873.878874	0.954822
874.189963	0.954152
874.501010	0.952616
874.812015	0.950297
875.122979	0.952082
875.433900	0.954086
875.744780	0.955301
876.055618	0.952066
876.366415	0.950398
876.677169	0.952058
876.987882	0.952308
877.298554	0.952010
877.609183	0.949382
877.919771	0.946588
878.230317	0.944849
878.540822	0.942129
878.851285	0.937566
879.161707	0.928654
879.472087	0.918009
879.782425	0.902340
880.092722	0.868593
880.402977	0.817490
880.713191	0.758987
881.023363	0.700783
881.333494	0.668998
881.643583	0.640779
881.953631	0.639510
882.263637	0.668478
882.573602	0.707741
882.883526	0.732794
883.193408	0.754813
883.503248	0.776830
883.813048	0.803682
884.122806	0.833053
884.432522	0.855510
884.742197	0.874388
885.051831	0.883806
885.361424	0.894021
885.670975	0.905736
885.980485	0.916381
886.289954	0.921677
886.599382	0.927180
886.908768	0.930242
887.218113	0.935913
887.527417	0.940563
887.836680	0.944391
888.145901	0.945404
888.455082	0.947288
888.764221	0.952074
889.073319	0.954512
889.382376	0.955452
889.691392	0.953988
890.000366	0.954649
890.309300	0.956311
890.618193	0.954256
890.927044	0.952867
891.235855	0.952303
891.544625	0.953393
891.853353	0.953118
892.162041	0.950946
892.470687	0.944062
892.779293	0.939498
893.087858	0.935855
893.396381	0.928422
893.704864	0.915568
894.013306	0.892225
894.321707	0.866971
894.630068	0.852449
894.938387	0.849084
895.246665	0.849370
895.554903	0.862013
895.863100	0.874021
896.171256	0.891027
896.479371	0.909912
896.787446	0.922605
897.095480	0.927579
897.403473	0.930822
897.711425	0.934765
898.019336	0.941882
898.327207	0.944669
898.635038	0.947885
898.942827	0.945789
899.250576	0.950641
899.558284	0.953483
899.865952	0.956277
900.173579	0.955604
900.481165	0.958809
900.788711	0.960847
901.096216	0.962479
901.403681	0.963602
901.711105	0.965014
902.018489	0.964810
902.325832	0.964117
902.633135	0.962599
902.940397	0.956874
903.247619	0.945704
903.554800	0.921550
903.861941	0.882626
904.169041	0.849541
904.476101	0.831939
904.783121	0.833474
905.090100	0.848829
905.397039	0.869176
905.703938	0.890242
906.010796	0.908721
906.317614	0.925668
906.624391	0.936348
906.931129	0.946275
907.237826	0.953260
907.544483	0.961163
907.851099	0.965646
908.157675	0.968358
908.464211	0.970843
908.770707	0.973247
909.077163	0.976034
909.383578	0.975815
909.689954	0.976624
909.996289	0.975578
910.302584	0.979209
910.608839	0.980729
910.915054	0.979974
911.221229	0.979080
911.527363	0.977573
911.833458	0.978479
912.139513	0.978377
912.445527	0.975117
912.751502	0.974531
913.057436	0.973461
913.363331	0.971504
913.669186	0.966502
913.975000	0.962796
914.280775	0.957342
914.586510	0.950181
914.892205	0.938415
915.197859	0.917468
915.503475	0.891129
915.809050	0.871413
916.114585	0.866888
916.420081	0.865782
916.725536	0.862372
917.030952	0.869114
917.336328	0.882023
917.641665	0.897258
917.946961	0.911182
918.252218	0.923169
918.557435	0.931348
918.862612	0.939222
919.167750	0.944653
919.472848	0.949679
919.777906	0.954885
920.082925	0.959945
920.387904	0.963441
920.692843	0.964736
920.997743	0.964604
921.302603	0.968739
921.607423	0.970453
921.912204	0.972951
922.216946	0.973451
922.521647	0.974189
922.826310	0.975273
923.130932	0.978089
923.435516	0.978990
923.740059	0.980798
924.044564	0.979462
924.349028	0.981301
924.653454	0.983842
924.957840	0.985846
925.262186	0.984280
925.566493	0.983695
925.870761	0.985884
926.174989	0.987140
926.479178	0.988521
926.783328	0.988733
927.087438	0.988068
927.391509	0.987626
927.695541	0.990734
927.999533	0.989240
928.303486	0.990555
928.607400	0.992411
928.911275	0.990985
929.215110	0.990498
929.518906	0.991247
929.822663	0.989055
930.126381	0.991446
930.430060	0.990207
930.733699	0.991173
931.037299	0.989926
931.340861	0.991290
931.644383	0.990144
931.947866	0.989373
932.251309	0.991558
932.554714	0.990663
932.858080	0.991050
933.161407	0.990664
933.464694	0.991512
933.767943	0.990475
934.071153	0.992325
934.374323	0.992308
934.677455	0.991929
934.980548	0.992351
935.283602	0.991545
935.586617	0.991623
935.889593	0.990983
936.192530	0.990166
936.495428	0.992082
936.798287	0.991545
937.101108	0.991459
937.403890	0.988932
937.706632	0.989089
938.009336	0.986915
938.312002	0.986202
938.614628	0.985405
938.917216	0.984547
939.219765	0.983149
939.522275	0.983677
939.824747	0.984099
940.127179	0.983954
940.429573	0.984773
940.731929	0.985115
941.034246	0.983678
941.336524	0.987511
941.638763	0.987063
941.940964	0.986813
942.243126	0.987935
942.545250	0.988435
942.847335	0.989386
943.149381	0.989061
943.451389	0.988433
943.753359	0.987815
944.055290	0.991327
944.357182	0.989003
944.659036	0.988309
944.960851	0.989902
945.262628	0.990346
945.564367	0.990285
945.866067	0.990030
946.167729	0.991613
946.469352	0.990091
946.770937	0.989320
947.072484	0.991142
947.373992	0.990265
947.675462	0.991542
947.976893	0.990479
948.278286	0.991133
948.579641	0.991620
948.880958	0.990390
949.182236	0.991255
949.483476	0.992100
949.784678	0.990911
950.085841	0.992279
950.386967	0.990970
950.688054	0.991151
950.989103	0.990833
951.290114	0.989049
951.591087	0.988779
951.892021	0.990045
952.192917	0.989393
952.493776	0.988753
952.794596	0.988855
953.095378	0.988488
953.396122	0.988385
953.696828	0.987728
953.997496	0.989440
954.298126	0.991203
954.598718	0.990985
954.899272	0.991904
955.199788	0.989714
955.500266	0.992159
955.800706	0.992735
956.101108	0.993703
956.401472	0.993991
956.701798	0.995301
957.002087	0.993208
957.302337	0.993822
957.602550	0.994634
957.902724	0.995001
958.202861	0.995322
958.502960	0.995507
958.803022	0.993501
959.103045	0.996066
959.403031	0.995718
959.702979	0.995464
960.002889	0.996332
960.302762	0.994822
960.602596	0.996251
960.902393	0.994688
961.202153	0.997687
961.501875	0.996631
961.801559	0.996763
962.101205	0.995967
962.400814	0.996762
962.700385	0.997267
962.999918	0.996318
963.299414	0.997032
963.598873	0.996234
963.898293	0.995732
964.197677	0.996141
964.497022	0.996230
964.796331	0.998289
965.095601	0.996426
965.394835	0.995430
965.694030	0.996224
965.993189	0.998016
966.292309	0.995647
966.591393	0.996888
966.890439	0.996919
967.189447	0.997100
967.488419	0.996919
967.787353	0.996532
968.086249	0.997376
968.385108	0.996868
968.683930	0.997808
968.982714	0.998055
969.281462	0.997131
969.580172	0.996249
969.878844	0.997411
970.177480	0.996929
970.476078	0.999122
970.774639	0.997471
971.073162	0.996785
971.371649	0.995910
971.670098	0.996450
971.968510	0.997277
972.266885	0.996084
972.565223	0.996482
972.863524	0.995730
973.161788	0.995762
973.460014	0.998078
973.758204	0.995901
974.056356	0.997103
974.354471	0.994521
974.652550	0.996732
974.950591	0.996321
975.248595	0.997038
975.546563	0.996829
975.844493	0.998403
976.142386	0.996877
976.440243	0.997205
976.738062	0.997209
977.035845	0.997160
977.333590	0.997337
977.631299	0.997638
977.928971	0.996919
978.226606	0.997643
978.524204	0.994900
978.821765	0.997798
979.119290	0.995404
979.416777	0.997699
979.714228	0.997173
980.011642	0.995012
980.309020	0.996980
980.606360	0.996156
980.903664	0.998654
981.200931	0.996493
981.498162	0.995515
981.795356	0.995587
982.092513	0.993773
982.389633	0.994981
982.686717	0.991163
982.983764	0.991431
983.280775	0.990732
983.577749	0.990109
983.874686	0.991086
984.171587	0.991414
984.468451	0.994139
984.765279	0.994391
985.062070	0.994407
985.358824	0.994914
985.655543	0.994662
985.952224	0.996297
986.248869	0.997044
986.545478	0.997521
986.842050	0.997013
987.138586	0.996881
987.435086	0.997472
987.731549	0.998435
988.027975	0.997439
988.324366	0.998406
988.620719	0.996846
988.917037	0.995072
989.213318	0.998550
989.509563	0.997982
989.805772	0.998747
990.101944	0.998466
990.398080	0.996201
990.694180	0.997231
990.990244	0.997159
991.286271	0.998138
991.582262	0.998845
991.878217	0.997132
992.174136	0.998270
992.470019	0.998763
992.765865	0.998404
993.061676	0.997702
993.357450	0.997444
993.653188	0.996981
993.948890	0.997516
994.244556	0.998378
994.540186	0.996875
994.835780	0.995680
995.131337	0.997053
995.426859	0.996747
995.722345	0.997952
996.017795	0.995461
996.313208	0.997170
996.608586	0.995549
996.903928	0.996814
997.199234	0.995028
997.494504	0.997209
997.789738	0.996843
998.084936	0.996377
998.380099	0.997979
998.675225	0.997616
998.970316	0.998227
999.265371	0.999032
999.560390	0.997591
999.855373	0.997997
1000.150320	0.997387
1000.445232	0.999282
1000.740108	0.996894
1001.034948	0.997882
1001.329752	0.999413
1001.624521	0.998006
1001.919254	0.998208
1002.213951	0.998148
1002.508613	0.997385
1002.803239	0.999879
1003.097829	0.999072
1003.392384	0.997992
1003.686903	0.997719
1003.981386	0.998397
1004.275834	0.998678
1004.570246	0.998831
1004.864623	0.999485
1005.158964	0.999771
1005.453270	0.999171
1005.747540	0.997396
1006.041775	0.997077
1006.335974	1.000648
1006.630138	0.998277
1006.924266	0.998933
1007.218359	1.000793
1007.512416	0.999441
1007.806438	0.999188
1008.100425	0.999896
1008.394376	0.998356
1008.688292	0.998211
1008.982172	1.001133
1009.276017	0.998942
1009.569827	0.998626
1009.863602	0.997609
1010.157341	0.999474
1010.451045	0.999480
1010.744714	0.998973
1011.038347	0.998708
1011.331945	0.999053
1011.625508	0.997091
1011.919036	0.998389
1012.212528	0.999435
1012.505986	0.997899
1012.799408	0.998489
1013.092795	0.999200
1013.386147	0.999197
1013.679464	0.999631
1013.972745	0.998409
1014.265992	0.997302
1014.559204	0.998716
1014.852380	0.998875
1015.145521	0.998713
1015.438628	0.999299
1015.731699	0.999374
1016.024736	0.998648
1016.317737	0.999050
1016.610703	0.998619
1016.903635	0.999080
1017.196531	0.999772
1017.489393	0.999224
1017.782219	0.997869
1018.075011	0.998217
1018.367768	0.998977
1018.660490	0.999786
1018.953177	0.999786
1019.245829	0.999786
