Dividing Wavelength (nm)	Counts (n)	Blue Motor Position (mm): 0.000000	Red Motor Position (mm): 36.500000	
326.493990	1.000926
326.888308	1.000926
327.282561	1.000926
327.676750	1.000666
328.070874	1.000138
328.464933	1.000333
328.858929	0.999800
329.252859	0.999721
329.646726	0.998530
330.040528	1.001111
330.434265	1.000741
330.827938	1.001220
331.221547	0.999764
331.615091	1.000135
332.008571	0.999687
332.401986	0.999323
332.795338	1.001069
333.188625	0.998852
333.581847	1.001007
333.975006	0.999286
334.368100	0.999044
334.761129	0.999767
335.154095	1.000860
335.546996	0.999731
335.939833	0.996403
336.332606	0.995973
336.725315	0.997236
337.117960	0.998864
337.510540	0.997026
337.903056	0.996914
338.295508	0.996035
338.687896	0.997300
339.080220	0.997821
339.472480	0.997237
339.864676	0.997011
340.256807	0.997620
340.648875	0.997904
341.040879	0.997298
341.432818	0.997363
341.824694	0.996784
342.216506	0.997717
342.608253	0.997515
342.999937	0.996602
343.391557	0.997256
343.783113	0.995469
344.174605	0.997189
344.566033	0.997596
344.957397	0.996244
345.348697	0.997440
345.739934	0.995862
346.131106	0.997350
346.522215	0.995601
346.913260	0.996560
347.304241	0.998085
347.695159	0.996246
348.086012	0.995982
348.476802	0.996452
348.867528	0.997140
349.258191	0.996035
349.648789	0.997503
350.039324	0.996107
350.429796	0.997413
350.820203	0.997456
351.210548	0.997864
351.600828	0.997625
351.991045	0.996308
352.381198	0.995475
352.771288	0.996041
353.161314	0.997291
353.551276	0.997079
353.941175	0.997181
354.331010	0.997133
354.720782	0.997502
355.110490	0.996237
355.500135	0.997088
355.889717	0.996821
356.279235	0.997069
356.668689	0.995635
357.058080	0.997381
357.447408	0.998077
357.836672	0.996816
358.225873	0.996279
358.615010	0.997432
359.004084	0.997871
359.393095	0.996931
359.782043	0.997290
360.170927	0.997808
360.559748	0.998401
360.948505	0.997147
361.337199	0.997598
361.725830	0.998132
362.114398	0.997132
362.502903	0.997468
362.891344	0.999127
363.279722	0.996699
363.668037	0.998148
364.056289	0.996358
364.444478	0.996796
364.832603	0.996735
365.220665	0.997316
365.608665	0.996852
365.996601	0.997695
366.384474	0.997790
366.772284	0.996709
367.160031	0.995871
367.547715	0.996257
367.935336	0.996531
368.322893	0.997359
368.710388	0.996367
369.097820	0.996890
369.485189	0.996992
369.872495	0.996260
370.259738	0.996007
370.646918	0.998043
371.034035	0.997249
371.421090	0.997556
371.808081	0.996635
372.195010	0.998932
372.581875	0.997211
372.968678	0.997090
373.355418	0.996323
373.742096	0.996638
374.128710	0.998297
374.515262	0.996751
374.901751	0.997639
375.288177	0.998195
375.674540	0.998566
376.060841	0.996571
376.447079	0.996983
376.833254	0.996826
377.219367	0.998374
377.605417	0.997375
377.991404	0.997971
378.377329	0.996253
378.763191	0.997330
379.148991	0.997660
379.534727	0.997803
379.920402	0.997018
380.306013	0.997608
380.691563	0.997838
381.077049	0.997067
381.462474	0.997345
381.847835	0.997082
382.233134	0.997268
382.618371	0.998004
383.003545	0.997735
383.388657	0.996664
383.773706	0.998428
384.158693	0.997943
384.543618	0.998405
384.928480	0.998141
385.313280	0.998352
385.698017	0.997879
386.082692	0.998750
386.467305	0.998247
386.851856	0.997927
387.236344	0.997865
387.620770	0.996979
388.005133	0.997477
388.389435	0.998001
388.773674	0.997620
389.157851	0.997982
389.541965	0.999376
389.926018	0.997691
390.310008	0.999332
390.693936	0.998552
391.077802	0.998103
391.461606	0.998232
391.845348	0.997560
392.229027	0.999967
392.612645	0.998469
392.996200	0.998816
393.379694	0.997995
393.763125	0.999541
394.146494	0.999091
394.529801	0.997777
394.913047	0.999208
395.296230	0.998786
395.679351	0.998588
396.062410	0.999019
396.445408	0.998606
396.828343	0.998642
397.211217	0.998414
397.594028	0.998351
397.976778	0.998093
398.359466	0.999136
398.742092	0.997704
399.124656	0.997327
399.507158	0.998733
399.889598	0.998306
400.271977	0.998923
400.654294	0.999136
401.036549	0.998129
401.418742	0.999583
401.800874	0.998183
402.182944	0.998536
402.564952	0.997679
402.946898	0.998723
403.328783	0.998479
403.710606	0.998350
404.092367	0.997753
404.474067	0.997916
404.855705	0.998149
405.237282	0.998928
405.618797	0.997975
406.000250	0.998835
406.381642	0.998671
406.762972	0.998145
407.144240	0.999636
407.525447	0.998681
407.906593	0.998659
408.287677	0.997755
408.668700	0.998248
409.049661	0.997890
409.430560	0.999182
409.811399	0.998695
410.192176	0.998496
410.572891	0.998683
410.953545	0.997984
411.334138	0.997597
411.714669	0.999047
412.095139	0.998094
412.475547	0.999042
412.855894	0.999086
413.236180	0.998984
413.616405	0.998701
413.996568	0.999323
414.376670	0.998958
414.756711	0.998329
415.136691	0.998851
415.516609	0.998715
415.896466	0.999186
416.276262	0.997358
416.655997	0.998498
417.035670	0.998410
417.415283	0.998368
417.794834	0.999112
418.174324	0.998381
418.553753	0.999128
418.933121	0.998629
419.312428	0.998781
419.691674	0.998592
420.070859	0.998949
420.449983	0.998661
420.829045	0.998379
421.208047	0.999650
421.586988	0.999451
421.965867	0.998407
422.344686	0.998828
422.723444	0.998309
423.102141	0.999644
423.480777	0.998649
423.859352	0.998985
424.237866	0.998244
424.616319	0.998849
424.994712	0.998550
425.373044	0.999622
425.751314	0.999075
426.129524	0.998679
426.507673	0.998906
426.885762	0.999502
427.263789	0.998567
427.641756	0.999365
428.019662	0.999045
428.397508	0.998429
428.775292	0.998074
429.153016	0.998223
429.530679	0.999714
429.908282	0.998963
430.285824	0.998227
430.663305	0.999097
431.040726	0.998672
431.418086	1.000469
431.795385	0.999353
432.172624	0.998924
432.549802	0.999489
432.926920	0.998117
433.303977	0.998903
433.680974	0.999315
434.057910	0.999042
434.434786	0.999521
434.811601	0.999034
435.188355	0.998677
435.565050	0.998781
435.941683	0.998915
436.318257	0.999845
436.694770	0.998771
437.071222	0.999546
437.447614	0.999118
437.823946	0.999831
438.200218	0.998574
438.576429	0.998712
438.952580	0.999270
439.328670	0.998238
439.704700	0.999431
440.080670	0.999528
440.456580	0.998935
440.832429	0.998072
441.208218	0.999767
441.583947	0.999333
441.959616	0.999349
442.335224	0.998735
442.710773	0.998938
443.086261	0.999022
443.461689	0.999233
443.837057	0.998388
444.212365	0.999615
444.587612	0.998902
444.962800	0.997847
445.337927	0.999627
445.712995	0.998782
446.088002	0.999724
446.462949	0.998629
446.837837	0.998845
447.212664	0.999790
447.587431	0.999406
447.962139	0.998786
448.336786	0.998853
448.711374	0.999078
449.085901	0.999086
449.460369	0.999819
449.834776	0.998595
450.209124	0.999084
450.583412	0.998419
450.957640	0.999187
451.331808	0.998460
451.705917	0.998665
452.079965	0.998828
452.453954	0.999355
452.827883	0.998734
453.201752	0.998772
453.575562	0.999011
453.949311	0.999797
454.323001	0.998482
454.696632	0.999057
455.070202	0.998493
455.443713	0.998452
455.817164	0.999368
456.190556	0.998876
456.563888	0.999487
456.937160	0.999102
457.310373	0.998811
457.683526	0.998932
458.056619	0.998502
458.429653	0.999935
458.802628	0.998332
459.175542	0.998336
459.548398	0.998105
459.921194	0.998984
460.293930	0.999074
460.666607	0.998818
461.039224	0.998539
461.411782	0.999214
461.784280	0.998361
462.156719	0.998898
462.529099	0.999782
462.901419	0.999308
463.273680	0.999062
463.645882	0.998705
464.018024	0.998984
464.390106	0.998425
464.762130	1.000165
465.134094	0.999017
465.505999	0.999235
465.877845	0.999760
466.249631	1.000079
466.621358	0.999451
466.993026	0.998992
467.364634	0.998996
467.736184	0.999629
468.107674	0.998613
468.479105	0.998788
468.850477	0.999375
469.221790	0.999230
469.593043	0.998888
469.964238	0.999601
470.335373	0.999114
470.706449	0.999306
471.077467	0.999057
471.448425	0.999431
471.819324	0.999887
472.190164	0.998417
472.560945	0.998818
472.931667	0.998886
473.302330	0.998659
473.672934	0.999505
474.043479	1.000026
474.413965	0.998551
474.784393	0.999079
475.154761	0.998746
475.525070	0.998509
475.895321	0.999637
476.265513	0.999283
476.635645	0.998647
477.005719	0.999250
477.375734	0.998967
477.745691	0.999264
478.115588	0.999482
478.485427	0.999244
478.855207	0.999149
479.224928	0.999574
479.594591	0.999584
479.964194	0.999497
480.333739	0.998812
480.703226	0.999371
481.072653	0.999593
481.442022	0.999799
481.811333	0.998521
482.180584	0.999259
482.549777	0.998440
482.918912	0.999124
483.287988	0.999197
483.657005	0.999161
484.025964	0.999448
484.394864	0.999301
484.763706	0.999504
485.132489	0.999811
485.501213	0.999161
485.869879	0.999451
486.238487	0.999816
486.607036	0.999776
486.975527	0.998869
487.343959	0.999014
487.712333	0.999066
488.080648	0.999015
488.448905	0.999227
488.817104	0.999265
489.185244	0.998981
489.553326	0.999749
489.921350	0.998680
490.289315	0.999253
490.657222	0.999719
491.025070	0.999396
491.392861	1.000075
491.760593	0.999581
492.128267	0.999375
492.495883	0.998866
492.863440	0.999307
493.230939	0.999619
493.598380	0.998729
493.965763	0.999546
494.333088	0.999551
494.700354	0.998573
495.067563	0.999134
495.434713	0.998996
495.801805	0.999767
496.168839	0.998859
496.535815	0.999129
496.902733	0.998501
497.269593	0.998127
497.636395	0.998800
498.003139	0.998732
498.369825	1.000113
498.736453	0.998556
499.103023	0.998017
499.469535	0.998312
499.835989	0.998424
500.202385	0.998659
500.568723	0.998587
500.935003	0.999179
501.301226	0.998740
501.667390	0.998417
502.033497	0.999152
502.399546	0.998596
502.765537	0.998524
503.131470	0.998758
503.497345	0.998290
503.863163	0.999599
504.228923	0.998562
504.594625	0.998668
504.960269	0.999138
505.325856	0.998772
505.691385	0.998222
506.056856	0.998127
506.422270	0.998380
506.787625	0.998764
507.152924	0.998592
507.518164	0.998018
507.883347	0.998478
508.248472	0.998376
508.613540	0.997955
508.978550	0.998672
509.343503	0.997950
509.708398	0.998389
510.073236	0.998733
510.438016	0.998519
510.802738	0.997941
511.167403	0.998425
511.532010	0.997983
511.896561	0.997648
512.261053	0.999106
512.625488	0.997931
512.989866	0.997729
513.354186	0.997489
513.718449	0.998147
514.082655	0.996891
514.446803	0.997782
514.810894	0.997656
515.174927	0.997160
515.538904	0.996788
515.902822	0.997249
516.266684	0.996906
516.630488	0.997879
516.994235	0.996065
517.357925	0.996335
517.721558	0.996394
518.085133	0.995675
518.448651	0.997158
518.812112	0.995933
519.175516	0.995649
519.538863	0.995276
519.902152	0.995014
520.265385	0.994096
520.628560	0.994526
520.991678	0.994677
521.354739	0.994950
521.717743	0.994750
522.080690	0.993950
522.443580	0.992983
522.806413	0.992808
523.169189	0.992228
523.531908	0.991344
523.894569	0.992201
524.257174	0.991770
524.619722	0.991288
524.982213	0.990941
525.344647	0.990222
525.707025	0.989228
526.069345	0.988716
526.431608	0.988475
526.793815	0.988199
527.155964	0.987643
527.518057	0.987475
527.880093	0.987228
528.242072	0.985759
528.603995	0.985354
528.965860	0.985573
529.327669	0.983719
529.689421	0.983340
530.051117	0.983324
530.412755	0.981695
530.774337	0.981552
531.135862	0.980182
531.497331	0.979549
531.858743	0.979016
532.220098	0.978734
532.581396	0.977230
532.942638	0.976517
533.303824	0.975730
533.664953	0.974292
534.026025	0.972470
534.387040	0.971722
534.747999	0.971204
535.108902	0.969481
535.469748	0.968018
535.830537	0.967694
536.191270	0.965716
536.551947	0.964085
536.912567	0.963838
537.273131	0.963252
537.633638	0.959843
537.994089	0.958594
538.354483	0.957405
538.714821	0.956295
539.075103	0.953749
539.435328	0.953082
539.795497	0.951515
540.155609	0.948423
540.515665	0.946977
540.875665	0.945744
541.235609	0.943987
541.595496	0.941635
541.955328	0.939524
542.315102	0.938488
542.674821	0.935845
543.034483	0.934625
543.394090	0.931533
543.753640	0.931325
544.113134	0.927294
544.472571	0.925709
544.831953	0.923100
545.191278	0.921270
545.550548	0.919409
545.909761	0.915815
546.268918	0.914252
546.628019	0.911379
546.987064	0.908891
547.346053	0.906903
547.704986	0.903500
548.063863	0.900774
548.422684	0.899236
548.781449	0.896655
549.140158	0.892201
549.498811	0.890093
549.857408	0.888374
550.215949	0.883769
550.574434	0.881110
550.932864	0.877396
551.291237	0.875398
551.649555	0.871101
552.007817	0.868948
552.366022	0.865429
552.724173	0.862424
553.082267	0.859768
553.440305	0.853844
553.798288	0.853799
554.156215	0.847646
554.514086	0.845365
554.871902	0.842712
555.229661	0.838870
555.587365	0.835363
555.945014	0.833552
556.302606	0.827690
556.660143	0.826268
557.017625	0.819656
557.375050	0.817828
557.732421	0.813351
558.089735	0.809302
558.446994	0.806515
558.804197	0.802602
559.161345	0.798691
559.518437	0.797407
559.875474	0.790939
560.232455	0.787000
560.589381	0.784667
560.946251	0.778589
561.303065	0.776551
561.659825	0.771687
562.016528	0.768167
562.373177	0.767044
562.729770	0.760095
563.086307	0.757796
563.442789	0.753397
563.799216	0.748703
564.155587	0.744529
564.511904	0.740897
564.868164	0.736865
565.224370	0.733945
565.580520	0.728807
565.936615	0.726702
566.292654	0.721991
566.648638	0.717490
567.004567	0.713451
567.360441	0.709974
567.716260	0.706343
568.072023	0.701798
568.427732	0.696893
568.783385	0.696228
569.138982	0.688900
569.494525	0.685506
569.850013	0.682843
570.205445	0.677083
570.560823	0.675451
570.916145	0.671430
571.271412	0.666300
571.626625	0.662993
571.981782	0.659368
572.336884	0.655429
572.691931	0.652109
573.046923	0.646281
573.401860	0.644025
573.756743	0.640925
574.111570	0.636031
574.466342	0.632869
574.821059	0.628076
575.175722	0.625803
575.530330	0.621338
575.884882	0.617849
576.239380	0.614380
576.593823	0.610687
576.948211	0.605772
577.302544	0.604804
577.656823	0.598643
578.011047	0.596262
578.365216	0.592286
578.719330	0.590164
579.073389	0.585132
579.427394	0.583352
579.781344	0.580174
580.135239	0.576923
580.489080	0.573809
580.842866	0.571352
581.196597	0.567288
581.550273	0.563474
581.903895	0.559629
582.257463	0.554939
582.610975	0.552738
582.964434	0.549746
583.317837	0.547299
583.671186	0.544597
584.024481	0.540204
584.377721	0.538892
584.730906	0.535225
585.084037	0.531464
585.437113	0.529959
585.790135	0.525172
586.143103	0.524146
586.496016	0.522392
586.848874	0.516648
587.201679	0.514788
587.554428	0.512919
587.907124	0.509155
588.259765	0.506420
588.612352	0.502833
588.964884	0.503396
589.317362	0.499848
589.669786	0.496334
590.022155	0.493399
590.374470	0.488771
590.726731	0.488171
591.078937	0.487772
591.431090	0.481192
591.783188	0.482989
592.135232	0.478856
592.487222	0.477554
592.839157	0.472345
593.191038	0.471466
593.542866	0.470087
593.894639	0.470038
594.246358	0.465128
594.598022	0.462288
594.949633	0.462297
595.301190	0.459931
595.652692	0.456983
596.004141	0.450460
596.355535	0.454589
596.706876	0.452213
597.058162	0.451532
597.409395	0.446701
597.760573	0.442210
598.111698	0.442678
598.462768	0.440258
598.813785	0.439383
599.164748	0.437628
599.515657	0.435660
599.866511	0.435640
600.217312	0.430204
600.568060	0.432603
600.918753	0.426866
601.269392	0.426025
601.619978	0.427106
601.970510	0.422695
602.320988	0.420982
602.671412	0.416409
603.021783	0.416926
603.372100	0.416510
603.722363	0.413053
604.072572	0.412431
604.422728	0.410141
604.772830	0.410177
605.122878	0.408096
605.472872	0.406936
605.822813	0.403332
606.172701	0.404399
606.522534	0.400075
606.872314	0.398483
607.222041	0.397688
607.571714	0.394190
607.921333	0.394077
608.270899	0.391631
608.620411	0.387761
608.969870	0.389709
609.319276	0.388301
609.668627	0.386966
610.017926	0.384311
610.367171	0.381703
610.716362	0.380901
611.065500	0.379653
611.414585	0.377194
611.763616	0.376822
612.112594	0.375752
612.461518	0.373532
612.810389	0.370330
613.159207	0.371813
613.507971	0.372181
613.856682	0.367073
614.205340	0.367445
614.553945	0.363311
614.902496	0.365993
615.250994	0.363095
615.599439	0.362771
615.947830	0.361328
616.296169	0.361292
616.644454	0.359879
616.992686	0.359573
617.340864	0.356226
617.688990	0.359060
618.037063	0.354828
618.385082	0.356202
618.733048	0.352546
619.080961	0.354012
619.428821	0.352565
619.776628	0.351081
620.124382	0.352326
620.472083	0.351603
620.819731	0.350124
621.167326	0.353116
621.514868	0.351812
621.862357	0.354838
622.209793	0.353803
622.557176	0.355083
622.904506	0.354967
623.251783	0.356431
623.599007	0.357832
623.946179	0.357063
624.293297	0.358042
624.640363	0.361081
624.987376	0.360768
625.334336	0.362547
625.681243	0.364305
626.028097	0.364516
626.374899	0.365171
626.721647	0.364854
627.068343	0.367989
627.414987	0.368122
627.761577	0.369654
628.108115	0.367698
628.454600	0.372176
628.801032	0.369232
629.147412	0.370745
629.493739	0.370556
629.840014	0.373469
630.186236	0.370469
630.532405	0.375361
630.878521	0.372751
631.224585	0.374728
631.570597	0.377945
631.916556	0.375861
632.262462	0.375730
632.608316	0.377509
632.954117	0.378073
633.299866	0.378256
633.645562	0.379060
633.991206	0.382275
634.336797	0.385098
634.682336	0.387223
635.027823	0.388391
635.373257	0.388711
635.718639	0.391443
636.063968	0.390715
636.409245	0.396346
636.754470	0.396275
637.099642	0.398054
637.444762	0.401343
637.789829	0.400361
638.134845	0.403239
638.479808	0.404229
638.824719	0.404176
639.169577	0.407688
639.514383	0.406103
639.859137	0.410571
640.203839	0.410536
640.548489	0.410219
640.893086	0.411811
641.237632	0.413123
641.582125	0.411236
641.926566	0.412486
642.270955	0.412797
642.615292	0.413208
642.959576	0.412198
643.303809	0.412487
643.647990	0.411629
643.992118	0.412443
644.336195	0.415726
644.680219	0.414043
645.024192	0.414745
645.368112	0.408230
645.711981	0.407030
646.055797	0.402221
646.399562	0.404499
646.743274	0.397073
647.086935	0.394122
647.430544	0.394486
647.774101	0.392575
648.117606	0.392729
648.461059	0.392912
648.804460	0.395390
649.147810	0.400578
649.491108	0.401878
649.834354	0.403822
650.177548	0.408662
650.520690	0.413974
650.863781	0.414931
651.206820	0.414528
651.549807	0.419009
651.892742	0.422252
652.235626	0.422024
652.578458	0.422980
652.921238	0.429382
653.263967	0.426551
653.606644	0.430903
653.949269	0.430338
654.291843	0.433921
654.634365	0.431106
654.976836	0.434311
655.319255	0.433770
655.661622	0.436171
656.003938	0.435739
656.346203	0.438488
656.688416	0.436462
657.030577	0.439411
657.372687	0.442113
657.714746	0.442554
658.056753	0.439388
658.398708	0.443125
658.740612	0.444131
659.082465	0.440213
659.424266	0.440612
659.766016	0.440734
660.107715	0.443184
660.449362	0.441636
660.790958	0.442267
661.132503	0.442713
661.473996	0.440909
661.815438	0.441228
662.156829	0.441760
662.498168	0.442069
662.839456	0.443734
663.180693	0.441727
663.521879	0.441339
663.863013	0.442769
664.204097	0.440700
664.545129	0.437579
664.886110	0.437775
665.227040	0.435553
665.567918	0.437681
665.908746	0.435823
666.249522	0.435887
666.590248	0.436064
666.930922	0.434863
667.271545	0.433613
667.612118	0.433607
667.952639	0.435424
668.293109	0.433851
668.633528	0.436631
668.973896	0.436597
669.314213	0.437287
669.654480	0.438869
669.994695	0.438928
670.334859	0.439402
670.674973	0.439477
671.015035	0.439901
671.355047	0.439903
671.695008	0.440776
672.034918	0.443085
672.374777	0.441824
672.714585	0.442981
673.054342	0.442845
673.394049	0.443230
673.733705	0.441253
674.073310	0.441984
674.412864	0.445298
674.752368	0.445590
675.091820	0.445943
675.431223	0.450080
675.770574	0.449839
676.109875	0.452729
676.449125	0.453012
676.788324	0.455178
677.127473	0.460087
677.466571	0.460563
677.805619	0.461928
678.144616	0.463135
678.483562	0.464728
678.822458	0.467592
679.161303	0.467895
679.500098	0.468745
679.838842	0.470274
680.177535	0.469641
680.516179	0.468522
680.854771	0.467486
681.193314	0.460483
681.531805	0.452315
681.870247	0.440611
682.208638	0.433469
682.546978	0.432446
682.885268	0.433858
683.223508	0.440532
683.561697	0.444110
683.899836	0.446451
684.237925	0.449878
684.575963	0.452227
684.913951	0.456104
685.251889	0.451301
685.589776	0.453299
685.927614	0.456039
686.265401	0.450390
686.603137	0.451335
686.940824	0.445472
687.278460	0.443844
687.616046	0.443412
687.953582	0.437830
688.291068	0.439383
688.628504	0.435450
688.965889	0.437219
689.303224	0.441256
689.640510	0.445237
689.977745	0.450605
690.314930	0.459019
690.652065	0.463514
690.989150	0.470869
691.326185	0.477038
691.663170	0.481921
692.000105	0.488945
692.336990	0.495800
692.673825	0.498783
693.010610	0.505538
693.347345	0.510544
693.684030	0.512421
694.020665	0.516964
694.357251	0.525492
694.693786	0.525098
695.030272	0.529113
695.366707	0.532993
695.703093	0.536630
696.039429	0.533978
696.375716	0.535918
696.711952	0.538138
697.048139	0.540401
697.384276	0.542560
697.720363	0.540531
698.056400	0.539974
698.392388	0.545310
698.728326	0.548580
699.064214	0.550690
699.400053	0.551545
699.735842	0.555146
700.071581	0.557762
700.407270	0.560643
700.742910	0.563691
701.078501	0.570064
701.414042	0.570457
701.749533	0.573192
702.084974	0.582243
702.420366	0.574135
702.755709	0.582158
703.091002	0.589534
703.426246	0.582910
703.761440	0.590067
704.096584	0.593953
704.431679	0.591030
704.766725	0.592924
705.101721	0.594790
705.436668	0.591068
705.771565	0.598089
706.106413	0.594117
706.441212	0.589453
706.775961	0.588061
707.110661	0.591726
707.445311	0.587781
707.779913	0.584978
708.114465	0.583600
708.448967	0.580565
708.783421	0.571988
709.117825	0.566904
709.452180	0.567041
709.786485	0.560346
710.120742	0.551039
710.454949	0.552317
710.789107	0.544882
711.123216	0.536338
711.457275	0.537771
711.791286	0.528090
712.125247	0.527430
712.459159	0.537887
712.793023	0.530914
713.126837	0.534659
713.460602	0.535447
713.794318	0.544455
714.127985	0.543734
714.461602	0.553692
714.795171	0.556862
715.128691	0.564478
715.462162	0.571394
715.795584	0.577492
716.128957	0.579829
716.462281	0.587652
716.795556	0.590478
717.128782	0.595216
717.461960	0.604749
717.795088	0.602687
718.128167	0.609512
718.461198	0.618405
718.794180	0.619344
719.127113	0.621312
719.459997	0.624715
719.792833	0.631038
720.125619	0.632471
720.458357	0.638668
720.791046	0.637880
721.123686	0.640989
721.456278	0.647902
721.788821	0.646559
722.121315	0.649013
722.453761	0.654175
722.786158	0.652318
723.118506	0.648412
723.450805	0.656188
723.783056	0.652056
724.115259	0.649982
724.447412	0.648984
724.779518	0.651004
725.111574	0.649167
725.443582	0.645197
725.775542	0.647121
726.107453	0.639167
726.439315	0.638482
726.771129	0.637854
727.102895	0.630964
727.434612	0.623778
727.766281	0.622114
728.097901	0.621180
728.429473	0.620914
728.760996	0.619382
729.092471	0.619721
729.423897	0.623665
729.755276	0.622247
730.086606	0.623170
730.417887	0.617033
730.749120	0.607895
731.080305	0.598916
731.411442	0.594768
731.742530	0.599833
732.073570	0.598988
732.404562	0.591506
732.735506	0.593124
733.066401	0.596836
733.397249	0.606422
733.728048	0.617854
734.058798	0.630736
734.389501	0.641025
734.720156	0.650265
735.050762	0.657967
735.381320	0.658856
735.711831	0.668615
736.042293	0.673472
736.372707	0.669397
736.703073	0.673673
737.033391	0.676127
737.363661	0.672583
737.693883	0.668667
738.024056	0.666568
738.354182	0.667701
738.684260	0.656452
739.014290	0.653001
739.344272	0.654220
739.674207	0.647481
740.004093	0.647086
740.333931	0.647734
740.663722	0.647418
740.993464	0.647826
741.323159	0.651166
741.652806	0.656227
741.982405	0.661370
742.311956	0.665704
742.641460	0.667877
742.970915	0.671716
743.300323	0.679842
743.629683	0.685534
743.958996	0.687830
744.288260	0.692404
744.617477	0.698225
744.946647	0.699727
745.275768	0.704951
745.604842	0.704333
745.933869	0.714424
746.262847	0.714817
746.591778	0.709061
746.920662	0.714926
747.249498	0.721383
747.578286	0.712078
747.907027	0.708755
748.235720	0.709533
748.564365	0.703851
748.892963	0.704051
749.221514	0.707950
749.550017	0.712084
749.878473	0.710843
750.206881	0.718108
750.535242	0.718843
750.863555	0.719323
751.191821	0.719796
751.520039	0.723260
751.848210	0.728069
752.176334	0.720572
752.504411	0.719445
752.832440	0.728012
753.160421	0.731252
753.488356	0.730887
753.816243	0.727366
754.144082	0.735898
754.471875	0.739263
754.799620	0.734922
755.127318	0.736115
755.454969	0.736309
755.782572	0.735741
756.110129	0.740917
756.437638	0.742718
756.765100	0.740367
757.092515	0.737422
757.419882	0.736281
757.747203	0.741436
758.074477	0.740979
758.401703	0.737522
758.728882	0.733577
759.056014	0.733235
759.383099	0.731322
759.710138	0.732445
760.037129	0.730236
760.364073	0.722867
760.690970	0.726202
761.017820	0.730566
761.344623	0.726527
761.671379	0.717961
761.998088	0.705751
762.324751	0.683835
762.651366	0.642215
762.977935	0.576095
763.304456	0.524962
763.630931	0.515590
763.957359	0.553570
764.283740	0.598509
764.610074	0.624831
764.936362	0.655995
765.262602	0.682147
765.588796	0.704049
765.914943	0.721050
766.241044	0.738779
766.567097	0.745209
766.893104	0.754790
767.219064	0.762038
767.544978	0.768091
767.870845	0.780781
768.196665	0.785316
768.522438	0.783103
768.848165	0.784028
769.173846	0.792202
769.499479	0.797464
769.825066	0.802234
770.150607	0.806040
770.476101	0.800959
770.801548	0.801469
771.126949	0.813977
771.452303	0.817388
771.777611	0.816161
772.102872	0.815201
772.428087	0.820660
772.753256	0.824599
773.078378	0.826308
773.403453	0.835524
773.728482	0.839700
774.053465	0.832743
774.378401	0.835395
774.703291	0.844520
775.028135	0.844560
775.352932	0.845211
775.677683	0.848419
776.002388	0.849628
776.327046	0.849192
776.651658	0.851161
776.976224	0.855473
777.300743	0.855776
777.625216	0.857626
777.949643	0.859538
778.274024	0.859138
778.598359	0.860431
778.922647	0.858903
779.246889	0.859533
779.571086	0.864124
779.895236	0.866653
780.219339	0.864099
780.543397	0.861098
780.867409	0.859231
781.191374	0.861713
781.515294	0.862891
781.839167	0.861627
782.162995	0.865218
782.486776	0.861208
782.810511	0.863831
783.134201	0.867215
783.457844	0.864012
783.781441	0.867800
784.104993	0.872802
784.428498	0.873484
784.751958	0.868414
785.075372	0.872038
785.398739	0.875631
785.722061	0.871582
786.045337	0.867159
786.368568	0.872044
786.691752	0.874287
787.014891	0.860404
787.337983	0.851972
787.661030	0.844275
787.984031	0.826813
788.306987	0.814459
788.629897	0.816135
788.952760	0.821158
789.275579	0.824522
789.598351	0.839865
789.921078	0.853456
790.243759	0.854605
790.566395	0.859653
790.888984	0.866895
791.211529	0.871278
791.534027	0.874987
791.856480	0.876972
792.178888	0.882594
792.501249	0.883617
792.823566	0.885353
793.145836	0.886019
793.468062	0.886747
793.790241	0.887558
794.112375	0.885663
794.434464	0.881339
794.756507	0.881096
795.078505	0.879777
795.400457	0.874879
795.722364	0.863103
796.044226	0.856681
796.366042	0.856294
796.687812	0.858127
797.009538	0.855154
797.331218	0.857318
797.652852	0.862595
797.974442	0.866375
798.295986	0.867858
798.617484	0.870232
798.938938	0.873696
799.260346	0.879414
799.581709	0.880961
799.903026	0.882826
800.224299	0.883580
800.545526	0.887122
800.866708	0.891973
801.187845	0.894665
801.508936	0.893828
801.829983	0.893280
802.150984	0.894971
802.471940	0.899986
802.792851	0.899791
803.113717	0.901849
803.434538	0.899020
803.755314	0.900319
804.076045	0.901872
804.396731	0.902643
804.717372	0.902123
805.037967	0.904459
805.358518	0.902769
805.679024	0.898919
805.999485	0.899554
806.319901	0.899801
806.640272	0.901342
806.960598	0.898571
807.280879	0.896261
807.601115	0.895894
807.921306	0.898176
808.241453	0.900139
808.561554	0.896397
808.881611	0.896685
809.201623	0.899001
809.521590	0.898284
809.841513	0.899373
810.161390	0.899130
810.481223	0.901088
810.801011	0.904320
811.120755	0.904993
811.440453	0.904263
811.760107	0.903812
812.079716	0.902312
812.399281	0.907027
812.718801	0.909280
813.038276	0.910006
813.357707	0.909117
813.677093	0.906887
813.996434	0.909367
814.315731	0.911267
814.634983	0.911528
814.954191	0.909775
815.273354	0.907309
815.592473	0.903850
815.911547	0.903678
816.230577	0.900837
816.549562	0.898247
816.868502	0.899812
817.187399	0.896065
817.506250	0.891315
817.825058	0.893180
818.143821	0.889099
818.462539	0.883852
818.781213	0.876884
819.099843	0.865981
819.418429	0.850095
819.736970	0.834258
820.055466	0.813921
820.373919	0.788612
820.692327	0.757294
821.010691	0.722967
821.329011	0.647234
821.647286	0.534259
821.965517	0.421976
822.283704	0.380178
822.601847	0.382078
822.919945	0.417636
823.237999	0.449718
823.556010	0.495849
823.873976	0.550821
824.191897	0.600401
824.509775	0.641682
824.827609	0.686003
825.145398	0.708588
825.463144	0.711745
825.780845	0.694411
826.098502	0.675975
826.416116	0.631209
826.733685	0.588625
827.051210	0.580842
827.368692	0.594706
827.686129	0.631386
828.003522	0.683386
828.320872	0.729987
828.638177	0.772317
828.955439	0.804482
829.272656	0.826427
829.589830	0.842366
829.906960	0.857375
830.224046	0.869895
830.541088	0.881242
830.858086	0.884732
831.175041	0.889936
831.491952	0.890071
831.808819	0.887539
832.125642	0.880701
832.442421	0.865426
832.759157	0.845359
833.075849	0.799479
833.392497	0.736858
833.709101	0.696658
834.025662	0.706740
834.342179	0.737263
834.658653	0.776381
834.975083	0.811476
835.291469	0.836341
835.607811	0.858445
835.924110	0.874481
836.240366	0.890636
836.556578	0.905030
836.872746	0.911970
837.188871	0.917697
837.504952	0.922740
837.820990	0.926625
838.136984	0.930147
838.452935	0.933026
838.768842	0.934570
839.084706	0.926875
839.400526	0.902401
839.716303	0.863455
840.032037	0.841506
840.347727	0.845259
840.663373	0.863107
840.978977	0.883091
841.294537	0.905076
841.610054	0.920885
841.925527	0.928239
842.240957	0.935180
842.556344	0.942468
842.871687	0.947592
843.186987	0.952648
843.502244	0.952392
843.817458	0.953960
844.132629	0.957814
844.447756	0.962477
844.762840	0.962932
845.077881	0.961810
845.392879	0.962323
845.707833	0.964982
846.022745	0.967146
846.337613	0.967501
846.652438	0.967592
846.967221	0.966014
847.281960	0.967929
847.596656	0.968730
847.911309	0.968286
848.225919	0.970097
848.540485	0.969270
848.855009	0.970188
849.169490	0.970700
849.483928	0.971045
849.798323	0.970578
850.112675	0.971004
850.426984	0.971030
850.741251	0.971671
851.055474	0.972030
851.369654	0.968999
851.683792	0.972374
851.997887	0.972278
852.311938	0.972639
852.625947	0.971834
852.939914	0.970185
853.253837	0.971578
853.567718	0.973798
853.881555	0.972069
854.195350	0.969920
854.509103	0.970285
854.822812	0.972762
855.136479	0.971049
855.450103	0.972144
855.763685	0.971084
856.077224	0.971130
856.390720	0.972906
856.704173	0.972616
857.017584	0.969237
857.330953	0.969599
857.644278	0.970093
857.957561	0.969424
858.270802	0.969369
858.584000	0.969591
858.897155	0.968937
859.210268	0.969316
859.523339	0.969179
859.836367	0.972373
860.149352	0.973444
860.462295	0.971449
860.775195	0.971616
861.088054	0.970975
861.400869	0.970592
861.713642	0.971498
862.026373	0.972275
862.339062	0.972094
862.651708	0.969571
862.964312	0.970510
863.276873	0.970981
863.589392	0.970259
863.901869	0.967124
864.214303	0.967193
864.526696	0.966628
864.839045	0.966044
865.151353	0.963803
865.463619	0.964834
865.775842	0.963678
866.088023	0.964567
866.400162	0.964654
866.712258	0.965050
867.024313	0.964526
867.336325	0.965837
867.648296	0.965570
867.960224	0.964115
868.272110	0.963970
868.583954	0.964665
868.895755	0.965779
869.207515	0.963712
869.519233	0.961953
869.830909	0.962576
870.142542	0.965480
870.454134	0.963525
870.765684	0.963089
871.077191	0.960681
871.388657	0.960577
871.700081	0.960309
872.011463	0.960937
872.322803	0.960671
872.634101	0.958335
872.945357	0.956735
873.256571	0.954822
873.567744	0.955462
873.878874	0.956586
874.189963	0.954654
874.501010	0.953663
874.812015	0.951922
875.122979	0.953964
875.433900	0.955904
875.744780	0.956153
876.055618	0.954076
876.366415	0.952951
876.677169	0.952045
876.987882	0.953461
877.298554	0.953860
877.609183	0.949717
877.919771	0.948506
878.230317	0.946279
878.540822	0.943991
878.851285	0.938746
879.161707	0.931279
879.472087	0.919457
879.782425	0.904808
880.092722	0.871907
880.402977	0.821089
880.713191	0.763056
881.023363	0.706048
881.333494	0.673390
881.643583	0.645946
881.953631	0.644934
882.263637	0.673520
882.573602	0.712870
882.883526	0.737425
883.193408	0.759385
883.503248	0.780042
883.813048	0.807091
884.122806	0.835962
884.432522	0.858667
884.742197	0.876815
885.051831	0.887351
885.361424	0.896457
885.670975	0.908108
885.980485	0.918725
886.289954	0.923379
886.599382	0.928854
886.908768	0.932324
887.218113	0.938112
887.527417	0.943264
887.836680	0.944130
888.145901	0.947464
888.455082	0.948079
888.764221	0.955059
889.073319	0.956165
889.382376	0.955562
889.691392	0.956449
890.000366	0.956028
890.309300	0.957007
890.618193	0.956108
890.927044	0.954399
891.235855	0.953400
891.544625	0.954126
891.853353	0.955188
892.162041	0.951844
892.470687	0.945619
892.779293	0.942468
893.087858	0.938052
893.396381	0.931239
893.704864	0.918101
894.013306	0.895462
894.321707	0.869781
894.630068	0.856140
894.938387	0.851826
895.246665	0.852946
895.554903	0.865141
895.863100	0.877185
896.171256	0.893019
896.479371	0.912286
896.787446	0.923784
897.095480	0.929512
897.403473	0.932995
897.711425	0.936386
898.019336	0.943034
898.327207	0.946409
898.635038	0.948552
898.942827	0.947880
899.250576	0.951490
899.558284	0.955262
899.865952	0.958120
900.173579	0.957444
900.481165	0.959596
900.788711	0.962017
901.096216	0.964509
901.403681	0.965138
901.711105	0.965476
902.018489	0.966512
902.325832	0.966181
902.633135	0.964563
902.940397	0.958490
903.247619	0.947710
903.554800	0.923208
903.861941	0.885883
904.169041	0.852342
904.476101	0.835973
904.783121	0.837868
905.090100	0.852565
905.397039	0.872668
905.703938	0.892918
906.010796	0.911604
906.317614	0.926949
906.624391	0.939175
906.931129	0.949301
907.237826	0.954565
907.544483	0.962547
907.851099	0.965686
908.157675	0.970825
908.464211	0.972216
908.770707	0.975025
909.077163	0.976623
909.383578	0.976986
909.689954	0.976754
909.996289	0.977973
910.302584	0.979267
910.608839	0.981720
910.915054	0.980633
911.221229	0.981853
911.527363	0.979955
911.833458	0.979350
912.139513	0.979303
912.445527	0.977443
912.751502	0.976808
913.057436	0.974986
913.363331	0.972303
913.669186	0.969116
913.975000	0.964657
914.280775	0.959097
914.586510	0.953007
914.892205	0.940623
915.197859	0.920737
915.503475	0.893891
915.809050	0.876475
916.114585	0.872158
916.420081	0.869512
916.725536	0.865772
917.030952	0.873055
917.336328	0.884509
917.641665	0.899772
917.946961	0.915122
918.252218	0.925268
918.557435	0.934578
918.862612	0.941348
919.167750	0.947888
919.472848	0.951680
919.777906	0.956024
920.082925	0.962265
920.387904	0.964762
920.692843	0.967190
920.997743	0.965972
921.302603	0.970362
921.607423	0.971769
921.912204	0.973849
922.216946	0.974174
922.521647	0.974940
922.826310	0.976743
923.130932	0.979480
923.435516	0.980303
923.740059	0.981107
924.044564	0.981926
924.349028	0.982313
924.653454	0.984036
924.957840	0.986938
925.262186	0.986285
925.566493	0.985479
925.870761	0.986525
926.174989	0.987641
926.479178	0.990676
926.783328	0.989852
927.087438	0.989658
927.391509	0.990294
927.695541	0.991059
927.999533	0.990022
928.303486	0.991014
928.607400	0.993178
928.911275	0.990773
929.215110	0.992299
929.518906	0.993149
929.822663	0.990783
930.126381	0.992339
930.430060	0.991153
930.733699	0.993211
931.037299	0.990668
931.340861	0.992089
931.644383	0.991052
931.947866	0.991483
932.251309	0.991876
932.554714	0.991399
932.858080	0.992312
933.161407	0.991737
933.464694	0.992425
933.767943	0.991040
934.071153	0.992779
934.374323	0.992743
934.677455	0.991439
934.980548	0.993557
935.283602	0.992058
935.586617	0.992587
935.889593	0.991516
936.192530	0.991058
936.495428	0.992783
936.798287	0.992112
937.101108	0.991850
937.403890	0.990394
937.706632	0.990511
938.009336	0.988663
938.312002	0.987914
938.614628	0.986853
938.917216	0.985437
939.219765	0.983279
939.522275	0.984922
939.824747	0.985354
940.127179	0.985025
940.429573	0.987032
940.731929	0.986326
941.034246	0.986362
941.336524	0.987046
941.638763	0.987275
941.940964	0.988391
942.243126	0.988802
942.545250	0.988783
942.847335	0.990455
943.149381	0.989109
943.451389	0.990133
943.753359	0.989867
944.055290	0.992810
944.357182	0.991221
944.659036	0.989989
944.960851	0.990502
945.262628	0.990507
945.564367	0.991371
945.866067	0.991098
946.167729	0.992476
946.469352	0.991000
946.770937	0.990518
947.072484	0.991325
947.373992	0.990933
947.675462	0.991182
947.976893	0.991045
948.278286	0.991752
948.579641	0.992569
948.880958	0.992068
949.182236	0.992080
949.483476	0.992863
949.784678	0.991583
950.085841	0.992927
950.386967	0.992006
950.688054	0.991892
950.989103	0.992533
951.290114	0.990064
951.591087	0.991309
951.892021	0.990879
952.192917	0.990118
952.493776	0.990885
952.794596	0.989378
953.095378	0.989376
953.396122	0.989641
953.696828	0.988485
953.997496	0.989714
954.298126	0.991927
954.598718	0.991790
954.899272	0.992473
955.199788	0.992340
955.500266	0.992210
955.800706	0.994332
956.101108	0.994033
956.401472	0.994784
956.701798	0.994296
957.002087	0.994626
957.302337	0.995013
957.602550	0.996131
957.902724	0.996520
958.202861	0.995709
958.502960	0.996380
958.803022	0.994849
959.103045	0.995767
959.403031	0.996084
959.702979	0.996248
960.002889	0.997138
960.302762	0.995768
960.602596	0.995444
960.902393	0.995759
961.202153	0.997588
961.501875	0.997942
961.801559	0.995843
962.101205	0.996722
962.400814	0.997734
962.700385	0.995983
962.999918	0.996470
963.299414	0.997528
963.598873	0.996330
963.898293	0.997323
964.197677	0.996360
964.497022	0.996637
964.796331	0.998088
965.095601	0.997674
965.394835	0.997035
965.694030	0.996977
965.993189	0.998343
966.292309	0.997286
966.591393	0.998015
966.890439	0.996570
967.189447	0.996667
967.488419	0.997897
967.787353	0.996559
968.086249	0.997040
968.385108	0.997741
968.683930	0.998226
968.982714	0.997869
969.281462	0.998258
969.580172	0.996737
969.878844	0.998124
970.177480	0.997681
970.476078	0.998325
970.774639	0.997883
971.073162	0.999215
971.371649	0.998251
971.670098	0.997695
971.968510	0.998989
972.266885	0.997100
972.565223	0.996238
972.863524	0.996893
973.161788	0.996408
973.460014	0.998920
973.758204	0.997592
974.056356	0.996781
974.354471	0.995817
974.652550	0.997219
974.950591	0.996753
975.248595	0.997477
975.546563	0.998405
975.844493	0.999364
976.142386	0.997072
976.440243	0.997737
976.738062	0.998546
977.035845	0.999651
977.333590	0.997643
977.631299	0.998521
977.928971	0.996934
978.226606	0.997934
978.524204	0.996681
978.821765	0.998958
979.119290	0.997569
979.416777	0.997948
979.714228	0.997256
980.011642	0.997275
980.309020	0.996518
980.606360	0.997740
980.903664	0.999196
981.200931	0.996021
981.498162	0.995484
981.795356	0.994880
982.092513	0.995760
982.389633	0.995900
982.686717	0.992568
982.983764	0.992536
983.280775	0.991937
983.577749	0.992565
983.874686	0.993460
984.171587	0.993279
984.468451	0.994804
984.765279	0.995992
985.062070	0.994885
985.358824	0.995833
985.655543	0.995902
985.952224	0.996435
986.248869	0.996181
986.545478	0.996943
986.842050	0.998663
987.138586	0.995716
987.435086	0.998304
987.731549	0.998585
988.027975	0.998664
988.324366	0.996928
988.620719	0.998700
988.917037	0.997407
989.213318	0.998712
989.509563	0.999022
989.805772	0.999986
990.101944	0.998946
990.398080	0.998823
990.694180	0.998983
990.990244	0.997430
991.286271	0.998418
991.582262	0.997963
991.878217	0.997907
992.174136	0.998434
992.470019	0.997987
992.765865	0.998868
993.061676	0.998477
993.357450	0.997621
993.653188	0.997627
993.948890	0.998629
994.244556	0.998210
994.540186	0.997332
994.835780	0.996817
995.131337	0.998109
995.426859	0.996582
995.722345	0.997806
996.017795	0.996954
996.313208	0.995966
996.608586	0.996229
996.903928	0.996748
997.199234	0.997272
997.494504	0.997394
997.789738	0.996628
998.084936	0.997502
998.380099	0.998796
998.675225	0.998624
998.970316	0.998401
999.265371	0.998838
999.560390	0.998991
999.855373	0.998183
1000.150320	0.998497
1000.445232	0.998260
1000.740108	0.997528
1001.034948	0.999526
1001.329752	0.999588
1001.624521	0.999077
1001.919254	0.998918
1002.213951	0.998370
1002.508613	0.997515
1002.803239	0.999930
1003.097829	0.998520
1003.392384	0.999941
1003.686903	0.999491
1003.981386	0.999734
1004.275834	1.000466
1004.570246	0.998492
1004.864623	0.999346
1005.158964	0.999815
1005.453270	0.997769
1005.747540	0.997663
1006.041775	0.998918
1006.335974	1.000295
1006.630138	0.999868
1006.924266	0.999336
1007.218359	1.000579
1007.512416	0.999590
1007.806438	0.998622
1008.100425	1.000000
1008.394376	0.999625
1008.688292	0.999071
1008.982172	1.000981
1009.276017	1.000122
1009.569827	0.998207
1009.863602	0.998933
1010.157341	0.999768
1010.451045	0.999596
1010.744714	1.000104
1011.038347	0.999327
1011.331945	0.999251
1011.625508	0.997812
1011.919036	0.998777
1012.212528	0.999300
1012.505986	0.999059
1012.799408	0.998074
1013.092795	0.999094
1013.386147	1.000132
1013.679464	0.998911
1013.972745	0.998280
1014.265992	0.998405
1014.559204	0.998589
1014.852380	0.999080
1015.145521	1.000076
1015.438628	0.999553
1015.731699	1.000098
1016.024736	0.999425
1016.317737	0.999257
1016.610703	0.997837
1016.903635	1.000212
1017.196531	0.999218
1017.489393	1.000316
1017.782219	0.998772
1018.075011	0.999422
1018.367768	0.999358
1018.660490	1.000288
1018.953177	1.000288
1019.245829	1.000288
