Dividing Wavelength (nm)	Counts (n)	Blue Motor Position (mm): 0.000000	Red Motor Position (mm): 13.000000	
326.493990	0.999845
326.888308	0.999845
327.282561	0.999845
327.676750	0.999288
328.070874	1.000220
328.464933	0.998803
328.858929	0.999919
329.252859	1.000242
329.646726	1.000372
330.040528	1.001155
330.434265	0.999294
330.827938	0.999808
331.221547	0.999979
331.615091	1.000718
332.008571	0.999162
332.401986	0.998974
332.795338	1.000169
333.188625	0.998669
333.581847	0.999898
333.975006	0.999973
334.368100	0.999385
334.761129	0.999440
335.154095	1.000414
335.546996	0.998837
335.939833	0.992619
336.332606	0.993558
336.725315	0.993704
337.117960	0.995378
337.510540	0.992554
337.903056	0.994029
338.295508	0.991825
338.687896	0.993410
339.080220	0.993262
339.472480	0.994288
339.864676	0.993123
340.256807	0.993550
340.648875	0.994758
341.040879	0.994322
341.432818	0.993444
341.824694	0.993895
342.216506	0.994460
342.608253	0.993015
342.999937	0.992973
343.391557	0.993434
343.783113	0.994187
344.174605	0.994009
344.566033	0.994650
344.957397	0.993381
345.348697	0.992991
345.739934	0.993041
346.131106	0.992956
346.522215	0.993641
346.913260	0.994144
347.304241	0.993571
347.695159	0.993334
348.086012	0.992220
348.476802	0.993692
348.867528	0.993168
349.258191	0.992717
349.648789	0.993157
350.039324	0.993231
350.429796	0.994704
350.820203	0.994130
351.210548	0.993813
351.600828	0.994477
351.991045	0.992931
352.381198	0.993471
352.771288	0.993912
353.161314	0.992501
353.551276	0.994813
353.941175	0.994210
354.331010	0.993736
354.720782	0.993614
355.110490	0.992379
355.500135	0.994603
355.889717	0.993801
356.279235	0.993193
356.668689	0.993306
357.058080	0.992679
357.447408	0.993729
357.836672	0.993859
358.225873	0.993811
358.615010	0.994121
359.004084	0.994221
359.393095	0.993392
359.782043	0.993696
360.170927	0.994196
360.559748	0.993983
360.948505	0.993157
361.337199	0.992849
361.725830	0.993236
362.114398	0.992879
362.502903	0.994170
362.891344	0.994888
363.279722	0.992901
363.668037	0.993746
364.056289	0.993248
364.444478	0.994786
364.832603	0.994201
365.220665	0.992841
365.608665	0.993899
365.996601	0.992361
366.384474	0.993585
366.772284	0.993807
367.160031	0.992196
367.547715	0.992705
367.935336	0.993226
368.322893	0.992996
368.710388	0.992211
369.097820	0.993643
369.485189	0.992004
369.872495	0.992342
370.259738	0.991349
370.646918	0.993846
371.034035	0.992770
371.421090	0.993662
371.808081	0.992559
372.195010	0.991587
372.581875	0.992922
372.968678	0.993207
373.355418	0.992946
373.742096	0.992659
374.128710	0.994096
374.515262	0.991561
374.901751	0.993900
375.288177	0.992168
375.674540	0.992793
376.060841	0.992240
376.447079	0.993531
376.833254	0.992323
377.219367	0.993327
377.605417	0.992706
377.991404	0.993029
378.377329	0.992186
378.763191	0.992937
379.148991	0.993062
379.534727	0.993427
379.920402	0.993475
380.306013	0.992329
380.691563	0.993094
381.077049	0.992439
381.462474	0.992983
381.847835	0.992559
382.233134	0.992216
382.618371	0.993256
383.003545	0.992789
383.388657	0.993271
383.773706	0.993371
384.158693	0.993275
384.543618	0.993693
384.928480	0.993761
385.313280	0.992975
385.698017	0.993879
386.082692	0.993280
386.467305	0.992637
386.851856	0.991860
387.236344	0.991115
387.620770	0.990122
388.005133	0.989892
388.389435	0.989519
388.773674	0.987246
389.157851	0.986352
389.541965	0.983051
389.926018	0.981411
390.310008	0.979052
390.693936	0.974681
391.077802	0.971932
391.461606	0.967861
391.845348	0.963474
392.229027	0.960457
392.612645	0.954826
392.996200	0.949362
393.379694	0.942740
393.763125	0.937010
394.146494	0.930815
394.529801	0.922932
394.913047	0.914996
395.296230	0.909734
395.679351	0.901844
396.062410	0.893245
396.445408	0.886882
396.828343	0.877214
397.211217	0.869190
397.594028	0.865225
397.976778	0.852930
398.359466	0.844009
398.742092	0.833313
399.124656	0.830412
399.507158	0.817374
399.889598	0.807838
400.271977	0.795313
400.654294	0.788746
401.036549	0.778836
401.418742	0.773677
401.800874	0.755591
402.182944	0.747054
402.564952	0.732183
402.946898	0.726348
403.328783	0.718169
403.710606	0.716443
404.092367	0.692287
404.474067	0.687826
404.855705	0.680075
405.237282	0.680230
405.618797	0.661543
406.000250	0.651405
406.381642	0.637855
406.762972	0.634644
407.144240	0.628065
407.525447	0.622123
407.906593	0.610337
408.287677	0.600345
408.668700	0.602914
409.049661	0.592330
409.430560	0.584033
409.811399	0.587405
410.192176	0.566232
410.572891	0.568980
410.953545	0.555128
411.334138	0.563325
411.714669	0.554476
412.095139	0.561963
412.475547	0.545096
412.855894	0.543662
413.236180	0.541524
413.616405	0.544055
413.996568	0.532487
414.376670	0.537369
414.756711	0.540544
415.136691	0.536116
415.516609	0.526740
415.896466	0.521810
416.276262	0.516850
416.655997	0.518148
417.035670	0.498382
417.415283	0.489808
417.794834	0.494183
418.174324	0.498968
418.553753	0.508168
418.933121	0.489508
419.312428	0.483270
419.691674	0.488545
420.070859	0.477205
420.449983	0.484640
420.829045	0.473846
421.208047	0.482664
421.586988	0.476277
421.965867	0.474974
422.344686	0.463383
422.723444	0.475941
423.102141	0.492136
423.480777	0.466044
423.859352	0.485817
424.237866	0.463057
424.616319	0.463853
424.994712	0.454865
425.373044	0.464696
425.751314	0.452739
426.129524	0.468901
426.507673	0.453529
426.885762	0.446794
427.263789	0.452394
427.641756	0.461653
428.019662	0.451939
428.397508	0.451271
428.775292	0.454912
429.153016	0.448006
429.530679	0.453824
429.908282	0.446798
430.285824	0.456299
430.663305	0.435474
431.040726	0.456420
431.418086	0.456468
431.795385	0.447665
432.172624	0.446539
432.549802	0.447534
432.926920	0.446279
433.303977	0.445474
433.680974	0.442734
434.057910	0.441648
434.434786	0.440859
434.811601	0.443483
435.188355	0.425921
435.565050	0.435091
435.941683	0.436538
436.318257	0.420493
436.694770	0.421329
437.071222	0.419842
437.447614	0.423760
437.823946	0.430542
438.200218	0.419756
438.576429	0.429787
438.952580	0.422704
439.328670	0.419102
439.704700	0.426045
440.080670	0.427071
440.456580	0.408040
440.832429	0.416011
441.208218	0.426250
441.583947	0.416747
441.959616	0.415584
442.335224	0.420112
442.710773	0.411719
443.086261	0.409566
443.461689	0.423199
443.837057	0.413984
444.212365	0.403614
444.587612	0.410059
444.962800	0.400725
445.337927	0.401491
445.712995	0.428411
446.088002	0.390508
446.462949	0.400889
446.837837	0.405676
447.212664	0.394419
447.587431	0.386029
447.962139	0.356241
448.336786	0.315973
448.711374	0.325970
449.085901	0.369820
449.460369	0.374368
449.834776	0.377908
450.209124	0.357632
450.583412	0.350149
450.957640	0.342816
451.331808	0.354128
451.705917	0.377383
452.079965	0.381942
452.453954	0.370459
452.827883	0.377182
453.201752	0.372149
453.575562	0.383319
453.949311	0.371899
454.323001	0.377677
454.696632	0.373917
455.070202	0.366792
455.443713	0.358744
455.817164	0.353368
456.190556	0.349204
456.563888	0.345778
456.937160	0.343631
457.310373	0.360703
457.683526	0.359784
458.056619	0.365252
458.429653	0.365559
458.802628	0.369520
459.175542	0.363260
459.548398	0.345925
459.921194	0.338799
460.293930	0.338363
460.666607	0.316224
461.039224	0.304458
461.411782	0.300263
461.784280	0.299506
462.156719	0.303494
462.529099	0.307820
462.901419	0.324233
463.273680	0.328750
463.645882	0.328099
464.018024	0.333773
464.390106	0.326560
464.762130	0.311648
465.134094	0.294664
465.505999	0.263875
465.877845	0.234665
466.249631	0.221493
466.621358	0.229014
466.993026	0.242624
467.364634	0.248772
467.736184	0.257366
468.107674	0.266119
468.479105	0.265277
468.850477	0.272521
469.221790	0.279356
469.593043	0.289077
469.964238	0.294150
470.335373	0.293307
470.706449	0.291265
471.077467	0.292142
471.448425	0.254172
471.819324	0.229968
472.190164	0.229298
472.560945	0.258207
472.931667	0.280520
473.302330	0.284366
473.672934	0.296443
474.043479	0.284388
474.413965	0.286286
474.784393	0.289437
475.154761	0.284658
475.525070	0.281939
475.895321	0.287742
476.265513	0.281995
476.635645	0.277016
477.005719	0.276978
477.375734	0.273919
477.745691	0.266948
478.115588	0.263642
478.485427	0.256900
478.855207	0.243786
479.224928	0.226511
479.594591	0.214671
479.964194	0.217915
480.333739	0.219163
480.703226	0.220549
481.072653	0.219009
481.442022	0.214721
481.811333	0.211260
482.180584	0.214906
482.549777	0.219987
482.918912	0.223193
483.287988	0.223245
483.657005	0.222608
484.025964	0.229257
484.394864	0.226445
484.763706	0.227084
485.132489	0.231775
485.501213	0.232831
485.869879	0.231119
486.238487	0.234440
486.607036	0.232171
486.975527	0.236813
487.343959	0.232866
487.712333	0.231722
488.080648	0.233311
488.448905	0.232655
488.817104	0.233565
489.185244	0.228275
489.553326	0.224937
489.921350	0.215092
490.289315	0.197536
490.657222	0.192408
491.025070	0.193744
491.392861	0.195977
491.760593	0.201504
492.128267	0.207031
492.495883	0.212565
492.863440	0.218833
493.230939	0.225307
493.598380	0.226703
493.965763	0.228526
494.333088	0.230961
494.700354	0.232500
495.067563	0.231334
495.434713	0.234651
495.801805	0.232585
496.168839	0.234174
496.535815	0.235415
496.902733	0.235298
497.269593	0.237027
497.636395	0.234649
498.003139	0.235191
498.369825	0.238201
498.736453	0.234415
499.103023	0.235865
499.469535	0.235408
499.835989	0.235811
500.202385	0.236442
500.568723	0.239815
500.935003	0.235195
501.301226	0.239143
501.667390	0.233542
502.033497	0.231644
502.399546	0.234588
502.765537	0.236357
503.131470	0.234962
503.497345	0.231151
503.863163	0.239879
504.228923	0.232685
504.594625	0.231704
504.960269	0.236976
505.325856	0.232168
505.691385	0.236456
506.056856	0.233361
506.422270	0.232575
506.787625	0.235125
507.152924	0.232614
507.518164	0.233052
507.883347	0.234691
508.248472	0.236437
508.613540	0.231745
508.978550	0.234144
509.343503	0.234335
509.708398	0.232307
510.073236	0.229897
510.438016	0.229484
510.802738	0.230865
511.167403	0.229834
511.532010	0.231622
511.896561	0.227205
512.261053	0.225995
512.625488	0.227821
512.989866	0.228127
513.354186	0.228562
513.718449	0.230104
514.082655	0.226706
514.446803	0.228898
514.810894	0.226709
515.174927	0.229495
515.538904	0.228658
515.902822	0.225656
516.266684	0.228099
516.630488	0.229252
516.994235	0.227767
517.357925	0.226606
517.721558	0.225173
518.085133	0.224573
518.448651	0.224721
518.812112	0.226557
519.175516	0.226476
519.538863	0.224096
519.902152	0.225573
520.265385	0.222313
520.628560	0.224428
520.991678	0.224747
521.354739	0.223479
521.717743	0.224721
522.080690	0.225322
522.443580	0.222214
522.806413	0.223615
523.169189	0.222756
523.531908	0.221884
523.894569	0.225128
524.257174	0.225223
524.619722	0.223155
524.982213	0.224009
525.344647	0.222987
525.707025	0.224181
526.069345	0.221875
526.431608	0.223559
526.793815	0.221852
527.155964	0.225626
527.518057	0.224520
527.880093	0.225625
528.242072	0.224364
528.603995	0.226007
528.965860	0.228003
529.327669	0.226652
529.689421	0.227866
530.051117	0.228477
530.412755	0.226326
530.774337	0.228378
531.135862	0.228767
531.497331	0.228204
531.858743	0.230814
532.220098	0.227895
532.581396	0.230161
532.942638	0.230782
533.303824	0.231777
533.664953	0.231481
534.026025	0.233256
534.387040	0.231435
534.747999	0.231004
535.108902	0.230041
535.469748	0.235244
535.830537	0.233064
536.191270	0.233311
536.551947	0.232699
536.912567	0.232981
537.273131	0.234477
537.633638	0.234787
537.994089	0.235005
538.354483	0.236273
538.714821	0.233109
539.075103	0.232866
539.435328	0.233524
539.795497	0.237393
540.155609	0.233851
540.515665	0.232218
540.875665	0.237886
541.235609	0.236026
541.595496	0.236322
541.955328	0.233053
542.315102	0.235687
542.674821	0.236564
543.034483	0.236663
543.394090	0.236148
543.753640	0.238465
544.113134	0.233219
544.472571	0.236310
544.831953	0.233588
545.191278	0.237601
545.550548	0.237135
545.909761	0.233721
546.268918	0.234629
546.628019	0.233174
546.987064	0.235679
547.346053	0.237367
547.704986	0.235301
548.063863	0.235497
548.422684	0.235479
548.781449	0.237579
549.140158	0.235189
549.498811	0.238159
549.857408	0.241315
550.215949	0.236083
550.574434	0.238826
550.932864	0.237054
551.291237	0.235659
551.649555	0.237174
552.007817	0.236711
552.366022	0.237812
552.724173	0.237625
553.082267	0.238302
553.440305	0.234862
553.798288	0.239413
554.156215	0.235979
554.514086	0.236633
554.871902	0.239842
555.229661	0.239083
555.587365	0.239532
555.945014	0.242114
556.302606	0.238967
556.660143	0.241713
557.017625	0.238045
557.375050	0.240396
557.732421	0.237250
558.089735	0.239417
558.446994	0.239457
558.804197	0.238613
559.161345	0.238594
559.518437	0.242189
559.875474	0.239592
560.232455	0.239247
560.589381	0.240269
560.946251	0.240383
561.303065	0.237864
561.659825	0.239409
562.016528	0.240978
562.373177	0.243828
562.729770	0.241049
563.086307	0.243203
563.442789	0.240783
563.799216	0.243512
564.155587	0.242359
564.511904	0.243674
564.868164	0.243662
565.224370	0.243540
565.580520	0.245517
565.936615	0.245043
566.292654	0.248093
566.648638	0.245259
567.004567	0.245924
567.360441	0.246599
567.716260	0.248596
568.072023	0.246326
568.427732	0.247413
568.783385	0.249429
569.138982	0.247734
569.494525	0.247353
569.850013	0.250420
570.205445	0.248789
570.560823	0.251190
570.916145	0.253423
571.271412	0.251396
571.626625	0.253013
571.981782	0.253303
572.336884	0.254224
572.691931	0.254039
573.046923	0.255302
573.401860	0.256782
573.756743	0.257931
574.111570	0.257044
574.466342	0.257179
574.821059	0.256577
575.175722	0.259138
575.530330	0.258955
575.884882	0.259470
576.239380	0.261314
576.593823	0.262040
576.948211	0.261315
577.302544	0.264521
577.656823	0.264350
578.011047	0.264469
578.365216	0.265129
578.719330	0.267190
579.073389	0.266908
579.427394	0.268268
579.781344	0.269122
580.135239	0.270428
580.489080	0.270022
580.842866	0.272919
581.196597	0.272782
581.550273	0.271406
581.903895	0.272761
582.257463	0.270766
582.610975	0.274358
582.964434	0.273710
583.317837	0.276011
583.671186	0.276489
584.024481	0.276202
584.377721	0.278948
584.730906	0.279576
585.084037	0.278645
585.437113	0.280826
585.790135	0.280208
586.143103	0.283000
586.496016	0.284113
586.848874	0.281588
587.201679	0.282183
587.554428	0.285588
587.907124	0.284376
588.259765	0.284527
588.612352	0.285573
588.964884	0.289129
589.317362	0.288911
589.669786	0.288918
590.022155	0.287481
590.374470	0.286515
590.726731	0.288914
591.078937	0.293601
591.431090	0.289765
591.783188	0.294114
592.135232	0.294557
592.487222	0.294638
592.839157	0.292889
593.191038	0.294785
593.542866	0.296802
593.894639	0.300220
594.246358	0.298491
594.598022	0.297625
594.949633	0.301646
595.301190	0.302121
595.652692	0.301299
596.004141	0.297598
596.355535	0.305596
596.706876	0.306155
597.058162	0.308456
597.409395	0.305799
597.760573	0.303476
598.111698	0.306390
598.462768	0.307518
598.813785	0.308541
599.164748	0.309893
599.515657	0.310213
599.866511	0.313445
600.217312	0.308995
600.568060	0.314035
600.918753	0.310611
601.269392	0.311289
601.619978	0.314721
601.970510	0.312273
602.320988	0.312663
602.671412	0.310101
603.021783	0.312653
603.372100	0.313770
603.722363	0.313662
604.072572	0.314337
604.422728	0.313975
604.772830	0.316696
605.122878	0.315688
605.472872	0.316363
605.822813	0.315045
606.172701	0.317360
606.522534	0.314875
606.872314	0.314897
607.222041	0.316124
607.571714	0.314097
607.921333	0.315500
608.270899	0.315012
608.620411	0.312023
608.969870	0.315842
609.319276	0.315759
609.668627	0.315849
610.017926	0.314514
610.367171	0.312794
610.716362	0.313360
611.065500	0.313850
611.414585	0.312392
611.763616	0.313176
612.112594	0.313547
612.461518	0.313179
612.810389	0.310742
613.159207	0.312884
613.507971	0.314498
613.856682	0.310851
614.205340	0.311954
614.553945	0.308994
614.902496	0.312691
615.250994	0.310381
615.599439	0.311413
615.947830	0.310912
616.296169	0.311941
616.644454	0.311610
616.992686	0.311640
617.340864	0.309029
617.688990	0.313266
618.037063	0.309758
618.385082	0.311533
618.733048	0.308398
619.080961	0.310530
619.428821	0.310211
619.776628	0.309697
620.124382	0.311459
620.472083	0.311925
620.819731	0.311300
621.167326	0.315148
621.514868	0.315112
621.862357	0.318830
622.209793	0.318889
622.557176	0.320804
622.904506	0.322211
623.251783	0.324456
623.599007	0.326765
623.946179	0.326261
624.293297	0.328419
624.640363	0.331681
624.987376	0.332735
625.334336	0.335025
625.681243	0.337275
626.028097	0.337720
626.374899	0.339091
626.721647	0.339342
627.068343	0.342708
627.414987	0.343554
627.761577	0.345659
628.108115	0.344076
628.454600	0.349333
628.801032	0.346570
629.147412	0.348540
629.493739	0.348591
629.840014	0.351974
630.186236	0.349701
630.532405	0.354722
630.878521	0.352478
631.224585	0.354511
631.570597	0.358497
631.916556	0.356485
632.262462	0.356990
632.608316	0.358611
632.954117	0.359970
633.299866	0.360844
633.645562	0.361009
633.991206	0.365288
634.336797	0.368494
634.682336	0.370725
635.027823	0.372146
635.373257	0.372824
635.718639	0.376058
636.063968	0.375554
636.409245	0.381189
636.754470	0.382017
637.099642	0.384126
637.444762	0.387078
637.789829	0.386522
638.134845	0.389900
638.479808	0.390993
638.824719	0.390392
639.169577	0.395330
639.514383	0.394058
639.859137	0.397948
640.203839	0.398035
640.548489	0.398669
640.893086	0.399287
641.237632	0.401536
641.582125	0.399653
641.926566	0.401244
642.270955	0.401094
642.615292	0.401608
642.959576	0.401008
643.303809	0.401271
643.647990	0.401257
643.992118	0.401834
644.336195	0.405044
644.680219	0.403646
645.024192	0.404218
645.368112	0.398112
645.711981	0.397066
646.055797	0.392190
646.399562	0.394807
646.743274	0.386892
647.086935	0.383701
647.430544	0.384129
647.774101	0.383424
648.117606	0.382574
648.461059	0.382799
648.804460	0.384853
649.147810	0.390885
649.491108	0.392391
649.834354	0.393528
650.177548	0.399628
650.520690	0.404850
650.863781	0.406044
651.206820	0.405260
651.549807	0.409622
651.892742	0.413761
652.235626	0.412699
652.578458	0.414318
652.921238	0.420051
653.263967	0.417875
653.606644	0.422170
653.949269	0.421887
654.291843	0.425567
654.634365	0.422368
654.976836	0.425774
655.319255	0.426325
655.661622	0.427390
656.003938	0.427580
656.346203	0.430394
656.688416	0.428709
657.030577	0.432074
657.372687	0.433578
657.714746	0.434163
658.056753	0.431638
658.398708	0.435411
658.740612	0.436534
659.082465	0.432946
659.424266	0.433643
659.766016	0.432834
660.107715	0.435166
660.449362	0.434329
660.790958	0.434958
661.132503	0.435196
661.473996	0.433079
661.815438	0.434476
662.156829	0.433989
662.498168	0.435071
662.839456	0.436146
663.180693	0.434171
663.521879	0.433386
663.863013	0.434768
664.204097	0.433206
664.545129	0.430500
664.886110	0.430788
665.227040	0.428350
665.567918	0.430368
665.908746	0.428889
666.249522	0.428273
666.590248	0.429230
666.930922	0.427593
667.271545	0.426418
667.612118	0.426391
667.952639	0.427828
668.293109	0.426287
668.633528	0.429900
668.973896	0.429020
669.314213	0.429908
669.654480	0.431926
669.994695	0.431540
670.334859	0.432357
670.674973	0.432534
671.015035	0.433282
671.355047	0.433270
671.695008	0.434011
672.034918	0.435761
672.374777	0.434706
672.714585	0.436610
673.054342	0.436025
673.394049	0.436696
673.733705	0.434353
674.073310	0.435087
674.412864	0.438521
674.752368	0.438551
675.091820	0.438528
675.431223	0.443188
675.770574	0.443285
676.109875	0.446291
676.449125	0.446700
676.788324	0.448381
677.127473	0.453914
677.466571	0.453140
677.805619	0.455345
678.144616	0.456438
678.483562	0.458335
678.822458	0.460304
679.161303	0.461708
679.500098	0.462019
679.838842	0.463930
680.177535	0.463628
680.516179	0.461697
680.854771	0.460744
681.193314	0.454291
681.531805	0.445783
681.870247	0.433959
682.208638	0.426562
682.546978	0.425461
682.885268	0.427139
683.223508	0.433478
683.561697	0.436958
683.899836	0.439876
684.237925	0.443641
684.575963	0.445807
684.913951	0.449068
685.251889	0.444743
685.589776	0.446944
685.927614	0.449068
686.265401	0.443452
686.603137	0.444184
686.940824	0.438752
687.278460	0.437203
687.616046	0.436174
687.953582	0.430865
688.291068	0.432734
688.628504	0.428078
688.965889	0.430625
689.303224	0.434413
689.640510	0.438483
689.977745	0.444641
690.314930	0.452263
690.652065	0.456837
690.989150	0.464432
691.326185	0.470919
691.663170	0.475511
692.000105	0.482766
692.336990	0.489262
692.673825	0.492281
693.010610	0.498605
693.347345	0.504591
693.684030	0.506222
694.020665	0.510742
694.357251	0.519729
694.693786	0.519711
695.030272	0.523192
695.366707	0.526945
695.703093	0.530498
696.039429	0.528354
696.375716	0.530076
696.711952	0.532008
697.048139	0.534583
697.384276	0.536676
697.720363	0.534358
698.056400	0.533737
698.392388	0.539636
698.728326	0.542716
699.064214	0.545152
699.400053	0.545212
699.735842	0.549468
700.071581	0.552303
700.407270	0.554698
700.742910	0.557039
701.078501	0.564596
701.414042	0.564806
701.749533	0.567858
702.084974	0.576724
702.420366	0.568724
702.755709	0.576519
703.091002	0.584456
703.426246	0.577376
703.761440	0.583214
704.096584	0.587989
704.431679	0.585859
704.766725	0.587577
705.101721	0.589421
705.436668	0.585553
705.771565	0.591842
706.106413	0.588864
706.441212	0.584036
706.775961	0.582163
707.110661	0.585976
707.445311	0.582309
707.779913	0.578842
708.114465	0.578088
708.448967	0.573884
708.783421	0.566526
709.117825	0.560972
709.452180	0.561359
709.786485	0.555153
710.120742	0.544961
710.454949	0.546821
710.789107	0.538661
711.123216	0.529910
711.457275	0.531388
711.791286	0.521735
712.125247	0.521494
712.459159	0.532277
712.793023	0.524293
713.126837	0.528801
713.460602	0.529451
713.794318	0.538723
714.127985	0.537387
714.461602	0.547328
714.795171	0.550762
715.128691	0.558485
715.462162	0.566728
715.795584	0.571526
716.128957	0.575189
716.462281	0.580742
716.795556	0.584970
717.128782	0.589697
717.461960	0.599641
717.795088	0.597648
718.128167	0.603888
718.461198	0.613150
718.794180	0.612566
719.127113	0.616025
719.459997	0.619347
719.792833	0.626312
720.125619	0.626259
720.458357	0.633379
720.791046	0.632226
721.123686	0.636128
721.456278	0.643217
721.788821	0.640388
722.121315	0.644660
722.453761	0.649255
722.786158	0.646069
723.118506	0.642963
723.450805	0.651207
723.783056	0.647072
724.115259	0.643395
724.447412	0.643364
724.779518	0.645801
725.111574	0.643943
725.443582	0.639278
725.775542	0.641859
726.107453	0.633090
726.439315	0.633701
726.771129	0.632197
727.102895	0.625502
727.434612	0.617999
727.766281	0.617090
728.097901	0.615176
728.429473	0.615679
728.760996	0.613767
729.092471	0.613222
729.423897	0.617172
729.755276	0.617194
730.086606	0.616876
730.417887	0.611372
730.749120	0.602208
731.080305	0.592478
731.411442	0.588589
731.742530	0.593524
732.073570	0.592587
732.404562	0.584816
732.735506	0.586724
733.066401	0.591697
733.397249	0.600449
733.728048	0.611556
734.058798	0.624719
734.389501	0.634857
734.720156	0.644695
735.050762	0.652852
735.381320	0.654566
735.711831	0.662670
736.042293	0.667968
736.372707	0.664445
736.703073	0.668452
737.033391	0.671052
737.363661	0.667229
737.693883	0.663064
738.024056	0.661836
738.354182	0.662179
738.684260	0.651287
739.014290	0.647261
739.344272	0.648647
739.674207	0.641118
740.004093	0.641221
740.333931	0.641557
740.663722	0.641502
740.993464	0.642165
741.323159	0.645746
741.652806	0.650349
741.982405	0.655336
742.311956	0.660154
742.641460	0.662588
742.970915	0.666102
743.300323	0.673844
743.629683	0.680434
743.958996	0.682114
744.288260	0.686499
744.617477	0.692331
744.946647	0.694299
745.275768	0.699852
745.604842	0.700040
745.933869	0.709484
746.262847	0.709165
746.591778	0.703190
746.920662	0.709410
747.249498	0.715269
747.578286	0.706592
747.907027	0.702529
748.235720	0.703919
748.564365	0.698212
748.892963	0.698744
749.221514	0.702002
749.550017	0.706714
749.878473	0.706455
750.206881	0.712494
750.535242	0.714632
750.863555	0.714024
751.191821	0.715614
751.520039	0.718552
751.848210	0.723308
752.176334	0.715711
752.504411	0.714416
752.832440	0.722726
753.160421	0.726299
753.488356	0.724985
753.816243	0.722619
754.144082	0.730605
754.471875	0.734799
754.799620	0.730127
755.127318	0.730741
755.454969	0.731049
755.782572	0.730326
756.110129	0.736034
756.437638	0.738034
756.765100	0.734992
757.092515	0.732072
757.419882	0.731996
757.747203	0.737218
758.074477	0.736639
758.401703	0.734076
758.728882	0.728474
759.056014	0.727057
759.383099	0.725853
759.710138	0.727320
760.037129	0.724012
760.364073	0.717790
760.690970	0.720319
761.017820	0.725008
761.344623	0.721447
761.671379	0.713226
761.998088	0.701039
762.324751	0.677739
762.651366	0.636481
762.977935	0.568708
763.304456	0.516473
763.630931	0.507688
763.957359	0.546550
764.283740	0.590635
764.610074	0.618466
764.936362	0.649228
765.262602	0.675892
765.588796	0.698020
765.914943	0.715635
766.241044	0.734007
766.567097	0.739878
766.893104	0.748969
767.219064	0.755860
767.544978	0.761932
767.870845	0.776504
768.196665	0.779975
768.522438	0.777639
768.848165	0.780117
769.173846	0.788062
769.499479	0.792562
769.825066	0.796306
770.150607	0.800738
770.476101	0.796241
770.801548	0.797811
771.126949	0.808660
771.452303	0.812974
771.777611	0.812457
772.102872	0.810616
772.428087	0.816991
772.753256	0.819654
773.078378	0.821961
773.403453	0.831337
773.728482	0.835805
774.053465	0.828691
774.378401	0.832319
774.703291	0.840937
775.028135	0.840718
775.352932	0.841987
775.677683	0.845334
776.002388	0.846098
776.327046	0.845063
776.651658	0.848905
776.976224	0.851160
777.300743	0.851053
777.625216	0.853507
777.949643	0.855931
778.274024	0.855962
778.598359	0.857604
778.922647	0.855893
779.246889	0.856569
779.571086	0.860231
779.895236	0.863029
780.219339	0.859857
780.543397	0.856933
780.867409	0.855438
781.191374	0.857918
781.515294	0.858492
781.839167	0.858220
782.162995	0.861659
782.486776	0.858527
782.810511	0.858923
783.134201	0.862826
783.457844	0.860992
783.781441	0.862591
784.104993	0.870893
784.428498	0.868932
784.751958	0.864536
785.075372	0.867575
785.398739	0.870532
785.722061	0.868645
786.045337	0.862295
786.368568	0.868467
786.691752	0.870627
787.014891	0.855949
787.337983	0.848142
787.661030	0.839599
787.984031	0.822460
788.306987	0.809509
788.629897	0.810869
788.952760	0.814761
789.275579	0.819644
789.598351	0.835518
789.921078	0.848808
790.243759	0.850139
790.566395	0.855242
790.888984	0.861903
791.211529	0.867566
791.534027	0.870979
791.856480	0.873252
792.178888	0.878014
792.501249	0.880675
792.823566	0.881298
793.145836	0.880597
793.468062	0.884049
793.790241	0.883725
794.112375	0.882040
794.434464	0.877297
794.756507	0.876750
795.078505	0.876127
795.400457	0.871303
795.722364	0.859056
796.044226	0.852670
796.366042	0.850863
796.687812	0.854372
797.009538	0.850589
797.331218	0.853998
797.652852	0.858849
797.974442	0.863692
798.295986	0.863358
798.617484	0.864950
798.938938	0.870018
799.260346	0.874222
799.581709	0.876283
799.903026	0.877865
800.224299	0.878863
800.545526	0.883800
800.866708	0.888289
801.187845	0.892185
801.508936	0.890464
801.829983	0.888581
802.150984	0.891107
802.471940	0.897434
802.792851	0.894918
803.113717	0.897125
803.434538	0.895468
803.755314	0.897006
804.076045	0.898714
804.396731	0.898529
804.717372	0.899161
805.037967	0.900100
805.358518	0.899464
805.679024	0.895293
805.999485	0.896101
806.319901	0.895193
806.640272	0.897613
806.960598	0.895213
807.280879	0.892834
807.601115	0.890325
807.921306	0.895631
808.241453	0.895977
808.561554	0.892556
808.881611	0.893090
809.201623	0.895166
809.521590	0.895483
809.841513	0.896078
810.161390	0.895140
810.481223	0.895987
810.801011	0.900529
811.120755	0.902436
811.440453	0.900262
811.760107	0.899403
812.079716	0.898318
812.399281	0.902256
812.718801	0.905503
813.038276	0.906078
813.357707	0.905313
813.677093	0.902715
813.996434	0.906181
814.315731	0.908470
814.634983	0.908705
814.954191	0.906305
815.273354	0.904239
815.592473	0.900641
815.911547	0.900001
816.230577	0.898076
816.549562	0.894045
816.868502	0.895613
817.187399	0.892240
817.506250	0.887433
817.825058	0.888891
818.143821	0.884774
818.462539	0.880032
818.781213	0.871212
819.099843	0.860008
819.418429	0.845469
819.736970	0.828068
820.055466	0.807883
820.373919	0.782409
820.692327	0.749153
821.010691	0.713413
821.329011	0.635666
821.647286	0.518901
821.965517	0.405692
822.283704	0.362685
822.601847	0.363426
822.919945	0.398977
823.237999	0.432915
823.556010	0.480816
823.873976	0.536523
824.191897	0.587870
824.509775	0.631260
824.827609	0.675836
825.145398	0.699279
825.463144	0.701914
825.780845	0.684837
826.098502	0.665304
826.416116	0.619698
826.733685	0.575686
827.051210	0.566166
827.368692	0.581390
827.686129	0.619094
828.003522	0.672579
828.320872	0.720150
828.638177	0.764511
828.955439	0.797978
829.272656	0.819841
829.589830	0.837496
829.906960	0.852579
830.224046	0.865054
830.541088	0.874952
830.858086	0.879430
831.175041	0.887128
831.491952	0.885694
831.808819	0.882601
832.125642	0.874812
832.442421	0.860276
832.759157	0.839333
833.075849	0.791585
833.392497	0.727485
833.709101	0.687092
834.025662	0.696447
834.342179	0.728197
834.658653	0.767634
834.975083	0.803383
835.291469	0.829620
835.607811	0.852334
835.924110	0.869450
836.240366	0.886438
836.556578	0.900036
836.872746	0.907371
837.188871	0.913181
837.504952	0.918169
837.820990	0.922212
838.136984	0.926154
838.452935	0.929508
838.768842	0.931480
839.084706	0.923116
839.400526	0.898226
839.716303	0.858415
840.032037	0.834661
840.347727	0.838223
840.663373	0.857438
840.978977	0.877777
841.294537	0.900070
841.610054	0.917728
841.925527	0.924537
842.240957	0.931917
842.556344	0.938758
842.871687	0.944540
843.186987	0.948558
843.502244	0.949432
843.817458	0.950933
844.132629	0.955128
844.447756	0.959455
844.762840	0.960564
845.077881	0.959738
845.392879	0.958274
845.707833	0.961674
846.022745	0.964281
846.337613	0.963673
846.652438	0.965697
846.967221	0.963997
847.281960	0.964475
847.596656	0.967075
847.911309	0.965088
848.225919	0.968019
848.540485	0.968372
848.855009	0.967623
849.169490	0.967214
849.483928	0.967803
849.798323	0.968985
850.112675	0.969265
850.426984	0.968835
850.741251	0.969232
851.055474	0.970421
851.369654	0.966956
851.683792	0.968379
851.997887	0.968385
852.311938	0.970160
852.625947	0.968631
852.939914	0.967687
853.253837	0.968496
853.567718	0.969248
853.881555	0.970485
854.195350	0.968038
854.509103	0.969177
854.822812	0.968976
855.136479	0.969004
855.450103	0.968432
855.763685	0.967135
856.077224	0.968354
856.390720	0.969524
856.704173	0.969964
857.017584	0.968291
857.330953	0.967083
857.644278	0.966619
857.957561	0.968403
858.270802	0.967839
858.584000	0.966587
858.897155	0.966846
859.210268	0.966743
859.523339	0.967777
859.836367	0.970054
860.149352	0.968991
860.462295	0.967946
860.775195	0.969225
861.088054	0.968234
861.400869	0.968412
861.713642	0.970578
862.026373	0.970253
862.339062	0.970446
862.651708	0.968778
862.964312	0.967244
863.276873	0.969578
863.589392	0.968009
863.901869	0.965586
864.214303	0.963665
864.526696	0.964016
864.839045	0.962151
865.151353	0.960769
865.463619	0.962792
865.775842	0.961581
866.088023	0.961579
866.400162	0.961890
866.712258	0.961720
867.024313	0.960656
867.336325	0.962585
867.648296	0.962800
867.960224	0.961553
868.272110	0.961704
868.583954	0.963272
868.895755	0.963697
869.207515	0.961680
869.519233	0.958586
869.830909	0.961090
870.142542	0.960924
870.454134	0.961247
870.765684	0.959369
871.077191	0.957351
871.388657	0.957683
871.700081	0.957273
872.011463	0.958293
872.322803	0.957385
872.634101	0.956075
872.945357	0.953115
873.256571	0.952168
873.567744	0.951882
873.878874	0.952114
874.189963	0.951279
874.501010	0.949451
874.812015	0.949595
875.122979	0.950610
875.433900	0.952818
875.744780	0.952767
876.055618	0.950755
876.366415	0.949871
876.677169	0.949120
876.987882	0.950374
877.298554	0.949326
877.609183	0.946939
877.919771	0.944826
878.230317	0.941767
878.540822	0.939646
878.851285	0.933672
879.161707	0.926165
879.472087	0.912899
879.782425	0.897631
880.092722	0.861962
880.402977	0.810630
880.713191	0.747724
881.023363	0.687997
881.333494	0.653309
881.643583	0.625781
881.953631	0.625564
882.263637	0.654309
882.573602	0.692069
882.883526	0.719705
883.193408	0.743934
883.503248	0.766542
883.813048	0.794727
884.122806	0.824215
884.432522	0.848393
884.742197	0.867759
885.051831	0.879144
885.361424	0.888742
885.670975	0.902026
885.980485	0.911914
886.289954	0.918558
886.599382	0.924293
886.908768	0.927241
887.218113	0.932495
887.527417	0.937460
887.836680	0.941320
888.145901	0.942471
888.455082	0.944764
888.764221	0.950375
889.073319	0.951920
889.382376	0.951976
889.691392	0.952361
890.000366	0.952262
890.309300	0.952839
890.618193	0.951821
890.927044	0.951306
891.235855	0.951158
891.544625	0.949866
891.853353	0.950518
892.162041	0.949285
892.470687	0.941627
892.779293	0.935842
893.087858	0.932785
893.396381	0.924225
893.704864	0.911422
894.013306	0.886660
894.321707	0.858840
894.630068	0.844501
894.938387	0.840939
895.246665	0.840925
895.554903	0.854616
895.863100	0.868466
896.171256	0.885257
896.479371	0.904565
896.787446	0.917438
897.095480	0.923055
897.403473	0.927360
897.711425	0.931045
898.019336	0.938509
898.327207	0.941500
898.635038	0.942919
898.942827	0.943838
899.250576	0.946484
899.558284	0.951752
899.865952	0.953758
900.173579	0.953962
900.481165	0.954224
900.788711	0.958878
901.096216	0.960190
901.403681	0.961015
901.711105	0.962022
902.018489	0.963230
902.325832	0.959962
902.633135	0.960994
902.940397	0.953899
903.247619	0.942419
903.554800	0.916074
903.861941	0.875657
904.169041	0.839517
904.476101	0.821726
904.783121	0.823245
905.090100	0.838790
905.397039	0.861866
905.703938	0.883849
906.010796	0.903904
906.317614	0.921553
906.624391	0.932809
906.931129	0.943365
907.237826	0.951885
907.544483	0.958284
907.851099	0.962031
908.157675	0.966340
908.464211	0.968465
908.770707	0.971518
909.077163	0.972894
909.383578	0.973359
909.689954	0.974197
909.996289	0.975563
910.302584	0.976101
910.608839	0.979271
910.915054	0.976780
911.221229	0.977398
911.527363	0.975826
911.833458	0.976361
912.139513	0.977010
912.445527	0.974608
912.751502	0.973047
913.057436	0.970981
913.363331	0.968951
913.669186	0.965434
913.975000	0.959932
914.280775	0.954429
914.586510	0.947203
914.892205	0.933817
915.197859	0.912018
915.503475	0.883278
915.809050	0.864523
916.114585	0.857678
916.420081	0.855423
916.725536	0.852674
917.030952	0.860547
917.336328	0.873903
917.641665	0.888568
917.946961	0.904154
918.252218	0.915988
918.557435	0.925907
918.862612	0.935233
919.167750	0.940227
919.472848	0.944982
919.777906	0.950734
920.082925	0.955589
920.387904	0.961029
920.692843	0.962261
920.997743	0.963302
921.302603	0.966030
921.607423	0.967687
921.912204	0.970570
922.216946	0.970994
922.521647	0.972531
922.826310	0.974930
923.130932	0.975598
923.435516	0.977461
923.740059	0.978603
924.044564	0.978268
924.349028	0.979021
924.653454	0.982067
924.957840	0.984437
925.262186	0.982477
925.566493	0.982763
925.870761	0.983637
926.174989	0.985952
926.479178	0.987106
926.783328	0.987945
927.087438	0.987220
927.391509	0.987142
927.695541	0.989411
927.999533	0.989701
928.303486	0.988437
928.607400	0.991074
928.911275	0.988368
929.215110	0.989137
929.518906	0.990972
929.822663	0.989159
930.126381	0.990286
930.430060	0.989356
930.733699	0.990557
931.037299	0.987951
931.340861	0.989529
931.644383	0.989763
931.947866	0.989574
932.251309	0.990772
932.554714	0.989270
932.858080	0.990491
933.161407	0.989635
933.464694	0.990169
933.767943	0.989105
934.071153	0.990268
934.374323	0.990516
934.677455	0.989599
934.980548	0.991408
935.283602	0.990685
935.586617	0.991338
935.889593	0.989850
936.192530	0.990282
936.495428	0.990203
936.798287	0.990450
937.101108	0.989796
937.403890	0.988382
937.706632	0.987906
938.009336	0.986531
938.312002	0.986193
938.614628	0.983189
938.917216	0.982278
939.219765	0.979875
939.522275	0.982884
939.824747	0.981688
940.127179	0.983451
940.429573	0.984841
940.731929	0.982830
941.034246	0.983789
941.336524	0.986059
941.638763	0.986040
941.940964	0.985602
942.243126	0.985245
942.545250	0.986321
942.847335	0.987959
943.149381	0.987167
943.451389	0.987950
943.753359	0.988153
944.055290	0.990850
944.357182	0.989445
944.659036	0.986973
944.960851	0.989238
945.262628	0.989245
945.564367	0.989581
945.866067	0.988802
946.167729	0.991186
946.469352	0.987973
946.770937	0.988532
947.072484	0.990738
947.373992	0.990495
947.675462	0.989619
947.976893	0.988861
948.278286	0.989478
948.579641	0.990257
948.880958	0.990059
949.182236	0.989790
949.483476	0.990704
949.784678	0.990085
950.085841	0.990803
950.386967	0.991558
950.688054	0.990307
950.989103	0.991127
951.290114	0.988421
951.591087	0.988765
951.892021	0.989465
952.192917	0.988046
952.493776	0.987275
952.794596	0.987729
953.095378	0.986328
953.396122	0.987999
953.696828	0.986101
953.997496	0.988762
954.298126	0.991099
954.598718	0.990551
954.899272	0.990872
955.199788	0.990005
955.500266	0.992003
955.800706	0.992223
956.101108	0.992656
956.401472	0.993659
956.701798	0.994560
957.002087	0.992831
957.302337	0.992742
957.602550	0.994512
957.902724	0.994538
958.202861	0.994675
958.502960	0.995535
958.803022	0.993291
959.103045	0.995677
959.403031	0.995046
959.702979	0.994834
960.002889	0.994911
960.302762	0.995059
960.602596	0.995451
960.902393	0.995214
961.202153	0.995501
961.501875	0.996655
961.801559	0.995164
962.101205	0.995782
962.400814	0.996568
962.700385	0.996819
962.999918	0.995661
963.299414	0.996677
963.598873	0.994998
963.898293	0.995812
964.197677	0.995534
964.497022	0.997091
964.796331	0.996519
965.095601	0.996142
965.394835	0.995383
965.694030	0.996855
965.993189	0.996983
966.292309	0.996390
966.591393	0.998161
966.890439	0.996541
967.189447	0.997143
967.488419	0.996695
967.787353	0.995471
968.086249	0.995358
968.385108	0.996748
968.683930	0.996607
968.982714	0.997960
969.281462	0.997358
969.580172	0.996340
969.878844	0.997802
970.177480	0.996351
970.476078	0.997142
970.774639	0.995244
971.073162	0.997003
971.371649	0.996333
971.670098	0.996431
971.968510	0.996670
972.266885	0.995711
972.565223	0.997307
972.863524	0.995349
973.161788	0.996754
973.460014	0.997464
973.758204	0.995047
974.056356	0.996204
974.354471	0.994480
974.652550	0.996733
974.950591	0.996005
975.248595	0.996373
975.546563	0.998293
975.844493	0.998450
976.142386	0.995868
976.440243	0.997038
976.738062	0.997175
977.035845	0.996747
977.333590	0.996857
977.631299	0.996759
977.928971	0.996590
978.226606	0.996492
978.524204	0.994806
978.821765	0.997485
979.119290	0.995637
979.416777	0.995940
979.714228	0.996837
980.011642	0.996112
980.309020	0.997067
980.606360	0.997191
980.903664	0.998413
981.200931	0.996120
981.498162	0.994043
981.795356	0.994446
982.092513	0.993680
982.389633	0.994601
982.686717	0.991638
982.983764	0.990054
983.280775	0.988725
983.577749	0.989465
983.874686	0.990798
984.171587	0.990924
984.468451	0.994511
984.765279	0.994068
985.062070	0.994672
985.358824	0.995280
985.655543	0.994569
985.952224	0.996089
986.248869	0.996451
986.545478	0.997119
986.842050	0.997929
987.138586	0.994689
987.435086	0.997734
987.731549	0.997835
988.027975	0.997884
988.324366	0.997289
988.620719	0.997416
988.917037	0.996754
989.213318	0.997923
989.509563	0.996733
989.805772	0.997281
990.101944	0.997898
990.398080	0.997725
990.694180	0.997215
990.990244	0.996833
991.286271	0.998698
991.582262	0.998455
991.878217	0.998057
992.174136	0.998252
992.470019	0.997899
992.765865	0.997501
993.061676	0.999095
993.357450	0.998382
993.653188	0.997041
993.948890	0.996497
994.244556	0.998227
994.540186	0.996034
994.835780	0.997232
995.131337	0.997574
995.426859	0.996087
995.722345	0.997598
996.017795	0.995556
996.313208	0.995983
996.608586	0.995869
996.903928	0.996072
997.199234	0.995905
997.494504	0.995453
997.789738	0.995802
998.084936	0.996719
998.380099	0.997651
998.675225	0.996530
998.970316	0.997711
999.265371	0.998007
999.560390	0.996253
999.855373	0.998433
1000.150320	0.997876
1000.445232	0.998484
1000.740108	0.998292
1001.034948	0.998381
1001.329752	0.998532
1001.624521	0.997945
1001.919254	0.998118
1002.213951	0.997066
1002.508613	0.998123
1002.803239	0.998201
1003.097829	0.999186
1003.392384	0.998643
1003.686903	0.998454
1003.981386	0.998443
1004.275834	1.000199
1004.570246	0.998387
1004.864623	1.000142
1005.158964	0.999559
1005.453270	0.998637
1005.747540	0.996266
1006.041775	0.999277
1006.335974	0.998056
1006.630138	0.998104
1006.924266	0.999963
1007.218359	0.999760
1007.512416	0.998366
1007.806438	0.998633
1008.100425	1.000225
1008.394376	0.999039
1008.688292	0.998059
1008.982172	1.000984
1009.276017	0.998853
1009.569827	0.999932
1009.863602	0.997806
1010.157341	0.998821
1010.451045	0.999007
1010.744714	0.999018
1011.038347	0.998249
1011.331945	0.998663
1011.625508	0.997709
1011.919036	0.998836
1012.212528	0.998787
1012.505986	0.997615
1012.799408	0.998593
1013.092795	0.998813
1013.386147	0.999181
1013.679464	0.998229
1013.972745	0.996862
1014.265992	0.997495
1014.559204	0.999671
1014.852380	0.998585
1015.145521	0.998147
1015.438628	0.998459
1015.731699	0.998399
1016.024736	0.998911
1016.317737	0.998716
1016.610703	0.998818
1016.903635	0.998073
1017.196531	0.997627
1017.489393	0.999277
1017.782219	0.997994
1018.075011	1.000274
1018.367768	0.998696
1018.660490	1.000144
1018.953177	1.000144
1019.245829	1.000144
