Dividing Wavelength (nm)	Counts (n)	Blue Motor Position (mm): 0.000000	Red Motor Position (mm): 34.900000	
326.493990	0.999616
326.888308	0.999616
327.282561	0.999616
327.676750	0.999758
328.070874	0.998240
328.464933	1.000093
328.858929	0.999267
329.252859	0.999782
329.646726	0.999046
330.040528	0.999559
330.434265	0.997828
330.827938	1.000077
331.221547	1.000469
331.615091	0.999474
332.008571	1.000869
332.401986	0.998751
332.795338	0.999884
333.188625	0.998579
333.581847	1.000394
333.975006	0.998563
334.368100	0.999062
334.761129	0.999688
335.154095	1.000824
335.546996	0.997850
335.939833	0.995452
336.332606	0.995683
336.725315	0.996864
337.117960	0.997398
337.510540	0.995527
337.903056	0.996774
338.295508	0.994365
338.687896	0.996878
339.080220	0.995340
339.472480	0.996131
339.864676	0.995604
340.256807	0.996821
340.648875	0.996781
341.040879	0.997061
341.432818	0.996812
341.824694	0.995934
342.216506	0.997011
342.608253	0.995146
342.999937	0.995957
343.391557	0.995553
343.783113	0.995565
344.174605	0.996717
344.566033	0.995989
344.957397	0.995623
345.348697	0.996205
345.739934	0.995806
346.131106	0.995957
346.522215	0.994649
346.913260	0.996232
347.304241	0.995709
347.695159	0.997039
348.086012	0.995007
348.476802	0.996371
348.867528	0.996917
349.258191	0.995263
349.648789	0.996449
350.039324	0.995757
350.429796	0.997332
350.820203	0.996520
351.210548	0.995672
351.600828	0.995664
351.991045	0.995969
352.381198	0.995224
352.771288	0.996606
353.161314	0.995778
353.551276	0.996953
353.941175	0.996440
354.331010	0.995473
354.720782	0.997173
355.110490	0.995862
355.500135	0.996342
355.889717	0.996178
356.279235	0.996520
356.668689	0.995806
357.058080	0.995809
357.447408	0.997804
357.836672	0.995619
358.225873	0.997311
358.615010	0.997241
359.004084	0.997659
359.393095	0.996592
359.782043	0.996246
360.170927	0.996610
360.559748	0.997310
360.948505	0.995530
361.337199	0.995851
361.725830	0.996379
362.114398	0.995697
362.502903	0.997136
362.891344	0.996297
363.279722	0.996774
363.668037	0.997157
364.056289	0.996787
364.444478	0.996976
364.832603	0.996177
365.220665	0.995211
365.608665	0.996915
365.996601	0.996293
366.384474	0.997228
366.772284	0.996967
367.160031	0.996269
367.547715	0.994957
367.935336	0.996658
368.322893	0.995926
368.710388	0.995685
369.097820	0.996524
369.485189	0.995859
369.872495	0.995927
370.259738	0.995161
370.646918	0.996516
371.034035	0.997841
371.421090	0.996705
371.808081	0.996593
372.195010	0.997211
372.581875	0.997055
372.968678	0.996022
373.355418	0.996052
373.742096	0.996561
374.128710	0.996530
374.515262	0.995609
374.901751	0.996562
375.288177	0.996816
375.674540	0.997036
376.060841	0.995169
376.447079	0.996456
376.833254	0.996570
377.219367	0.996175
377.605417	0.997121
377.991404	0.995998
378.377329	0.996604
378.763191	0.996655
379.148991	0.997020
379.534727	0.997666
379.920402	0.996896
380.306013	0.997685
380.691563	0.996896
381.077049	0.996810
381.462474	0.996915
381.847835	0.997443
382.233134	0.996698
382.618371	0.996546
383.003545	0.996545
383.388657	0.996228
383.773706	0.997217
384.158693	0.996870
384.543618	0.997527
384.928480	0.997838
385.313280	0.998153
385.698017	0.998761
386.082692	0.997642
386.467305	0.996683
386.851856	0.996772
387.236344	0.997245
387.620770	0.996621
388.005133	0.998724
388.389435	0.998042
388.773674	0.997907
389.157851	0.998089
389.541965	0.997171
389.926018	0.997273
390.310008	0.998276
390.693936	0.997902
391.077802	0.997926
391.461606	0.997577
391.845348	0.998323
392.229027	0.998284
392.612645	0.997763
392.996200	1.000239
393.379694	0.997997
393.763125	0.998970
394.146494	0.998545
394.529801	0.997573
394.913047	0.998591
395.296230	0.998160
395.679351	0.998877
396.062410	0.997517
396.445408	0.999033
396.828343	0.998226
397.211217	0.998185
397.594028	0.999373
397.976778	0.998068
398.359466	0.997280
398.742092	0.997978
399.124656	0.998285
399.507158	0.998293
399.889598	0.998443
400.271977	0.999068
400.654294	0.998531
401.036549	0.999022
401.418742	0.998101
401.800874	0.997966
402.182944	0.997920
402.564952	0.997035
402.946898	0.999187
403.328783	0.998809
403.710606	0.998086
404.092367	0.997875
404.474067	0.998829
404.855705	0.999022
405.237282	0.998380
405.618797	0.997944
406.000250	0.997836
406.381642	0.998723
406.762972	0.998663
407.144240	0.999724
407.525447	0.998778
407.906593	0.998583
408.287677	0.998553
408.668700	0.999223
409.049661	0.997447
409.430560	0.998566
409.811399	0.998563
410.192176	0.998405
410.572891	0.998521
410.953545	0.998061
411.334138	0.996969
411.714669	0.998925
412.095139	0.997883
412.475547	0.999078
412.855894	0.998331
413.236180	0.999101
413.616405	0.998799
413.996568	0.999208
414.376670	0.997960
414.756711	0.998398
415.136691	0.998647
415.516609	0.998798
415.896466	0.998675
416.276262	0.997859
416.655997	0.998431
417.035670	0.998709
417.415283	0.998599
417.794834	0.998575
418.174324	0.998207
418.553753	0.998864
418.933121	0.998486
419.312428	0.998584
419.691674	0.998659
420.070859	0.998946
420.449983	0.998356
420.829045	0.998335
421.208047	0.998753
421.586988	0.999188
421.965867	0.998078
422.344686	0.999372
422.723444	0.998341
423.102141	0.998821
423.480777	0.998809
423.859352	0.998587
424.237866	0.998302
424.616319	0.999396
424.994712	0.998910
425.373044	0.998749
425.751314	0.998579
426.129524	0.998341
426.507673	0.998989
426.885762	0.999444
427.263789	0.999020
427.641756	0.998820
428.019662	0.999272
428.397508	0.998350
428.775292	0.997576
429.153016	0.999240
429.530679	0.999036
429.908282	0.999609
430.285824	0.998355
430.663305	0.998051
431.040726	0.998230
431.418086	0.999148
431.795385	0.999185
432.172624	0.998803
432.549802	0.998809
432.926920	0.999007
433.303977	0.998454
433.680974	0.999446
434.057910	0.998171
434.434786	0.998714
434.811601	0.998167
435.188355	0.998321
435.565050	0.998345
435.941683	0.998964
436.318257	0.999794
436.694770	0.997719
437.071222	0.999178
437.447614	0.999991
437.823946	0.998810
438.200218	0.998195
438.576429	0.999208
438.952580	0.999767
439.328670	0.998472
439.704700	0.998892
440.080670	0.998714
440.456580	0.998733
440.832429	0.998725
441.208218	0.999110
441.583947	0.999091
441.959616	0.998674
442.335224	0.998177
442.710773	1.000058
443.086261	0.999328
443.461689	0.998560
443.837057	0.997957
444.212365	0.998878
444.587612	0.998912
444.962800	0.998817
445.337927	0.999214
445.712995	0.999230
446.088002	0.999315
446.462949	0.999135
446.837837	0.999235
447.212664	0.999206
447.587431	0.999314
447.962139	0.999022
448.336786	0.999266
448.711374	0.998843
449.085901	0.998613
449.460369	0.999553
449.834776	0.998588
450.209124	0.999193
450.583412	0.998397
450.957640	0.999499
451.331808	0.998774
451.705917	0.997767
452.079965	0.998473
452.453954	0.998722
452.827883	0.999467
453.201752	0.999730
453.575562	1.000062
453.949311	0.998897
454.323001	0.998639
454.696632	0.998375
455.070202	0.998605
455.443713	0.998886
455.817164	0.998613
456.190556	0.998431
456.563888	0.999601
456.937160	0.999017
457.310373	0.998693
457.683526	0.999661
458.056619	0.998560
458.429653	0.999290
458.802628	0.998143
459.175542	0.998536
459.548398	0.998882
459.921194	0.998930
460.293930	0.999595
460.666607	0.999056
461.039224	0.997922
461.411782	0.999110
461.784280	0.998138
462.156719	0.999695
462.529099	0.999310
462.901419	0.999928
463.273680	0.999316
463.645882	0.999259
464.018024	0.999074
464.390106	0.998831
464.762130	0.999237
465.134094	0.999780
465.505999	0.999995
465.877845	0.999219
466.249631	0.999528
466.621358	0.999198
466.993026	0.999329
467.364634	0.999520
467.736184	0.999977
468.107674	0.999064
468.479105	0.998452
468.850477	0.999205
469.221790	0.998541
469.593043	0.999424
469.964238	0.999438
470.335373	0.998780
470.706449	0.999660
471.077467	0.999431
471.448425	0.998798
471.819324	0.999415
472.190164	0.999024
472.560945	0.999090
472.931667	0.998507
473.302330	0.998688
473.672934	0.999222
474.043479	0.999086
474.413965	0.999022
474.784393	0.999312
475.154761	0.999031
475.525070	0.998807
475.895321	0.998693
476.265513	0.998911
476.635645	0.999020
477.005719	0.999421
477.375734	0.998630
477.745691	0.999439
478.115588	0.999029
478.485427	0.999530
478.855207	0.998875
479.224928	0.998848
479.594591	0.999362
479.964194	0.999152
480.333739	0.999424
480.703226	0.999027
481.072653	0.999341
481.442022	0.999513
481.811333	0.998757
482.180584	0.999933
482.549777	0.998889
482.918912	0.999246
483.287988	0.999313
483.657005	0.998680
484.025964	0.999781
484.394864	0.999266
484.763706	0.998934
485.132489	0.999008
485.501213	0.998491
485.869879	0.999172
486.238487	0.999395
486.607036	0.999384
486.975527	0.998400
487.343959	0.998953
487.712333	0.998351
488.080648	0.999300
488.448905	0.998825
488.817104	0.999095
489.185244	0.998966
489.553326	0.999129
489.921350	0.998381
490.289315	0.999080
490.657222	0.999097
491.025070	0.999331
491.392861	0.998537
491.760593	0.999629
492.128267	0.998691
492.495883	0.998289
492.863440	0.998759
493.230939	0.999635
493.598380	0.999156
493.965763	0.998807
494.333088	0.998315
494.700354	0.998046
495.067563	0.998324
495.434713	0.997810
495.801805	0.998482
496.168839	0.998264
496.535815	0.998190
496.902733	0.998319
497.269593	0.998278
497.636395	0.998037
498.003139	0.997871
498.369825	0.998649
498.736453	0.997819
499.103023	0.997037
499.469535	0.997696
499.835989	0.997451
500.202385	0.997807
500.568723	0.997049
500.935003	0.997041
501.301226	0.997399
501.667390	0.996630
502.033497	0.996469
502.399546	0.997245
502.765537	0.996120
503.131470	0.995631
503.497345	0.995390
503.863163	0.996754
504.228923	0.995622
504.594625	0.995376
504.960269	0.995300
505.325856	0.994082
505.691385	0.994454
506.056856	0.993910
506.422270	0.993216
506.787625	0.993269
507.152924	0.992750
507.518164	0.992241
507.883347	0.991166
508.248472	0.990932
508.613540	0.991152
508.978550	0.989809
509.343503	0.989208
509.708398	0.988154
510.073236	0.988737
510.438016	0.988112
510.802738	0.986863
511.167403	0.986153
511.532010	0.985716
511.896561	0.983994
512.261053	0.984642
512.625488	0.982646
512.989866	0.981606
513.354186	0.981830
513.718449	0.980385
514.082655	0.979553
514.446803	0.978168
514.810894	0.977212
515.174927	0.976088
515.538904	0.974418
515.902822	0.973585
516.266684	0.972654
516.630488	0.971097
516.994235	0.969088
517.357925	0.967205
517.721558	0.967234
518.085133	0.964575
518.448651	0.964282
518.812112	0.962007
519.175516	0.960084
519.538863	0.958786
519.902152	0.956931
520.265385	0.954859
520.628560	0.953828
520.991678	0.951244
521.354739	0.949755
521.717743	0.947859
522.080690	0.946222
522.443580	0.943047
522.806413	0.940706
523.169189	0.938301
523.531908	0.936233
523.894569	0.934988
524.257174	0.931938
524.619722	0.929438
524.982213	0.927520
525.344647	0.924356
525.707025	0.920585
526.069345	0.918678
526.431608	0.915846
526.793815	0.912811
527.155964	0.910081
527.518057	0.907985
527.880093	0.905137
528.242072	0.901360
528.603995	0.898110
528.965860	0.896281
529.327669	0.892498
529.689421	0.888945
530.051117	0.886798
530.412755	0.881074
530.774337	0.879124
531.135862	0.874357
531.497331	0.872210
531.858743	0.868735
532.220098	0.864304
532.581396	0.860596
532.942638	0.857996
533.303824	0.854178
533.664953	0.849726
534.026025	0.845901
534.387040	0.841566
534.747999	0.838245
535.108902	0.833811
535.469748	0.830341
535.830537	0.826198
536.191270	0.821928
536.551947	0.817575
536.912567	0.813133
537.273131	0.810684
537.633638	0.805277
537.994089	0.801056
538.354483	0.797642
538.714821	0.793080
539.075103	0.787971
539.435328	0.783366
539.795497	0.781265
540.155609	0.774331
540.515665	0.769692
540.875665	0.767093
541.235609	0.761798
541.595496	0.757500
541.955328	0.750812
542.315102	0.748339
542.674821	0.743436
543.034483	0.738528
543.394090	0.733391
543.753640	0.729678
544.113134	0.722182
544.472571	0.719204
544.831953	0.712685
545.191278	0.709445
545.550548	0.704882
545.909761	0.698354
546.268918	0.693850
546.628019	0.688431
546.987064	0.683606
547.346053	0.681188
547.704986	0.674208
548.063863	0.670257
548.422684	0.666171
548.781449	0.661431
549.140158	0.654957
549.498811	0.651775
549.857408	0.649576
550.215949	0.640735
550.574434	0.637893
550.932864	0.631516
551.291237	0.627479
551.649555	0.621857
552.007817	0.617790
552.366022	0.613792
552.724173	0.609372
553.082267	0.605146
553.440305	0.597207
553.798288	0.596737
554.156215	0.588801
554.514086	0.584712
554.871902	0.582192
555.229661	0.576800
555.587365	0.572568
555.945014	0.570535
556.302606	0.562326
556.660143	0.560698
557.017625	0.552379
557.375050	0.549577
557.732421	0.543507
558.089735	0.539815
558.446994	0.536199
558.804197	0.530922
559.161345	0.526449
559.518437	0.525143
559.875474	0.517618
560.232455	0.513147
560.589381	0.510372
560.946251	0.504055
561.303065	0.500455
561.659825	0.495519
562.016528	0.492801
562.373177	0.491064
562.729770	0.483192
563.086307	0.481761
563.442789	0.477072
563.799216	0.472977
564.155587	0.469315
564.511904	0.465441
564.868164	0.462212
565.224370	0.458683
565.580520	0.454610
565.936615	0.452627
566.292654	0.449998
566.648638	0.445181
567.004567	0.441251
567.360441	0.438774
567.716260	0.436313
568.072023	0.431027
568.427732	0.427811
568.783385	0.427926
569.138982	0.422108
569.494525	0.418458
569.850013	0.417445
570.205445	0.412478
570.560823	0.412306
570.916145	0.409901
571.271412	0.405489
571.626625	0.403565
571.981782	0.400883
572.336884	0.398710
572.691931	0.396403
573.046923	0.393275
573.401860	0.391426
573.756743	0.390257
574.111570	0.386233
574.466342	0.384530
574.821059	0.380543
575.175722	0.380716
575.530330	0.377063
575.884882	0.374844
576.239380	0.374089
576.593823	0.371805
576.948211	0.368667
577.302544	0.370210
577.656823	0.366599
578.011047	0.364747
578.365216	0.362689
578.719330	0.362861
579.073389	0.360233
579.427394	0.359099
579.781344	0.357646
580.135239	0.356939
580.489080	0.354935
580.842866	0.355362
581.196597	0.353059
581.550273	0.350372
581.903895	0.348915
582.257463	0.345824
582.610975	0.347264
582.964434	0.345144
583.317837	0.345522
583.671186	0.344478
584.024481	0.342908
584.377721	0.343507
584.730906	0.342436
585.084037	0.340146
585.437113	0.340605
585.790135	0.338164
586.143103	0.339710
586.496016	0.339252
586.848874	0.335558
587.201679	0.335283
587.554428	0.336814
587.907124	0.334221
588.259765	0.333908
588.612352	0.333079
588.964884	0.335915
589.317362	0.334266
589.669786	0.332988
590.022155	0.330788
590.374470	0.328591
590.726731	0.329872
591.078937	0.333309
591.431090	0.328548
591.783188	0.331650
592.135232	0.330726
592.487222	0.330454
592.839157	0.327248
593.191038	0.328544
593.542866	0.329296
593.894639	0.332096
594.246358	0.329296
594.598022	0.328117
594.949633	0.330626
595.301190	0.330783
595.652692	0.329403
596.004141	0.324865
596.355535	0.331880
596.706876	0.331829
597.058162	0.333310
597.409395	0.330102
597.760573	0.327141
598.111698	0.329671
598.462768	0.329323
598.813785	0.330203
599.164748	0.331261
599.515657	0.330454
599.866511	0.333700
600.217312	0.328800
600.568060	0.333435
600.918753	0.329172
601.269392	0.329737
601.619978	0.332490
601.970510	0.329956
602.320988	0.329439
602.671412	0.327151
603.021783	0.329159
603.372100	0.330119
603.722363	0.329645
604.072572	0.330079
604.422728	0.329557
604.772830	0.331232
605.122878	0.330344
605.472872	0.330861
605.822813	0.328998
606.172701	0.331019
606.522534	0.328572
606.872314	0.327813
607.222041	0.328869
607.571714	0.326529
607.921333	0.327697
608.270899	0.327514
608.620411	0.324081
608.969870	0.327540
609.319276	0.327623
609.668627	0.327433
610.017926	0.325963
610.367171	0.323967
610.716362	0.324562
611.065500	0.324566
611.414585	0.323410
611.763616	0.323865
612.112594	0.324138
612.461518	0.323565
612.810389	0.321128
613.159207	0.323348
613.507971	0.324803
613.856682	0.320520
614.205340	0.322317
614.553945	0.318686
614.902496	0.322595
615.250994	0.320188
615.599439	0.321009
615.947830	0.320439
616.296169	0.321352
616.644454	0.320826
616.992686	0.320724
617.340864	0.318567
617.688990	0.322197
618.037063	0.318508
618.385082	0.320735
618.733048	0.317384
619.080961	0.319885
619.428821	0.318647
619.776628	0.318700
620.124382	0.320426
620.472083	0.320173
620.819731	0.319952
621.167326	0.323774
621.514868	0.323128
621.862357	0.327407
622.209793	0.326978
622.557176	0.328829
622.904506	0.330046
623.251783	0.332582
623.599007	0.334807
623.946179	0.334233
624.293297	0.335787
624.640363	0.339447
624.987376	0.340062
625.334336	0.342947
625.681243	0.345127
626.028097	0.345395
626.374899	0.346890
626.721647	0.346963
627.068343	0.350146
627.414987	0.350744
627.761577	0.352993
628.108115	0.351151
628.454600	0.356349
628.801032	0.353349
629.147412	0.355812
629.493739	0.356038
629.840014	0.358972
630.186236	0.356771
630.532405	0.362388
630.878521	0.359149
631.224585	0.362028
631.570597	0.365304
631.916556	0.363524
632.262462	0.363689
632.608316	0.365995
632.954117	0.366286
633.299866	0.367178
633.645562	0.367807
633.991206	0.372241
634.336797	0.375145
634.682336	0.377100
635.027823	0.378493
635.373257	0.379455
635.718639	0.382397
636.063968	0.382201
636.409245	0.387866
636.754470	0.387693
637.099642	0.390486
637.444762	0.394160
637.789829	0.393281
638.134845	0.396489
638.479808	0.397448
638.824719	0.397120
639.169577	0.401077
639.514383	0.399872
639.859137	0.404492
640.203839	0.403746
640.548489	0.404326
640.893086	0.405742
641.237632	0.406900
641.582125	0.405822
641.926566	0.407829
642.270955	0.407906
642.615292	0.407643
642.959576	0.407102
643.303809	0.407763
643.647990	0.407270
643.992118	0.407754
644.336195	0.411307
644.680219	0.409898
645.024192	0.410324
645.368112	0.403816
645.711981	0.402863
646.055797	0.398390
646.399562	0.400615
646.743274	0.392809
647.086935	0.390116
647.430544	0.390238
647.774101	0.389275
648.117606	0.389041
648.461059	0.388910
648.804460	0.391577
649.147810	0.396996
649.491108	0.399115
649.834354	0.399893
650.177548	0.405642
650.520690	0.410600
650.863781	0.411633
651.206820	0.411292
651.549807	0.415937
651.892742	0.419965
652.235626	0.418877
652.578458	0.419876
652.921238	0.426235
653.263967	0.424296
653.606644	0.428064
653.949269	0.427881
654.291843	0.431769
654.634365	0.428443
654.976836	0.431339
655.319255	0.431849
655.661622	0.433505
656.003938	0.433140
656.346203	0.436321
656.688416	0.434153
657.030577	0.437462
657.372687	0.439211
657.714746	0.440191
658.056753	0.437421
658.398708	0.440887
658.740612	0.441955
659.082465	0.438566
659.424266	0.439097
659.766016	0.438467
660.107715	0.440508
660.449362	0.439770
660.790958	0.440259
661.132503	0.440658
661.473996	0.438486
661.815438	0.440056
662.156829	0.439737
662.498168	0.440324
662.839456	0.441943
663.180693	0.439723
663.521879	0.439520
663.863013	0.440589
664.204097	0.438409
664.545129	0.436008
664.886110	0.436372
665.227040	0.433435
665.567918	0.435894
665.908746	0.434554
666.249522	0.433709
666.590248	0.435101
666.930922	0.432873
667.271545	0.432241
667.612118	0.431992
667.952639	0.433749
668.293109	0.432414
668.633528	0.435319
668.973896	0.435405
669.314213	0.435681
669.654480	0.436932
669.994695	0.437555
670.334859	0.438482
670.674973	0.438470
671.015035	0.438960
671.355047	0.438519
671.695008	0.439861
672.034918	0.441511
672.374777	0.441160
672.714585	0.441592
673.054342	0.441985
673.394049	0.442270
673.733705	0.439544
674.073310	0.440975
674.412864	0.443951
674.752368	0.444366
675.091820	0.444699
675.431223	0.449537
675.770574	0.448512
676.109875	0.451647
676.449125	0.451762
676.788324	0.454108
677.127473	0.460069
677.466571	0.459335
677.805619	0.460721
678.144616	0.461687
678.483562	0.463600
678.822458	0.465948
679.161303	0.467219
679.500098	0.467349
679.838842	0.469121
680.177535	0.468976
680.516179	0.467380
680.854771	0.466368
681.193314	0.459539
681.531805	0.450828
681.870247	0.439624
682.208638	0.432298
682.546978	0.431096
682.885268	0.432939
683.223508	0.439283
683.561697	0.442683
683.899836	0.445790
684.237925	0.449176
684.575963	0.451528
684.913951	0.454154
685.251889	0.450226
685.589776	0.452149
685.927614	0.454956
686.265401	0.448994
686.603137	0.450154
686.940824	0.443912
687.278460	0.442979
687.616046	0.442524
687.953582	0.436994
688.291068	0.438319
688.628504	0.434761
688.965889	0.436266
689.303224	0.440554
689.640510	0.443957
689.977745	0.450084
690.314930	0.458058
690.652065	0.462270
690.989150	0.470625
691.326185	0.476028
691.663170	0.480678
692.000105	0.488028
692.336990	0.495152
692.673825	0.497413
693.010610	0.504203
693.347345	0.509823
693.684030	0.510693
694.020665	0.515753
694.357251	0.524794
694.693786	0.524716
695.030272	0.528258
695.366707	0.532176
695.703093	0.535728
696.039429	0.533415
696.375716	0.534745
696.711952	0.537838
697.048139	0.539857
697.384276	0.541484
697.720363	0.539320
698.056400	0.538662
698.392388	0.544822
698.728326	0.548102
699.064214	0.550528
699.400053	0.551147
699.735842	0.554508
700.071581	0.556953
700.407270	0.560139
700.742910	0.563142
701.078501	0.568661
701.414042	0.569598
701.749533	0.572729
702.084974	0.581137
702.420366	0.573532
702.755709	0.581896
703.091002	0.588798
703.426246	0.582752
703.761440	0.588918
704.096584	0.593299
704.431679	0.590568
704.766725	0.591972
705.101721	0.593947
705.436668	0.589845
705.771565	0.596773
706.106413	0.593808
706.441212	0.588676
706.775961	0.586984
707.110661	0.590993
707.445311	0.587049
707.779913	0.584106
708.114465	0.582806
708.448967	0.578951
708.783421	0.571551
709.117825	0.565979
709.452180	0.566401
709.786485	0.560143
710.120742	0.549902
710.454949	0.552468
710.789107	0.544271
711.123216	0.535185
711.457275	0.536687
711.791286	0.528352
712.125247	0.527258
712.459159	0.537459
712.793023	0.530437
713.126837	0.534227
713.460602	0.534398
713.794318	0.544105
714.127985	0.542926
714.461602	0.553291
714.795171	0.556424
715.128691	0.563566
715.462162	0.571113
715.795584	0.577269
716.128957	0.579628
716.462281	0.586281
716.795556	0.589295
717.128782	0.594317
717.461960	0.604219
717.795088	0.602347
718.128167	0.609111
718.461198	0.618007
718.794180	0.618279
719.127113	0.620792
719.459997	0.624083
719.792833	0.630435
720.125619	0.632376
720.458357	0.637441
720.791046	0.637528
721.123686	0.641099
721.456278	0.647640
721.788821	0.644434
722.121315	0.649136
722.453761	0.652763
722.786158	0.651709
723.118506	0.647987
723.450805	0.654766
723.783056	0.651331
724.115259	0.648485
724.447412	0.647930
724.779518	0.650367
725.111574	0.649226
725.443582	0.644630
725.775542	0.645776
726.107453	0.638815
726.439315	0.638839
726.771129	0.637331
727.102895	0.630597
727.434612	0.623378
727.766281	0.621039
728.097901	0.620188
728.429473	0.620725
728.760996	0.618394
729.092471	0.619044
729.423897	0.622633
729.755276	0.622278
730.086606	0.621660
730.417887	0.616948
730.749120	0.607036
731.080305	0.597659
731.411442	0.594117
731.742530	0.599227
732.073570	0.598749
732.404562	0.590402
732.735506	0.592296
733.066401	0.596869
733.397249	0.605598
733.728048	0.617619
734.058798	0.629290
734.389501	0.640079
734.720156	0.649887
735.050762	0.657489
735.381320	0.659297
735.711831	0.667619
736.042293	0.672219
736.372707	0.669050
736.703073	0.672635
737.033391	0.675760
737.363661	0.671747
737.693883	0.667172
738.024056	0.666902
738.354182	0.667413
738.684260	0.655866
739.014290	0.652032
739.344272	0.653148
739.674207	0.646312
740.004093	0.645943
740.333931	0.646197
740.663722	0.646589
740.993464	0.647211
741.323159	0.651266
741.652806	0.655832
741.982405	0.660517
742.311956	0.664735
742.641460	0.667638
742.970915	0.670695
743.300323	0.678919
743.629683	0.685517
743.958996	0.687073
744.288260	0.691370
744.617477	0.697559
744.946647	0.698986
745.275768	0.704101
745.604842	0.702919
745.933869	0.713459
746.262847	0.714961
746.591778	0.708361
746.920662	0.714600
747.249498	0.720723
747.578286	0.710954
747.907027	0.707700
748.235720	0.708690
748.564365	0.703037
748.892963	0.702606
749.221514	0.705675
749.550017	0.712038
749.878473	0.710994
750.206881	0.717914
750.535242	0.718852
750.863555	0.717753
751.191821	0.719282
751.520039	0.722006
751.848210	0.728031
752.176334	0.719667
752.504411	0.719736
752.832440	0.726663
753.160421	0.731154
753.488356	0.728611
753.816243	0.727296
754.144082	0.735539
754.471875	0.739013
754.799620	0.734148
755.127318	0.735399
755.454969	0.735941
755.782572	0.734471
756.110129	0.739929
756.437638	0.742212
756.765100	0.739708
757.092515	0.737047
757.419882	0.735768
757.747203	0.740558
758.074477	0.740462
758.401703	0.737178
758.728882	0.732753
759.056014	0.731180
759.383099	0.730677
759.710138	0.731825
760.037129	0.728286
760.364073	0.722213
760.690970	0.724640
761.017820	0.730367
761.344623	0.726678
761.671379	0.716814
761.998088	0.705561
762.324751	0.682583
762.651366	0.642451
762.977935	0.575657
763.304456	0.524174
763.630931	0.514603
763.957359	0.553442
764.283740	0.597622
764.610074	0.624425
764.936362	0.654810
765.262602	0.681995
765.588796	0.702596
765.914943	0.719878
766.241044	0.737993
766.567097	0.745315
766.893104	0.753688
767.219064	0.760848
767.544978	0.767596
767.870845	0.780786
768.196665	0.783019
768.522438	0.782744
768.848165	0.782870
769.173846	0.791942
769.499479	0.796605
769.825066	0.800026
770.150607	0.804010
770.476101	0.800333
770.801548	0.800151
771.126949	0.813090
771.452303	0.817035
771.777611	0.816545
772.102872	0.814125
772.428087	0.820426
772.753256	0.822849
773.078378	0.825434
773.403453	0.834275
773.728482	0.837904
774.053465	0.832103
774.378401	0.835551
774.703291	0.844278
775.028135	0.844011
775.352932	0.845742
775.677683	0.848808
776.002388	0.848668
776.327046	0.846469
776.651658	0.851900
776.976224	0.855042
777.300743	0.854890
777.625216	0.858042
777.949643	0.857992
778.274024	0.858862
778.598359	0.859962
778.922647	0.859331
779.246889	0.859372
779.571086	0.863552
779.895236	0.867035
780.219339	0.863210
780.543397	0.859711
780.867409	0.858052
781.191374	0.859989
781.515294	0.863019
781.839167	0.861068
782.162995	0.864380
782.486776	0.861427
782.810511	0.862363
783.134201	0.865983
783.457844	0.863933
783.781441	0.866243
784.104993	0.873102
784.428498	0.873240
784.751958	0.868182
785.075372	0.870744
785.398739	0.874525
785.722061	0.871560
786.045337	0.866486
786.368568	0.871355
786.691752	0.873655
787.014891	0.859157
787.337983	0.850343
787.661030	0.843263
787.984031	0.826593
788.306987	0.813663
788.629897	0.814892
788.952760	0.819449
789.275579	0.823236
789.598351	0.838242
789.921078	0.851521
790.243759	0.853691
790.566395	0.858894
790.888984	0.866296
791.211529	0.870522
791.534027	0.873197
791.856480	0.877130
792.178888	0.880593
792.501249	0.883189
792.823566	0.884564
793.145836	0.885428
793.468062	0.887806
793.790241	0.886743
794.112375	0.885019
794.434464	0.881157
794.756507	0.878985
795.078505	0.879539
795.400457	0.874127
795.722364	0.862513
796.044226	0.856222
796.366042	0.855142
796.687812	0.857607
797.009538	0.853313
797.331218	0.857543
797.652852	0.861578
797.974442	0.865607
798.295986	0.866119
798.617484	0.869236
798.938938	0.873161
799.260346	0.877368
799.581709	0.880071
799.903026	0.881760
800.224299	0.882307
800.545526	0.886632
800.866708	0.891332
801.187845	0.895181
801.508936	0.893897
801.829983	0.891704
802.150984	0.895141
802.471940	0.899872
802.792851	0.898757
803.113717	0.899214
803.434538	0.898267
803.755314	0.899624
804.076045	0.902177
804.396731	0.902462
804.717372	0.901102
805.037967	0.904078
805.358518	0.901774
805.679024	0.898518
805.999485	0.898850
806.319901	0.898810
806.640272	0.899878
806.960598	0.898904
807.280879	0.895284
807.601115	0.893789
807.921306	0.897512
808.241453	0.897600
808.561554	0.897100
808.881611	0.896806
809.201623	0.897686
809.521590	0.897297
809.841513	0.899480
810.161390	0.897365
810.481223	0.898764
810.801011	0.903623
811.120755	0.905488
811.440453	0.902462
811.760107	0.901944
812.079716	0.902718
812.399281	0.905928
812.718801	0.908042
813.038276	0.908745
813.357707	0.909452
813.677093	0.905669
813.996434	0.908170
814.315731	0.910074
814.634983	0.911497
814.954191	0.910460
815.273354	0.906964
815.592473	0.903543
815.911547	0.902914
816.230577	0.900687
816.549562	0.898300
816.868502	0.898763
817.187399	0.895921
817.506250	0.890708
817.825058	0.891672
818.143821	0.889781
818.462539	0.883176
818.781213	0.876499
819.099843	0.864825
819.418429	0.849532
819.736970	0.833615
820.055466	0.813984
820.373919	0.787763
820.692327	0.756483
821.010691	0.721921
821.329011	0.646361
821.647286	0.533718
821.965517	0.420764
822.283704	0.379341
822.601847	0.381181
822.919945	0.416434
823.237999	0.449356
823.556010	0.494612
823.873976	0.549754
824.191897	0.599844
824.509775	0.641149
824.827609	0.685810
825.145398	0.708165
825.463144	0.710654
825.780845	0.694557
826.098502	0.675630
826.416116	0.630608
826.733685	0.587358
827.051210	0.579172
827.368692	0.593582
827.686129	0.630405
828.003522	0.681925
828.320872	0.729255
828.638177	0.772240
828.955439	0.803744
829.272656	0.825332
829.589830	0.842182
829.906960	0.858247
830.224046	0.869220
830.541088	0.879776
830.858086	0.884541
831.175041	0.890360
831.491952	0.889190
831.808819	0.885497
832.125642	0.879845
832.442421	0.865355
832.759157	0.843283
833.075849	0.798377
833.392497	0.736058
833.709101	0.695448
834.025662	0.705530
834.342179	0.736903
834.658653	0.775551
834.975083	0.810159
835.291469	0.836401
835.607811	0.857491
835.924110	0.873444
836.240366	0.891414
836.556578	0.903033
836.872746	0.911152
837.188871	0.917437
837.504952	0.922248
837.820990	0.926436
838.136984	0.929144
838.452935	0.932450
838.768842	0.932459
839.084706	0.926967
839.400526	0.902111
839.716303	0.862261
840.032037	0.840694
840.347727	0.844442
840.663373	0.861423
840.978977	0.883019
841.294537	0.904782
841.610054	0.921168
841.925527	0.927698
842.240957	0.935343
842.556344	0.941948
842.871687	0.948078
843.186987	0.951787
843.502244	0.951338
843.817458	0.953076
844.132629	0.957211
844.447756	0.961486
844.762840	0.961601
845.077881	0.960879
845.392879	0.960771
845.707833	0.963938
846.022745	0.966519
846.337613	0.965762
846.652438	0.966800
846.967221	0.966157
847.281960	0.966427
847.596656	0.967754
847.911309	0.966105
848.225919	0.968632
848.540485	0.969068
848.855009	0.970091
849.169490	0.968506
849.483928	0.970659
849.798323	0.969252
850.112675	0.970254
850.426984	0.969934
850.741251	0.970488
851.055474	0.970601
851.369654	0.969028
851.683792	0.970600
851.997887	0.970720
852.311938	0.971882
852.625947	0.970572
852.939914	0.970481
853.253837	0.970276
853.567718	0.972055
853.881555	0.970994
854.195350	0.969341
854.509103	0.970228
854.822812	0.970747
855.136479	0.971801
855.450103	0.970438
855.763685	0.970394
856.077224	0.969802
856.390720	0.970447
856.704173	0.971801
857.017584	0.970553
857.330953	0.968905
857.644278	0.969263
857.957561	0.969775
858.270802	0.969566
858.584000	0.969171
858.897155	0.967891
859.210268	0.968925
859.523339	0.969851
859.836367	0.971936
860.149352	0.972396
860.462295	0.969737
860.775195	0.971542
861.088054	0.970346
861.400869	0.970170
861.713642	0.972507
862.026373	0.971739
862.339062	0.972594
862.651708	0.969249
862.964312	0.969651
863.276873	0.971077
863.589392	0.970182
863.901869	0.968329
864.214303	0.965949
864.526696	0.965405
864.839045	0.964330
865.151353	0.963585
865.463619	0.963870
865.775842	0.963258
866.088023	0.963019
866.400162	0.963673
866.712258	0.962161
867.024313	0.963572
867.336325	0.965233
867.648296	0.965022
867.960224	0.963519
868.272110	0.962437
868.583954	0.964692
868.895755	0.964714
869.207515	0.962755
869.519233	0.960839
869.830909	0.961642
870.142542	0.963188
870.454134	0.963096
870.765684	0.962385
871.077191	0.959258
871.388657	0.960302
871.700081	0.959022
872.011463	0.959679
872.322803	0.960320
872.634101	0.957324
872.945357	0.956074
873.256571	0.954855
873.567744	0.954324
873.878874	0.955207
874.189963	0.954602
874.501010	0.952179
874.812015	0.950451
875.122979	0.953045
875.433900	0.956182
875.744780	0.954700
876.055618	0.952596
876.366415	0.952349
876.677169	0.951675
876.987882	0.953490
877.298554	0.952996
877.609183	0.950212
877.919771	0.946722
878.230317	0.945461
878.540822	0.942571
878.851285	0.937970
879.161707	0.929648
879.472087	0.919088
879.782425	0.903261
880.092722	0.870052
880.402977	0.820442
880.713191	0.761376
881.023363	0.705224
881.333494	0.672623
881.643583	0.645358
881.953631	0.643431
882.263637	0.672714
882.573602	0.711090
882.883526	0.735580
883.193408	0.758105
883.503248	0.779396
883.813048	0.806034
884.122806	0.835051
884.432522	0.857419
884.742197	0.877141
885.051831	0.886395
885.361424	0.896391
885.670975	0.907681
885.980485	0.917735
886.289954	0.922587
886.599382	0.927437
886.908768	0.932026
887.218113	0.937522
887.527417	0.941037
887.836680	0.944403
888.145901	0.945683
888.455082	0.948488
888.764221	0.952867
889.073319	0.954653
889.382376	0.954244
889.691392	0.955931
890.000366	0.953929
890.309300	0.956096
890.618193	0.955712
890.927044	0.953935
891.235855	0.954248
891.544625	0.954874
891.853353	0.955418
892.162041	0.952186
892.470687	0.946088
892.779293	0.941039
893.087858	0.937630
893.396381	0.930079
893.704864	0.916688
894.013306	0.893832
894.321707	0.868729
894.630068	0.855014
894.938387	0.850982
895.246665	0.851957
895.554903	0.863615
895.863100	0.876057
896.171256	0.892535
896.479371	0.911078
896.787446	0.924118
897.095480	0.928524
897.403473	0.932246
897.711425	0.935530
898.019336	0.942706
898.327207	0.947085
898.635038	0.947649
898.942827	0.947697
899.250576	0.951112
899.558284	0.954448
899.865952	0.956406
900.173579	0.957428
900.481165	0.957538
900.788711	0.962611
901.096216	0.964669
901.403681	0.963081
901.711105	0.964948
902.018489	0.965357
902.325832	0.964496
902.633135	0.963985
902.940397	0.957525
903.247619	0.945956
903.554800	0.922742
903.861941	0.885339
904.169041	0.851318
904.476101	0.835402
904.783121	0.835513
905.090100	0.851981
905.397039	0.870908
905.703938	0.891650
906.010796	0.911152
906.317614	0.926472
906.624391	0.938651
906.931129	0.946724
907.237826	0.955328
907.544483	0.961921
907.851099	0.965340
908.157675	0.969835
908.464211	0.971440
908.770707	0.974180
909.077163	0.976170
909.383578	0.975671
909.689954	0.976637
909.996289	0.977814
910.302584	0.979066
910.608839	0.980738
910.915054	0.979574
911.221229	0.980527
911.527363	0.977656
911.833458	0.978799
912.139513	0.979249
912.445527	0.978233
912.751502	0.975297
913.057436	0.973214
913.363331	0.972959
913.669186	0.967307
913.975000	0.963901
914.280775	0.958174
914.586510	0.951836
914.892205	0.938783
915.197859	0.919506
915.503475	0.893152
915.809050	0.874751
916.114585	0.870574
916.420081	0.869033
916.725536	0.865015
917.030952	0.872464
917.336328	0.883443
917.641665	0.898068
917.946961	0.912232
918.252218	0.924094
918.557435	0.932793
918.862612	0.940474
919.167750	0.946133
919.472848	0.950556
919.777906	0.956246
920.082925	0.960772
920.387904	0.964299
920.692843	0.965991
920.997743	0.965947
921.302603	0.969398
921.607423	0.971149
921.912204	0.973559
922.216946	0.973934
922.521647	0.974633
922.826310	0.975277
923.130932	0.978521
923.435516	0.979271
923.740059	0.981922
924.044564	0.980744
924.349028	0.981603
924.653454	0.982858
924.957840	0.985938
925.262186	0.985641
925.566493	0.984394
925.870761	0.986182
926.174989	0.987176
926.479178	0.989002
926.783328	0.988823
927.087438	0.989011
927.391509	0.988634
927.695541	0.990726
927.999533	0.989785
928.303486	0.989891
928.607400	0.992461
928.911275	0.989652
929.215110	0.990984
929.518906	0.991238
929.822663	0.990406
930.126381	0.992041
930.430060	0.989922
930.733699	0.990178
931.037299	0.989157
931.340861	0.990882
931.644383	0.990038
931.947866	0.990348
932.251309	0.991605
932.554714	0.991176
932.858080	0.991189
933.161407	0.990679
933.464694	0.992766
933.767943	0.989949
934.071153	0.991994
934.374323	0.992316
934.677455	0.992119
934.980548	0.992849
935.283602	0.991863
935.586617	0.992612
935.889593	0.990126
936.192530	0.991857
936.495428	0.992090
936.798287	0.990435
937.101108	0.991218
937.403890	0.989765
937.706632	0.989699
938.009336	0.988187
938.312002	0.986793
938.614628	0.985357
938.917216	0.984416
939.219765	0.982596
939.522275	0.984713
939.824747	0.984336
940.127179	0.984439
940.429573	0.985514
940.731929	0.984422
941.034246	0.985568
941.336524	0.987660
941.638763	0.986659
941.940964	0.987025
942.243126	0.986610
942.545250	0.988675
942.847335	0.988704
943.149381	0.989206
943.451389	0.988626
943.753359	0.988785
944.055290	0.992179
944.357182	0.989712
944.659036	0.989295
944.960851	0.990490
945.262628	0.990439
945.564367	0.990826
945.866067	0.991254
946.167729	0.991534
946.469352	0.990204
946.770937	0.989093
947.072484	0.991873
947.373992	0.989902
947.675462	0.991084
947.976893	0.991148
948.278286	0.991278
948.579641	0.991905
948.880958	0.991533
949.182236	0.993074
949.483476	0.992087
949.784678	0.991687
950.085841	0.992383
950.386967	0.991590
950.688054	0.991443
950.989103	0.992422
951.290114	0.990426
951.591087	0.990540
951.892021	0.989997
952.192917	0.989660
952.493776	0.989106
952.794596	0.988523
953.095378	0.988654
953.396122	0.989424
953.696828	0.988322
953.997496	0.989840
954.298126	0.990809
954.598718	0.991149
954.899272	0.992183
955.199788	0.990966
955.500266	0.992622
955.800706	0.992824
956.101108	0.994583
956.401472	0.994464
956.701798	0.995072
957.002087	0.992638
957.302337	0.994439
957.602550	0.995198
957.902724	0.993926
958.202861	0.995699
958.502960	0.994700
958.803022	0.993617
959.103045	0.995750
959.403031	0.995682
959.702979	0.995195
960.002889	0.996455
960.302762	0.995328
960.602596	0.995181
960.902393	0.995511
961.202153	0.997195
961.501875	0.997508
961.801559	0.995926
962.101205	0.996445
962.400814	0.996978
962.700385	0.997133
962.999918	0.996754
963.299414	0.996829
963.598873	0.995519
963.898293	0.996489
964.197677	0.996654
964.497022	0.996211
964.796331	0.997582
965.095601	0.995931
965.394835	0.997396
965.694030	0.996242
965.993189	0.998078
966.292309	0.997274
966.591393	0.997182
966.890439	0.997216
967.189447	0.995902
967.488419	0.997817
967.787353	0.995555
968.086249	0.996871
968.385108	0.997218
968.683930	0.997298
968.982714	0.997795
969.281462	0.997772
969.580172	0.996944
969.878844	0.997385
970.177480	0.997694
970.476078	0.998464
970.774639	0.996345
971.073162	0.997725
971.371649	0.995758
971.670098	0.997207
971.968510	0.997535
972.266885	0.996097
972.565223	0.996129
972.863524	0.995937
973.161788	0.996837
973.460014	0.998911
973.758204	0.994988
974.056356	0.996643
974.354471	0.995093
974.652550	0.996121
974.950591	0.997033
975.248595	0.996328
975.546563	0.996233
975.844493	0.997926
976.142386	0.996358
976.440243	0.997296
976.738062	0.997158
977.035845	0.997680
977.333590	0.997808
977.631299	0.997742
977.928971	0.996695
978.226606	0.996949
978.524204	0.996285
978.821765	0.999034
979.119290	0.996281
979.416777	0.996975
979.714228	0.997355
980.011642	0.996915
980.309020	0.997219
980.606360	0.998017
980.903664	0.999268
981.200931	0.996076
981.498162	0.995890
981.795356	0.995147
982.092513	0.993738
982.389633	0.994595
982.686717	0.991873
982.983764	0.992488
983.280775	0.990970
983.577749	0.991859
983.874686	0.991957
984.171587	0.992153
984.468451	0.993909
984.765279	0.993819
985.062070	0.994430
985.358824	0.995397
985.655543	0.994041
985.952224	0.996081
986.248869	0.995641
986.545478	0.996622
986.842050	0.997259
987.138586	0.995361
987.435086	0.997273
987.731549	0.999206
988.027975	0.997910
988.324366	0.997514
988.620719	0.998583
988.917037	0.996537
989.213318	0.998183
989.509563	0.998397
989.805772	0.998205
990.101944	0.998609
990.398080	0.996778
990.694180	0.998440
990.990244	0.997868
991.286271	0.997543
991.582262	0.997509
991.878217	0.996849
992.174136	0.998072
992.470019	0.999062
992.765865	0.998545
993.061676	0.999002
993.357450	0.997727
993.653188	0.996707
993.948890	0.997703
994.244556	0.998431
994.540186	0.997317
994.835780	0.996022
995.131337	0.996957
995.426859	0.995955
995.722345	0.996719
996.017795	0.995867
996.313208	0.995354
996.608586	0.996246
996.903928	0.996998
997.199234	0.995950
997.494504	0.996600
997.789738	0.995415
998.084936	0.996055
998.380099	0.997772
998.675225	0.996198
998.970316	0.998460
999.265371	0.996978
999.560390	0.998191
999.855373	0.997817
1000.150320	0.998500
1000.445232	0.998461
1000.740108	0.997644
1001.034948	0.999870
1001.329752	0.998355
1001.624521	0.998745
1001.919254	0.997561
1002.213951	0.997814
1002.508613	0.998332
1002.803239	0.999196
1003.097829	0.998010
1003.392384	0.998959
1003.686903	0.999168
1003.981386	0.997729
1004.275834	0.999892
1004.570246	0.997658
1004.864623	0.999042
1005.158964	0.999217
1005.453270	0.998413
1005.747540	0.996788
1006.041775	0.998150
1006.335974	0.998706
1006.630138	0.998505
1006.924266	0.999571
1007.218359	1.000119
1007.512416	0.999596
1007.806438	0.999361
1008.100425	0.999378
1008.394376	0.998507
1008.688292	0.998433
1008.982172	1.000107
1009.276017	0.999606
1009.569827	0.998351
1009.863602	0.999095
1010.157341	0.999825
1010.451045	0.998791
1010.744714	0.997673
1011.038347	0.998739
1011.331945	0.998936
1011.625508	0.998165
1011.919036	0.998485
1012.212528	0.998196
1012.505986	0.997643
1012.799408	0.999619
1013.092795	0.999068
1013.386147	0.997905
1013.679464	0.997901
1013.972745	0.998356
1014.265992	0.997807
1014.559204	0.997870
1014.852380	0.998783
1015.145521	0.999167
1015.438628	0.998782
1015.731699	0.998518
1016.024736	0.998956
1016.317737	0.998009
1016.610703	1.000508
1016.903635	0.999328
1017.196531	0.997320
1017.489393	0.999772
1017.782219	0.999087
1018.075011	0.998986
1018.367768	0.999131
1018.660490	0.998926
1018.953177	0.998926
1019.245829	0.998926
