Dividing Wavelength (nm)	Counts (n)	Blue Motor Position (mm): 0.000000	Red Motor Position (mm): 7.200000	
326.493990	1.000390
326.888308	1.000390
327.282561	1.000390
327.676750	1.000233
328.070874	1.000300
328.464933	0.999506
328.858929	1.000098
329.252859	1.000420
329.646726	0.999432
330.040528	1.001866
330.434265	0.998788
330.827938	1.000769
331.221547	1.000686
331.615091	1.000355
332.008571	1.000247
332.401986	0.999898
332.795338	0.999322
333.188625	0.999352
333.581847	1.000605
333.975006	1.000012
334.368100	0.999945
334.761129	0.999359
335.154095	1.000250
335.546996	0.997350
335.939833	0.992705
336.332606	0.993647
336.725315	0.993419
337.117960	0.994639
337.510540	0.993798
337.903056	0.993062
338.295508	0.992275
338.687896	0.994496
339.080220	0.992924
339.472480	0.993892
339.864676	0.992867
340.256807	0.994039
340.648875	0.995202
341.040879	0.994895
341.432818	0.993681
341.824694	0.993359
342.216506	0.993868
342.608253	0.992961
342.999937	0.993947
343.391557	0.993821
343.783113	0.993376
344.174605	0.992560
344.566033	0.994375
344.957397	0.992254
345.348697	0.994249
345.739934	0.993803
346.131106	0.992223
346.522215	0.992582
346.913260	0.993564
347.304241	0.992848
347.695159	0.993405
348.086012	0.992866
348.476802	0.992750
348.867528	0.994474
349.258191	0.991369
349.648789	0.994187
350.039324	0.992900
350.429796	0.994464
350.820203	0.993634
351.210548	0.992752
351.600828	0.993137
351.991045	0.993421
352.381198	0.991651
352.771288	0.993130
353.161314	0.992791
353.551276	0.993779
353.941175	0.992041
354.331010	0.993868
354.720782	0.993658
355.110490	0.993166
355.500135	0.992466
355.889717	0.993011
356.279235	0.992193
356.668689	0.993291
357.058080	0.992131
357.447408	0.994319
357.836672	0.993291
358.225873	0.993226
358.615010	0.993179
359.004084	0.993539
359.393095	0.992538
359.782043	0.992125
360.170927	0.993644
360.559748	0.993096
360.948505	0.991930
361.337199	0.991443
361.725830	0.991948
362.114398	0.991183
362.502903	0.993616
362.891344	0.992923
363.279722	0.992206
363.668037	0.993623
364.056289	0.993244
364.444478	0.992632
364.832603	0.992237
365.220665	0.991464
365.608665	0.992275
365.996601	0.990634
366.384474	0.991278
366.772284	0.992161
367.160031	0.990394
367.547715	0.989433
367.935336	0.990742
368.322893	0.992146
368.710388	0.990783
369.097820	0.992480
369.485189	0.991360
369.872495	0.991164
370.259738	0.989577
370.646918	0.991349
371.034035	0.990237
371.421090	0.991468
371.808081	0.989986
372.195010	0.991827
372.581875	0.989799
372.968678	0.989379
373.355418	0.988808
373.742096	0.987755
374.128710	0.987231
374.515262	0.985691
374.901751	0.984043
375.288177	0.982027
375.674540	0.980085
376.060841	0.976626
376.447079	0.974175
376.833254	0.971271
377.219367	0.967364
377.605417	0.962045
377.991404	0.959267
378.377329	0.953492
378.763191	0.950213
379.148991	0.944714
379.534727	0.938285
379.920402	0.932057
380.306013	0.926300
380.691563	0.917883
381.077049	0.910270
381.462474	0.904873
381.847835	0.895790
382.233134	0.888293
382.618371	0.884352
383.003545	0.869954
383.388657	0.865457
383.773706	0.856184
384.158693	0.848415
384.543618	0.838588
384.928480	0.830450
385.313280	0.818823
385.698017	0.813730
386.082692	0.801304
386.467305	0.795042
386.851856	0.785283
387.236344	0.776732
387.620770	0.766943
388.005133	0.759262
388.389435	0.751214
388.773674	0.744421
389.157851	0.733637
389.541965	0.727901
389.926018	0.730257
390.310008	0.714645
390.693936	0.707986
391.077802	0.698165
391.461606	0.697414
391.845348	0.684251
392.229027	0.682415
392.612645	0.677084
392.996200	0.663500
393.379694	0.654573
393.763125	0.642966
394.146494	0.646379
394.529801	0.634427
394.913047	0.626952
395.296230	0.631346
395.679351	0.621285
396.062410	0.616723
396.445408	0.619766
396.828343	0.613254
397.211217	0.608749
397.594028	0.620967
397.976778	0.610081
398.359466	0.606339
398.742092	0.600896
399.124656	0.612502
399.507158	0.601481
399.889598	0.597779
400.271977	0.589306
400.654294	0.593714
401.036549	0.592102
401.418742	0.596538
401.800874	0.581723
402.182944	0.579165
402.564952	0.570635
402.946898	0.572623
403.328783	0.572399
403.710606	0.585244
404.092367	0.559859
404.474067	0.564311
404.855705	0.562578
405.237282	0.572322
405.618797	0.558522
406.000250	0.553590
406.381642	0.544089
406.762972	0.548703
407.144240	0.548644
407.525447	0.548113
407.906593	0.541281
408.287677	0.536674
408.668700	0.544791
409.049661	0.538151
409.430560	0.533833
409.811399	0.542257
410.192176	0.523933
410.572891	0.530870
410.953545	0.519372
411.334138	0.532124
411.714669	0.525463
412.095139	0.536420
412.475547	0.521610
412.855894	0.523907
413.236180	0.522728
413.616405	0.527425
413.996568	0.518364
414.376670	0.524525
414.756711	0.529339
415.136691	0.525811
415.516609	0.517236
415.896466	0.513676
416.276262	0.509816
416.655997	0.511359
417.035670	0.493341
417.415283	0.484982
417.794834	0.489297
418.174324	0.495219
418.553753	0.503846
418.933121	0.486074
419.312428	0.480344
419.691674	0.485898
420.070859	0.474701
420.449983	0.481973
420.829045	0.471960
421.208047	0.480565
421.586988	0.474857
421.965867	0.472642
422.344686	0.461580
422.723444	0.473966
423.102141	0.490627
423.480777	0.464455
423.859352	0.484443
424.237866	0.461799
424.616319	0.462545
424.994712	0.453600
425.373044	0.463949
425.751314	0.451758
426.129524	0.468332
426.507673	0.452175
426.885762	0.445739
427.263789	0.450915
427.641756	0.460607
428.019662	0.451380
428.397508	0.450005
428.775292	0.454297
429.153016	0.446245
429.530679	0.452644
429.908282	0.445988
430.285824	0.456072
430.663305	0.434374
431.040726	0.455918
431.418086	0.455646
431.795385	0.447273
432.172624	0.445547
432.549802	0.447091
432.926920	0.445426
433.303977	0.445021
433.680974	0.442267
434.057910	0.440011
434.434786	0.439915
434.811601	0.442501
435.188355	0.424498
435.565050	0.433910
435.941683	0.435425
436.318257	0.420473
436.694770	0.420479
437.071222	0.418530
437.447614	0.422915
437.823946	0.429513
438.200218	0.418766
438.576429	0.428910
438.952580	0.421774
439.328670	0.418774
439.704700	0.424916
440.080670	0.426460
440.456580	0.407318
440.832429	0.415326
441.208218	0.426064
441.583947	0.415580
441.959616	0.414808
442.335224	0.419972
442.710773	0.410945
443.086261	0.408953
443.461689	0.423447
443.837057	0.412698
444.212365	0.402222
444.587612	0.409531
444.962800	0.399577
445.337927	0.400983
445.712995	0.427545
446.088002	0.389406
446.462949	0.399485
446.837837	0.404199
447.212664	0.393531
447.587431	0.384965
447.962139	0.355303
448.336786	0.314981
448.711374	0.325082
449.085901	0.369161
449.460369	0.373910
449.834776	0.377101
450.209124	0.356066
450.583412	0.348804
450.957640	0.342270
451.331808	0.353477
451.705917	0.376660
452.079965	0.380838
452.453954	0.369474
452.827883	0.376033
453.201752	0.371102
453.575562	0.382536
453.949311	0.371240
454.323001	0.377394
454.696632	0.372789
455.070202	0.365947
455.443713	0.357515
455.817164	0.352349
456.190556	0.348397
456.563888	0.344470
456.937160	0.342576
457.310373	0.359533
457.683526	0.358308
458.056619	0.364011
458.429653	0.364545
458.802628	0.367930
459.175542	0.362032
459.548398	0.344888
459.921194	0.337717
460.293930	0.337591
460.666607	0.315094
461.039224	0.303292
461.411782	0.299093
461.784280	0.298305
462.156719	0.302507
462.529099	0.306658
462.901419	0.322955
463.273680	0.327263
463.645882	0.327042
464.018024	0.332565
464.390106	0.325514
464.762130	0.310361
465.134094	0.293193
465.505999	0.262346
465.877845	0.232845
466.249631	0.220354
466.621358	0.227365
466.993026	0.241230
467.364634	0.247282
467.736184	0.256429
468.107674	0.264957
468.479105	0.264009
468.850477	0.270767
469.221790	0.277623
469.593043	0.287707
469.964238	0.292614
470.335373	0.291687
470.706449	0.290035
471.077467	0.290688
471.448425	0.252754
471.819324	0.228542
472.190164	0.227836
472.560945	0.256589
472.931667	0.278464
473.302330	0.282966
473.672934	0.295229
474.043479	0.282759
474.413965	0.284808
474.784393	0.288467
475.154761	0.283376
475.525070	0.280409
475.895321	0.286273
476.265513	0.280252
476.635645	0.275781
477.005719	0.275909
477.375734	0.272232
477.745691	0.265835
478.115588	0.262046
478.485427	0.255454
478.855207	0.242282
479.224928	0.224822
479.594591	0.213144
479.964194	0.216563
480.333739	0.217615
480.703226	0.219086
481.072653	0.217669
481.442022	0.213257
481.811333	0.209800
482.180584	0.213308
482.549777	0.218737
482.918912	0.221878
483.287988	0.221591
483.657005	0.221322
484.025964	0.228040
484.394864	0.225238
484.763706	0.225827
485.132489	0.230922
485.501213	0.231507
485.869879	0.229833
486.238487	0.233316
486.607036	0.231000
486.975527	0.235368
487.343959	0.231383
487.712333	0.230541
488.080648	0.231870
488.448905	0.231060
488.817104	0.232300
489.185244	0.226871
489.553326	0.223844
489.921350	0.213450
490.289315	0.196381
490.657222	0.191204
491.025070	0.192477
491.392861	0.194557
491.760593	0.200060
492.128267	0.205978
492.495883	0.211074
492.863440	0.217628
493.230939	0.223816
493.598380	0.225211
493.965763	0.227353
494.333088	0.229674
494.700354	0.231319
495.067563	0.230378
495.434713	0.233456
495.801805	0.231333
496.168839	0.232850
496.535815	0.234091
496.902733	0.234187
497.269593	0.235654
497.636395	0.233521
498.003139	0.233931
498.369825	0.236825
498.736453	0.233199
499.103023	0.234420
499.469535	0.233965
499.835989	0.234357
500.202385	0.235337
500.568723	0.238490
500.935003	0.233721
501.301226	0.237826
501.667390	0.232543
502.033497	0.230511
502.399546	0.233573
502.765537	0.235091
503.131470	0.233334
503.497345	0.229920
503.863163	0.238697
504.228923	0.231734
504.594625	0.230503
504.960269	0.235742
505.325856	0.231108
505.691385	0.235215
506.056856	0.231978
506.422270	0.231235
506.787625	0.233740
507.152924	0.231028
507.518164	0.231846
507.883347	0.233572
508.248472	0.234984
508.613540	0.230396
508.978550	0.232826
509.343503	0.233136
509.708398	0.230930
510.073236	0.228637
510.438016	0.228565
510.802738	0.229267
511.167403	0.228355
511.532010	0.230421
511.896561	0.225639
512.261053	0.224463
512.625488	0.226870
512.989866	0.226952
513.354186	0.227070
513.718449	0.228870
514.082655	0.225412
514.446803	0.227521
514.810894	0.225050
515.174927	0.228088
515.538904	0.227426
515.902822	0.224265
516.266684	0.226756
516.630488	0.228092
516.994235	0.226617
517.357925	0.225536
517.721558	0.223724
518.085133	0.223420
518.448651	0.223349
518.812112	0.225712
519.175516	0.225161
519.538863	0.222717
519.902152	0.224258
520.265385	0.221409
520.628560	0.222961
520.991678	0.223680
521.354739	0.222509
521.717743	0.223524
522.080690	0.224240
522.443580	0.221513
522.806413	0.222216
523.169189	0.221380
523.531908	0.220447
523.894569	0.223961
524.257174	0.223931
524.619722	0.221564
524.982213	0.222566
525.344647	0.221755
525.707025	0.222764
526.069345	0.220679
526.431608	0.222476
526.793815	0.220389
527.155964	0.224526
527.518057	0.223290
527.880093	0.224420
528.242072	0.223014
528.603995	0.225099
528.965860	0.226795
529.327669	0.225316
529.689421	0.226451
530.051117	0.227326
530.412755	0.225099
530.774337	0.227383
531.135862	0.227470
531.497331	0.227007
531.858743	0.229850
532.220098	0.226611
532.581396	0.229270
532.942638	0.229566
533.303824	0.230544
533.664953	0.230283
534.026025	0.231796
534.387040	0.230060
534.747999	0.229955
535.108902	0.228937
535.469748	0.233733
535.830537	0.231639
536.191270	0.231956
536.551947	0.231436
536.912567	0.231295
537.273131	0.233530
537.633638	0.233898
537.994089	0.234095
538.354483	0.234937
538.714821	0.232036
539.075103	0.231810
539.435328	0.232629
539.795497	0.236310
540.155609	0.232691
540.515665	0.230800
540.875665	0.236518
541.235609	0.235164
541.595496	0.235525
541.955328	0.231755
542.315102	0.234459
542.674821	0.235462
543.034483	0.235385
543.394090	0.235037
543.753640	0.237089
544.113134	0.231919
544.472571	0.235340
544.831953	0.232138
545.191278	0.236679
545.550548	0.235677
545.909761	0.232798
546.268918	0.233449
546.628019	0.231532
546.987064	0.234495
547.346053	0.236323
547.704986	0.234169
548.063863	0.234445
548.422684	0.234534
548.781449	0.236507
549.140158	0.233936
549.498811	0.236969
549.857408	0.239907
550.215949	0.234744
550.574434	0.237844
550.932864	0.235897
551.291237	0.234392
551.649555	0.236032
552.007817	0.235500
552.366022	0.236273
552.724173	0.236746
553.082267	0.236909
553.440305	0.234051
553.798288	0.238559
554.156215	0.234852
554.514086	0.235201
554.871902	0.238668
555.229661	0.238099
555.587365	0.238298
555.945014	0.240839
556.302606	0.237861
556.660143	0.240444
557.017625	0.237021
557.375050	0.239289
557.732421	0.236087
558.089735	0.238013
558.446994	0.238198
558.804197	0.237474
559.161345	0.237491
559.518437	0.240794
559.875474	0.238504
560.232455	0.238309
560.589381	0.239026
560.946251	0.239179
561.303065	0.237075
561.659825	0.238374
562.016528	0.239614
562.373177	0.242540
562.729770	0.239922
563.086307	0.241983
563.442789	0.239694
563.799216	0.242575
564.155587	0.241407
564.511904	0.242488
564.868164	0.242515
565.224370	0.242517
565.580520	0.244246
565.936615	0.244066
566.292654	0.246978
566.648638	0.244019
567.004567	0.244834
567.360441	0.245576
567.716260	0.247783
568.072023	0.245073
568.427732	0.246052
568.783385	0.248596
569.138982	0.246659
569.494525	0.246369
569.850013	0.249067
570.205445	0.247481
570.560823	0.250188
570.916145	0.252300
571.271412	0.250286
571.626625	0.251803
571.981782	0.252187
572.336884	0.253354
572.691931	0.252998
573.046923	0.254015
573.401860	0.255335
573.756743	0.257038
574.111570	0.255869
574.466342	0.256103
574.821059	0.255510
575.175722	0.258361
575.530330	0.257833
575.884882	0.258011
576.239380	0.260625
576.593823	0.261120
576.948211	0.260190
577.302544	0.263678
577.656823	0.263026
578.011047	0.263277
578.365216	0.264038
578.719330	0.266188
579.073389	0.265568
579.427394	0.267007
579.781344	0.267752
580.135239	0.269220
580.489080	0.269145
580.842866	0.272062
581.196597	0.271770
581.550273	0.270463
581.903895	0.271435
582.257463	0.269620
582.610975	0.273035
582.964434	0.272247
583.317837	0.274725
583.671186	0.275247
584.024481	0.275434
584.377721	0.277849
584.730906	0.278166
585.084037	0.277684
585.437113	0.279703
585.790135	0.278487
586.143103	0.281958
586.496016	0.282905
586.848874	0.280192
587.201679	0.281092
587.554428	0.284414
587.907124	0.283182
588.259765	0.283966
588.612352	0.284230
588.964884	0.288337
589.317362	0.287765
589.669786	0.287438
590.022155	0.286210
590.374470	0.285534
590.726731	0.287470
591.078937	0.292247
591.431090	0.288437
591.783188	0.292985
592.135232	0.292906
592.487222	0.293075
592.839157	0.291078
593.191038	0.294131
593.542866	0.295441
593.894639	0.299429
594.246358	0.297484
594.598022	0.297015
594.949633	0.300514
595.301190	0.301259
595.652692	0.300399
596.004141	0.296429
596.355535	0.304518
596.706876	0.304685
597.058162	0.307496
597.409395	0.304598
597.760573	0.302519
598.111698	0.305617
598.462768	0.305985
598.813785	0.307367
599.164748	0.308545
599.515657	0.308705
599.866511	0.312428
600.217312	0.307317
600.568060	0.312826
600.918753	0.309349
601.269392	0.310037
601.619978	0.313429
601.970510	0.310846
602.320988	0.311297
602.671412	0.309137
603.021783	0.311359
603.372100	0.313010
603.722363	0.312719
604.072572	0.313102
604.422728	0.313271
604.772830	0.315374
605.122878	0.315035
605.472872	0.315319
605.822813	0.313563
606.172701	0.316404
606.522534	0.313792
606.872314	0.313966
607.222041	0.314976
607.571714	0.312913
607.921333	0.314304
608.270899	0.313893
608.620411	0.310685
608.969870	0.314524
609.319276	0.314732
609.668627	0.314918
610.017926	0.313053
610.367171	0.311653
610.716362	0.312113
611.065500	0.312959
611.414585	0.311312
611.763616	0.312024
612.112594	0.312246
612.461518	0.311953
612.810389	0.309407
613.159207	0.311740
613.507971	0.313638
613.856682	0.309017
614.205340	0.310925
614.553945	0.307893
614.902496	0.311691
615.250994	0.309450
615.599439	0.310370
615.947830	0.309846
616.296169	0.310966
616.644454	0.310299
616.992686	0.310579
617.340864	0.308116
617.688990	0.311700
618.037063	0.308459
618.385082	0.310315
618.733048	0.307513
619.080961	0.309670
619.428821	0.309109
619.776628	0.308304
620.124382	0.310255
620.472083	0.310756
620.819731	0.310089
621.167326	0.313949
621.514868	0.313589
621.862357	0.318437
622.209793	0.317645
622.557176	0.319822
622.904506	0.320951
623.251783	0.323264
623.599007	0.325377
623.946179	0.325252
624.293297	0.327513
624.640363	0.330678
624.987376	0.331376
625.334336	0.334065
625.681243	0.336369
626.028097	0.336700
626.374899	0.337818
626.721647	0.338173
627.068343	0.341546
627.414987	0.342372
627.761577	0.344678
628.108115	0.342767
628.454600	0.347961
628.801032	0.345612
629.147412	0.347402
629.493739	0.348233
629.840014	0.350992
630.186236	0.348484
630.532405	0.354154
630.878521	0.351648
631.224585	0.353615
631.570597	0.356955
631.916556	0.355670
632.262462	0.355917
632.608316	0.357784
632.954117	0.358675
633.299866	0.359678
633.645562	0.360170
633.991206	0.364577
634.336797	0.367479
634.682336	0.369265
635.027823	0.371343
635.373257	0.372047
635.718639	0.375216
636.063968	0.373904
636.409245	0.380510
636.754470	0.380560
637.099642	0.383198
637.444762	0.386440
637.789829	0.385595
638.134845	0.388841
638.479808	0.390147
638.824719	0.389802
639.169577	0.393707
639.514383	0.392701
639.859137	0.396798
640.203839	0.396951
640.548489	0.397613
640.893086	0.399178
641.237632	0.400726
641.582125	0.398829
641.926566	0.400237
642.270955	0.400587
642.615292	0.400710
642.959576	0.399657
643.303809	0.400370
643.647990	0.399940
643.992118	0.400529
644.336195	0.403668
644.680219	0.402192
645.024192	0.403258
645.368112	0.396666
645.711981	0.396125
646.055797	0.390866
646.399562	0.393299
646.743274	0.385694
647.086935	0.382785
647.430544	0.383100
647.774101	0.382000
648.117606	0.381659
648.461059	0.382080
648.804460	0.384503
649.147810	0.389585
649.491108	0.391789
649.834354	0.393374
650.177548	0.398748
650.520690	0.403740
650.863781	0.405125
651.206820	0.404114
651.549807	0.408916
651.892742	0.413063
652.235626	0.412287
652.578458	0.413366
652.921238	0.419330
653.263967	0.417284
653.606644	0.420874
653.949269	0.421118
654.291843	0.424775
654.634365	0.421674
654.976836	0.425053
655.319255	0.425132
655.661622	0.426537
656.003938	0.426354
656.346203	0.429513
656.688416	0.427430
657.030577	0.430870
657.372687	0.432869
657.714746	0.432927
658.056753	0.430838
658.398708	0.434296
658.740612	0.435503
659.082465	0.431717
659.424266	0.432623
659.766016	0.431806
660.107715	0.434381
660.449362	0.432848
660.790958	0.434118
661.132503	0.433910
661.473996	0.432048
661.815438	0.433127
662.156829	0.433364
662.498168	0.433843
662.839456	0.435437
663.180693	0.433169
663.521879	0.432929
663.863013	0.433827
664.204097	0.432741
664.545129	0.429331
664.886110	0.429559
665.227040	0.426982
665.567918	0.429643
665.908746	0.427213
666.249522	0.427226
666.590248	0.428296
666.930922	0.426622
667.271545	0.425187
667.612118	0.425857
667.952639	0.427136
668.293109	0.426119
668.633528	0.428792
668.973896	0.428136
669.314213	0.428794
669.654480	0.430534
669.994695	0.431226
670.334859	0.431623
670.674973	0.432122
671.015035	0.432623
671.355047	0.432036
671.695008	0.433108
672.034918	0.434855
672.374777	0.434853
672.714585	0.435456
673.054342	0.435372
673.394049	0.435216
673.733705	0.432989
674.073310	0.434313
674.412864	0.437560
674.752368	0.437903
675.091820	0.438200
675.431223	0.442343
675.770574	0.442133
676.109875	0.445215
676.449125	0.445229
676.788324	0.447813
677.127473	0.453098
677.466571	0.452539
677.805619	0.454224
678.144616	0.455535
678.483562	0.456830
678.822458	0.459947
679.161303	0.460552
679.500098	0.460769
679.838842	0.462901
680.177535	0.462465
680.516179	0.460686
680.854771	0.459722
681.193314	0.453068
681.531805	0.444912
681.870247	0.433220
682.208638	0.425503
682.546978	0.424442
682.885268	0.426548
683.223508	0.432662
683.561697	0.436048
683.899836	0.439048
684.237925	0.442229
684.575963	0.444839
684.913951	0.447856
685.251889	0.443654
685.589776	0.445582
685.927614	0.448537
686.265401	0.442593
686.603137	0.444104
686.940824	0.437814
687.278460	0.436447
687.616046	0.435097
687.953582	0.430164
688.291068	0.431863
688.628504	0.427086
688.965889	0.429826
689.303224	0.433705
689.640510	0.437783
689.977745	0.443495
690.314930	0.451687
690.652065	0.455862
690.989150	0.463478
691.326185	0.469801
691.663170	0.474704
692.000105	0.481700
692.336990	0.488938
692.673825	0.491127
693.010610	0.499071
693.347345	0.504058
693.684030	0.505195
694.020665	0.510204
694.357251	0.518595
694.693786	0.518536
695.030272	0.522763
695.366707	0.525956
695.703093	0.529548
696.039429	0.527069
696.375716	0.529092
696.711952	0.531890
697.048139	0.532867
697.384276	0.535349
697.720363	0.533878
698.056400	0.533515
698.392388	0.537749
698.728326	0.541454
699.064214	0.544133
699.400053	0.544509
699.735842	0.548958
700.071581	0.551103
700.407270	0.554648
700.742910	0.557081
701.078501	0.563504
701.414042	0.564431
701.749533	0.567096
702.084974	0.575906
702.420366	0.568020
702.755709	0.575954
703.091002	0.583566
703.426246	0.576518
703.761440	0.582647
704.096584	0.587650
704.431679	0.584507
704.766725	0.586794
705.101721	0.588757
705.436668	0.584042
705.771565	0.591032
706.106413	0.588711
706.441212	0.583842
706.775961	0.581938
707.110661	0.584878
707.445311	0.581454
707.779913	0.578285
708.114465	0.577252
708.448967	0.573840
708.783421	0.565875
709.117825	0.559949
709.452180	0.560830
709.786485	0.553999
710.120742	0.543359
710.454949	0.545797
710.789107	0.537960
711.123216	0.529093
711.457275	0.530991
711.791286	0.522033
712.125247	0.520716
712.459159	0.531155
712.793023	0.523500
713.126837	0.527432
713.460602	0.529058
713.794318	0.538040
714.127985	0.536016
714.461602	0.546615
714.795171	0.550055
715.128691	0.557735
715.462162	0.565385
715.795584	0.570920
716.128957	0.573896
716.462281	0.580631
716.795556	0.583844
717.128782	0.588740
717.461960	0.598950
717.795088	0.596856
718.128167	0.603089
718.461198	0.611531
718.794180	0.612421
719.127113	0.615300
719.459997	0.618769
719.792833	0.624758
720.125619	0.626676
720.458357	0.632616
720.791046	0.632169
721.123686	0.635823
721.456278	0.642439
721.788821	0.639195
722.121315	0.643834
722.453761	0.648180
722.786158	0.645977
723.118506	0.642230
723.450805	0.650345
723.783056	0.646475
724.115259	0.643253
724.447412	0.642894
724.779518	0.644223
725.111574	0.642781
725.443582	0.639218
725.775542	0.640569
726.107453	0.633111
726.439315	0.633265
726.771129	0.631782
727.102895	0.624717
727.434612	0.617229
727.766281	0.615558
728.097901	0.615146
728.429473	0.614177
728.760996	0.613452
729.092471	0.612896
729.423897	0.616589
729.755276	0.616019
730.086606	0.616530
730.417887	0.610393
730.749120	0.600960
731.080305	0.592247
731.411442	0.588855
731.742530	0.592922
732.073570	0.592317
732.404562	0.584384
732.735506	0.586020
733.066401	0.589849
733.397249	0.599730
733.728048	0.610819
734.058798	0.623946
734.389501	0.634606
734.720156	0.644242
735.050762	0.652280
735.381320	0.653604
735.711831	0.662163
736.042293	0.667708
736.372707	0.662886
736.703073	0.667808
737.033391	0.670101
737.363661	0.667009
737.693883	0.663145
738.024056	0.661036
738.354182	0.661150
738.684260	0.651413
739.014290	0.646235
739.344272	0.647751
739.674207	0.639876
740.004093	0.640406
740.333931	0.640836
740.663722	0.641237
740.993464	0.641183
741.323159	0.644697
741.652806	0.650229
741.982405	0.654394
742.311956	0.659617
742.641460	0.662362
742.970915	0.666179
743.300323	0.673605
743.629683	0.679935
743.958996	0.681172
744.288260	0.685711
744.617477	0.692322
744.946647	0.693497
745.275768	0.699533
745.604842	0.698489
745.933869	0.708748
746.262847	0.708888
746.591778	0.702189
746.920662	0.708628
747.249498	0.715211
747.578286	0.706348
747.907027	0.702928
748.235720	0.703327
748.564365	0.697885
748.892963	0.698117
749.221514	0.701552
749.550017	0.707153
749.878473	0.706230
750.206881	0.712089
750.535242	0.713324
750.863555	0.713417
751.191821	0.714484
751.520039	0.717492
751.848210	0.722188
752.176334	0.715199
752.504411	0.714568
752.832440	0.721550
753.160421	0.725341
753.488356	0.724439
753.816243	0.721745
754.144082	0.730282
754.471875	0.733902
754.799620	0.729471
755.127318	0.730566
755.454969	0.730843
755.782572	0.729427
756.110129	0.735205
756.437638	0.737515
756.765100	0.733792
757.092515	0.732480
757.419882	0.730800
757.747203	0.736386
758.074477	0.734611
758.401703	0.733256
758.728882	0.727034
759.056014	0.726099
759.383099	0.725715
759.710138	0.726961
760.037129	0.723513
760.364073	0.717391
760.690970	0.719473
761.017820	0.724811
761.344623	0.720286
761.671379	0.712547
761.998088	0.700535
762.324751	0.677489
762.651366	0.634901
762.977935	0.567783
763.304456	0.515464
763.630931	0.506021
763.957359	0.544306
764.283740	0.590367
764.610074	0.617395
764.936362	0.648725
765.262602	0.675610
765.588796	0.696689
765.914943	0.714217
766.241044	0.732337
766.567097	0.739431
766.893104	0.749482
767.219064	0.756088
767.544978	0.762384
767.870845	0.775501
768.196665	0.779153
768.522438	0.777176
768.848165	0.778553
769.173846	0.787319
769.499479	0.792902
769.825066	0.796184
770.150607	0.800824
770.476101	0.795636
770.801548	0.797146
771.126949	0.808738
771.452303	0.812362
771.777611	0.811926
772.102872	0.811315
772.428087	0.815898
772.753256	0.819283
773.078378	0.821383
773.403453	0.830822
773.728482	0.836268
774.053465	0.828237
774.378401	0.832400
774.703291	0.840101
775.028135	0.839206
775.352932	0.841537
775.677683	0.844398
776.002388	0.846098
776.327046	0.844095
776.651658	0.847500
776.976224	0.851252
777.300743	0.851574
777.625216	0.853981
777.949643	0.854714
778.274024	0.855459
778.598359	0.857555
778.922647	0.855389
779.246889	0.856169
779.571086	0.860303
779.895236	0.862804
780.219339	0.859416
780.543397	0.857226
780.867409	0.855336
781.191374	0.856713
781.515294	0.858755
781.839167	0.857837
782.162995	0.861203
782.486776	0.857733
782.810511	0.859059
783.134201	0.862681
783.457844	0.860053
783.781441	0.863812
784.104993	0.869245
784.428498	0.869704
784.751958	0.864918
785.075372	0.867270
785.398739	0.870808
785.722061	0.867872
786.045337	0.863248
786.368568	0.868806
786.691752	0.870499
787.014891	0.855598
787.337983	0.846770
787.661030	0.838576
787.984031	0.821721
788.306987	0.808555
788.629897	0.810212
788.952760	0.815045
789.275579	0.818793
789.598351	0.834197
789.921078	0.848082
790.243759	0.850248
790.566395	0.855151
790.888984	0.861839
791.211529	0.867232
791.534027	0.870495
791.856480	0.872255
792.178888	0.878725
792.501249	0.879890
792.823566	0.881760
793.145836	0.881367
793.468062	0.883801
793.790241	0.884106
794.112375	0.881979
794.434464	0.876186
794.756507	0.876263
795.078505	0.875847
795.400457	0.870311
795.722364	0.858930
796.044226	0.851485
796.366042	0.850127
796.687812	0.853863
797.009538	0.849879
797.331218	0.851759
797.652852	0.858190
797.974442	0.862967
798.295986	0.861792
798.617484	0.866057
798.938938	0.868629
799.260346	0.874590
799.581709	0.876539
799.903026	0.878136
800.224299	0.879773
800.545526	0.883276
800.866708	0.887009
801.187845	0.890465
801.508936	0.890052
801.829983	0.888644
802.150984	0.891209
802.471940	0.896564
802.792851	0.895437
803.113717	0.897726
803.434538	0.894503
803.755314	0.897243
804.076045	0.899176
804.396731	0.898974
804.717372	0.898992
805.037967	0.899668
805.358518	0.898203
805.679024	0.895507
805.999485	0.895793
806.319901	0.895503
806.640272	0.896675
806.960598	0.896003
807.280879	0.891993
807.601115	0.890379
807.921306	0.894623
808.241453	0.895184
808.561554	0.892836
808.881611	0.892943
809.201623	0.894301
809.521590	0.894990
809.841513	0.895818
810.161390	0.894488
810.481223	0.896133
810.801011	0.899819
811.120755	0.900496
811.440453	0.900801
811.760107	0.898391
812.079716	0.899729
812.399281	0.902887
812.718801	0.905260
813.038276	0.906628
813.357707	0.905940
813.677093	0.901683
813.996434	0.905823
814.315731	0.907954
814.634983	0.908344
814.954191	0.907016
815.273354	0.903711
815.592473	0.900855
815.911547	0.900594
816.230577	0.898122
816.549562	0.894296
816.868502	0.896655
817.187399	0.891821
817.506250	0.886307
817.825058	0.888115
818.143821	0.885187
818.462539	0.879190
818.781213	0.872204
819.099843	0.860160
819.418429	0.843979
819.736970	0.826890
820.055466	0.806952
820.373919	0.781849
820.692327	0.747893
821.010691	0.712597
821.329011	0.633397
821.647286	0.517351
821.965517	0.402731
822.283704	0.359836
822.601847	0.360409
822.919945	0.395866
823.237999	0.430688
823.556010	0.478019
823.873976	0.534158
824.191897	0.585650
824.509775	0.628354
824.827609	0.675135
825.145398	0.697622
825.463144	0.701040
825.780845	0.682871
826.098502	0.664260
826.416116	0.617618
826.733685	0.572906
827.051210	0.564733
827.368692	0.579230
827.686129	0.616764
828.003522	0.671575
828.320872	0.718336
828.638177	0.763336
828.955439	0.796367
829.272656	0.819078
829.589830	0.836362
829.906960	0.852232
830.224046	0.864036
830.541088	0.875075
830.858086	0.879403
831.175041	0.885677
831.491952	0.885628
831.808819	0.880642
832.125642	0.874484
832.442421	0.859326
832.759157	0.837173
833.075849	0.790941
833.392497	0.726289
833.709101	0.685689
834.025662	0.694764
834.342179	0.726812
834.658653	0.765939
834.975083	0.802004
835.291469	0.828048
835.607811	0.852414
835.924110	0.868531
836.240366	0.885272
836.556578	0.899406
836.872746	0.906486
837.188871	0.913057
837.504952	0.919345
837.820990	0.922149
838.136984	0.925135
838.452935	0.928827
838.768842	0.930065
839.084706	0.922977
839.400526	0.897853
839.716303	0.857187
840.032037	0.834455
840.347727	0.837690
840.663373	0.856203
840.978977	0.878693
841.294537	0.899498
841.610054	0.917261
841.925527	0.924209
842.240957	0.931325
842.556344	0.938714
842.871687	0.945474
843.186987	0.949483
843.502244	0.949341
843.817458	0.950710
844.132629	0.953528
844.447756	0.959893
844.762840	0.960331
845.077881	0.958365
845.392879	0.958704
845.707833	0.961389
846.022745	0.963733
846.337613	0.963912
846.652438	0.965763
846.967221	0.965071
847.281960	0.964327
847.596656	0.967305
847.911309	0.965119
848.225919	0.966973
848.540485	0.966802
848.855009	0.967966
849.169490	0.967905
849.483928	0.968162
849.798323	0.968034
850.112675	0.968992
850.426984	0.969125
850.741251	0.970143
851.055474	0.969765
851.369654	0.967470
851.683792	0.969276
851.997887	0.969201
852.311938	0.971040
852.625947	0.968540
852.939914	0.967586
853.253837	0.969094
853.567718	0.970584
853.881555	0.969325
854.195350	0.967540
854.509103	0.969218
854.822812	0.969521
855.136479	0.968997
855.450103	0.969471
855.763685	0.967594
856.077224	0.967898
856.390720	0.969836
856.704173	0.969621
857.017584	0.967730
857.330953	0.966695
857.644278	0.967329
857.957561	0.967955
858.270802	0.967829
858.584000	0.967330
858.897155	0.965759
859.210268	0.967749
859.523339	0.967763
859.836367	0.968656
860.149352	0.970083
860.462295	0.968727
860.775195	0.969673
861.088054	0.968167
861.400869	0.968578
861.713642	0.968986
862.026373	0.969562
862.339062	0.970156
862.651708	0.968332
862.964312	0.965634
863.276873	0.968502
863.589392	0.967022
863.901869	0.964638
864.214303	0.963356
864.526696	0.963979
864.839045	0.962237
865.151353	0.961054
865.463619	0.962197
865.775842	0.961725
866.088023	0.961422
866.400162	0.961576
866.712258	0.961738
867.024313	0.961448
867.336325	0.962499
867.648296	0.962155
867.960224	0.961535
868.272110	0.960988
868.583954	0.963140
868.895755	0.963079
869.207515	0.960563
869.519233	0.958687
869.830909	0.960403
870.142542	0.961306
870.454134	0.961616
870.765684	0.960782
871.077191	0.957327
871.388657	0.958431
871.700081	0.956808
872.011463	0.957427
872.322803	0.957501
872.634101	0.955614
872.945357	0.952804
873.256571	0.952144
873.567744	0.951741
873.878874	0.952805
874.189963	0.950137
874.501010	0.950696
874.812015	0.948292
875.122979	0.950414
875.433900	0.950352
875.744780	0.952268
876.055618	0.950105
876.366415	0.949358
876.677169	0.948952
876.987882	0.950862
877.298554	0.950836
877.609183	0.947288
877.919771	0.943771
878.230317	0.941171
878.540822	0.939467
878.851285	0.932440
879.161707	0.924706
879.472087	0.912804
879.782425	0.896649
880.092722	0.861429
880.402977	0.807371
880.713191	0.745478
881.023363	0.684893
881.333494	0.650352
881.643583	0.622714
881.953631	0.622606
882.263637	0.651260
882.573602	0.690210
882.883526	0.716880
883.193408	0.741517
883.503248	0.764836
883.813048	0.792302
884.122806	0.823311
884.432522	0.847112
884.742197	0.867043
885.051831	0.878287
885.361424	0.888603
885.670975	0.900502
885.980485	0.911451
886.289954	0.917493
886.599382	0.922826
886.908768	0.926162
887.218113	0.932603
887.527417	0.936315
887.836680	0.940079
888.145901	0.941450
888.455082	0.945769
888.764221	0.949053
889.073319	0.951464
889.382376	0.951648
889.691392	0.952237
890.000366	0.951613
890.309300	0.952676
890.618193	0.951806
890.927044	0.950312
891.235855	0.950355
891.544625	0.949421
891.853353	0.951513
892.162041	0.947631
892.470687	0.941602
892.779293	0.936061
893.087858	0.932464
893.396381	0.923814
893.704864	0.909988
894.013306	0.885859
894.321707	0.859476
894.630068	0.844112
894.938387	0.838958
895.246665	0.840591
895.554903	0.852565
895.863100	0.866600
896.171256	0.883813
896.479371	0.903124
896.787446	0.915547
897.095480	0.922752
897.403473	0.925526
897.711425	0.930747
898.019336	0.938797
898.327207	0.941175
898.635038	0.943407
898.942827	0.942812
899.250576	0.947264
899.558284	0.951024
899.865952	0.952995
900.173579	0.953355
900.481165	0.954501
900.788711	0.957750
901.096216	0.960447
901.403681	0.960716
901.711105	0.961269
902.018489	0.962166
902.325832	0.960707
902.633135	0.960158
902.940397	0.953383
903.247619	0.941538
903.554800	0.915442
903.861941	0.874215
904.169041	0.837307
904.476101	0.819598
904.783121	0.820976
905.090100	0.837702
905.397039	0.859688
905.703938	0.883380
906.010796	0.901998
906.317614	0.921011
906.624391	0.931535
906.931129	0.942344
907.237826	0.951060
907.544483	0.957187
907.851099	0.960369
908.157675	0.965837
908.464211	0.969389
908.770707	0.971696
909.077163	0.971899
909.383578	0.973486
909.689954	0.973292
909.996289	0.975641
910.302584	0.977542
910.608839	0.979273
910.915054	0.976851
911.221229	0.976766
911.527363	0.975139
911.833458	0.976724
912.139513	0.975972
912.445527	0.974041
912.751502	0.972829
913.057436	0.971174
913.363331	0.968771
913.669186	0.965334
913.975000	0.960391
914.280775	0.953837
914.586510	0.946148
914.892205	0.932395
915.197859	0.910716
915.503475	0.882999
915.809050	0.862610
916.114585	0.856252
916.420081	0.852677
916.725536	0.850676
917.030952	0.858981
917.336328	0.872176
917.641665	0.887874
917.946961	0.903323
918.252218	0.915030
918.557435	0.924469
918.862612	0.933945
919.167750	0.940258
919.472848	0.945150
919.777906	0.950106
920.082925	0.957259
920.387904	0.960494
920.692843	0.961937
920.997743	0.962740
921.302603	0.967107
921.607423	0.968391
921.912204	0.970518
922.216946	0.970303
922.521647	0.971694
922.826310	0.975013
923.130932	0.976341
923.435516	0.977201
923.740059	0.979672
924.044564	0.978286
924.349028	0.980059
924.653454	0.982377
924.957840	0.984593
925.262186	0.983136
925.566493	0.984540
925.870761	0.984349
926.174989	0.985094
926.479178	0.986731
926.783328	0.989064
927.087438	0.987579
927.391509	0.987572
927.695541	0.988599
927.999533	0.988570
928.303486	0.988912
928.607400	0.990406
928.911275	0.988651
929.215110	0.989769
929.518906	0.989493
929.822663	0.990226
930.126381	0.990652
930.430060	0.989619
930.733699	0.990381
931.037299	0.988343
931.340861	0.989686
931.644383	0.989705
931.947866	0.988642
932.251309	0.989654
932.554714	0.990040
932.858080	0.990106
933.161407	0.990126
933.464694	0.990409
933.767943	0.989287
934.071153	0.990914
934.374323	0.990473
934.677455	0.991382
934.980548	0.991171
935.283602	0.990244
935.586617	0.990885
935.889593	0.990478
936.192530	0.990235
936.495428	0.989863
936.798287	0.990063
937.101108	0.989242
937.403890	0.987393
937.706632	0.988347
938.009336	0.986661
938.312002	0.985200
938.614628	0.984292
938.917216	0.982786
939.219765	0.980387
939.522275	0.982198
939.824747	0.981781
940.127179	0.982552
940.429573	0.984317
940.731929	0.982030
941.034246	0.983991
941.336524	0.984181
941.638763	0.985768
941.940964	0.985154
942.243126	0.986823
942.545250	0.985541
942.847335	0.988019
943.149381	0.988123
943.451389	0.988664
943.753359	0.987974
944.055290	0.989937
944.357182	0.990383
944.659036	0.988578
944.960851	0.989561
945.262628	0.989186
945.564367	0.989368
945.866067	0.989195
946.167729	0.990249
946.469352	0.990393
946.770937	0.988144
947.072484	0.990795
947.373992	0.989750
947.675462	0.990125
947.976893	0.989566
948.278286	0.988918
948.579641	0.991374
948.880958	0.990699
949.182236	0.990019
949.483476	0.990343
949.784678	0.990279
950.085841	0.990950
950.386967	0.990299
950.688054	0.989969
950.989103	0.990778
951.290114	0.988383
951.591087	0.988978
951.892021	0.987984
952.192917	0.988378
952.493776	0.987969
952.794596	0.988078
953.095378	0.986774
953.396122	0.987322
953.696828	0.986514
953.997496	0.989563
954.298126	0.990244
954.598718	0.989783
954.899272	0.990985
955.199788	0.990970
955.500266	0.990318
955.800706	0.991418
956.101108	0.992818
956.401472	0.992917
956.701798	0.994083
957.002087	0.993363
957.302337	0.992869
957.602550	0.994627
957.902724	0.994899
958.202861	0.994825
958.502960	0.995034
958.803022	0.993857
959.103045	0.995764
959.403031	0.995410
959.702979	0.993798
960.002889	0.995686
960.302762	0.994114
960.602596	0.995483
960.902393	0.994179
961.202153	0.996415
961.501875	0.997040
961.801559	0.995992
962.101205	0.995567
962.400814	0.996090
962.700385	0.997721
962.999918	0.995693
963.299414	0.996916
963.598873	0.995060
963.898293	0.997198
964.197677	0.995240
964.497022	0.997072
964.796331	0.997386
965.095601	0.995964
965.394835	0.996906
965.694030	0.996112
965.993189	0.997483
966.292309	0.995905
966.591393	0.998500
966.890439	0.997205
967.189447	0.995520
967.488419	0.996916
967.787353	0.996588
968.086249	0.995906
968.385108	0.996767
968.683930	0.997104
968.982714	0.997231
969.281462	0.996719
969.580172	0.996529
969.878844	0.997014
970.177480	0.995961
970.476078	0.996658
970.774639	0.996557
971.073162	0.996769
971.371649	0.995343
971.670098	0.995729
971.968510	0.997017
972.266885	0.994239
972.565223	0.996193
972.863524	0.996120
973.161788	0.995517
973.460014	0.996332
973.758204	0.996006
974.056356	0.996961
974.354471	0.994152
974.652550	0.997635
974.950591	0.996026
975.248595	0.995896
975.546563	0.996679
975.844493	0.998393
976.142386	0.996852
976.440243	0.996755
976.738062	0.996710
977.035845	0.997041
977.333590	0.996973
977.631299	0.996131
977.928971	0.996907
978.226606	0.997224
978.524204	0.995209
978.821765	0.998229
979.119290	0.995540
979.416777	0.996972
979.714228	0.997151
980.011642	0.996174
980.309020	0.996932
980.606360	0.996866
980.903664	0.997619
981.200931	0.994814
981.498162	0.995140
981.795356	0.994086
982.092513	0.994403
982.389633	0.994063
982.686717	0.990938
982.983764	0.991176
983.280775	0.989188
983.577749	0.990297
983.874686	0.990796
984.171587	0.991016
984.468451	0.994471
984.765279	0.994692
985.062070	0.993016
985.358824	0.996121
985.655543	0.995134
985.952224	0.995387
986.248869	0.995536
986.545478	0.996655
986.842050	0.997395
987.138586	0.995847
987.435086	0.997505
987.731549	0.998498
988.027975	0.997728
988.324366	0.998344
988.620719	0.997547
988.917037	0.995676
989.213318	0.997639
989.509563	0.998936
989.805772	0.998824
990.101944	0.997891
990.398080	0.998039
990.694180	0.997273
990.990244	0.997147
991.286271	0.997353
991.582262	0.998213
991.878217	0.997284
992.174136	0.998612
992.470019	0.997856
992.765865	0.997750
993.061676	0.997593
993.357450	0.998562
993.653188	0.997326
993.948890	0.997509
994.244556	0.997052
994.540186	0.997567
994.835780	0.996201
995.131337	0.997827
995.426859	0.996636
995.722345	0.997660
996.017795	0.996199
996.313208	0.996130
996.608586	0.995778
996.903928	0.996153
997.199234	0.995900
997.494504	0.995589
997.789738	0.996152
998.084936	0.995891
998.380099	0.998306
998.675225	0.996972
998.970316	0.998105
999.265371	0.996915
999.560390	0.997736
999.855373	0.999015
1000.150320	0.998317
1000.445232	0.998962
1000.740108	0.998188
1001.034948	0.997928
1001.329752	0.997769
1001.624521	0.998859
1001.919254	0.997018
1002.213951	0.998834
1002.508613	0.998076
1002.803239	0.999370
1003.097829	0.998471
1003.392384	0.997901
1003.686903	0.997875
1003.981386	0.999054
1004.275834	0.999619
1004.570246	0.998152
1004.864623	0.998462
1005.158964	0.998943
1005.453270	0.998347
1005.747540	0.996336
1006.041775	0.998409
1006.335974	0.998887
1006.630138	0.998933
1006.924266	0.999364
1007.218359	0.999873
1007.512416	0.999005
1007.806438	0.999127
1008.100425	0.999104
1008.394376	0.998825
1008.688292	0.998360
1008.982172	1.001094
1009.276017	0.998683
1009.569827	0.998167
1009.863602	0.998214
1010.157341	0.999556
1010.451045	0.999490
1010.744714	0.998624
1011.038347	0.999319
1011.331945	0.999265
1011.625508	0.997736
1011.919036	0.998633
1012.212528	0.998836
1012.505986	0.997852
1012.799408	0.997792
1013.092795	0.998878
1013.386147	0.999004
1013.679464	0.998824
1013.972745	0.998524
1014.265992	0.997523
1014.559204	0.998639
1014.852380	0.999054
1015.145521	0.999193
1015.438628	0.998970
1015.731699	0.998230
1016.024736	0.999088
1016.317737	0.999234
1016.610703	0.998294
1016.903635	1.000002
1017.196531	0.998973
1017.489393	0.999950
1017.782219	0.997979
1018.075011	0.998853
1018.367768	0.999270
1018.660490	0.999548
1018.953177	0.999548
1019.245829	0.999548
