Dividing Wavelength (nm)	Counts (n)	Blue Motor Position (mm): 0.000000	Red Motor Position (mm): 31.700000	
326.493990	1.000845
326.888308	1.000845
327.282561	1.000845
327.676750	1.000561
328.070874	0.999756
328.464933	1.000438
328.858929	0.999043
329.252859	0.999647
329.646726	0.999110
330.040528	0.999420
330.434265	1.001069
330.827938	1.001453
331.221547	1.000324
331.615091	0.999847
332.008571	1.000854
332.401986	1.000026
332.795338	1.000686
333.188625	0.998736
333.581847	1.001270
333.975006	0.999224
334.368100	0.999932
334.761129	1.000170
335.154095	1.001668
335.546996	0.998270
335.939833	0.994510
336.332606	0.995353
336.725315	0.996014
337.117960	0.996646
337.510540	0.997075
337.903056	0.996308
338.295508	0.994514
338.687896	0.996269
339.080220	0.995017
339.472480	0.995964
339.864676	0.996119
340.256807	0.994642
340.648875	0.997795
341.040879	0.996740
341.432818	0.995132
341.824694	0.995828
342.216506	0.997432
342.608253	0.995595
342.999937	0.995445
343.391557	0.996439
343.783113	0.996247
344.174605	0.996798
344.566033	0.996763
344.957397	0.995670
345.348697	0.996205
345.739934	0.995793
346.131106	0.995531
346.522215	0.995204
346.913260	0.995514
347.304241	0.995205
347.695159	0.996003
348.086012	0.995406
348.476802	0.995327
348.867528	0.996450
349.258191	0.994496
349.648789	0.996587
350.039324	0.995400
350.429796	0.996782
350.820203	0.996230
351.210548	0.996578
351.600828	0.995783
351.991045	0.996455
352.381198	0.995553
352.771288	0.995927
353.161314	0.995206
353.551276	0.997902
353.941175	0.995138
354.331010	0.996008
354.720782	0.996927
355.110490	0.996335
355.500135	0.996572
355.889717	0.996441
356.279235	0.995944
356.668689	0.995544
357.058080	0.995666
357.447408	0.997309
357.836672	0.997145
358.225873	0.996107
358.615010	0.995379
359.004084	0.997557
359.393095	0.996348
359.782043	0.996146
360.170927	0.997330
360.559748	0.997367
360.948505	0.995264
361.337199	0.994899
361.725830	0.996168
362.114398	0.996338
362.502903	0.996413
362.891344	0.997822
363.279722	0.995168
363.668037	0.997087
364.056289	0.995736
364.444478	0.996085
364.832603	0.996257
365.220665	0.995251
365.608665	0.995701
365.996601	0.995760
366.384474	0.996264
366.772284	0.997065
367.160031	0.994520
367.547715	0.994901
367.935336	0.996168
368.322893	0.996728
368.710388	0.994756
369.097820	0.995852
369.485189	0.995699
369.872495	0.995167
370.259738	0.994702
370.646918	0.997129
371.034035	0.996716
371.421090	0.996587
371.808081	0.996452
372.195010	0.996505
372.581875	0.995423
372.968678	0.995901
373.355418	0.996986
373.742096	0.995956
374.128710	0.997331
374.515262	0.995535
374.901751	0.996577
375.288177	0.995810
375.674540	0.997077
376.060841	0.995463
376.447079	0.996607
376.833254	0.996835
377.219367	0.996635
377.605417	0.997327
377.991404	0.997083
378.377329	0.995478
378.763191	0.997417
379.148991	0.996989
379.534727	0.997463
379.920402	0.997062
380.306013	0.997000
380.691563	0.998381
381.077049	0.996690
381.462474	0.998099
381.847835	0.996965
382.233134	0.996607
382.618371	0.998260
383.003545	0.996841
383.388657	0.996845
383.773706	0.997579
384.158693	0.997492
384.543618	0.997649
384.928480	0.998646
385.313280	0.996900
385.698017	0.997910
386.082692	0.998565
386.467305	0.997322
386.851856	0.998498
387.236344	0.996411
387.620770	0.996354
388.005133	0.997509
388.389435	0.998763
388.773674	0.996872
389.157851	0.997546
389.541965	0.997728
389.926018	0.997862
390.310008	0.998097
390.693936	0.997645
391.077802	0.998475
391.461606	0.997855
391.845348	0.997631
392.229027	0.998655
392.612645	0.997777
392.996200	0.998305
393.379694	0.997331
393.763125	0.998103
394.146494	0.998843
394.529801	0.997699
394.913047	0.998448
395.296230	0.998438
395.679351	0.998169
396.062410	0.998504
396.445408	0.998565
396.828343	0.997960
397.211217	0.997674
397.594028	0.999469
397.976778	0.998223
398.359466	0.997189
398.742092	0.997515
399.124656	0.997606
399.507158	0.997985
399.889598	0.998156
400.271977	0.998021
400.654294	0.999023
401.036549	0.998024
401.418742	0.998416
401.800874	0.998051
402.182944	0.997890
402.564952	0.998083
402.946898	0.999523
403.328783	0.997971
403.710606	0.997976
404.092367	0.999061
404.474067	0.998232
404.855705	0.998027
405.237282	0.997762
405.618797	0.998372
406.000250	0.997766
406.381642	0.999277
406.762972	0.998737
407.144240	0.998281
407.525447	0.997571
407.906593	0.998511
408.287677	0.998640
408.668700	0.999546
409.049661	0.998186
409.430560	0.999002
409.811399	0.997613
410.192176	0.998117
410.572891	0.998529
410.953545	0.998110
411.334138	0.997923
411.714669	0.998421
412.095139	0.998158
412.475547	0.998690
412.855894	0.998651
413.236180	0.999026
413.616405	0.999041
413.996568	0.999513
414.376670	0.998908
414.756711	0.998654
415.136691	0.999003
415.516609	0.997750
415.896466	0.998562
416.276262	0.997592
416.655997	0.998910
417.035670	0.997922
417.415283	0.998608
417.794834	0.998865
418.174324	0.997640
418.553753	0.998869
418.933121	0.998318
419.312428	0.998516
419.691674	0.998337
420.070859	0.999212
420.449983	0.998837
420.829045	0.998458
421.208047	0.999253
421.586988	0.999935
421.965867	0.998473
422.344686	0.999255
422.723444	0.998882
423.102141	0.998344
423.480777	0.999079
423.859352	0.999303
424.237866	0.998745
424.616319	0.998967
424.994712	0.998863
425.373044	0.999157
425.751314	0.999138
426.129524	0.998278
426.507673	0.998877
426.885762	1.000094
427.263789	0.999121
427.641756	0.998944
428.019662	0.999331
428.397508	0.997939
428.775292	0.997507
429.153016	0.998647
429.530679	0.999269
429.908282	0.999864
430.285824	0.998224
430.663305	0.998582
431.040726	0.998954
431.418086	1.000074
431.795385	0.999290
432.172624	0.998530
432.549802	0.999660
432.926920	0.998938
433.303977	0.998548
433.680974	0.999542
434.057910	0.998527
434.434786	0.999578
434.811601	0.998810
435.188355	0.999050
435.565050	0.998206
435.941683	0.998598
436.318257	0.999488
436.694770	0.998517
437.071222	0.999218
437.447614	0.999032
437.823946	0.998963
438.200218	0.999467
438.576429	0.999477
438.952580	0.999661
439.328670	0.998166
439.704700	0.998978
440.080670	0.998631
440.456580	0.998606
440.832429	0.998487
441.208218	0.999075
441.583947	0.999170
441.959616	0.998765
442.335224	0.998306
442.710773	0.999108
443.086261	0.998565
443.461689	0.998655
443.837057	0.999073
444.212365	0.998436
444.587612	0.999411
444.962800	0.998574
445.337927	0.999804
445.712995	0.998973
446.088002	0.999276
446.462949	0.999175
446.837837	0.999252
447.212664	0.999160
447.587431	0.999113
447.962139	0.998958
448.336786	0.999020
448.711374	0.998758
449.085901	0.998656
449.460369	0.999088
449.834776	0.998917
450.209124	1.000500
450.583412	0.999633
450.957640	0.999355
451.331808	0.999376
451.705917	0.998924
452.079965	0.999075
452.453954	0.999086
452.827883	0.998342
453.201752	0.999261
453.575562	1.000325
453.949311	0.998976
454.323001	0.999388
454.696632	0.999288
455.070202	0.999089
455.443713	0.998161
455.817164	0.999590
456.190556	0.999310
456.563888	0.998880
456.937160	0.999329
457.310373	0.998747
457.683526	0.998382
458.056619	0.999050
458.429653	0.999031
458.802628	0.998431
459.175542	0.998999
459.548398	0.998579
459.921194	0.999244
460.293930	0.999114
460.666607	0.998845
461.039224	0.998855
461.411782	0.998979
461.784280	0.998584
462.156719	0.999379
462.529099	0.998877
462.901419	0.998966
463.273680	0.998993
463.645882	0.998827
464.018024	0.998706
464.390106	0.998973
464.762130	0.999575
465.134094	0.998823
465.505999	1.000605
465.877845	0.999822
466.249631	0.999843
466.621358	0.999331
466.993026	0.998814
467.364634	0.998799
467.736184	0.999173
468.107674	0.998145
468.479105	0.998205
468.850477	0.999145
469.221790	0.998741
469.593043	0.998781
469.964238	0.998601
470.335373	0.997958
470.706449	0.998210
471.077467	0.998867
471.448425	0.998147
471.819324	0.998810
472.190164	0.997466
472.560945	0.998200
472.931667	0.997747
473.302330	0.996934
473.672934	0.997465
474.043479	0.997486
474.413965	0.996703
474.784393	0.996858
475.154761	0.995763
475.525070	0.995168
475.895321	0.996431
476.265513	0.995326
476.635645	0.995571
477.005719	0.995284
477.375734	0.994044
477.745691	0.993525
478.115588	0.993369
478.485427	0.992958
478.855207	0.991843
479.224928	0.991501
479.594591	0.990408
479.964194	0.989877
480.333739	0.988997
480.703226	0.988163
481.072653	0.987849
481.442022	0.986383
481.811333	0.984236
482.180584	0.984616
482.549777	0.982819
482.918912	0.981955
483.287988	0.981068
483.657005	0.979391
484.025964	0.979123
484.394864	0.977971
484.763706	0.976189
485.132489	0.975625
485.501213	0.973639
485.869879	0.972156
486.238487	0.970451
486.607036	0.968732
486.975527	0.966410
487.343959	0.964534
487.712333	0.962532
488.080648	0.961015
488.448905	0.958932
488.817104	0.957467
489.185244	0.955111
489.553326	0.951335
489.921350	0.947774
490.289315	0.941420
490.657222	0.938895
491.025070	0.935486
491.392861	0.933467
491.760593	0.932934
492.128267	0.931231
492.495883	0.928920
492.863440	0.926869
493.230939	0.924058
493.598380	0.920217
493.965763	0.916752
494.333088	0.914693
494.700354	0.910154
495.067563	0.906991
495.434713	0.902849
495.801805	0.899636
496.168839	0.895618
496.535815	0.890657
496.902733	0.887173
497.269593	0.881862
497.636395	0.878639
498.003139	0.873246
498.369825	0.870325
498.736453	0.864116
499.103023	0.860066
499.469535	0.854328
499.835989	0.851104
500.202385	0.845650
500.568723	0.840689
500.935003	0.835505
501.301226	0.829280
501.667390	0.824064
502.033497	0.818267
502.399546	0.814436
502.765537	0.808059
503.131470	0.801933
503.497345	0.795233
503.863163	0.793289
504.228923	0.784266
504.594625	0.779118
504.960269	0.775066
505.325856	0.767361
505.691385	0.761929
506.056856	0.755703
506.422270	0.748235
506.787625	0.745317
507.152924	0.736538
507.518164	0.731746
507.883347	0.725555
508.248472	0.719353
508.613540	0.711386
508.978550	0.705821
509.343503	0.699358
509.708398	0.692460
510.073236	0.685582
510.438016	0.678830
510.802738	0.672136
511.167403	0.665327
511.532010	0.658991
511.896561	0.651818
512.261053	0.645241
512.625488	0.638559
512.989866	0.632393
513.354186	0.626209
513.718449	0.620036
514.082655	0.612649
514.446803	0.607139
514.810894	0.599687
515.174927	0.593808
515.538904	0.588332
515.902822	0.579334
516.266684	0.574848
516.630488	0.568862
516.994235	0.562333
517.357925	0.554794
517.721558	0.547658
518.085133	0.540292
518.448651	0.535801
518.812112	0.531047
519.175516	0.523449
519.538863	0.516648
519.902152	0.512618
520.265385	0.503229
520.628560	0.499781
520.991678	0.492775
521.354739	0.487382
521.717743	0.482726
522.080690	0.477296
522.443580	0.469151
522.806413	0.464445
523.169189	0.458692
523.531908	0.452016
523.894569	0.449702
524.257174	0.443934
524.619722	0.436969
524.982213	0.433655
525.344647	0.426807
525.707025	0.422723
526.069345	0.415925
526.431608	0.412065
526.793815	0.406175
527.155964	0.404455
527.518057	0.399727
527.880093	0.395479
528.242072	0.390071
528.603995	0.386441
528.965860	0.383921
529.327669	0.378269
529.689421	0.375363
530.051117	0.372016
530.412755	0.365413
530.774337	0.363938
531.135862	0.359453
531.497331	0.355925
531.858743	0.353978
532.220098	0.348186
532.581396	0.346801
532.942638	0.343753
533.303824	0.341222
533.664953	0.337167
534.026025	0.335888
534.387040	0.330845
534.747999	0.327776
535.108902	0.323556
535.469748	0.325172
535.830537	0.320389
536.191270	0.317746
536.551947	0.314547
536.912567	0.311988
537.273131	0.311120
537.633638	0.308354
537.994089	0.306249
538.354483	0.304873
538.714821	0.299885
539.075103	0.297554
539.435328	0.295782
539.795497	0.297583
540.155609	0.292122
540.515665	0.288463
540.875665	0.291741
541.235609	0.288195
541.595496	0.286467
541.955328	0.281440
542.315102	0.282488
542.674821	0.281737
543.034483	0.280214
543.394090	0.278114
543.753640	0.278330
544.113134	0.272095
544.472571	0.274154
544.831953	0.269376
545.191278	0.272049
545.550548	0.270902
545.909761	0.266232
546.268918	0.265784
546.628019	0.262875
546.987064	0.264599
547.346053	0.265267
547.704986	0.262217
548.063863	0.261367
548.422684	0.260947
548.781449	0.261965
549.140158	0.258330
549.498811	0.260658
549.857408	0.262869
550.215949	0.257220
550.574434	0.259220
550.932864	0.256684
551.291237	0.254728
551.649555	0.255413
552.007817	0.254708
552.366022	0.254740
552.724173	0.254542
553.082267	0.254398
553.440305	0.250687
553.798288	0.254653
554.156215	0.250828
554.514086	0.251142
554.871902	0.253983
555.229661	0.252695
555.587365	0.252845
555.945014	0.255319
556.302606	0.251565
556.660143	0.253891
557.017625	0.250089
557.375050	0.252293
557.732421	0.248974
558.089735	0.250604
558.446994	0.250543
558.804197	0.249376
559.161345	0.249055
559.518437	0.252497
559.875474	0.249947
560.232455	0.249293
560.589381	0.250198
560.946251	0.250358
561.303065	0.247526
561.659825	0.248944
562.016528	0.250267
562.373177	0.253086
562.729770	0.250150
563.086307	0.252105
563.442789	0.249920
563.799216	0.252413
564.155587	0.251075
564.511904	0.251906
564.868164	0.252108
565.224370	0.251825
565.580520	0.253315
565.936615	0.253206
566.292654	0.256468
566.648638	0.253230
567.004567	0.253922
567.360441	0.254407
567.716260	0.256550
568.072023	0.253957
568.427732	0.254754
568.783385	0.257288
569.138982	0.255116
569.494525	0.254614
569.850013	0.257736
570.205445	0.256076
570.560823	0.258456
570.916145	0.260613
571.271412	0.258765
571.626625	0.260041
571.981782	0.260565
572.336884	0.261311
572.691931	0.260855
573.046923	0.261916
573.401860	0.263271
573.756743	0.265059
574.111570	0.263737
574.466342	0.263895
574.821059	0.263471
575.175722	0.265707
575.530330	0.265836
575.884882	0.265827
576.239380	0.267865
576.593823	0.268448
576.948211	0.267947
577.302544	0.271132
577.656823	0.270680
578.011047	0.270851
578.365216	0.271303
578.719330	0.273067
579.073389	0.273303
579.427394	0.274307
579.781344	0.275026
580.135239	0.276592
580.489080	0.276591
580.842866	0.279190
581.196597	0.278997
581.550273	0.277519
581.903895	0.278714
582.257463	0.276640
582.610975	0.280144
582.964434	0.279629
583.317837	0.281759
583.671186	0.282604
584.024481	0.282162
584.377721	0.284831
584.730906	0.285630
585.084037	0.284658
585.437113	0.286693
585.790135	0.285668
586.143103	0.288795
586.496016	0.290083
586.848874	0.287479
587.201679	0.288180
587.554428	0.291507
587.907124	0.290061
588.259765	0.290766
588.612352	0.291536
588.964884	0.294719
589.317362	0.294637
589.669786	0.294468
590.022155	0.293431
590.374470	0.292416
590.726731	0.294686
591.078937	0.299281
591.431090	0.295695
591.783188	0.299615
592.135232	0.300316
592.487222	0.300228
592.839157	0.298839
593.191038	0.300175
593.542866	0.302309
593.894639	0.305987
594.246358	0.304068
594.598022	0.303488
594.949633	0.307141
595.301190	0.307506
595.652692	0.306998
596.004141	0.303548
596.355535	0.311203
596.706876	0.311743
597.058162	0.313802
597.409395	0.311411
597.760573	0.309199
598.111698	0.312303
598.462768	0.312862
598.813785	0.314105
599.164748	0.315268
599.515657	0.315588
599.866511	0.318901
600.217312	0.314153
600.568060	0.319586
600.918753	0.316035
601.269392	0.316954
601.619978	0.319812
601.970510	0.317718
602.320988	0.318237
602.671412	0.315700
603.021783	0.317882
603.372100	0.319312
603.722363	0.319090
604.072572	0.319995
604.422728	0.319813
604.772830	0.322211
605.122878	0.321594
605.472872	0.322132
605.822813	0.320358
606.172701	0.323132
606.522534	0.320677
606.872314	0.320127
607.222041	0.321566
607.571714	0.319589
607.921333	0.320596
608.270899	0.320713
608.620411	0.317311
608.969870	0.321360
609.319276	0.321341
609.668627	0.321382
610.017926	0.319763
610.367171	0.318388
610.716362	0.319105
611.065500	0.319581
611.414585	0.318303
611.763616	0.318836
612.112594	0.319279
612.461518	0.318479
612.810389	0.315907
613.159207	0.318535
613.507971	0.320243
613.856682	0.315690
614.205340	0.318000
614.553945	0.314250
614.902496	0.318590
615.250994	0.316232
615.599439	0.316875
615.947830	0.316759
616.296169	0.317549
616.644454	0.316860
616.992686	0.316993
617.340864	0.314787
617.688990	0.318524
618.037063	0.314903
618.385082	0.317093
618.733048	0.313693
619.080961	0.316234
619.428821	0.315554
619.776628	0.314962
620.124382	0.317399
620.472083	0.317146
620.819731	0.317001
621.167326	0.320405
621.514868	0.320626
621.862357	0.324329
622.209793	0.324265
622.557176	0.326400
622.904506	0.327585
623.251783	0.330056
623.599007	0.331928
623.946179	0.331922
624.293297	0.333645
624.640363	0.337588
624.987376	0.338062
625.334336	0.340808
625.681243	0.342828
626.028097	0.343289
626.374899	0.344346
626.721647	0.344603
627.068343	0.347970
627.414987	0.348838
627.761577	0.351164
628.108115	0.349582
628.454600	0.354649
628.801032	0.351856
629.147412	0.354249
629.493739	0.353881
629.840014	0.357219
630.186236	0.354690
630.532405	0.360290
630.878521	0.357991
631.224585	0.360065
631.570597	0.363703
631.916556	0.362042
632.262462	0.362331
632.608316	0.363921
632.954117	0.365124
633.299866	0.365931
633.645562	0.366073
633.991206	0.370377
634.336797	0.373641
634.682336	0.375973
635.027823	0.377299
635.373257	0.377509
635.718639	0.381289
636.063968	0.380554
636.409245	0.386410
636.754470	0.386802
637.099642	0.389558
637.444762	0.392933
637.789829	0.391749
638.134845	0.395430
638.479808	0.396534
638.824719	0.395749
639.169577	0.400197
639.514383	0.398899
639.859137	0.403023
640.203839	0.402892
640.548489	0.403175
640.893086	0.404794
641.237632	0.406341
641.582125	0.404801
641.926566	0.406273
642.270955	0.406905
642.615292	0.406718
642.959576	0.406005
643.303809	0.406741
643.647990	0.406227
643.992118	0.406707
644.336195	0.410136
644.680219	0.408294
645.024192	0.409541
645.368112	0.402886
645.711981	0.402038
646.055797	0.397225
646.399562	0.399678
646.743274	0.391495
647.086935	0.388655
647.430544	0.389508
647.774101	0.388133
648.117606	0.387664
648.461059	0.388365
648.804460	0.390615
649.147810	0.396132
649.491108	0.397728
649.834354	0.398706
650.177548	0.404408
650.520690	0.409847
650.863781	0.411113
651.206820	0.409951
651.549807	0.414844
651.892742	0.419261
652.235626	0.418128
652.578458	0.419262
652.921238	0.425827
653.263967	0.423135
653.606644	0.427346
653.949269	0.427145
654.291843	0.431313
654.634365	0.427833
654.976836	0.430623
655.319255	0.431032
655.661622	0.432235
656.003938	0.432652
656.346203	0.435943
656.688416	0.433233
657.030577	0.436839
657.372687	0.438370
657.714746	0.439078
658.056753	0.436594
658.398708	0.440340
658.740612	0.441179
659.082465	0.437850
659.424266	0.438011
659.766016	0.437688
660.107715	0.440396
660.449362	0.439131
660.790958	0.439629
661.132503	0.440160
661.473996	0.438320
661.815438	0.439013
662.156829	0.439136
662.498168	0.439856
662.839456	0.441285
663.180693	0.439002
663.521879	0.438630
663.863013	0.439944
664.204097	0.438275
664.545129	0.435189
664.886110	0.435736
665.227040	0.433043
665.567918	0.435208
665.908746	0.433707
666.249522	0.432964
666.590248	0.434176
666.930922	0.432858
667.271545	0.431371
667.612118	0.431618
667.952639	0.433139
668.293109	0.431829
668.633528	0.434987
668.973896	0.434425
669.314213	0.435046
669.654480	0.436712
669.994695	0.436994
670.334859	0.437343
670.674973	0.437735
671.015035	0.437680
671.355047	0.437923
671.695008	0.438860
672.034918	0.440900
672.374777	0.440101
672.714585	0.441810
673.054342	0.441577
673.394049	0.441152
673.733705	0.439642
674.073310	0.439880
674.412864	0.443401
674.752368	0.443726
675.091820	0.443555
675.431223	0.448208
675.770574	0.447714
676.109875	0.451335
676.449125	0.450991
676.788324	0.453710
677.127473	0.458813
677.466571	0.458722
677.805619	0.460360
678.144616	0.461265
678.483562	0.463584
678.822458	0.465775
679.161303	0.466940
679.500098	0.466734
679.838842	0.468600
680.177535	0.468415
680.516179	0.466673
680.854771	0.465757
681.193314	0.459449
681.531805	0.450517
681.870247	0.438956
682.208638	0.431458
682.546978	0.431101
682.885268	0.432482
683.223508	0.438599
683.561697	0.442549
683.899836	0.445436
684.237925	0.448733
684.575963	0.451116
684.913951	0.454038
685.251889	0.449971
685.589776	0.451747
685.927614	0.454190
686.265401	0.448255
686.603137	0.449968
686.940824	0.443882
687.278460	0.442210
687.616046	0.441472
687.953582	0.436516
688.291068	0.437698
688.628504	0.433690
688.965889	0.436041
689.303224	0.439631
689.640510	0.443554
689.977745	0.449330
690.314930	0.457128
690.652065	0.462252
690.989150	0.469711
691.326185	0.475758
691.663170	0.480863
692.000105	0.487685
692.336990	0.494736
692.673825	0.496687
693.010610	0.503759
693.347345	0.509423
693.684030	0.511027
694.020665	0.515376
694.357251	0.524689
694.693786	0.523999
695.030272	0.528266
695.366707	0.531163
695.703093	0.535499
696.039429	0.532865
696.375716	0.534817
696.711952	0.537012
697.048139	0.539280
697.384276	0.540287
697.720363	0.538616
698.056400	0.538414
698.392388	0.544607
698.728326	0.547726
699.064214	0.550142
699.400053	0.550332
699.735842	0.553771
700.071581	0.556797
700.407270	0.559527
700.742910	0.562712
701.078501	0.569206
701.414042	0.568818
701.749533	0.571671
702.084974	0.580438
702.420366	0.573018
702.755709	0.581037
703.091002	0.588651
703.426246	0.581640
703.761440	0.588337
704.096584	0.593185
704.431679	0.590018
704.766725	0.591778
705.101721	0.593119
705.436668	0.588765
705.771565	0.595756
706.106413	0.592785
706.441212	0.588298
706.775961	0.586810
707.110661	0.590232
707.445311	0.586722
707.779913	0.583358
708.114465	0.581842
708.448967	0.579126
708.783421	0.570684
709.117825	0.565637
709.452180	0.565599
709.786485	0.559808
710.120742	0.549003
710.454949	0.551629
710.789107	0.543833
711.123216	0.534877
711.457275	0.536382
711.791286	0.527751
712.125247	0.526175
712.459159	0.536611
712.793023	0.529631
713.126837	0.533315
713.460602	0.533898
713.794318	0.543657
714.127985	0.542532
714.461602	0.552334
714.795171	0.555451
715.128691	0.563663
715.462162	0.570351
715.795584	0.576712
716.128957	0.579208
716.462281	0.585701
716.795556	0.589023
717.128782	0.594517
717.461960	0.604071
717.795088	0.602187
718.128167	0.608156
718.461198	0.617151
718.794180	0.617354
719.127113	0.620472
719.459997	0.624042
719.792833	0.629946
720.125619	0.631426
720.458357	0.637422
720.791046	0.636763
721.123686	0.641000
721.456278	0.647371
721.788821	0.644727
722.121315	0.648811
722.453761	0.652745
722.786158	0.651262
723.118506	0.647201
723.450805	0.654309
723.783056	0.651398
724.115259	0.648726
724.447412	0.647982
724.779518	0.649563
725.111574	0.647838
725.443582	0.644128
725.775542	0.645261
726.107453	0.638262
726.439315	0.637756
726.771129	0.636948
727.102895	0.629971
727.434612	0.623014
727.766281	0.620593
728.097901	0.620720
728.429473	0.619960
728.760996	0.618375
729.092471	0.618329
729.423897	0.622416
729.755276	0.621089
730.086606	0.622075
730.417887	0.615651
730.749120	0.606831
731.080305	0.597037
731.411442	0.593324
731.742530	0.598668
732.073570	0.597743
732.404562	0.590096
732.735506	0.591364
733.066401	0.596235
733.397249	0.605579
733.728048	0.616572
734.058798	0.629685
734.389501	0.640112
734.720156	0.649481
735.050762	0.656961
735.381320	0.658113
735.711831	0.666938
736.042293	0.672659
736.372707	0.668025
736.703073	0.672769
737.033391	0.674948
737.363661	0.672624
737.693883	0.667290
738.024056	0.666072
738.354182	0.666593
738.684260	0.655786
739.014290	0.651912
739.344272	0.652673
739.674207	0.646550
740.004093	0.645857
740.333931	0.646156
740.663722	0.645587
740.993464	0.646337
741.323159	0.650372
741.652806	0.655431
741.982405	0.660484
742.311956	0.664527
742.641460	0.666915
742.970915	0.670543
743.300323	0.678965
743.629683	0.685033
743.958996	0.686408
744.288260	0.690368
744.617477	0.697001
744.946647	0.697930
745.275768	0.703473
745.604842	0.703506
745.933869	0.712815
746.262847	0.713493
746.591778	0.707735
746.920662	0.713858
747.249498	0.720227
747.578286	0.711612
747.907027	0.706560
748.235720	0.708834
748.564365	0.703132
748.892963	0.702875
749.221514	0.705611
749.550017	0.710614
749.878473	0.710421
750.206881	0.716473
750.535242	0.717998
750.863555	0.718271
751.191821	0.718953
751.520039	0.722504
751.848210	0.726806
752.176334	0.720380
752.504411	0.719139
752.832440	0.726422
753.160421	0.731152
753.488356	0.728692
753.816243	0.726814
754.144082	0.734739
754.471875	0.738707
754.799620	0.733907
755.127318	0.735580
755.454969	0.735239
755.782572	0.734206
756.110129	0.739167
756.437638	0.741058
756.765100	0.738949
757.092515	0.736638
757.419882	0.735216
757.747203	0.740661
758.074477	0.739725
758.401703	0.737796
758.728882	0.732731
759.056014	0.731014
759.383099	0.730127
759.710138	0.731554
760.037129	0.727847
760.364073	0.721796
760.690970	0.724826
761.017820	0.729815
761.344623	0.726384
761.671379	0.716952
761.998088	0.705336
762.324751	0.683029
762.651366	0.641643
762.977935	0.575230
763.304456	0.523128
763.630931	0.513828
763.957359	0.553053
764.283740	0.596959
764.610074	0.623005
764.936362	0.654715
765.262602	0.680220
765.588796	0.702399
765.914943	0.719934
766.241044	0.737431
766.567097	0.743882
766.893104	0.754102
767.219064	0.759693
767.544978	0.766312
767.870845	0.780455
768.196665	0.783651
768.522438	0.782409
768.848165	0.784393
769.173846	0.792356
769.499479	0.796895
769.825066	0.800387
770.150607	0.805089
770.476101	0.800123
770.801548	0.800948
771.126949	0.812621
771.452303	0.816120
771.777611	0.815636
772.102872	0.814916
772.428087	0.819487
772.753256	0.822967
773.078378	0.825251
773.403453	0.833731
773.728482	0.837814
774.053465	0.832370
774.378401	0.835514
774.703291	0.843749
775.028135	0.843174
775.352932	0.845420
775.677683	0.848298
776.002388	0.848907
776.327046	0.847956
776.651658	0.851203
776.976224	0.854288
777.300743	0.854694
777.625216	0.857510
777.949643	0.858974
778.274024	0.858145
778.598359	0.859978
778.922647	0.859068
779.246889	0.860081
779.571086	0.862821
779.895236	0.866280
780.219339	0.862343
780.543397	0.859893
780.867409	0.858690
781.191374	0.861034
781.515294	0.861629
781.839167	0.860608
782.162995	0.863708
782.486776	0.860913
782.810511	0.861903
783.134201	0.865952
783.457844	0.864179
783.781441	0.865897
784.104993	0.872479
784.428498	0.873109
784.751958	0.868130
785.075372	0.870428
785.398739	0.874568
785.722061	0.871330
786.045337	0.865887
786.368568	0.871712
786.691752	0.874244
787.014891	0.859188
787.337983	0.850525
787.661030	0.843076
787.984031	0.825858
788.306987	0.812452
788.629897	0.815885
788.952760	0.818870
789.275579	0.822879
789.598351	0.838428
789.921078	0.851518
790.243759	0.853392
790.566395	0.858660
790.888984	0.865611
791.211529	0.870180
791.534027	0.873570
791.856480	0.875435
792.178888	0.880457
792.501249	0.883037
792.823566	0.883985
793.145836	0.885127
793.468062	0.886576
793.790241	0.886504
794.112375	0.884492
794.434464	0.880487
794.756507	0.880239
795.078505	0.879194
795.400457	0.873792
795.722364	0.863013
796.044226	0.855189
796.366042	0.854029
796.687812	0.857481
797.009538	0.853676
797.331218	0.856468
797.652852	0.861859
797.974442	0.866820
798.295986	0.866289
798.617484	0.869393
798.938938	0.872975
799.260346	0.877572
799.581709	0.879397
799.903026	0.881566
800.224299	0.882271
800.545526	0.886288
800.866708	0.890153
801.187845	0.894048
801.508936	0.893697
801.829983	0.892447
802.150984	0.894793
802.471940	0.899410
802.792851	0.898895
803.113717	0.898400
803.434538	0.897207
803.755314	0.900816
804.076045	0.902025
804.396731	0.901056
804.717372	0.902097
805.037967	0.903586
805.358518	0.901303
805.679024	0.897808
805.999485	0.898381
806.319901	0.899238
806.640272	0.899509
806.960598	0.898046
807.280879	0.895579
807.601115	0.892983
807.921306	0.897147
808.241453	0.897023
808.561554	0.895743
808.881611	0.896362
809.201623	0.898024
809.521590	0.897545
809.841513	0.898791
810.161390	0.898343
810.481223	0.899181
810.801011	0.902615
811.120755	0.904960
811.440453	0.903817
811.760107	0.901766
812.079716	0.901505
812.399281	0.905144
812.718801	0.907504
813.038276	0.908758
813.357707	0.908436
813.677093	0.905009
813.996434	0.908759
814.315731	0.910620
814.634983	0.911287
814.954191	0.909650
815.273354	0.908049
815.592473	0.903109
815.911547	0.904120
816.230577	0.900448
816.549562	0.897803
816.868502	0.898568
817.187399	0.894858
817.506250	0.889433
817.825058	0.892758
818.143821	0.888474
818.462539	0.883675
818.781213	0.875768
819.099843	0.864899
819.418429	0.848812
819.736970	0.832816
820.055466	0.813582
820.373919	0.788074
820.692327	0.756253
821.010691	0.722086
821.329011	0.645539
821.647286	0.533091
821.965517	0.420129
822.283704	0.377670
822.601847	0.379455
822.919945	0.414576
823.237999	0.447738
823.556010	0.493794
823.873976	0.548743
824.191897	0.598397
824.509775	0.640091
824.827609	0.684338
825.145398	0.707507
825.463144	0.710184
825.780845	0.692964
826.098502	0.674368
826.416116	0.629426
826.733685	0.586220
827.051210	0.577943
827.368692	0.592712
827.686129	0.629704
828.003522	0.681989
828.320872	0.727985
828.638177	0.771937
828.955439	0.803405
829.272656	0.824591
829.589830	0.842148
829.906960	0.857725
830.224046	0.870475
830.541088	0.880474
830.858086	0.884429
831.175041	0.890621
831.491952	0.889700
831.808819	0.886289
832.125642	0.879649
832.442421	0.865224
832.759157	0.843501
833.075849	0.798625
833.392497	0.735565
833.709101	0.694860
834.025662	0.704708
834.342179	0.735376
834.658653	0.773892
834.975083	0.809359
835.291469	0.836645
835.607811	0.858652
835.924110	0.873102
836.240366	0.890600
836.556578	0.903237
836.872746	0.910466
837.188871	0.916658
837.504952	0.921765
837.820990	0.925219
838.136984	0.929128
838.452935	0.931841
838.768842	0.932677
839.084706	0.927061
839.400526	0.900620
839.716303	0.862836
840.032037	0.839457
840.347727	0.844232
840.663373	0.861508
840.978977	0.882673
841.294537	0.904475
841.610054	0.920813
841.925527	0.928218
842.240957	0.934287
842.556344	0.941181
842.871687	0.947296
843.186987	0.952589
843.502244	0.951905
843.817458	0.953521
844.132629	0.957508
844.447756	0.960866
844.762840	0.962835
845.077881	0.961274
845.392879	0.961034
845.707833	0.963942
846.022745	0.965830
846.337613	0.965666
846.652438	0.966275
846.967221	0.966007
847.281960	0.965875
847.596656	0.968817
847.911309	0.967324
848.225919	0.968815
848.540485	0.968597
848.855009	0.969891
849.169490	0.968674
849.483928	0.969331
849.798323	0.970110
850.112675	0.971023
850.426984	0.969671
850.741251	0.971632
851.055474	0.971315
851.369654	0.969699
851.683792	0.970612
851.997887	0.972207
852.311938	0.972336
852.625947	0.970807
852.939914	0.968724
853.253837	0.971001
853.567718	0.971381
853.881555	0.970915
854.195350	0.969641
854.509103	0.970446
854.822812	0.971303
855.136479	0.970867
855.450103	0.971215
855.763685	0.969585
856.077224	0.969131
856.390720	0.970533
856.704173	0.971166
857.017584	0.970686
857.330953	0.967696
857.644278	0.969000
857.957561	0.969007
858.270802	0.969402
858.584000	0.968967
858.897155	0.967740
859.210268	0.968238
859.523339	0.968163
859.836367	0.971531
860.149352	0.972235
860.462295	0.969341
860.775195	0.970955
861.088054	0.970768
861.400869	0.970715
861.713642	0.971864
862.026373	0.972357
862.339062	0.972679
862.651708	0.968938
862.964312	0.969512
863.276873	0.970018
863.589392	0.968937
863.901869	0.967151
864.214303	0.966145
864.526696	0.965806
864.839045	0.965137
865.151353	0.963414
865.463619	0.963689
865.775842	0.963568
866.088023	0.964677
866.400162	0.963396
866.712258	0.964114
867.024313	0.963958
867.336325	0.965699
867.648296	0.964528
867.960224	0.963898
868.272110	0.963537
868.583954	0.965424
868.895755	0.965581
869.207515	0.963277
869.519233	0.960865
869.830909	0.962858
870.142542	0.964369
870.454134	0.963799
870.765684	0.962355
871.077191	0.959451
871.388657	0.959896
871.700081	0.959315
872.011463	0.959879
872.322803	0.960139
872.634101	0.957810
872.945357	0.956089
873.256571	0.954748
873.567744	0.953516
873.878874	0.955294
874.189963	0.953892
874.501010	0.952601
874.812015	0.950735
875.122979	0.954453
875.433900	0.955815
875.744780	0.955170
876.055618	0.952875
876.366415	0.951829
876.677169	0.951942
876.987882	0.953495
877.298554	0.953008
877.609183	0.949167
877.919771	0.947124
878.230317	0.945676
878.540822	0.942786
878.851285	0.937172
879.161707	0.930221
879.472087	0.917748
879.782425	0.903311
880.092722	0.869814
880.402977	0.818930
880.713191	0.760856
881.023363	0.703315
881.333494	0.671419
881.643583	0.642887
881.953631	0.642766
882.263637	0.670552
882.573602	0.709968
882.883526	0.734672
883.193408	0.757313
883.503248	0.778702
883.813048	0.805148
884.122806	0.833571
884.432522	0.856693
884.742197	0.876796
885.051831	0.885233
885.361424	0.895929
885.670975	0.906860
885.980485	0.916494
886.289954	0.923389
886.599382	0.927431
886.908768	0.932067
887.218113	0.937597
887.527417	0.943311
887.836680	0.944758
888.145901	0.945794
888.455082	0.948349
888.764221	0.952488
889.073319	0.954157
889.382376	0.955125
889.691392	0.955758
890.000366	0.954424
890.309300	0.956827
890.618193	0.955041
890.927044	0.953469
891.235855	0.953917
891.544625	0.953780
891.853353	0.953360
892.162041	0.951214
892.470687	0.944973
892.779293	0.940643
893.087858	0.936531
893.396381	0.929501
893.704864	0.916622
894.013306	0.893722
894.321707	0.868520
894.630068	0.853784
894.938387	0.850430
895.246665	0.851871
895.554903	0.863473
895.863100	0.875066
896.171256	0.891664
896.479371	0.911033
896.787446	0.923882
897.095480	0.927921
897.403473	0.931838
897.711425	0.935232
898.019336	0.942732
898.327207	0.945961
898.635038	0.948540
898.942827	0.947351
899.250576	0.950807
899.558284	0.954436
899.865952	0.956498
900.173579	0.957409
900.481165	0.957004
900.788711	0.962398
901.096216	0.963684
901.403681	0.963395
901.711105	0.964255
902.018489	0.965127
902.325832	0.964287
902.633135	0.964437
902.940397	0.957822
903.247619	0.946788
903.554800	0.921133
903.861941	0.884186
904.169041	0.850278
904.476101	0.834198
904.783121	0.834974
905.090100	0.850153
905.397039	0.870222
905.703938	0.891993
906.010796	0.910753
906.317614	0.926998
906.624391	0.937745
906.931129	0.946792
907.237826	0.953875
907.544483	0.962463
907.851099	0.965418
908.157675	0.969020
908.464211	0.972599
908.770707	0.973797
909.077163	0.976277
909.383578	0.975359
909.689954	0.976850
909.996289	0.977384
910.302584	0.979145
910.608839	0.981628
910.915054	0.980007
911.221229	0.978897
911.527363	0.978509
911.833458	0.978449
912.139513	0.978485
912.445527	0.976145
912.751502	0.974531
913.057436	0.974641
913.363331	0.970928
913.669186	0.969070
913.975000	0.964201
914.280775	0.958650
914.586510	0.952469
914.892205	0.939177
915.197859	0.918643
915.503475	0.891789
915.809050	0.874551
916.114585	0.870076
916.420081	0.866976
916.725536	0.863209
917.030952	0.870758
917.336328	0.882926
917.641665	0.897068
917.946961	0.912612
918.252218	0.924187
918.557435	0.931566
918.862612	0.940515
919.167750	0.945753
919.472848	0.949899
919.777906	0.954201
920.082925	0.960950
920.387904	0.963582
920.692843	0.964856
920.997743	0.965744
921.302603	0.969424
921.607423	0.971238
921.912204	0.973273
922.216946	0.972825
922.521647	0.975567
922.826310	0.974929
923.130932	0.977819
923.435516	0.980314
923.740059	0.981652
924.044564	0.979618
924.349028	0.981628
924.653454	0.983503
924.957840	0.986315
925.262186	0.985721
925.566493	0.985730
925.870761	0.986273
926.174989	0.988225
926.479178	0.989360
926.783328	0.989125
927.087438	0.989113
927.391509	0.988098
927.695541	0.990378
927.999533	0.990826
928.303486	0.989879
928.607400	0.991456
928.911275	0.990130
929.215110	0.991460
929.518906	0.992208
929.822663	0.990067
930.126381	0.991940
930.430060	0.991686
930.733699	0.991118
931.037299	0.990370
931.340861	0.991088
931.644383	0.989919
931.947866	0.990123
932.251309	0.991447
932.554714	0.990977
932.858080	0.991396
933.161407	0.991512
933.464694	0.991303
933.767943	0.990437
934.071153	0.991986
934.374323	0.993526
934.677455	0.992377
934.980548	0.993027
935.283602	0.991063
935.586617	0.992317
935.889593	0.991063
936.192530	0.992399
936.495428	0.992549
936.798287	0.992710
937.101108	0.991351
937.403890	0.990943
937.706632	0.990379
938.009336	0.988275
938.312002	0.986314
938.614628	0.984507
938.917216	0.984913
939.219765	0.982752
939.522275	0.985771
939.824747	0.984105
940.127179	0.983921
940.429573	0.985344
940.731929	0.985440
941.034246	0.985516
941.336524	0.986165
941.638763	0.986839
941.940964	0.987445
942.243126	0.988639
942.545250	0.988878
942.847335	0.988374
943.149381	0.989261
943.451389	0.989072
943.753359	0.989373
944.055290	0.992238
944.357182	0.990535
944.659036	0.989484
944.960851	0.990410
945.262628	0.991021
945.564367	0.991268
945.866067	0.991594
946.167729	0.990718
946.469352	0.990126
946.770937	0.989922
947.072484	0.992194
947.373992	0.990643
947.675462	0.991428
947.976893	0.991022
948.278286	0.990945
948.579641	0.991505
948.880958	0.991944
949.182236	0.990703
949.483476	0.992006
949.784678	0.990799
950.085841	0.992650
950.386967	0.993086
950.688054	0.991779
950.989103	0.992415
951.290114	0.989870
951.591087	0.989754
951.892021	0.991139
952.192917	0.989788
952.493776	0.989417
952.794596	0.989104
953.095378	0.988189
953.396122	0.989168
953.696828	0.988941
953.997496	0.990576
954.298126	0.991524
954.598718	0.991319
954.899272	0.991662
955.199788	0.992037
955.500266	0.992914
955.800706	0.993538
956.101108	0.993788
956.401472	0.994129
956.701798	0.993309
957.002087	0.992866
957.302337	0.993448
957.602550	0.996418
957.902724	0.995830
958.202861	0.995484
958.502960	0.995640
958.803022	0.995166
959.103045	0.995558
959.403031	0.996603
959.702979	0.995367
960.002889	0.996625
960.302762	0.994281
960.602596	0.996461
960.902393	0.995419
961.202153	0.997950
961.501875	0.996773
961.801559	0.995907
962.101205	0.997116
962.400814	0.996180
962.700385	0.998090
962.999918	0.996803
963.299414	0.996030
963.598873	0.996087
963.898293	0.996127
964.197677	0.995638
964.497022	0.996804
964.796331	0.997020
965.095601	0.997186
965.394835	0.997055
965.694030	0.997417
965.993189	0.997049
966.292309	0.995591
966.591393	0.998296
966.890439	0.997201
967.189447	0.996755
967.488419	0.997507
967.787353	0.996966
968.086249	0.995231
968.385108	0.998460
968.683930	0.996492
968.982714	0.997817
969.281462	0.997360
969.580172	0.996610
969.878844	0.997358
970.177480	0.995723
970.476078	0.997435
970.774639	0.997769
971.073162	0.998421
971.371649	0.997018
971.670098	0.996020
971.968510	0.998705
972.266885	0.996046
972.565223	0.995618
972.863524	0.995011
973.161788	0.996607
973.460014	0.997940
973.758204	0.995618
974.056356	0.997590
974.354471	0.995217
974.652550	0.996721
974.950591	0.997354
975.248595	0.996368
975.546563	0.997703
975.844493	0.997841
976.142386	0.996252
976.440243	0.997766
976.738062	0.997211
977.035845	0.998170
977.333590	0.998094
977.631299	0.998503
977.928971	0.997480
978.226606	0.997030
978.524204	0.996235
978.821765	0.997937
979.119290	0.997161
979.416777	0.997465
979.714228	0.997958
980.011642	0.996936
980.309020	0.997573
980.606360	0.996879
980.903664	0.998646
981.200931	0.996765
981.498162	0.996468
981.795356	0.994777
982.092513	0.994491
982.389633	0.995514
982.686717	0.992375
982.983764	0.992823
983.280775	0.991496
983.577749	0.991123
983.874686	0.992635
984.171587	0.992766
984.468451	0.994584
984.765279	0.994738
985.062070	0.993833
985.358824	0.995428
985.655543	0.995216
985.952224	0.996745
986.248869	0.996536
986.545478	0.996846
986.842050	0.999080
987.138586	0.996581
987.435086	0.998504
987.731549	0.999392
988.027975	0.998322
988.324366	0.997188
988.620719	0.998078
988.917037	0.995574
989.213318	0.997366
989.509563	0.998690
989.805772	0.998598
990.101944	0.999176
990.398080	0.998133
990.694180	0.997504
990.990244	0.995910
991.286271	0.998433
991.582262	0.998678
991.878217	0.998538
992.174136	0.999595
992.470019	0.999822
992.765865	0.997780
993.061676	0.998515
993.357450	0.998160
993.653188	0.997814
993.948890	0.998050
994.244556	0.997284
994.540186	0.997868
994.835780	0.996137
995.131337	0.997951
995.426859	0.996695
995.722345	0.997335
996.017795	0.996796
996.313208	0.996123
996.608586	0.996208
996.903928	0.996678
997.199234	0.996567
997.494504	0.995323
997.789738	0.996533
998.084936	0.996973
998.380099	0.998344
998.675225	0.996812
998.970316	0.998866
999.265371	0.997809
999.560390	0.998524
999.855373	0.998838
1000.150320	0.998670
1000.445232	0.997822
1000.740108	0.998049
1001.034948	0.998298
1001.329752	0.999427
1001.624521	0.999039
1001.919254	0.997048
1002.213951	0.997988
1002.508613	0.997976
1002.803239	0.998432
1003.097829	0.999177
1003.392384	0.999061
1003.686903	0.997765
1003.981386	0.998786
1004.275834	0.999092
1004.570246	0.999012
1004.864623	0.998627
1005.158964	1.000165
1005.453270	0.998796
1005.747540	0.998241
1006.041775	0.998395
1006.335974	0.998683
1006.630138	0.998951
1006.924266	0.999313
1007.218359	1.000526
1007.512416	1.000408
1007.806438	0.999888
1008.100425	0.999132
1008.394376	0.998596
1008.688292	0.999395
1008.982172	1.001195
1009.276017	0.999778
1009.569827	0.998385
1009.863602	1.000428
1010.157341	0.999590
1010.451045	0.999554
1010.744714	0.998039
1011.038347	0.999501
1011.331945	0.998385
1011.625508	0.998324
1011.919036	0.998672
1012.212528	0.998651
1012.505986	0.999211
1012.799408	0.999200
1013.092795	0.998880
1013.386147	0.998899
1013.679464	1.000146
1013.972745	0.999365
1014.265992	0.998149
1014.559204	0.998704
1014.852380	0.999008
1015.145521	0.998606
1015.438628	0.999331
1015.731699	0.999038
1016.024736	0.999927
1016.317737	0.999604
1016.610703	0.998894
1016.903635	0.999280
1017.196531	0.998819
1017.489393	0.999453
1017.782219	0.998591
1018.075011	0.998537
1018.367768	0.999375
1018.660490	0.998723
1018.953177	0.998723
1019.245829	0.998723
