Dividing Wavelength (nm)	Counts (n)	Blue Motor Position (mm): 0.000000	Red Motor Position (mm): 17.500000	
326.493990	1.001309
326.888308	1.001309
327.282561	1.001309
327.676750	0.999017
328.070874	0.999359
328.464933	1.000275
328.858929	0.999825
329.252859	0.999795
329.646726	1.000168
330.040528	1.000698
330.434265	1.001177
330.827938	1.000937
331.221547	1.000035
331.615091	1.000242
332.008571	1.000118
332.401986	1.001658
332.795338	1.000826
333.188625	0.999937
333.581847	1.002132
333.975006	0.999889
334.368100	1.000368
334.761129	0.999697
335.154095	1.000266
335.546996	0.997840
335.939833	0.993350
336.332606	0.994908
336.725315	0.994421
337.117960	0.996655
337.510540	0.994177
337.903056	0.994957
338.295508	0.993260
338.687896	0.995013
339.080220	0.995080
339.472480	0.994898
339.864676	0.995320
340.256807	0.995091
340.648875	0.995525
341.040879	0.995301
341.432818	0.994903
341.824694	0.994017
342.216506	0.996370
342.608253	0.994704
342.999937	0.994665
343.391557	0.995287
343.783113	0.994163
344.174605	0.995075
344.566033	0.995667
344.957397	0.993414
345.348697	0.994112
345.739934	0.995029
346.131106	0.993587
346.522215	0.993621
346.913260	0.994588
347.304241	0.994504
347.695159	0.994360
348.086012	0.993983
348.476802	0.994076
348.867528	0.995792
349.258191	0.993653
349.648789	0.995607
350.039324	0.995479
350.429796	0.994906
350.820203	0.995416
351.210548	0.994480
351.600828	0.993870
351.991045	0.993827
352.381198	0.994998
352.771288	0.994209
353.161314	0.994661
353.551276	0.996091
353.941175	0.994580
354.331010	0.994447
354.720782	0.995410
355.110490	0.994923
355.500135	0.994555
355.889717	0.994939
356.279235	0.994353
356.668689	0.994490
357.058080	0.994660
357.447408	0.995266
357.836672	0.994590
358.225873	0.995244
358.615010	0.993975
359.004084	0.995126
359.393095	0.994548
359.782043	0.995129
360.170927	0.995327
360.559748	0.995459
360.948505	0.993735
361.337199	0.994034
361.725830	0.995533
362.114398	0.993771
362.502903	0.994278
362.891344	0.996693
363.279722	0.994446
363.668037	0.995178
364.056289	0.994206
364.444478	0.994952
364.832603	0.994336
365.220665	0.995095
365.608665	0.994709
365.996601	0.994977
366.384474	0.995403
366.772284	0.994542
367.160031	0.992634
367.547715	0.994879
367.935336	0.994422
368.322893	0.994964
368.710388	0.993573
369.097820	0.994082
369.485189	0.993896
369.872495	0.993453
370.259738	0.992331
370.646918	0.995037
371.034035	0.996103
371.421090	0.994318
371.808081	0.994174
372.195010	0.994023
372.581875	0.994170
372.968678	0.994085
373.355418	0.993394
373.742096	0.995293
374.128710	0.995478
374.515262	0.993631
374.901751	0.994976
375.288177	0.994706
375.674540	0.995921
376.060841	0.994423
376.447079	0.995414
376.833254	0.995049
377.219367	0.994514
377.605417	0.995396
377.991404	0.994506
378.377329	0.994697
378.763191	0.994745
379.148991	0.995607
379.534727	0.995626
379.920402	0.995131
380.306013	0.995613
380.691563	0.996101
381.077049	0.994765
381.462474	0.995117
381.847835	0.995229
382.233134	0.993670
382.618371	0.995010
383.003545	0.994888
383.388657	0.995096
383.773706	0.996449
384.158693	0.995369
384.543618	0.994374
384.928480	0.996673
385.313280	0.995294
385.698017	0.996152
386.082692	0.995717
386.467305	0.995786
386.851856	0.995608
387.236344	0.994862
387.620770	0.994788
388.005133	0.995573
388.389435	0.996611
388.773674	0.995246
389.157851	0.996413
389.541965	0.995398
389.926018	0.995929
390.310008	0.996897
390.693936	0.994821
391.077802	0.995208
391.461606	0.995629
391.845348	0.996035
392.229027	0.996165
392.612645	0.995656
392.996200	0.997277
393.379694	0.995276
393.763125	0.995952
394.146494	0.995425
394.529801	0.994824
394.913047	0.996107
395.296230	0.995399
395.679351	0.995550
396.062410	0.995617
396.445408	0.995470
396.828343	0.995299
397.211217	0.994529
397.594028	0.995208
397.976778	0.994936
398.359466	0.994548
398.742092	0.994481
399.124656	0.993101
399.507158	0.994319
399.889598	0.993220
400.271977	0.994175
400.654294	0.994195
401.036549	0.993105
401.418742	0.992227
401.800874	0.991609
402.182944	0.990605
402.564952	0.988535
402.946898	0.988672
403.328783	0.986800
403.710606	0.984922
404.092367	0.983476
404.474067	0.979976
404.855705	0.977908
405.237282	0.976373
405.618797	0.972720
406.000250	0.968720
406.381642	0.965476
406.762972	0.961300
407.144240	0.958531
407.525447	0.954373
407.906593	0.949182
408.287677	0.944745
408.668700	0.941119
409.049661	0.934249
409.430560	0.929551
409.811399	0.924386
410.192176	0.915876
410.572891	0.910907
410.953545	0.902968
411.334138	0.899531
411.714669	0.891693
412.095139	0.887298
412.475547	0.877844
412.855894	0.870378
413.236180	0.863312
413.616405	0.856800
413.996568	0.846369
414.376670	0.841064
414.756711	0.834812
415.136691	0.826053
415.516609	0.814357
415.896466	0.804958
416.276262	0.793856
416.655997	0.786335
417.035670	0.769550
417.415283	0.757232
417.794834	0.750522
418.174324	0.744447
418.553753	0.741475
418.933121	0.722350
419.312428	0.709956
419.691674	0.702898
420.070859	0.688681
420.449983	0.684803
420.829045	0.669099
421.208047	0.667456
421.586988	0.653868
421.965867	0.644845
422.344686	0.627621
422.723444	0.629369
423.102141	0.634002
423.480777	0.607012
423.859352	0.614184
424.237866	0.589493
424.616319	0.583462
424.994712	0.570084
425.373044	0.570959
425.751314	0.554740
426.129524	0.561207
426.507673	0.542294
426.885762	0.531379
427.263789	0.529873
427.641756	0.533806
428.019662	0.520221
428.397508	0.514067
428.775292	0.512441
429.153016	0.501631
429.530679	0.502654
429.908282	0.492661
430.285824	0.498806
430.663305	0.475087
431.040726	0.491487
431.418086	0.488880
431.795385	0.477764
432.172624	0.473890
432.549802	0.472561
432.926920	0.469315
433.303977	0.466551
433.680974	0.461924
434.057910	0.458991
434.434786	0.456310
434.811601	0.457019
435.188355	0.439073
435.565050	0.446619
435.941683	0.446801
436.318257	0.430630
436.694770	0.430081
437.071222	0.427539
437.447614	0.430981
437.823946	0.436844
438.200218	0.425379
438.576429	0.434564
438.952580	0.427310
439.328670	0.423645
439.704700	0.429697
440.080670	0.430742
440.456580	0.411908
440.832429	0.419438
441.208218	0.430116
441.583947	0.419614
441.959616	0.418762
442.335224	0.423608
442.710773	0.414051
443.086261	0.412756
443.461689	0.426014
443.837057	0.415654
444.212365	0.405808
444.587612	0.412632
444.962800	0.402269
445.337927	0.404020
445.712995	0.429957
446.088002	0.392284
446.462949	0.402774
446.837837	0.407549
447.212664	0.395875
447.587431	0.387563
447.962139	0.358246
448.336786	0.317489
448.711374	0.327932
449.085901	0.371490
449.460369	0.376035
449.834776	0.379636
450.209124	0.358776
450.583412	0.351491
450.957640	0.344644
451.331808	0.355751
451.705917	0.379192
452.079965	0.383210
452.453954	0.371681
452.827883	0.378338
453.201752	0.373410
453.575562	0.384955
453.949311	0.373909
454.323001	0.379438
454.696632	0.375073
455.070202	0.368150
455.443713	0.359960
455.817164	0.354699
456.190556	0.350701
456.563888	0.347065
456.937160	0.345167
457.310373	0.361910
457.683526	0.360714
458.056619	0.366449
458.429653	0.367480
458.802628	0.370000
459.175542	0.364783
459.548398	0.346944
459.921194	0.340044
460.293930	0.339543
460.666607	0.317613
461.039224	0.305782
461.411782	0.301421
461.784280	0.300811
462.156719	0.305115
462.529099	0.309567
462.901419	0.325432
463.273680	0.329956
463.645882	0.329368
464.018024	0.335015
464.390106	0.327673
464.762130	0.313137
465.134094	0.295900
465.505999	0.265341
465.877845	0.235856
466.249631	0.222968
466.621358	0.230100
466.993026	0.244070
467.364634	0.250235
467.736184	0.259194
468.107674	0.267752
468.479105	0.266723
468.850477	0.273541
469.221790	0.280414
469.593043	0.291008
469.964238	0.295201
470.335373	0.295030
470.706449	0.292846
471.077467	0.293799
471.448425	0.255930
471.819324	0.231438
472.190164	0.230785
472.560945	0.259857
472.931667	0.281761
473.302330	0.285807
473.672934	0.297740
474.043479	0.286156
474.413965	0.287709
474.784393	0.291170
475.154761	0.286461
475.525070	0.283362
475.895321	0.289464
476.265513	0.283588
476.635645	0.279038
477.005719	0.278804
477.375734	0.275385
477.745691	0.268827
478.115588	0.265132
478.485427	0.258713
478.855207	0.245689
479.224928	0.228208
479.594591	0.216418
479.964194	0.219886
480.333739	0.220991
480.703226	0.222659
481.072653	0.221154
481.442022	0.216832
481.811333	0.213092
482.180584	0.216604
482.549777	0.221920
482.918912	0.225129
483.287988	0.224937
483.657005	0.224540
484.025964	0.230917
484.394864	0.228358
484.763706	0.228931
485.132489	0.233823
485.501213	0.234571
485.869879	0.232867
486.238487	0.236248
486.607036	0.234179
486.975527	0.238602
487.343959	0.234347
487.712333	0.233261
488.080648	0.234831
488.448905	0.234025
488.817104	0.235511
489.185244	0.229934
489.553326	0.226769
489.921350	0.216570
490.289315	0.199189
490.657222	0.193934
491.025070	0.195212
491.392861	0.197240
491.760593	0.202948
492.128267	0.208634
492.495883	0.214218
492.863440	0.220191
493.230939	0.226573
493.598380	0.228035
493.965763	0.230116
494.333088	0.232626
494.700354	0.233912
495.067563	0.232880
495.434713	0.236062
495.801805	0.233977
496.168839	0.235549
496.535815	0.236992
496.902733	0.237002
497.269593	0.238647
497.636395	0.236201
498.003139	0.236746
498.369825	0.239362
498.736453	0.236113
499.103023	0.237393
499.469535	0.236815
499.835989	0.237081
500.202385	0.237920
500.568723	0.241344
500.935003	0.236534
501.301226	0.240949
501.667390	0.234934
502.033497	0.233358
502.399546	0.236281
502.765537	0.237959
503.131470	0.236299
503.497345	0.232450
503.863163	0.241323
504.228923	0.234447
504.594625	0.233313
504.960269	0.238602
505.325856	0.233813
505.691385	0.238019
506.056856	0.234964
506.422270	0.234181
506.787625	0.236743
507.152924	0.234361
507.518164	0.234559
507.883347	0.236333
508.248472	0.237852
508.613540	0.233157
508.978550	0.235831
509.343503	0.236044
509.708398	0.233676
510.073236	0.231458
510.438016	0.231525
510.802738	0.232414
511.167403	0.231233
511.532010	0.233186
511.896561	0.228605
512.261053	0.227710
512.625488	0.229546
512.989866	0.229606
513.354186	0.230194
513.718449	0.231862
514.082655	0.228216
514.446803	0.230557
514.810894	0.228305
515.174927	0.231045
515.538904	0.230285
515.902822	0.227258
516.266684	0.229607
516.630488	0.230771
516.994235	0.229386
517.357925	0.228473
517.721558	0.226532
518.085133	0.226089
518.448651	0.226362
518.812112	0.228304
519.175516	0.228012
519.538863	0.225665
519.902152	0.227405
520.265385	0.224093
520.628560	0.225934
520.991678	0.226373
521.354739	0.225172
521.717743	0.226512
522.080690	0.226973
522.443580	0.223986
522.806413	0.225136
523.169189	0.224300
523.531908	0.223391
523.894569	0.226898
524.257174	0.227015
524.619722	0.224632
524.982213	0.225880
525.344647	0.224626
525.707025	0.225587
526.069345	0.223489
526.431608	0.225410
526.793815	0.223274
527.155964	0.227336
527.518057	0.226189
527.880093	0.227546
528.242072	0.225897
528.603995	0.227669
528.965860	0.229714
529.327669	0.228291
529.689421	0.229166
530.051117	0.229943
530.412755	0.227784
530.774337	0.230188
531.135862	0.230469
531.497331	0.229787
531.858743	0.232736
532.220098	0.229355
532.581396	0.232026
532.942638	0.232244
533.303824	0.233508
533.664953	0.233172
534.026025	0.234609
534.387040	0.232854
534.747999	0.232802
535.108902	0.231580
535.469748	0.236674
535.830537	0.234366
536.191270	0.234923
536.551947	0.234459
536.912567	0.234462
537.273131	0.236184
537.633638	0.236492
537.994089	0.236701
538.354483	0.237600
538.714821	0.234837
539.075103	0.234342
539.435328	0.235186
539.795497	0.238920
540.155609	0.235599
540.515665	0.233795
540.875665	0.239308
541.235609	0.237817
541.595496	0.237857
541.955328	0.234528
542.315102	0.237390
542.674821	0.238333
543.034483	0.238266
543.394090	0.237610
543.753640	0.239896
544.113134	0.234697
544.472571	0.238167
544.831953	0.234872
545.191278	0.239034
545.550548	0.238644
545.909761	0.235257
546.268918	0.235980
546.628019	0.234286
546.987064	0.237296
547.346053	0.238782
547.704986	0.236609
548.063863	0.237074
548.422684	0.237221
548.781449	0.239121
549.140158	0.236764
549.498811	0.239519
549.857408	0.242648
550.215949	0.237257
550.574434	0.240411
550.932864	0.238368
551.291237	0.237182
551.649555	0.238735
552.007817	0.238175
552.366022	0.238960
552.724173	0.239356
553.082267	0.239666
553.440305	0.236431
553.798288	0.241091
554.156215	0.237591
554.514086	0.238278
554.871902	0.241469
555.229661	0.240503
555.587365	0.241190
555.945014	0.243759
556.302606	0.240435
556.660143	0.243179
557.017625	0.239525
557.375050	0.241685
557.732421	0.238827
558.089735	0.240894
558.446994	0.241011
558.804197	0.240051
559.161345	0.240055
559.518437	0.243673
559.875474	0.241175
560.232455	0.240685
560.589381	0.241946
560.946251	0.241753
561.303065	0.239424
561.659825	0.240923
562.016528	0.242341
562.373177	0.245364
562.729770	0.242507
563.086307	0.244477
563.442789	0.242420
563.799216	0.245478
564.155587	0.244021
564.511904	0.244856
564.868164	0.245368
565.224370	0.244956
565.580520	0.246841
565.936615	0.246655
566.292654	0.249857
566.648638	0.246677
567.004567	0.247518
567.360441	0.248309
567.716260	0.250319
568.072023	0.247817
568.427732	0.248635
568.783385	0.251113
569.138982	0.249332
569.494525	0.248596
569.850013	0.251734
570.205445	0.250085
570.560823	0.252482
570.916145	0.254709
571.271412	0.252943
571.626625	0.254244
571.981782	0.254835
572.336884	0.255711
572.691931	0.255455
573.046923	0.256766
573.401860	0.258300
573.756743	0.259617
574.111570	0.258458
574.466342	0.258961
574.821059	0.257933
575.175722	0.260993
575.530330	0.260890
575.884882	0.260781
576.239380	0.262956
576.593823	0.263555
576.948211	0.262632
577.302544	0.266289
577.656823	0.265946
578.011047	0.265915
578.365216	0.266182
578.719330	0.268480
579.073389	0.268596
579.427394	0.269721
579.781344	0.270203
580.135239	0.272170
580.489080	0.271742
580.842866	0.274453
581.196597	0.274533
581.550273	0.273039
581.903895	0.274198
582.257463	0.272076
582.610975	0.275775
582.964434	0.274950
583.317837	0.277226
583.671186	0.277574
584.024481	0.278001
584.377721	0.280359
584.730906	0.281000
585.084037	0.280195
585.437113	0.281952
585.790135	0.281314
586.143103	0.283997
586.496016	0.285488
586.848874	0.283010
587.201679	0.283872
587.554428	0.287056
587.907124	0.285648
588.259765	0.286050
588.612352	0.286782
588.964884	0.290773
589.317362	0.290121
589.669786	0.290166
590.022155	0.288542
590.374470	0.288055
590.726731	0.290190
591.078937	0.294663
591.431090	0.291067
591.783188	0.295547
592.135232	0.295773
592.487222	0.295891
592.839157	0.294064
593.191038	0.296594
593.542866	0.298420
593.894639	0.302099
594.246358	0.299868
594.598022	0.299111
594.949633	0.303189
595.301190	0.303755
595.652692	0.302682
596.004141	0.298952
596.355535	0.307064
596.706876	0.307528
597.058162	0.310035
597.409395	0.307019
597.760573	0.304612
598.111698	0.308042
598.462768	0.308721
598.813785	0.310082
599.164748	0.311156
599.515657	0.311468
599.866511	0.315041
600.217312	0.309903
600.568060	0.315198
600.918753	0.311579
601.269392	0.312413
601.619978	0.315898
601.970510	0.313790
602.320988	0.313965
602.671412	0.311438
603.021783	0.314062
603.372100	0.315238
603.722363	0.315193
604.072572	0.316027
604.422728	0.315334
604.772830	0.317386
605.122878	0.317056
605.472872	0.317838
605.822813	0.315708
606.172701	0.318399
606.522534	0.316198
606.872314	0.316544
607.222041	0.317379
607.571714	0.315588
607.921333	0.316815
608.270899	0.316471
608.620411	0.313320
608.969870	0.317105
609.319276	0.317632
609.668627	0.316777
610.017926	0.315916
610.367171	0.314133
610.716362	0.314789
611.065500	0.315437
611.414585	0.313755
611.763616	0.314171
612.112594	0.315021
612.461518	0.314387
612.810389	0.312075
613.159207	0.314476
613.507971	0.316191
613.856682	0.312138
614.205340	0.313729
614.553945	0.310415
614.902496	0.313988
615.250994	0.312154
615.599439	0.312866
615.947830	0.312237
616.296169	0.313162
616.644454	0.312770
616.992686	0.312609
617.340864	0.310659
617.688990	0.314108
618.037063	0.311201
618.385082	0.312765
618.733048	0.309798
619.080961	0.311907
619.428821	0.311463
619.776628	0.311126
620.124382	0.313071
620.472083	0.313139
620.819731	0.312601
621.167326	0.316656
621.514868	0.315920
621.862357	0.320507
622.209793	0.320076
622.557176	0.322080
622.904506	0.323562
623.251783	0.325615
623.599007	0.328084
623.946179	0.327940
624.293297	0.329168
624.640363	0.333525
624.987376	0.333854
625.334336	0.336378
625.681243	0.338414
626.028097	0.339082
626.374899	0.340284
626.721647	0.340673
627.068343	0.343650
627.414987	0.344924
627.761577	0.346895
628.108115	0.345272
628.454600	0.350576
628.801032	0.347967
629.147412	0.349761
629.493739	0.350219
629.840014	0.353306
630.186236	0.351011
630.532405	0.355844
630.878521	0.353404
631.224585	0.355772
631.570597	0.359600
631.916556	0.357837
632.262462	0.358251
632.608316	0.360278
632.954117	0.361048
633.299866	0.361898
633.645562	0.362209
633.991206	0.366462
634.336797	0.369696
634.682336	0.372073
635.027823	0.373609
635.373257	0.374198
635.718639	0.377652
636.063968	0.376982
636.409245	0.382676
636.754470	0.382785
637.099642	0.385325
637.444762	0.388992
637.789829	0.387921
638.134845	0.391383
638.479808	0.392276
638.824719	0.392114
639.169577	0.396258
639.514383	0.395190
639.859137	0.399331
640.203839	0.399009
640.548489	0.400114
640.893086	0.400884
641.237632	0.402689
641.582125	0.400898
641.926566	0.402777
642.270955	0.402901
642.615292	0.402908
642.959576	0.402415
643.303809	0.402268
643.647990	0.402631
643.992118	0.402589
644.336195	0.406470
644.680219	0.404710
645.024192	0.405259
645.368112	0.398966
645.711981	0.398198
646.055797	0.393190
646.399562	0.396165
646.743274	0.387840
647.086935	0.385311
647.430544	0.385618
647.774101	0.384380
648.117606	0.384080
648.461059	0.383880
648.804460	0.386203
649.147810	0.391884
649.491108	0.393916
649.834354	0.394833
650.177548	0.400654
650.520690	0.405909
650.863781	0.407273
651.206820	0.406626
651.549807	0.411112
651.892742	0.415059
652.235626	0.414492
652.578458	0.415746
652.921238	0.421776
653.263967	0.419531
653.606644	0.423455
653.949269	0.422979
654.291843	0.427029
654.634365	0.423703
654.976836	0.426987
655.319255	0.427228
655.661622	0.429017
656.003938	0.428852
656.346203	0.431892
656.688416	0.429504
657.030577	0.432610
657.372687	0.435328
657.714746	0.435645
658.056753	0.432764
658.398708	0.436590
658.740612	0.438030
659.082465	0.433730
659.424266	0.434803
659.766016	0.433936
660.107715	0.436204
660.449362	0.435004
660.790958	0.436296
661.132503	0.436865
661.473996	0.434086
661.815438	0.435772
662.156829	0.435454
662.498168	0.435964
662.839456	0.437247
663.180693	0.435426
663.521879	0.435539
663.863013	0.435898
664.204097	0.434301
664.545129	0.431515
664.886110	0.432690
665.227040	0.429158
665.567918	0.432243
665.908746	0.429669
666.249522	0.429673
666.590248	0.430572
666.930922	0.428819
667.271545	0.427480
667.612118	0.427686
667.952639	0.429302
668.293109	0.427761
668.633528	0.430693
668.973896	0.430629
669.314213	0.431188
669.654480	0.432713
669.994695	0.433106
670.334859	0.433545
670.674973	0.433902
671.015035	0.433677
671.355047	0.433882
671.695008	0.435499
672.034918	0.436790
672.374777	0.435768
672.714585	0.437201
673.054342	0.437189
673.394049	0.437691
673.733705	0.434935
674.073310	0.437130
674.412864	0.439250
674.752368	0.439757
675.091820	0.440352
675.431223	0.444789
675.770574	0.444952
676.109875	0.447809
676.449125	0.447661
676.788324	0.449706
677.127473	0.454815
677.466571	0.454474
677.805619	0.456357
678.144616	0.457845
678.483562	0.459405
678.822458	0.462111
679.161303	0.463249
679.500098	0.462911
679.838842	0.464661
680.177535	0.464499
680.516179	0.463331
680.854771	0.462534
681.193314	0.455707
681.531805	0.446769
681.870247	0.435409
682.208638	0.427956
682.546978	0.426765
682.885268	0.428120
683.223508	0.435339
683.561697	0.438339
683.899836	0.440709
684.237925	0.444297
684.575963	0.446577
684.913951	0.450155
685.251889	0.446242
685.589776	0.447638
685.927614	0.450248
686.265401	0.444560
686.603137	0.445951
686.940824	0.440092
687.278460	0.438218
687.616046	0.437888
687.953582	0.432262
688.291068	0.433866
688.628504	0.429963
688.965889	0.431840
689.303224	0.435961
689.640510	0.439927
689.977745	0.445711
690.314930	0.453385
690.652065	0.458354
690.989150	0.465624
691.326185	0.471817
691.663170	0.476958
692.000105	0.483395
692.336990	0.490995
692.673825	0.493162
693.010610	0.500226
693.347345	0.505587
693.684030	0.507392
694.020665	0.512063
694.357251	0.520510
694.693786	0.520336
695.030272	0.525102
695.366707	0.528102
695.703093	0.531004
696.039429	0.529378
696.375716	0.531308
696.711952	0.533932
697.048139	0.535901
697.384276	0.537169
697.720363	0.536017
698.056400	0.535047
698.392388	0.540333
698.728326	0.543709
699.064214	0.546683
699.400053	0.547616
699.735842	0.550490
700.071581	0.554040
700.407270	0.556846
700.742910	0.559478
701.078501	0.565957
701.414042	0.565785
701.749533	0.568971
702.084974	0.577573
702.420366	0.569579
702.755709	0.577232
703.091002	0.585337
703.426246	0.578967
703.761440	0.585164
704.096584	0.589787
704.431679	0.586290
704.766725	0.589385
705.101721	0.589807
705.436668	0.586479
705.771565	0.593533
706.106413	0.590080
706.441212	0.585425
706.775961	0.583569
707.110661	0.587028
707.445311	0.583781
707.779913	0.580422
708.114465	0.579132
708.448967	0.575899
708.783421	0.567775
709.117825	0.562555
709.452180	0.562167
709.786485	0.555865
710.120742	0.546472
710.454949	0.547719
710.789107	0.540244
711.123216	0.531268
711.457275	0.532785
711.791286	0.523793
712.125247	0.522124
712.459159	0.533326
712.793023	0.525896
713.126837	0.530098
713.460602	0.530069
713.794318	0.540295
714.127985	0.538668
714.461602	0.549198
714.795171	0.551626
715.128691	0.559653
715.462162	0.567301
715.795584	0.572642
716.128957	0.576326
716.462281	0.582474
716.795556	0.586062
717.128782	0.591063
717.461960	0.600262
717.795088	0.599350
718.128167	0.605450
718.461198	0.613358
718.794180	0.614115
719.127113	0.616943
719.459997	0.621311
719.792833	0.626888
720.125619	0.628113
720.458357	0.634178
720.791046	0.634117
721.123686	0.637759
721.456278	0.644035
721.788821	0.641946
722.121315	0.646098
722.453761	0.650119
722.786158	0.647792
723.118506	0.644003
723.450805	0.651459
723.783056	0.647313
724.115259	0.645162
724.447412	0.644757
724.779518	0.646536
725.111574	0.645263
725.443582	0.641118
725.775542	0.642670
726.107453	0.634825
726.439315	0.634377
726.771129	0.633858
727.102895	0.627138
727.434612	0.619383
727.766281	0.617527
728.097901	0.616990
728.429473	0.616982
728.760996	0.614869
729.092471	0.615108
729.423897	0.618778
729.755276	0.617795
730.086606	0.617914
730.417887	0.612625
730.749120	0.602820
731.080305	0.593576
731.411442	0.590347
731.742530	0.595162
732.073570	0.594286
732.404562	0.586369
732.735506	0.587705
733.066401	0.592856
733.397249	0.601984
733.728048	0.613131
734.058798	0.626181
734.389501	0.636368
734.720156	0.646082
735.050762	0.654533
735.381320	0.655299
735.711831	0.664847
736.042293	0.669666
736.372707	0.664715
736.703073	0.670345
737.033391	0.672049
737.363661	0.668213
737.693883	0.663947
738.024056	0.663502
738.354182	0.663872
738.684260	0.652996
739.014290	0.648643
739.344272	0.649652
739.674207	0.643257
740.004093	0.642949
740.333931	0.643032
740.663722	0.643224
740.993464	0.643632
741.323159	0.646948
741.652806	0.652407
741.982405	0.657251
742.311956	0.661958
742.641460	0.663610
742.970915	0.667075
743.300323	0.675320
743.629683	0.681494
743.958996	0.683694
744.288260	0.687820
744.617477	0.693613
744.946647	0.695117
745.275768	0.700444
745.604842	0.700575
745.933869	0.710313
746.262847	0.711374
746.591778	0.705448
746.920662	0.710501
747.249498	0.717091
747.578286	0.707854
747.907027	0.703654
748.235720	0.705328
748.564365	0.699516
748.892963	0.699473
749.221514	0.702415
749.550017	0.707589
749.878473	0.707771
750.206881	0.713992
750.535242	0.715526
750.863555	0.715675
751.191821	0.716308
751.520039	0.719538
751.848210	0.723746
752.176334	0.716299
752.504411	0.716315
752.832440	0.723789
753.160421	0.728466
753.488356	0.726137
753.816243	0.723454
754.144082	0.732629
754.471875	0.735891
754.799620	0.731272
755.127318	0.732735
755.454969	0.732047
755.782572	0.730759
756.110129	0.736524
756.437638	0.739257
756.765100	0.735466
757.092515	0.734060
757.419882	0.732864
757.747203	0.737525
758.074477	0.737719
758.401703	0.735085
758.728882	0.729928
759.056014	0.728303
759.383099	0.727427
759.710138	0.729030
760.037129	0.725054
760.364073	0.719172
760.690970	0.721747
761.017820	0.727425
761.344623	0.723151
761.671379	0.713459
761.998088	0.701642
762.324751	0.679313
762.651366	0.637238
762.977935	0.570797
763.304456	0.518148
763.630931	0.508931
763.957359	0.547925
764.283740	0.592621
764.610074	0.620285
764.936362	0.650951
765.262602	0.677290
765.588796	0.698939
765.914943	0.716585
766.241044	0.735050
766.567097	0.740621
766.893104	0.751304
767.219064	0.757683
767.544978	0.764191
767.870845	0.777467
768.196665	0.780849
768.522438	0.778796
768.848165	0.780523
769.173846	0.789150
769.499479	0.794649
769.825066	0.797398
770.150607	0.802200
770.476101	0.797494
770.801548	0.798674
771.126949	0.811158
771.452303	0.813883
771.777611	0.813902
772.102872	0.812419
772.428087	0.818458
772.753256	0.820711
773.078378	0.822655
773.403453	0.832270
773.728482	0.836229
774.053465	0.830141
774.378401	0.833833
774.703291	0.841718
775.028135	0.842395
775.352932	0.843169
775.677683	0.845999
776.002388	0.846474
776.327046	0.845044
776.651658	0.849469
776.976224	0.852545
777.300743	0.852787
777.625216	0.855329
777.949643	0.856172
778.274024	0.857432
778.598359	0.858403
778.922647	0.858190
779.246889	0.858045
779.571086	0.863104
779.895236	0.864110
780.219339	0.860920
780.543397	0.858269
780.867409	0.856844
781.191374	0.859512
781.515294	0.859883
781.839167	0.859002
782.162995	0.861554
782.486776	0.859974
782.810511	0.860605
783.134201	0.863466
783.457844	0.861236
783.781441	0.864520
784.104993	0.871091
784.428498	0.870146
784.751958	0.866076
785.075372	0.869342
785.398739	0.873261
785.722061	0.868026
786.045337	0.865105
786.368568	0.869814
786.691752	0.872124
787.014891	0.857604
787.337983	0.847729
787.661030	0.841408
787.984031	0.823562
788.306987	0.810375
788.629897	0.812322
788.952760	0.816884
789.275579	0.820495
789.598351	0.836522
789.921078	0.848936
790.243759	0.851720
790.566395	0.856271
790.888984	0.863159
791.211529	0.868720
791.534027	0.871986
791.856480	0.873666
792.178888	0.879777
792.501249	0.880788
792.823566	0.884127
793.145836	0.883374
793.468062	0.884889
793.790241	0.885172
794.112375	0.883149
794.434464	0.878334
794.756507	0.877725
795.078505	0.877386
795.400457	0.872932
795.722364	0.859959
796.044226	0.853600
796.366042	0.852219
796.687812	0.855318
797.009538	0.850997
797.331218	0.854742
797.652852	0.858931
797.974442	0.864085
798.295986	0.863917
798.617484	0.867844
798.938938	0.871302
799.260346	0.875727
799.581709	0.878118
799.903026	0.880418
800.224299	0.879919
800.545526	0.884938
800.866708	0.889381
801.187845	0.892934
801.508936	0.892261
801.829983	0.890138
802.150984	0.893011
802.471940	0.897677
802.792851	0.897181
803.113717	0.898370
803.434538	0.896285
803.755314	0.897672
804.076045	0.900266
804.396731	0.900362
804.717372	0.901018
805.037967	0.901449
805.358518	0.899300
805.679024	0.897634
805.999485	0.895930
806.319901	0.897265
806.640272	0.899157
806.960598	0.896629
807.280879	0.894610
807.601115	0.892097
807.921306	0.894324
808.241453	0.895985
808.561554	0.893936
808.881611	0.894778
809.201623	0.896505
809.521590	0.896189
809.841513	0.896249
810.161390	0.896363
810.481223	0.896899
810.801011	0.900503
811.120755	0.902900
811.440453	0.902184
811.760107	0.900225
812.079716	0.900716
812.399281	0.904158
812.718801	0.906959
813.038276	0.908063
813.357707	0.907263
813.677093	0.904941
813.996434	0.906391
814.315731	0.908086
814.634983	0.909675
814.954191	0.908107
815.273354	0.905130
815.592473	0.902541
815.911547	0.901988
816.230577	0.898901
816.549562	0.897108
816.868502	0.897250
817.187399	0.893256
817.506250	0.888860
817.825058	0.891253
818.143821	0.886589
818.462539	0.880362
818.781213	0.873819
819.099843	0.862654
819.418429	0.847080
819.736970	0.829048
820.055466	0.810236
820.373919	0.784732
820.692327	0.750638
821.010691	0.716490
821.329011	0.638455
821.647286	0.523174
821.965517	0.409028
822.283704	0.366259
822.601847	0.367186
822.919945	0.403202
823.237999	0.437104
823.556010	0.483640
823.873976	0.539941
824.191897	0.590651
824.509775	0.633154
824.827609	0.679077
825.145398	0.700663
825.463144	0.704025
825.780845	0.687129
826.098502	0.668148
826.416116	0.621974
826.733685	0.577791
827.051210	0.568968
827.368692	0.583879
827.686129	0.621770
828.003522	0.674867
828.320872	0.722460
828.638177	0.766405
828.955439	0.799394
829.272656	0.821678
829.589830	0.839218
829.906960	0.854488
830.224046	0.866924
830.541088	0.877441
830.858086	0.881720
831.175041	0.887159
831.491952	0.887255
831.808819	0.883676
832.125642	0.876915
832.442421	0.861931
832.759157	0.839694
833.075849	0.793691
833.392497	0.729216
833.709101	0.689432
834.025662	0.698467
834.342179	0.730404
834.658653	0.769430
834.975083	0.805739
835.291469	0.831151
835.607811	0.854799
835.924110	0.870492
836.240366	0.887456
836.556578	0.902153
836.872746	0.909020
837.188871	0.915705
837.504952	0.920602
837.820990	0.924382
838.136984	0.927410
838.452935	0.930369
838.768842	0.931955
839.084706	0.924860
839.400526	0.899773
839.716303	0.859264
840.032037	0.837170
840.347727	0.840608
840.663373	0.858194
840.978977	0.879950
841.294537	0.901956
841.610054	0.919059
841.925527	0.926383
842.240957	0.932558
842.556344	0.939447
842.871687	0.946493
843.186987	0.950576
843.502244	0.950314
843.817458	0.952795
844.132629	0.955475
844.447756	0.960334
844.762840	0.959870
845.077881	0.960449
845.392879	0.960884
845.707833	0.963407
846.022745	0.966412
846.337613	0.965689
846.652438	0.966812
846.967221	0.965353
847.281960	0.966170
847.596656	0.966842
847.911309	0.966407
848.225919	0.968735
848.540485	0.968660
848.855009	0.969685
849.169490	0.968857
849.483928	0.969635
849.798323	0.970965
850.112675	0.971031
850.426984	0.969939
850.741251	0.970932
851.055474	0.970228
851.369654	0.969167
851.683792	0.969233
851.997887	0.968366
852.311938	0.971093
852.625947	0.970794
852.939914	0.967358
853.253837	0.970508
853.567718	0.970298
853.881555	0.971649
854.195350	0.968375
854.509103	0.969847
854.822812	0.969465
855.136479	0.970923
855.450103	0.969526
855.763685	0.967524
856.077224	0.969656
856.390720	0.970461
856.704173	0.971085
857.017584	0.969108
857.330953	0.967144
857.644278	0.969228
857.957561	0.967895
858.270802	0.968958
858.584000	0.968859
858.897155	0.966940
859.210268	0.968081
859.523339	0.968606
859.836367	0.970771
860.149352	0.971273
860.462295	0.969164
860.775195	0.969679
861.088054	0.969558
861.400869	0.970364
861.713642	0.970774
862.026373	0.970797
862.339062	0.971450
862.651708	0.967480
862.964312	0.968676
863.276873	0.970253
863.589392	0.968512
863.901869	0.965777
864.214303	0.964692
864.526696	0.963481
864.839045	0.963567
865.151353	0.963097
865.463619	0.961908
865.775842	0.962921
866.088023	0.962657
866.400162	0.962565
866.712258	0.963470
867.024313	0.963218
867.336325	0.964506
867.648296	0.963821
867.960224	0.962723
868.272110	0.962084
868.583954	0.964747
868.895755	0.964153
869.207515	0.962058
869.519233	0.960095
869.830909	0.961769
870.142542	0.961899
870.454134	0.962552
870.765684	0.961553
871.077191	0.958169
871.388657	0.958878
871.700081	0.958161
872.011463	0.958601
872.322803	0.958329
872.634101	0.956988
872.945357	0.954761
873.256571	0.953383
873.567744	0.954110
873.878874	0.954051
874.189963	0.952377
874.501010	0.951769
874.812015	0.950049
875.122979	0.952009
875.433900	0.953170
875.744780	0.953332
876.055618	0.951550
876.366415	0.949127
876.677169	0.950182
876.987882	0.951099
877.298554	0.951856
877.609183	0.948794
877.919771	0.945417
878.230317	0.943066
878.540822	0.941469
878.851285	0.935397
879.161707	0.927318
879.472087	0.915540
879.782425	0.898672
880.092722	0.864396
880.402977	0.812683
880.713191	0.751933
881.023363	0.692136
881.333494	0.657363
881.643583	0.629741
881.953631	0.629297
882.263637	0.658930
882.573602	0.698136
882.883526	0.724065
883.193408	0.747682
883.503248	0.770141
883.813048	0.797366
884.122806	0.828011
884.432522	0.850314
884.742197	0.870264
885.051831	0.881796
885.361424	0.892076
885.670975	0.903001
885.980485	0.913111
886.289954	0.919851
886.599382	0.924872
886.908768	0.928878
887.218113	0.933561
887.527417	0.938976
887.836680	0.943749
888.145901	0.943640
888.455082	0.947169
888.764221	0.950249
889.073319	0.953748
889.382376	0.952905
889.691392	0.953015
890.000366	0.953267
890.309300	0.954605
890.618193	0.953421
890.927044	0.951563
891.235855	0.952211
891.544625	0.952306
891.853353	0.951828
892.162041	0.949849
892.470687	0.942480
892.779293	0.937907
893.087858	0.934085
893.396381	0.926194
893.704864	0.913678
894.013306	0.889236
894.321707	0.862285
894.630068	0.848333
894.938387	0.842758
895.246665	0.844651
895.554903	0.856942
895.863100	0.870891
896.171256	0.887017
896.479371	0.906269
896.787446	0.919205
897.095480	0.925557
897.403473	0.928106
897.711425	0.932551
898.019336	0.940126
898.327207	0.942723
898.635038	0.945630
898.942827	0.945749
899.250576	0.948060
899.558284	0.952463
899.865952	0.954838
900.173579	0.955330
900.481165	0.955449
900.788711	0.960627
901.096216	0.961574
901.403681	0.961878
901.711105	0.962971
902.018489	0.964167
902.325832	0.962753
902.633135	0.962143
902.940397	0.956057
903.247619	0.944796
903.554800	0.918534
903.861941	0.879082
904.169041	0.842335
904.476101	0.825007
904.783121	0.826400
905.090100	0.842187
905.397039	0.863916
905.703938	0.886067
906.010796	0.905729
906.317614	0.923258
906.624391	0.934311
906.931129	0.944046
907.237826	0.951675
907.544483	0.959100
907.851099	0.962380
908.157675	0.968205
908.464211	0.970289
908.770707	0.973079
909.077163	0.976058
909.383578	0.975094
909.689954	0.975722
909.996289	0.976203
910.302584	0.977967
910.608839	0.979116
910.915054	0.978802
911.221229	0.978622
911.527363	0.977910
911.833458	0.977967
912.139513	0.978614
912.445527	0.974258
912.751502	0.974092
913.057436	0.973368
913.363331	0.970093
913.669186	0.966977
913.975000	0.961512
914.280775	0.956872
914.586510	0.948225
914.892205	0.937147
915.197859	0.914535
915.503475	0.886587
915.809050	0.868265
916.114585	0.861211
916.420081	0.858051
916.725536	0.856037
917.030952	0.863829
917.336328	0.876397
917.641665	0.891928
917.946961	0.907587
918.252218	0.918468
918.557435	0.927913
918.862612	0.937215
919.167750	0.943126
919.472848	0.946420
919.777906	0.951931
920.082925	0.959305
920.387904	0.962172
920.692843	0.963735
920.997743	0.964184
921.302603	0.967080
921.607423	0.970199
921.912204	0.973282
922.216946	0.972007
922.521647	0.973770
922.826310	0.975540
923.130932	0.977213
923.435516	0.977819
923.740059	0.980913
924.044564	0.979404
924.349028	0.980792
924.653454	0.983658
924.957840	0.985614
925.262186	0.984855
925.566493	0.984209
925.870761	0.986148
926.174989	0.987252
926.479178	0.988964
926.783328	0.989746
927.087438	0.989397
927.391509	0.988117
927.695541	0.990998
927.999533	0.989207
928.303486	0.989871
928.607400	0.992183
928.911275	0.990397
929.215110	0.991494
929.518906	0.991781
929.822663	0.990531
930.126381	0.991912
930.430060	0.991973
930.733699	0.990803
931.037299	0.990962
931.340861	0.991604
931.644383	0.990091
931.947866	0.988934
932.251309	0.991495
932.554714	0.989685
932.858080	0.991010
933.161407	0.991282
933.464694	0.990777
933.767943	0.990333
934.071153	0.992016
934.374323	0.992498
934.677455	0.991059
934.980548	0.992144
935.283602	0.990744
935.586617	0.991703
935.889593	0.991046
936.192530	0.992145
936.495428	0.990239
936.798287	0.991310
937.101108	0.990024
937.403890	0.988763
937.706632	0.989228
938.009336	0.987748
938.312002	0.986949
938.614628	0.984644
938.917216	0.983998
939.219765	0.982031
939.522275	0.983927
939.824747	0.983872
940.127179	0.984177
940.429573	0.985781
940.731929	0.984468
941.034246	0.984152
941.336524	0.985795
941.638763	0.986572
941.940964	0.987116
942.243126	0.987454
942.545250	0.988180
942.847335	0.988576
943.149381	0.988801
943.451389	0.989130
943.753359	0.989320
944.055290	0.990795
944.357182	0.989633
944.659036	0.988210
944.960851	0.989680
945.262628	0.990623
945.564367	0.990624
945.866067	0.991160
946.167729	0.990841
946.469352	0.990304
946.770937	0.989092
947.072484	0.991803
947.373992	0.990619
947.675462	0.990738
947.976893	0.991239
948.278286	0.991928
948.579641	0.992781
948.880958	0.990306
949.182236	0.991209
949.483476	0.992172
949.784678	0.990474
950.085841	0.990993
950.386967	0.990856
950.688054	0.991823
950.989103	0.990579
951.290114	0.990093
951.591087	0.989710
951.892021	0.990173
952.192917	0.990850
952.493776	0.988997
952.794596	0.988701
953.095378	0.989708
953.396122	0.988233
953.696828	0.987803
953.997496	0.989390
954.298126	0.990899
954.598718	0.990282
954.899272	0.991165
955.199788	0.990408
955.500266	0.991437
955.800706	0.994043
956.101108	0.994036
956.401472	0.994232
956.701798	0.994876
957.002087	0.993609
957.302337	0.994197
957.602550	0.996088
957.902724	0.995299
958.202861	0.996355
958.502960	0.995209
958.803022	0.995272
959.103045	0.997382
959.403031	0.996885
959.702979	0.995529
960.002889	0.997045
960.302762	0.996476
960.602596	0.996283
960.902393	0.994184
961.202153	0.996494
961.501875	0.997952
961.801559	0.997159
962.101205	0.996815
962.400814	0.997650
962.700385	0.996469
962.999918	0.996430
963.299414	0.996347
963.598873	0.996359
963.898293	0.997822
964.197677	0.995603
964.497022	0.998017
964.796331	0.998275
965.095601	0.997916
965.394835	0.996977
965.694030	0.998640
965.993189	0.998369
966.292309	0.996858
966.591393	0.998496
966.890439	0.999746
967.189447	0.996803
967.488419	0.997443
967.787353	0.996156
968.086249	0.997522
968.385108	0.997637
968.683930	0.996468
968.982714	0.998076
969.281462	0.997913
969.580172	0.997989
969.878844	0.997699
970.177480	0.996654
970.476078	0.997621
970.774639	0.996338
971.073162	0.998782
971.371649	0.997036
971.670098	0.996855
971.968510	0.997519
972.266885	0.996789
972.565223	0.997086
972.863524	0.996695
973.161788	0.996499
973.460014	0.998047
973.758204	0.996333
974.056356	0.997011
974.354471	0.994769
974.652550	0.997475
974.950591	0.995989
975.248595	0.996873
975.546563	0.997865
975.844493	0.998651
976.142386	0.996192
976.440243	0.997839
976.738062	0.998236
977.035845	0.998396
977.333590	0.998007
977.631299	0.998117
977.928971	0.997141
978.226606	0.996976
978.524204	0.996319
978.821765	0.998361
979.119290	0.997375
979.416777	0.998510
979.714228	0.997859
980.011642	0.995814
980.309020	0.998377
980.606360	0.997221
980.903664	0.997924
981.200931	0.997319
981.498162	0.996592
981.795356	0.995037
982.092513	0.994614
982.389633	0.995567
982.686717	0.991797
982.983764	0.992095
983.280775	0.990800
983.577749	0.991064
983.874686	0.992696
984.171587	0.992183
984.468451	0.994853
984.765279	0.995248
985.062070	0.995381
985.358824	0.995731
985.655543	0.994827
985.952224	0.996753
986.248869	0.997918
986.545478	0.997029
986.842050	0.998341
987.138586	0.996035
987.435086	0.998299
987.731549	0.998089
988.027975	0.998433
988.324366	0.998198
988.620719	0.998644
988.917037	0.996921
989.213318	0.997675
989.509563	0.998429
989.805772	0.999955
990.101944	0.998880
990.398080	0.998002
990.694180	0.998223
990.990244	0.997255
991.286271	0.997783
991.582262	0.998626
991.878217	0.998954
992.174136	0.998813
992.470019	0.999711
992.765865	0.999425
993.061676	0.998194
993.357450	0.998906
993.653188	0.997434
993.948890	0.998151
994.244556	0.998305
994.540186	0.998107
994.835780	0.996594
995.131337	0.998595
995.426859	0.997417
995.722345	0.997488
996.017795	0.996833
996.313208	0.995953
996.608586	0.995916
996.903928	0.997420
997.199234	0.996798
997.494504	0.997340
997.789738	0.997408
998.084936	0.997011
998.380099	0.998164
998.675225	0.998114
998.970316	0.997961
999.265371	0.999734
999.560390	0.998407
999.855373	1.000103
1000.150320	0.999313
1000.445232	0.999210
1000.740108	0.998533
1001.034948	0.998057
1001.329752	0.998654
1001.624521	0.998942
1001.919254	0.998279
1002.213951	0.997864
1002.508613	0.998929
1002.803239	0.999715
1003.097829	0.999371
1003.392384	0.999790
1003.686903	0.998930
1003.981386	0.998996
1004.275834	0.998466
1004.570246	0.999069
1004.864623	0.998370
1005.158964	1.000175
1005.453270	0.998211
1005.747540	0.998369
1006.041775	0.999166
1006.335974	0.999211
1006.630138	0.999415
1006.924266	1.000849
1007.218359	1.000858
1007.512416	0.999943
1007.806438	0.999650
1008.100425	0.998693
1008.394376	0.999986
1008.688292	0.998090
1008.982172	1.001895
1009.276017	1.000845
1009.569827	0.998520
1009.863602	0.999903
1010.157341	1.000190
1010.451045	0.999717
1010.744714	0.999623
1011.038347	0.998470
1011.331945	0.999696
1011.625508	0.998198
1011.919036	0.999852
1012.212528	0.998519
1012.505986	0.999649
1012.799408	0.999438
1013.092795	1.000459
1013.386147	0.999661
1013.679464	0.999283
1013.972745	0.998986
1014.265992	0.998268
1014.559204	1.000057
1014.852380	0.999578
1015.145521	0.999799
1015.438628	1.000101
1015.731699	0.999975
1016.024736	0.998824
1016.317737	0.999331
1016.610703	0.999513
1016.903635	1.000640
1017.196531	0.998931
1017.489393	1.000812
1017.782219	0.999386
1018.075011	0.999561
1018.367768	0.999052
1018.660490	1.000627
1018.953177	1.000627
1019.245829	1.000627
