Dividing Wavelength (nm)	Counts (n)	Blue Motor Position (mm): 0.000000	Red Motor Position (mm): 25.100000	
326.493990	1.000301
326.888308	1.000301
327.282561	1.000301
327.676750	0.997991
328.070874	0.998599
328.464933	0.999861
328.858929	0.999450
329.252859	0.998522
329.646726	0.998345
330.040528	0.999303
330.434265	0.998384
330.827938	1.000160
331.221547	1.001194
331.615091	0.998608
332.008571	0.999688
332.401986	0.998821
332.795338	1.000413
333.188625	0.998785
333.581847	0.999392
333.975006	0.998157
334.368100	0.998606
334.761129	0.999719
335.154095	0.999975
335.546996	0.996775
335.939833	0.992490
336.332606	0.994211
336.725315	0.994751
337.117960	0.994936
337.510540	0.994830
337.903056	0.994134
338.295508	0.993526
338.687896	0.995151
339.080220	0.994903
339.472480	0.993839
339.864676	0.994531
340.256807	0.994948
340.648875	0.994462
341.040879	0.993946
341.432818	0.993630
341.824694	0.994310
342.216506	0.995512
342.608253	0.994744
342.999937	0.993121
343.391557	0.994146
343.783113	0.993528
344.174605	0.993642
344.566033	0.995408
344.957397	0.992722
345.348697	0.992893
345.739934	0.994530
346.131106	0.993735
346.522215	0.994661
346.913260	0.994065
347.304241	0.994590
347.695159	0.994251
348.086012	0.993086
348.476802	0.995033
348.867528	0.994464
349.258191	0.993448
349.648789	0.993780
350.039324	0.993941
350.429796	0.994473
350.820203	0.993938
351.210548	0.993004
351.600828	0.994363
351.991045	0.993645
352.381198	0.992542
352.771288	0.994365
353.161314	0.994036
353.551276	0.994872
353.941175	0.993985
354.331010	0.994334
354.720782	0.992866
355.110490	0.993911
355.500135	0.994987
355.889717	0.994782
356.279235	0.993779
356.668689	0.992389
357.058080	0.994051
357.447408	0.995426
357.836672	0.995443
358.225873	0.994141
358.615010	0.993781
359.004084	0.996371
359.393095	0.994637
359.782043	0.994072
360.170927	0.995843
360.559748	0.994336
360.948505	0.993687
361.337199	0.995567
361.725830	0.993446
362.114398	0.994023
362.502903	0.993788
362.891344	0.995219
363.279722	0.994340
363.668037	0.994785
364.056289	0.992631
364.444478	0.994775
364.832603	0.994094
365.220665	0.993725
365.608665	0.994273
365.996601	0.994407
366.384474	0.995228
366.772284	0.994460
367.160031	0.993277
367.547715	0.992452
367.935336	0.994418
368.322893	0.994193
368.710388	0.993500
369.097820	0.993772
369.485189	0.993582
369.872495	0.992253
370.259738	0.993180
370.646918	0.994389
371.034035	0.995369
371.421090	0.994685
371.808081	0.993686
372.195010	0.994376
372.581875	0.995249
372.968678	0.993405
373.355418	0.994526
373.742096	0.994458
374.128710	0.995413
374.515262	0.994398
374.901751	0.996206
375.288177	0.994479
375.674540	0.995459
376.060841	0.993386
376.447079	0.994047
376.833254	0.994828
377.219367	0.994675
377.605417	0.995207
377.991404	0.995109
378.377329	0.993505
378.763191	0.993839
379.148991	0.995736
379.534727	0.994470
379.920402	0.995443
380.306013	0.995720
380.691563	0.995425
381.077049	0.994233
381.462474	0.996041
381.847835	0.995067
382.233134	0.996043
382.618371	0.995277
383.003545	0.996205
383.388657	0.995103
383.773706	0.995754
384.158693	0.995454
384.543618	0.995269
384.928480	0.995735
385.313280	0.995694
385.698017	0.995576
386.082692	0.996938
386.467305	0.995421
386.851856	0.995332
387.236344	0.995242
387.620770	0.994334
388.005133	0.995417
388.389435	0.996610
388.773674	0.995652
389.157851	0.995553
389.541965	0.995419
389.926018	0.995100
390.310008	0.996897
390.693936	0.995259
391.077802	0.995593
391.461606	0.996122
391.845348	0.995415
392.229027	0.997207
392.612645	0.995992
392.996200	0.996895
393.379694	0.996157
393.763125	0.996692
394.146494	0.996196
394.529801	0.995120
394.913047	0.996549
395.296230	0.995964
395.679351	0.996396
396.062410	0.995739
396.445408	0.995920
396.828343	0.995235
397.211217	0.995662
397.594028	0.995695
397.976778	0.995894
398.359466	0.995507
398.742092	0.996034
399.124656	0.994937
399.507158	0.996083
399.889598	0.996493
400.271977	0.997225
400.654294	0.995629
401.036549	0.996595
401.418742	0.995855
401.800874	0.994764
402.182944	0.996006
402.564952	0.995039
402.946898	0.996413
403.328783	0.996728
403.710606	0.995911
404.092367	0.996017
404.474067	0.995571
404.855705	0.996063
405.237282	0.996743
405.618797	0.996065
406.000250	0.995713
406.381642	0.995677
406.762972	0.995592
407.144240	0.996914
407.525447	0.996540
407.906593	0.995789
408.287677	0.996279
408.668700	0.996124
409.049661	0.994953
409.430560	0.995842
409.811399	0.995063
410.192176	0.996117
410.572891	0.996343
410.953545	0.995438
411.334138	0.994534
411.714669	0.995948
412.095139	0.994785
412.475547	0.996119
412.855894	0.996024
413.236180	0.996367
413.616405	0.995629
413.996568	0.996627
414.376670	0.995475
414.756711	0.995463
415.136691	0.996090
415.516609	0.995445
415.896466	0.995642
416.276262	0.994928
416.655997	0.996826
417.035670	0.996226
417.415283	0.996330
417.794834	0.995674
418.174324	0.995532
418.553753	0.996739
418.933121	0.995254
419.312428	0.996248
419.691674	0.994966
420.070859	0.995767
420.449983	0.996225
420.829045	0.996336
421.208047	0.996645
421.586988	0.997376
421.965867	0.995669
422.344686	0.996153
422.723444	0.995857
423.102141	0.995511
423.480777	0.995433
423.859352	0.995327
424.237866	0.995366
424.616319	0.995908
424.994712	0.995769
425.373044	0.996198
425.751314	0.996100
426.129524	0.995236
426.507673	0.995447
426.885762	0.995848
427.263789	0.994657
427.641756	0.995178
428.019662	0.995794
428.397508	0.994455
428.775292	0.994612
429.153016	0.994367
429.530679	0.994829
429.908282	0.995190
430.285824	0.994399
430.663305	0.993825
431.040726	0.994483
431.418086	0.995385
431.795385	0.995160
432.172624	0.993623
432.549802	0.994228
432.926920	0.994145
433.303977	0.992748
433.680974	0.993535
434.057910	0.991419
434.434786	0.992268
434.811601	0.990501
435.188355	0.989321
435.565050	0.988566
435.941683	0.988558
436.318257	0.987973
436.694770	0.986126
437.071222	0.985985
437.447614	0.984109
437.823946	0.982752
438.200218	0.981908
438.576429	0.980474
438.952580	0.979713
439.328670	0.976524
439.704700	0.975692
440.080670	0.973347
440.456580	0.969475
440.832429	0.967538
441.208218	0.966864
441.583947	0.963551
441.959616	0.961605
442.335224	0.959193
442.710773	0.956934
443.086261	0.951355
443.461689	0.950392
443.837057	0.945610
444.212365	0.942535
444.587612	0.939859
444.962800	0.934514
445.337927	0.931386
445.712995	0.929834
446.088002	0.921999
446.462949	0.918912
446.837837	0.914003
447.212664	0.909368
447.587431	0.902125
447.962139	0.891020
448.336786	0.877409
448.711374	0.875233
449.085901	0.878072
449.460369	0.873836
449.834776	0.868050
450.209124	0.856986
450.583412	0.847304
450.957640	0.840971
451.331808	0.836572
451.705917	0.835780
452.079965	0.829682
452.453954	0.819631
452.827883	0.814790
453.201752	0.806803
453.575562	0.803901
453.949311	0.791058
454.323001	0.786142
454.696632	0.777703
455.070202	0.766340
455.443713	0.756237
455.817164	0.746710
456.190556	0.736344
456.563888	0.726844
456.937160	0.718310
457.310373	0.717737
457.683526	0.708936
458.056619	0.702784
458.429653	0.694894
458.802628	0.688519
459.175542	0.678610
459.548398	0.660718
459.921194	0.648889
460.293930	0.642389
460.666607	0.619786
461.039224	0.605637
461.411782	0.595478
461.784280	0.585959
462.156719	0.580356
462.529099	0.573614
462.901419	0.574315
463.273680	0.569320
463.645882	0.561640
464.018024	0.556306
464.390106	0.544089
464.762130	0.527070
465.134094	0.508841
465.505999	0.483049
465.877845	0.456591
466.249631	0.440486
466.621358	0.435375
466.993026	0.435222
467.364634	0.431332
467.736184	0.430507
468.107674	0.430151
468.479105	0.421726
468.850477	0.421609
469.221790	0.420043
469.593043	0.421365
469.964238	0.418924
470.335373	0.412190
470.706449	0.405649
471.077467	0.401418
471.448425	0.364681
471.819324	0.339270
472.190164	0.333932
472.560945	0.353663
472.931667	0.367278
473.302330	0.366492
473.672934	0.373038
474.043479	0.357903
474.413965	0.356034
474.784393	0.355465
475.154761	0.347368
475.525070	0.341053
475.895321	0.343039
476.265513	0.334904
476.635645	0.327528
477.005719	0.324243
477.375734	0.318245
477.745691	0.309610
478.115588	0.303452
478.485427	0.294907
478.855207	0.280427
479.224928	0.262326
479.594591	0.248915
479.964194	0.249677
480.333739	0.248514
480.703226	0.247637
481.072653	0.244853
481.442022	0.239099
481.811333	0.234312
482.180584	0.236444
482.549777	0.240156
482.918912	0.242119
483.287988	0.240848
483.657005	0.239407
484.025964	0.244694
484.394864	0.241221
484.763706	0.240963
485.132489	0.245195
485.501213	0.245108
485.869879	0.242906
486.238487	0.245884
486.607036	0.243011
486.975527	0.247036
487.343959	0.242458
487.712333	0.241322
488.080648	0.242136
488.448905	0.241023
488.817104	0.242019
489.185244	0.236533
489.553326	0.233085
489.921350	0.222826
490.289315	0.205063
490.657222	0.200010
491.025070	0.201032
491.392861	0.202912
491.760593	0.208224
492.128267	0.213730
492.495883	0.219203
492.863440	0.225066
493.230939	0.231501
493.598380	0.232244
493.965763	0.234389
494.333088	0.236753
494.700354	0.237888
495.067563	0.236776
495.434713	0.239852
495.801805	0.237729
496.168839	0.239376
496.535815	0.240279
496.902733	0.240399
497.269593	0.241939
497.636395	0.239735
498.003139	0.239874
498.369825	0.242712
498.736453	0.239064
499.103023	0.240533
499.469535	0.239851
499.835989	0.240028
500.202385	0.240708
500.568723	0.243995
500.935003	0.239376
501.301226	0.243472
501.667390	0.237916
502.033497	0.235985
502.399546	0.238796
502.765537	0.240652
503.131470	0.238814
503.497345	0.235184
503.863163	0.243952
504.228923	0.236746
504.594625	0.235544
504.960269	0.240887
505.325856	0.236223
505.691385	0.240268
506.056856	0.237092
506.422270	0.236384
506.787625	0.239144
507.152924	0.236434
507.518164	0.236565
507.883347	0.238486
508.248472	0.240201
508.613540	0.235215
508.978550	0.237676
509.343503	0.238005
509.708398	0.235795
510.073236	0.233389
510.438016	0.233437
510.802738	0.234074
511.167403	0.233245
511.532010	0.235119
511.896561	0.230524
512.261053	0.229477
512.625488	0.231356
512.989866	0.231765
513.354186	0.232095
513.718449	0.233857
514.082655	0.230300
514.446803	0.232416
514.810894	0.230197
515.174927	0.232729
515.538904	0.232056
515.902822	0.229096
516.266684	0.231665
516.630488	0.232765
516.994235	0.231185
517.357925	0.230348
517.721558	0.228343
518.085133	0.227930
518.448651	0.228131
518.812112	0.230424
519.175516	0.229876
519.538863	0.227558
519.902152	0.229305
520.265385	0.225991
520.628560	0.227730
520.991678	0.228122
521.354739	0.227311
521.717743	0.228413
522.080690	0.228866
522.443580	0.226136
522.806413	0.226918
523.169189	0.226185
523.531908	0.225107
523.894569	0.228661
524.257174	0.228703
524.619722	0.226553
524.982213	0.227419
525.344647	0.226625
525.707025	0.227336
526.069345	0.225452
526.431608	0.227307
526.793815	0.225323
527.155964	0.229178
527.518057	0.228370
527.880093	0.229217
528.242072	0.227883
528.603995	0.229891
528.965860	0.231415
529.327669	0.230110
529.689421	0.231274
530.051117	0.232095
530.412755	0.229710
530.774337	0.232149
531.135862	0.232214
531.497331	0.231536
531.858743	0.234545
532.220098	0.231272
532.581396	0.233587
532.942638	0.234416
533.303824	0.235126
533.664953	0.234894
534.026025	0.236699
534.387040	0.234684
534.747999	0.234493
535.108902	0.233326
535.469748	0.238560
535.830537	0.236502
536.191270	0.236711
536.551947	0.236360
536.912567	0.236444
537.273131	0.237962
537.633638	0.238253
537.994089	0.238381
538.354483	0.239560
538.714821	0.236848
539.075103	0.236414
539.435328	0.237140
539.795497	0.241034
540.155609	0.237245
540.515665	0.235665
540.875665	0.241313
541.235609	0.239734
541.595496	0.240103
541.955328	0.236592
542.315102	0.239183
542.674821	0.240166
543.034483	0.240055
543.394090	0.239871
543.753640	0.241574
544.113134	0.236658
544.472571	0.240116
544.831953	0.237110
545.191278	0.241121
545.550548	0.240552
545.909761	0.237319
546.268918	0.237989
546.628019	0.236637
546.987064	0.238844
547.346053	0.241053
547.704986	0.238827
548.063863	0.239201
548.422684	0.239577
548.781449	0.241262
549.140158	0.238720
549.498811	0.241569
549.857408	0.244946
550.215949	0.239748
550.574434	0.242470
550.932864	0.240628
551.291237	0.239122
551.649555	0.240569
552.007817	0.240326
552.366022	0.240963
552.724173	0.241476
553.082267	0.241648
553.440305	0.238702
553.798288	0.242959
554.156215	0.239590
554.514086	0.240335
554.871902	0.243523
555.229661	0.242983
555.587365	0.243245
555.945014	0.245818
556.302606	0.242858
556.660143	0.245194
557.017625	0.241750
557.375050	0.244039
557.732421	0.240895
558.089735	0.242933
558.446994	0.242965
558.804197	0.242276
559.161345	0.242127
559.518437	0.245626
559.875474	0.243519
560.232455	0.242865
560.589381	0.244014
560.946251	0.243977
561.303065	0.241733
561.659825	0.243135
562.016528	0.244689
562.373177	0.247299
562.729770	0.244802
563.086307	0.246853
563.442789	0.244718
563.799216	0.247436
564.155587	0.246156
564.511904	0.247068
564.868164	0.247290
565.224370	0.247117
565.580520	0.249234
565.936615	0.249217
566.292654	0.252009
566.648638	0.248980
567.004567	0.250074
567.360441	0.250505
567.716260	0.252354
568.072023	0.250092
568.427732	0.250840
568.783385	0.253407
569.138982	0.251444
569.494525	0.251153
569.850013	0.254188
570.205445	0.252322
570.560823	0.254969
570.916145	0.256746
571.271412	0.255217
571.626625	0.256564
571.981782	0.257010
572.336884	0.257850
572.691931	0.257383
573.046923	0.258773
573.401860	0.260330
573.756743	0.261532
574.111570	0.260721
574.466342	0.261427
574.821059	0.260363
575.175722	0.263222
575.530330	0.262922
575.884882	0.263186
576.239380	0.265319
576.593823	0.265928
576.948211	0.265237
577.302544	0.268537
577.656823	0.268205
578.011047	0.268321
578.365216	0.268793
578.719330	0.270813
579.073389	0.270686
579.427394	0.272034
579.781344	0.272785
580.135239	0.273981
580.489080	0.273920
580.842866	0.276598
581.196597	0.276930
581.550273	0.275329
581.903895	0.276305
582.257463	0.274393
582.610975	0.277991
582.964434	0.277493
583.317837	0.279840
583.671186	0.279906
584.024481	0.279959
584.377721	0.282585
584.730906	0.283439
585.084037	0.282340
585.437113	0.284361
585.790135	0.283648
586.143103	0.286418
586.496016	0.287581
586.848874	0.285239
587.201679	0.285832
587.554428	0.289293
587.907124	0.288000
588.259765	0.288494
588.612352	0.289386
588.964884	0.293191
589.317362	0.292633
589.669786	0.292367
590.022155	0.290866
590.374470	0.290201
590.726731	0.292600
591.078937	0.297331
591.431090	0.293392
591.783188	0.297769
592.135232	0.298268
592.487222	0.298144
592.839157	0.296597
593.191038	0.298543
593.542866	0.300502
593.894639	0.303766
594.246358	0.301970
594.598022	0.301480
594.949633	0.305060
595.301190	0.306040
595.652692	0.304961
596.004141	0.301147
596.355535	0.309045
596.706876	0.309701
597.058162	0.312235
597.409395	0.309427
597.760573	0.307104
598.111698	0.310491
598.462768	0.311106
598.813785	0.312075
599.164748	0.313345
599.515657	0.313667
599.866511	0.317064
600.217312	0.312225
600.568060	0.317844
600.918753	0.314245
601.269392	0.315065
601.619978	0.318044
601.970510	0.316034
602.320988	0.316415
602.671412	0.313646
603.021783	0.316020
603.372100	0.317743
603.722363	0.317157
604.072572	0.317944
604.422728	0.318112
604.772830	0.319648
605.122878	0.319292
605.472872	0.320016
605.822813	0.318311
606.172701	0.321257
606.522534	0.318560
606.872314	0.318551
607.222041	0.319505
607.571714	0.317610
607.921333	0.319227
608.270899	0.318594
608.620411	0.315478
608.969870	0.319200
609.319276	0.319784
609.668627	0.319431
610.017926	0.317840
610.367171	0.316091
610.716362	0.317297
611.065500	0.317325
611.414585	0.316183
611.763616	0.316954
612.112594	0.316971
612.461518	0.317024
612.810389	0.314280
613.159207	0.316569
613.507971	0.318265
613.856682	0.314015
614.205340	0.315899
614.553945	0.312381
614.902496	0.316574
615.250994	0.314315
615.599439	0.315143
615.947830	0.314674
616.296169	0.315748
616.644454	0.315265
616.992686	0.315174
617.340864	0.312929
617.688990	0.316433
618.037063	0.313068
618.385082	0.314942
618.733048	0.311876
619.080961	0.314130
619.428821	0.313933
619.776628	0.313362
620.124382	0.315147
620.472083	0.315411
620.819731	0.314685
621.167326	0.318698
621.514868	0.318374
621.862357	0.322841
622.209793	0.322296
622.557176	0.324609
622.904506	0.325725
623.251783	0.327815
623.599007	0.330212
623.946179	0.329839
624.293297	0.331507
624.640363	0.335504
624.987376	0.336271
625.334336	0.338905
625.681243	0.341116
626.028097	0.341274
626.374899	0.342754
626.721647	0.342714
627.068343	0.346408
627.414987	0.347067
627.761577	0.349182
628.108115	0.347492
628.454600	0.352019
628.801032	0.349950
629.147412	0.352259
629.493739	0.352092
629.840014	0.355518
630.186236	0.353070
630.532405	0.358124
630.878521	0.356085
631.224585	0.358308
631.570597	0.361586
631.916556	0.360138
632.262462	0.360256
632.608316	0.362231
632.954117	0.363002
633.299866	0.364306
633.645562	0.364723
633.991206	0.368842
634.336797	0.371668
634.682336	0.373326
635.027823	0.375623
635.373257	0.376162
635.718639	0.379382
636.063968	0.379214
636.409245	0.384830
636.754470	0.385093
637.099642	0.387045
637.444762	0.391135
637.789829	0.389687
638.134845	0.393283
638.479808	0.394366
638.824719	0.393727
639.169577	0.397996
639.514383	0.397093
639.859137	0.400923
640.203839	0.401066
640.548489	0.401388
640.893086	0.403113
641.237632	0.404679
641.582125	0.403183
641.926566	0.404375
642.270955	0.404586
642.615292	0.404945
642.959576	0.404161
643.303809	0.404748
643.647990	0.404192
643.992118	0.404444
644.336195	0.408441
644.680219	0.406752
645.024192	0.407213
645.368112	0.401251
645.711981	0.399800
646.055797	0.395159
646.399562	0.397395
646.743274	0.389800
647.086935	0.387337
647.430544	0.387746
647.774101	0.385969
648.117606	0.385994
648.461059	0.386496
648.804460	0.388422
649.147810	0.394052
649.491108	0.395915
649.834354	0.397225
650.177548	0.402346
650.520690	0.407960
650.863781	0.409067
651.206820	0.408518
651.549807	0.412729
651.892742	0.416921
652.235626	0.415975
652.578458	0.417553
652.921238	0.423507
653.263967	0.421175
653.606644	0.425678
653.949269	0.425191
654.291843	0.428894
654.634365	0.425547
654.976836	0.428572
655.319255	0.429127
655.661622	0.430733
656.003938	0.430377
656.346203	0.433813
656.688416	0.431504
657.030577	0.434745
657.372687	0.436936
657.714746	0.437374
658.056753	0.434319
658.398708	0.438067
658.740612	0.439630
659.082465	0.435984
659.424266	0.435976
659.766016	0.435732
660.107715	0.438140
660.449362	0.437315
660.790958	0.437952
661.132503	0.438555
661.473996	0.436359
661.815438	0.437040
662.156829	0.437022
662.498168	0.438296
662.839456	0.439083
663.180693	0.437473
663.521879	0.437331
663.863013	0.437537
664.204097	0.436113
664.545129	0.433369
664.886110	0.434124
665.227040	0.431030
665.567918	0.433920
665.908746	0.431064
666.249522	0.431135
666.590248	0.432271
666.930922	0.430557
667.271545	0.429309
667.612118	0.429190
667.952639	0.431084
668.293109	0.429878
668.633528	0.432496
668.973896	0.432669
669.314213	0.432848
669.654480	0.435064
669.994695	0.434811
670.334859	0.435889
670.674973	0.435761
671.015035	0.436153
671.355047	0.436082
671.695008	0.437572
672.034918	0.438617
672.374777	0.438166
672.714585	0.439386
673.054342	0.438962
673.394049	0.439472
673.733705	0.437161
674.073310	0.438557
674.412864	0.441294
674.752368	0.441903
675.091820	0.441855
675.431223	0.446705
675.770574	0.446487
676.109875	0.449035
676.449125	0.449370
676.788324	0.451677
677.127473	0.456920
677.466571	0.456915
677.805619	0.458474
678.144616	0.459006
678.483562	0.461162
678.822458	0.463788
679.161303	0.464061
679.500098	0.464510
679.838842	0.466462
680.177535	0.466111
680.516179	0.464535
680.854771	0.463497
681.193314	0.457657
681.531805	0.448420
681.870247	0.437323
682.208638	0.429649
682.546978	0.428893
682.885268	0.430068
683.223508	0.436161
683.561697	0.440386
683.899836	0.443377
684.237925	0.446275
684.575963	0.448581
684.913951	0.452082
685.251889	0.447294
685.589776	0.449360
685.927614	0.452425
686.265401	0.446385
686.603137	0.447888
686.940824	0.441526
687.278460	0.440307
687.616046	0.438755
687.953582	0.434099
688.291068	0.435409
688.628504	0.431670
688.965889	0.433533
689.303224	0.438107
689.640510	0.441495
689.977745	0.447161
690.314930	0.455244
690.652065	0.459540
690.989150	0.467670
691.326185	0.473442
691.663170	0.478472
692.000105	0.485545
692.336990	0.492303
692.673825	0.495327
693.010610	0.501917
693.347345	0.506849
693.684030	0.508903
694.020665	0.514218
694.357251	0.521722
694.693786	0.521847
695.030272	0.526155
695.366707	0.529184
695.703093	0.533273
696.039429	0.530486
696.375716	0.532069
696.711952	0.534877
697.048139	0.537387
697.384276	0.539009
697.720363	0.536799
698.056400	0.536603
698.392388	0.541792
698.728326	0.544662
699.064214	0.547751
699.400053	0.548231
699.735842	0.551802
700.071581	0.554291
700.407270	0.558296
700.742910	0.560249
701.078501	0.566818
701.414042	0.567132
701.749533	0.570370
702.084974	0.579098
702.420366	0.571235
702.755709	0.578749
703.091002	0.586121
703.426246	0.579704
703.761440	0.585933
704.096584	0.590441
704.431679	0.587168
704.766725	0.589488
705.101721	0.591619
705.436668	0.587038
705.771565	0.594397
706.106413	0.590828
706.441212	0.585707
706.775961	0.584939
707.110661	0.588401
707.445311	0.584948
707.779913	0.581133
708.114465	0.579913
708.448967	0.576572
708.783421	0.569305
709.117825	0.563425
709.452180	0.564422
709.786485	0.557471
710.120742	0.547204
710.454949	0.549080
710.789107	0.541072
711.123216	0.532775
711.457275	0.534537
711.791286	0.524968
712.125247	0.523787
712.459159	0.534940
712.793023	0.527869
713.126837	0.531594
713.460602	0.532006
713.794318	0.541750
714.127985	0.539992
714.461602	0.549843
714.795171	0.553470
715.128691	0.561322
715.462162	0.569233
715.795584	0.574190
716.128957	0.576869
716.462281	0.583961
716.795556	0.587601
717.128782	0.592199
717.461960	0.601447
717.795088	0.599883
718.128167	0.606652
718.461198	0.614967
718.794180	0.615109
719.127113	0.618723
719.459997	0.622015
719.792833	0.627859
720.125619	0.629272
720.458357	0.635463
720.791046	0.634739
721.123686	0.638257
721.456278	0.645302
721.788821	0.642980
722.121315	0.646966
722.453761	0.650898
722.786158	0.648948
723.118506	0.645385
723.450805	0.651942
723.783056	0.648977
724.115259	0.645704
724.447412	0.645717
724.779518	0.646585
725.111574	0.646085
725.443582	0.641342
725.775542	0.643724
726.107453	0.636026
726.439315	0.635278
726.771129	0.634808
727.102895	0.627922
727.434612	0.621018
727.766281	0.618122
728.097901	0.618510
728.429473	0.618173
728.760996	0.615525
729.092471	0.616323
729.423897	0.619994
729.755276	0.618752
730.086606	0.618661
730.417887	0.613921
730.749120	0.604395
731.080305	0.594896
731.411442	0.591386
731.742530	0.596519
732.073570	0.595588
732.404562	0.588182
732.735506	0.589369
733.066401	0.593599
733.397249	0.603409
733.728048	0.614148
734.058798	0.627528
734.389501	0.637057
734.720156	0.647303
735.050762	0.655119
735.381320	0.655994
735.711831	0.664812
736.042293	0.670667
736.372707	0.666194
736.703073	0.670515
737.033391	0.672747
737.363661	0.669719
737.693883	0.665072
738.024056	0.663957
738.354182	0.664759
738.684260	0.653888
739.014290	0.649843
739.344272	0.650853
739.674207	0.644470
740.004093	0.643670
740.333931	0.643848
740.663722	0.643585
740.993464	0.644921
741.323159	0.647816
741.652806	0.653207
741.982405	0.657628
742.311956	0.662672
742.641460	0.665144
742.970915	0.667878
743.300323	0.675616
743.629683	0.682623
743.958996	0.684481
744.288260	0.689242
744.617477	0.693980
744.946647	0.696119
745.275768	0.701047
745.604842	0.701500
745.933869	0.711604
746.262847	0.711439
746.591778	0.704652
746.920662	0.711709
747.249498	0.718035
747.578286	0.708764
747.907027	0.705604
748.235720	0.705544
748.564365	0.700884
748.892963	0.700605
749.221514	0.703963
749.550017	0.709356
749.878473	0.708576
750.206881	0.715361
750.535242	0.716217
750.863555	0.715611
751.191821	0.716824
751.520039	0.720717
751.848210	0.725089
752.176334	0.717802
752.504411	0.717190
752.832440	0.724490
753.160421	0.729243
753.488356	0.727012
753.816243	0.723952
754.144082	0.733030
754.471875	0.736431
754.799620	0.732254
755.127318	0.732892
755.454969	0.733286
755.782572	0.732353
756.110129	0.737814
756.437638	0.739488
756.765100	0.736064
757.092515	0.734779
757.419882	0.732418
757.747203	0.739757
758.074477	0.737849
758.401703	0.735467
758.728882	0.730694
759.056014	0.729549
759.383099	0.728480
759.710138	0.729284
760.037129	0.726317
760.364073	0.719668
760.690970	0.722273
761.017820	0.728744
761.344623	0.723810
761.671379	0.715013
761.998088	0.702705
762.324751	0.681072
762.651366	0.639220
762.977935	0.572355
763.304456	0.520486
763.630931	0.510664
763.957359	0.549777
764.283740	0.593778
764.610074	0.621439
764.936362	0.651695
765.262602	0.679038
765.588796	0.699711
765.914943	0.717605
766.241044	0.736212
766.567097	0.741616
766.893104	0.751565
767.219064	0.757546
767.544978	0.764439
767.870845	0.777825
768.196665	0.782174
768.522438	0.779230
768.848165	0.781312
769.173846	0.790966
769.499479	0.794132
769.825066	0.797828
770.150607	0.802478
770.476101	0.798051
770.801548	0.798800
771.126949	0.811802
771.452303	0.814637
771.777611	0.813437
772.102872	0.812306
772.428087	0.818026
772.753256	0.820645
773.078378	0.823044
773.403453	0.831813
773.728482	0.836591
774.053465	0.829920
774.378401	0.833730
774.703291	0.842252
775.028135	0.840978
775.352932	0.843841
775.677683	0.846572
776.002388	0.845694
776.327046	0.844882
776.651658	0.850083
776.976224	0.852467
777.300743	0.852676
777.625216	0.855059
777.949643	0.856352
778.274024	0.857284
778.598359	0.858829
778.922647	0.857751
779.246889	0.857788
779.571086	0.861941
779.895236	0.864092
780.219339	0.860394
780.543397	0.857721
780.867409	0.856837
781.191374	0.858358
781.515294	0.860433
781.839167	0.858446
782.162995	0.862902
782.486776	0.859355
782.810511	0.859985
783.134201	0.864387
783.457844	0.861305
783.781441	0.863765
784.104993	0.870571
784.428498	0.870575
784.751958	0.865725
785.075372	0.868826
785.398739	0.872857
785.722061	0.868866
786.045337	0.864385
786.368568	0.869587
786.691752	0.872426
787.014891	0.857725
787.337983	0.848335
787.661030	0.841500
787.984031	0.823712
788.306987	0.811899
788.629897	0.813097
788.952760	0.817419
789.275579	0.821069
789.598351	0.836685
789.921078	0.849191
790.243759	0.852099
790.566395	0.856736
790.888984	0.864471
791.211529	0.868335
791.534027	0.871902
791.856480	0.873579
792.178888	0.879569
792.501249	0.881471
792.823566	0.882426
793.145836	0.882321
793.468062	0.885761
793.790241	0.885690
794.112375	0.882233
794.434464	0.878831
794.756507	0.878140
795.078505	0.876855
795.400457	0.872447
795.722364	0.860046
796.044226	0.853651
796.366042	0.853154
796.687812	0.856107
797.009538	0.851264
797.331218	0.854873
797.652852	0.860828
797.974442	0.863754
798.295986	0.865323
798.617484	0.866295
798.938938	0.871938
799.260346	0.875691
799.581709	0.878181
799.903026	0.879193
800.224299	0.879676
800.545526	0.883696
800.866708	0.888055
801.187845	0.892806
801.508936	0.891752
801.829983	0.890107
802.150984	0.893098
802.471940	0.896662
802.792851	0.896598
803.113717	0.897873
803.434538	0.895716
803.755314	0.898758
804.076045	0.899787
804.396731	0.900475
804.717372	0.899639
805.037967	0.902688
805.358518	0.899149
805.679024	0.897106
805.999485	0.896751
806.319901	0.897803
806.640272	0.898398
806.960598	0.896726
807.280879	0.893475
807.601115	0.891954
807.921306	0.896489
808.241453	0.896306
808.561554	0.893622
808.881611	0.893657
809.201623	0.895654
809.521590	0.895620
809.841513	0.896629
810.161390	0.897259
810.481223	0.897818
810.801011	0.900915
811.120755	0.901996
811.440453	0.901817
811.760107	0.900937
812.079716	0.900896
812.399281	0.903956
812.718801	0.906889
813.038276	0.907747
813.357707	0.906222
813.677093	0.904295
813.996434	0.907237
814.315731	0.908504
814.634983	0.909481
814.954191	0.909029
815.273354	0.904780
815.592473	0.901781
815.911547	0.901578
816.230577	0.899087
816.549562	0.896591
816.868502	0.897123
817.187399	0.893263
817.506250	0.888307
817.825058	0.889654
818.143821	0.885932
818.462539	0.880960
818.781213	0.874322
819.099843	0.861746
819.418429	0.847825
819.736970	0.829992
820.055466	0.809832
820.373919	0.784416
820.692327	0.752107
821.010691	0.718377
821.329011	0.641055
821.647286	0.527719
821.965517	0.413192
822.283704	0.371024
822.601847	0.372958
822.919945	0.408285
823.237999	0.441375
823.556010	0.487642
823.873976	0.543252
824.191897	0.593704
824.509775	0.635104
824.827609	0.681056
825.145398	0.703416
825.463144	0.705693
825.780845	0.690070
826.098502	0.670070
826.416116	0.624905
826.733685	0.581779
827.051210	0.573102
827.368692	0.587221
827.686129	0.624699
828.003522	0.677472
828.320872	0.725022
828.638177	0.768225
828.955439	0.800374
829.272656	0.821791
829.589830	0.839889
829.906960	0.854230
830.224046	0.866956
830.541088	0.877346
830.858086	0.881796
831.175041	0.887464
831.491952	0.887531
831.808819	0.884373
832.125642	0.877109
832.442421	0.862601
832.759157	0.840238
833.075849	0.794655
833.392497	0.731114
833.709101	0.690769
834.025662	0.700672
834.342179	0.732396
834.658653	0.771559
834.975083	0.807007
835.291469	0.831034
835.607811	0.855516
835.924110	0.870123
836.240366	0.887183
836.556578	0.901299
836.872746	0.909361
837.188871	0.915220
837.504952	0.919831
837.820990	0.923323
838.136984	0.927168
838.452935	0.929816
838.768842	0.931084
839.084706	0.924644
839.400526	0.899201
839.716303	0.860067
840.032037	0.837600
840.347727	0.840555
840.663373	0.857983
840.978977	0.880661
841.294537	0.902435
841.610054	0.917672
841.925527	0.925810
842.240957	0.932822
842.556344	0.940603
842.871687	0.945550
843.186987	0.950152
843.502244	0.951154
843.817458	0.951233
844.132629	0.955665
844.447756	0.960190
844.762840	0.960909
845.077881	0.959255
845.392879	0.959462
845.707833	0.962172
846.022745	0.964558
846.337613	0.965478
846.652438	0.965353
846.967221	0.964202
847.281960	0.964385
847.596656	0.967865
847.911309	0.965307
848.225919	0.967190
848.540485	0.968952
848.855009	0.968035
849.169490	0.967995
849.483928	0.969494
849.798323	0.968984
850.112675	0.968429
850.426984	0.970743
850.741251	0.968693
851.055474	0.970150
851.369654	0.966771
851.683792	0.969067
851.997887	0.970411
852.311938	0.970522
852.625947	0.969276
852.939914	0.966916
853.253837	0.968678
853.567718	0.970298
853.881555	0.971085
854.195350	0.968321
854.509103	0.969252
854.822812	0.970506
855.136479	0.970857
855.450103	0.969731
855.763685	0.967401
856.077224	0.968921
856.390720	0.970530
856.704173	0.970521
857.017584	0.967874
857.330953	0.967632
857.644278	0.968173
857.957561	0.969185
858.270802	0.968347
858.584000	0.968444
858.897155	0.966366
859.210268	0.967678
859.523339	0.967630
859.836367	0.969734
860.149352	0.969834
860.462295	0.969365
860.775195	0.970391
861.088054	0.968715
861.400869	0.968214
861.713642	0.969686
862.026373	0.970070
862.339062	0.970397
862.651708	0.967877
862.964312	0.967775
863.276873	0.969484
863.589392	0.967944
863.901869	0.966326
864.214303	0.964386
864.526696	0.964031
864.839045	0.964455
865.151353	0.960816
865.463619	0.962396
865.775842	0.962370
866.088023	0.961567
866.400162	0.963001
866.712258	0.962137
867.024313	0.963094
867.336325	0.963403
867.648296	0.962420
867.960224	0.962073
868.272110	0.960202
868.583954	0.964334
868.895755	0.963740
869.207515	0.961323
869.519233	0.959137
869.830909	0.960698
870.142542	0.962137
870.454134	0.961629
870.765684	0.960625
871.077191	0.957703
871.388657	0.958757
871.700081	0.958123
872.011463	0.958835
872.322803	0.957531
872.634101	0.957006
872.945357	0.953821
873.256571	0.953626
873.567744	0.953097
873.878874	0.953031
874.189963	0.952568
874.501010	0.950799
874.812015	0.949446
875.122979	0.952043
875.433900	0.953324
875.744780	0.953820
876.055618	0.950872
876.366415	0.949986
876.677169	0.949599
876.987882	0.950714
877.298554	0.951701
877.609183	0.947869
877.919771	0.945006
878.230317	0.943168
878.540822	0.940483
878.851285	0.935192
879.161707	0.927926
879.472087	0.915901
879.782425	0.899728
880.092722	0.865349
880.402977	0.814524
880.713191	0.754475
881.023363	0.695928
881.333494	0.663276
881.643583	0.634752
881.953631	0.635071
882.263637	0.663438
882.573602	0.702348
882.883526	0.727672
883.193408	0.750868
883.503248	0.772806
883.813048	0.801058
884.122806	0.829489
884.432522	0.852081
884.742197	0.872683
885.051831	0.882769
885.361424	0.892444
885.670975	0.904140
885.980485	0.915605
886.289954	0.920323
886.599382	0.925624
886.908768	0.928198
887.218113	0.936138
887.527417	0.940098
887.836680	0.942142
888.145901	0.944200
888.455082	0.945613
888.764221	0.950862
889.073319	0.952047
889.382376	0.953548
889.691392	0.953294
890.000366	0.953304
890.309300	0.954595
890.618193	0.952691
890.927044	0.952010
891.235855	0.951188
891.544625	0.950768
891.853353	0.951432
892.162041	0.950727
892.470687	0.942902
892.779293	0.938402
893.087858	0.934897
893.396381	0.927146
893.704864	0.913469
894.013306	0.890951
894.321707	0.864393
894.630068	0.849741
894.938387	0.845440
895.246665	0.846356
895.554903	0.858424
895.863100	0.871427
896.171256	0.887970
896.479371	0.908077
896.787446	0.919759
897.095480	0.926149
897.403473	0.928892
897.711425	0.933452
898.019336	0.940964
898.327207	0.943401
898.635038	0.944921
898.942827	0.945686
899.250576	0.948681
899.558284	0.951864
899.865952	0.954378
900.173579	0.956178
900.481165	0.955666
900.788711	0.959618
901.096216	0.960955
901.403681	0.961830
901.711105	0.963512
902.018489	0.963771
902.325832	0.962216
902.633135	0.962513
902.940397	0.955985
903.247619	0.944273
903.554800	0.918074
903.861941	0.880085
904.169041	0.845079
904.476101	0.828005
904.783121	0.830749
905.090100	0.845453
905.397039	0.865871
905.703938	0.887314
906.010796	0.906871
906.317614	0.922961
906.624391	0.934891
906.931129	0.945456
907.237826	0.952027
907.544483	0.959382
907.851099	0.963394
908.157675	0.967627
908.464211	0.970884
908.770707	0.971696
909.077163	0.974890
909.383578	0.974682
909.689954	0.975105
909.996289	0.974589
910.302584	0.978073
910.608839	0.978208
910.915054	0.979029
911.221229	0.978270
911.527363	0.977025
911.833458	0.976859
912.139513	0.977564
912.445527	0.974760
912.751502	0.973635
913.057436	0.971530
913.363331	0.969960
913.669186	0.966383
913.975000	0.961359
914.280775	0.955594
914.586510	0.949664
914.892205	0.936224
915.197859	0.915371
915.503475	0.887723
915.809050	0.869474
916.114585	0.863346
916.420081	0.861378
916.725536	0.859187
917.030952	0.866787
917.336328	0.878930
917.641665	0.894394
917.946961	0.909087
918.252218	0.920101
918.557435	0.928330
918.862612	0.937359
919.167750	0.941796
919.472848	0.946405
919.777906	0.952863
920.082925	0.957611
920.387904	0.963075
920.692843	0.962770
920.997743	0.964059
921.302603	0.967104
921.607423	0.968756
921.912204	0.971974
922.216946	0.972137
922.521647	0.974111
922.826310	0.973993
923.130932	0.977235
923.435516	0.978968
923.740059	0.979924
924.044564	0.977929
924.349028	0.980815
924.653454	0.982383
924.957840	0.983773
925.262186	0.984693
925.566493	0.984451
925.870761	0.984752
926.174989	0.985852
926.479178	0.987415
926.783328	0.988405
927.087438	0.988585
927.391509	0.986919
927.695541	0.989962
927.999533	0.987927
928.303486	0.989736
928.607400	0.990430
928.911275	0.988936
929.215110	0.990195
929.518906	0.989084
929.822663	0.990262
930.126381	0.990800
930.430060	0.989976
930.733699	0.989720
931.037299	0.989298
931.340861	0.990177
931.644383	0.989394
931.947866	0.988894
932.251309	0.990762
932.554714	0.990406
932.858080	0.990202
933.161407	0.989896
933.464694	0.990455
933.767943	0.989537
934.071153	0.991080
934.374323	0.991656
934.677455	0.991780
934.980548	0.990782
935.283602	0.990611
935.586617	0.990601
935.889593	0.990608
936.192530	0.990170
936.495428	0.990139
936.798287	0.989919
937.101108	0.990865
937.403890	0.988511
937.706632	0.988191
938.009336	0.985930
938.312002	0.986132
938.614628	0.984082
938.917216	0.982657
939.219765	0.981036
939.522275	0.985227
939.824747	0.983589
940.127179	0.983499
940.429573	0.984673
940.731929	0.983995
941.034246	0.984667
941.336524	0.984664
941.638763	0.986185
941.940964	0.986828
942.243126	0.986597
942.545250	0.987371
942.847335	0.987873
943.149381	0.987692
943.451389	0.987478
943.753359	0.987555
944.055290	0.989474
944.357182	0.989222
944.659036	0.988593
944.960851	0.990243
945.262628	0.989692
945.564367	0.990529
945.866067	0.990334
946.167729	0.989604
946.469352	0.988876
946.770937	0.988838
947.072484	0.989678
947.373992	0.990553
947.675462	0.990632
947.976893	0.988933
948.278286	0.989673
948.579641	0.991156
948.880958	0.990766
949.182236	0.991288
949.483476	0.991682
949.784678	0.990827
950.085841	0.991981
950.386967	0.989758
950.688054	0.990445
950.989103	0.991451
951.290114	0.989169
951.591087	0.989683
951.892021	0.990807
952.192917	0.988267
952.493776	0.987620
952.794596	0.987920
953.095378	0.987317
953.396122	0.989417
953.696828	0.987572
953.997496	0.990328
954.298126	0.991546
954.598718	0.990052
954.899272	0.990383
955.199788	0.989528
955.500266	0.991015
955.800706	0.992939
956.101108	0.992476
956.401472	0.992942
956.701798	0.993342
957.002087	0.993768
957.302337	0.992595
957.602550	0.994373
957.902724	0.994372
958.202861	0.994758
958.502960	0.995320
958.803022	0.993135
959.103045	0.996306
959.403031	0.995879
959.702979	0.994458
960.002889	0.995879
960.302762	0.995139
960.602596	0.996175
960.902393	0.993743
961.202153	0.995787
961.501875	0.996544
961.801559	0.995260
962.101205	0.994310
962.400814	0.995907
962.700385	0.995963
962.999918	0.995365
963.299414	0.996679
963.598873	0.994820
963.898293	0.995799
964.197677	0.995610
964.497022	0.996826
964.796331	0.996047
965.095601	0.996189
965.394835	0.996115
965.694030	0.996993
965.993189	0.997459
966.292309	0.995672
966.591393	0.997694
966.890439	0.996816
967.189447	0.996429
967.488419	0.996826
967.787353	0.995745
968.086249	0.996786
968.385108	0.997188
968.683930	0.997154
968.982714	0.995779
969.281462	0.995963
969.580172	0.994817
969.878844	0.997227
970.177480	0.996995
970.476078	0.996083
970.774639	0.995939
971.073162	0.997687
971.371649	0.995916
971.670098	0.995794
971.968510	0.997541
972.266885	0.995473
972.565223	0.996320
972.863524	0.996362
973.161788	0.994975
973.460014	0.997659
973.758204	0.995303
974.056356	0.996588
974.354471	0.994061
974.652550	0.996949
974.950591	0.996871
975.248595	0.996650
975.546563	0.995626
975.844493	0.997127
976.142386	0.996802
976.440243	0.996975
976.738062	0.996855
977.035845	0.997284
977.333590	0.995798
977.631299	0.996857
977.928971	0.996270
978.226606	0.995917
978.524204	0.995751
978.821765	0.997929
979.119290	0.995724
979.416777	0.995883
979.714228	0.997601
980.011642	0.995169
980.309020	0.997043
980.606360	0.996757
980.903664	0.997209
981.200931	0.996102
981.498162	0.995676
981.795356	0.994652
982.092513	0.993622
982.389633	0.994683
982.686717	0.990826
982.983764	0.991961
983.280775	0.990150
983.577749	0.990297
983.874686	0.991444
984.171587	0.991994
984.468451	0.992754
984.765279	0.994048
985.062070	0.993767
985.358824	0.995124
985.655543	0.993902
985.952224	0.996180
986.248869	0.996075
986.545478	0.996780
986.842050	0.997545
987.138586	0.995473
987.435086	0.997620
987.731549	0.997728
988.027975	0.997473
988.324366	0.997412
988.620719	0.997781
988.917037	0.996124
989.213318	0.997301
989.509563	0.997862
989.805772	0.998110
990.101944	0.998510
990.398080	0.997439
990.694180	0.998082
990.990244	0.997498
991.286271	0.997149
991.582262	0.998101
991.878217	0.996160
992.174136	0.999010
992.470019	0.997923
992.765865	0.996629
993.061676	0.997846
993.357450	0.997805
993.653188	0.996939
993.948890	0.996835
994.244556	0.996595
994.540186	0.997585
994.835780	0.995364
995.131337	0.997064
995.426859	0.995404
995.722345	0.995905
996.017795	0.996189
996.313208	0.994322
996.608586	0.995369
996.903928	0.996643
997.199234	0.996128
997.494504	0.996248
997.789738	0.995128
998.084936	0.996125
998.380099	0.998339
998.675225	0.996747
998.970316	0.997070
999.265371	0.998037
999.560390	0.998026
999.855373	0.997710
1000.150320	0.997408
1000.445232	0.997126
1000.740108	0.997450
1001.034948	0.997535
1001.329752	0.998730
1001.624521	0.998694
1001.919254	0.997095
1002.213951	0.997897
1002.508613	0.996890
1002.803239	0.998535
1003.097829	0.997526
1003.392384	0.999878
1003.686903	0.997775
1003.981386	0.999044
1004.275834	0.997971
1004.570246	0.998288
1004.864623	0.998681
1005.158964	1.000541
1005.453270	0.998013
1005.747540	0.996039
1006.041775	0.997979
1006.335974	0.998766
1006.630138	0.997718
1006.924266	0.999273
1007.218359	0.999998
1007.512416	0.999139
1007.806438	0.997629
1008.100425	0.999603
1008.394376	0.999367
1008.688292	0.997497
1008.982172	1.000080
1009.276017	0.998061
1009.569827	0.998702
1009.863602	0.998272
1010.157341	0.998382
1010.451045	0.998259
1010.744714	0.999249
1011.038347	0.998335
1011.331945	0.998462
1011.625508	0.996963
1011.919036	0.998155
1012.212528	0.998738
1012.505986	0.997480
1012.799408	0.999087
1013.092795	0.999383
1013.386147	0.998258
1013.679464	0.998668
1013.972745	0.998177
1014.265992	0.997651
1014.559204	0.996913
1014.852380	0.998463
1015.145521	0.998124
1015.438628	0.997824
1015.731699	0.997307
1016.024736	0.998104
1016.317737	0.999036
1016.610703	0.997936
1016.903635	0.998554
1017.196531	0.998768
1017.489393	0.998924
1017.782219	0.997626
1018.075011	0.998357
1018.367768	0.997823
1018.660490	0.999528
1018.953177	0.999528
1019.245829	0.999528
