Dividing Wavelength (nm)	Counts (n)	Blue Motor Position (mm): 0.000000	Red Motor Position (mm): 42.100000	
326.493990	0.999966
326.888308	0.999966
327.282561	0.999966
327.676750	0.999559
328.070874	0.998418
328.464933	0.999772
328.858929	0.999841
329.252859	0.999571
329.646726	1.000490
330.040528	0.999591
330.434265	0.998696
330.827938	1.000065
331.221547	0.999479
331.615091	0.999474
332.008571	0.999803
332.401986	1.000550
332.795338	1.000531
333.188625	0.998657
333.581847	1.000292
333.975006	0.998960
334.368100	0.997610
334.761129	0.999879
335.154095	1.000240
335.546996	1.000007
335.939833	0.996404
336.332606	0.996788
336.725315	0.997848
337.117960	0.998927
337.510540	0.999342
337.903056	0.997579
338.295508	0.997552
338.687896	0.998289
339.080220	0.998656
339.472480	0.997969
339.864676	0.998786
340.256807	0.998265
340.648875	1.000146
341.040879	0.997834
341.432818	0.998046
341.824694	0.998429
342.216506	0.998629
342.608253	0.998682
342.999937	0.997660
343.391557	0.998516
343.783113	0.998431
344.174605	0.998482
344.566033	0.999175
344.957397	0.997766
345.348697	0.998597
345.739934	0.998333
346.131106	0.997270
346.522215	0.996287
346.913260	0.997964
347.304241	0.997655
347.695159	0.997915
348.086012	0.996707
348.476802	0.998825
348.867528	0.998092
349.258191	0.997765
349.648789	0.997650
350.039324	0.999069
350.429796	0.997924
350.820203	0.997078
351.210548	0.997108
351.600828	0.998150
351.991045	0.997476
352.381198	0.998722
352.771288	0.997734
353.161314	0.998252
353.551276	0.999118
353.941175	0.996650
354.331010	0.997101
354.720782	0.998857
355.110490	0.997816
355.500135	0.998153
355.889717	0.997933
356.279235	0.998004
356.668689	0.998408
357.058080	0.998181
357.447408	0.998703
357.836672	0.997939
358.225873	0.998413
358.615010	0.998097
359.004084	0.998913
359.393095	0.998014
359.782043	0.998335
360.170927	0.999794
360.559748	0.998711
360.948505	0.997721
361.337199	0.997795
361.725830	0.999432
362.114398	0.997484
362.502903	0.998150
362.891344	0.999514
363.279722	0.998115
363.668037	0.999253
364.056289	0.998447
364.444478	0.999700
364.832603	0.998151
365.220665	0.998913
365.608665	0.998104
365.996601	0.997794
366.384474	0.999557
366.772284	0.998622
367.160031	0.997639
367.547715	0.997525
367.935336	0.998777
368.322893	0.997620
368.710388	0.998557
369.097820	0.998346
369.485189	0.997900
369.872495	0.997922
370.259738	0.997789
370.646918	0.998171
371.034035	0.997812
371.421090	0.998324
371.808081	0.997750
372.195010	0.999304
372.581875	0.999025
372.968678	0.996682
373.355418	0.997821
373.742096	0.999334
374.128710	0.999180
374.515262	0.997674
374.901751	0.998875
375.288177	0.998159
375.674540	0.998069
376.060841	0.998093
376.447079	0.998521
376.833254	0.998049
377.219367	0.998619
377.605417	0.998727
377.991404	0.999305
378.377329	0.997283
378.763191	0.998277
379.148991	0.999544
379.534727	0.998200
379.920402	0.998311
380.306013	0.998358
380.691563	0.999590
381.077049	0.998749
381.462474	0.998467
381.847835	0.998917
382.233134	0.997793
382.618371	0.998939
383.003545	0.998775
383.388657	0.999008
383.773706	1.000025
384.158693	0.999266
384.543618	0.998963
384.928480	0.999052
385.313280	0.998980
385.698017	0.999141
386.082692	0.999126
386.467305	0.998582
386.851856	0.998329
387.236344	0.998040
387.620770	0.998646
388.005133	0.997949
388.389435	1.000107
388.773674	0.999008
389.157851	0.998885
389.541965	0.999152
389.926018	0.998849
390.310008	1.000285
390.693936	0.999727
391.077802	0.999005
391.461606	0.998983
391.845348	0.998890
392.229027	1.000204
392.612645	0.999561
392.996200	1.001448
393.379694	0.998793
393.763125	0.999431
394.146494	1.000306
394.529801	0.998391
394.913047	0.999176
395.296230	0.999449
395.679351	0.999603
396.062410	0.998959
396.445408	0.999001
396.828343	0.999496
397.211217	0.998825
397.594028	0.999662
397.976778	0.999001
398.359466	0.998762
398.742092	0.999594
399.124656	0.999084
399.507158	0.999253
399.889598	0.998811
400.271977	0.999618
400.654294	0.999261
401.036549	0.999331
401.418742	1.000918
401.800874	0.998550
402.182944	0.998267
402.564952	0.998410
402.946898	0.999995
403.328783	0.999202
403.710606	0.999741
404.092367	0.999128
404.474067	0.999338
404.855705	0.999094
405.237282	1.000064
405.618797	0.999847
406.000250	0.998957
406.381642	0.999895
406.762972	0.999054
407.144240	1.000254
407.525447	0.999339
407.906593	1.000113
408.287677	1.000388
408.668700	1.000178
409.049661	0.998397
409.430560	0.999878
409.811399	0.998832
410.192176	0.999519
410.572891	0.999212
410.953545	0.999481
411.334138	0.998279
411.714669	0.999256
412.095139	0.999290
412.475547	0.999776
412.855894	0.999600
413.236180	0.999962
413.616405	0.999451
413.996568	0.999612
414.376670	0.998660
414.756711	0.998797
415.136691	0.999379
415.516609	0.999620
415.896466	0.998866
416.276262	0.998586
416.655997	1.000391
417.035670	0.999806
417.415283	0.999416
417.794834	0.998859
418.174324	0.999632
418.553753	0.999592
418.933121	0.999943
419.312428	0.999323
419.691674	0.999269
420.070859	0.999843
420.449983	0.999240
420.829045	0.999142
421.208047	0.999316
421.586988	1.000163
421.965867	0.999542
422.344686	1.001312
422.723444	1.000199
423.102141	1.000385
423.480777	0.999256
423.859352	0.999331
424.237866	0.998615
424.616319	0.999952
424.994712	1.000068
425.373044	0.999736
425.751314	0.999992
426.129524	0.999363
426.507673	0.999690
426.885762	1.000186
427.263789	1.000078
427.641756	0.999945
428.019662	1.000112
428.397508	0.999081
428.775292	0.999373
429.153016	0.999777
429.530679	0.999862
429.908282	1.000395
430.285824	1.000166
430.663305	0.998758
431.040726	0.999823
431.418086	1.000703
431.795385	1.000504
432.172624	0.999652
432.549802	1.000156
432.926920	1.000250
433.303977	0.998603
433.680974	1.000048
434.057910	0.999832
434.434786	1.000305
434.811601	0.999985
435.188355	0.999318
435.565050	0.998963
435.941683	0.998978
436.318257	1.000865
436.694770	0.999203
437.071222	1.000454
437.447614	1.000063
437.823946	1.000259
438.200218	0.999938
438.576429	0.999633
438.952580	0.999781
439.328670	0.999207
439.704700	1.000056
440.080670	0.999821
440.456580	0.999754
440.832429	0.999457
441.208218	1.000415
441.583947	0.999238
441.959616	1.000006
442.335224	0.999532
442.710773	1.000666
443.086261	0.999969
443.461689	1.000103
443.837057	0.999619
444.212365	1.000494
444.587612	0.999418
444.962800	0.999083
445.337927	1.000097
445.712995	0.999915
446.088002	1.000237
446.462949	0.999945
446.837837	0.999979
447.212664	1.000105
447.587431	1.000436
447.962139	0.999303
448.336786	1.000157
448.711374	1.000672
449.085901	0.999672
449.460369	1.000541
449.834776	1.000253
450.209124	0.999925
450.583412	0.999136
450.957640	0.999632
451.331808	1.000221
451.705917	0.999433
452.079965	0.999463
452.453954	0.999980
452.827883	0.999679
453.201752	0.999907
453.575562	1.000099
453.949311	1.000361
454.323001	1.000208
454.696632	0.999607
455.070202	0.999832
455.443713	0.999660
455.817164	0.999770
456.190556	0.999666
456.563888	0.999818
456.937160	0.999798
457.310373	0.999574
457.683526	0.999341
458.056619	0.999610
458.429653	0.999688
458.802628	0.999662
459.175542	0.999538
459.548398	1.000045
459.921194	0.999193
460.293930	0.999305
460.666607	0.998794
461.039224	0.998939
461.411782	0.999515
461.784280	0.998874
462.156719	1.000562
462.529099	0.999978
462.901419	1.000084
463.273680	0.999499
463.645882	0.999487
464.018024	0.998982
464.390106	0.999897
464.762130	1.000366
465.134094	0.999450
465.505999	1.000049
465.877845	0.999883
466.249631	0.999604
466.621358	0.999686
466.993026	0.999686
467.364634	0.999697
467.736184	1.000215
468.107674	0.999873
468.479105	0.999270
468.850477	1.000282
469.221790	1.000006
469.593043	1.000657
469.964238	1.001186
470.335373	1.000060
470.706449	0.999636
471.077467	1.000281
471.448425	0.999775
471.819324	1.000318
472.190164	0.998781
472.560945	0.999869
472.931667	0.999736
473.302330	0.999375
473.672934	0.999671
474.043479	0.999895
474.413965	0.999961
474.784393	0.999798
475.154761	0.999929
475.525070	0.999580
475.895321	0.999718
476.265513	0.999750
476.635645	0.999592
477.005719	0.999453
477.375734	0.999368
477.745691	1.000012
478.115588	0.999937
478.485427	1.000170
478.855207	0.999700
479.224928	0.999873
479.594591	0.999581
479.964194	1.000322
480.333739	1.000181
480.703226	0.999763
481.072653	1.000456
481.442022	1.000307
481.811333	0.999424
482.180584	1.000233
482.549777	1.000111
482.918912	1.000135
483.287988	1.000067
483.657005	0.999832
484.025964	1.001137
484.394864	1.000983
484.763706	1.000181
485.132489	1.000256
485.501213	1.000450
485.869879	1.000198
486.238487	1.000408
486.607036	1.000693
486.975527	0.999841
487.343959	0.999834
487.712333	1.000271
488.080648	1.000056
488.448905	1.000340
488.817104	1.000499
489.185244	1.000505
489.553326	1.000161
489.921350	0.999911
490.289315	1.000187
490.657222	1.000408
491.025070	1.000523
491.392861	1.000055
491.760593	1.000496
492.128267	1.000097
492.495883	0.999820
492.863440	1.000204
493.230939	1.000621
493.598380	0.999682
493.965763	0.999895
494.333088	1.000546
494.700354	0.999957
495.067563	1.000337
495.434713	1.000186
495.801805	1.000471
496.168839	1.000601
496.535815	0.999877
496.902733	0.999666
497.269593	1.000183
497.636395	0.999792
498.003139	1.000259
498.369825	1.000618
498.736453	0.999518
499.103023	0.999360
499.469535	0.999705
499.835989	0.999950
500.202385	0.999810
500.568723	0.999436
500.935003	1.000500
501.301226	1.000722
501.667390	1.000248
502.033497	1.000604
502.399546	1.000670
502.765537	0.999850
503.131470	1.000162
503.497345	0.999846
503.863163	1.000607
504.228923	1.000632
504.594625	1.000094
504.960269	1.000592
505.325856	1.000359
505.691385	0.999850
506.056856	1.000422
506.422270	0.999843
506.787625	1.000768
507.152924	1.000306
507.518164	0.999972
507.883347	1.000294
508.248472	1.000288
508.613540	1.000080
508.978550	1.000422
509.343503	0.999986
509.708398	1.000333
510.073236	1.000303
510.438016	1.000652
510.802738	1.000252
511.167403	0.999867
511.532010	0.999863
511.896561	1.000005
512.261053	1.001124
512.625488	1.000222
512.989866	1.000130
513.354186	0.999858
513.718449	1.000604
514.082655	0.999704
514.446803	0.999587
514.810894	1.000792
515.174927	0.999871
515.538904	0.999990
515.902822	0.999869
516.266684	1.000161
516.630488	1.000606
516.994235	0.999803
517.357925	1.000551
517.721558	0.999688
518.085133	0.999940
518.448651	1.000869
518.812112	0.999873
519.175516	0.999967
519.538863	1.000253
519.902152	0.999877
520.265385	0.999509
520.628560	0.999030
520.991678	1.000378
521.354739	0.999831
521.717743	0.999780
522.080690	0.999548
522.443580	0.999429
522.806413	0.999731
523.169189	0.999237
523.531908	0.999021
523.894569	0.999313
524.257174	0.999950
524.619722	0.999608
524.982213	0.999659
525.344647	0.999759
525.707025	0.999164
526.069345	0.999304
526.431608	0.999116
526.793815	0.999917
527.155964	0.999614
527.518057	0.999482
527.880093	0.999651
528.242072	0.999116
528.603995	0.999698
528.965860	1.000245
529.327669	0.999124
529.689421	0.999542
530.051117	0.999574
530.412755	0.998961
530.774337	0.999569
531.135862	0.999083
531.497331	0.999007
531.858743	0.999000
532.220098	0.999549
532.581396	0.999119
532.942638	0.999572
533.303824	0.998715
533.664953	0.999638
534.026025	0.998875
534.387040	0.999202
534.747999	0.998856
535.108902	0.999619
535.469748	0.999013
535.830537	0.999100
536.191270	0.998784
536.551947	0.998965
536.912567	0.998962
537.273131	0.999731
537.633638	0.998460
537.994089	0.997995
538.354483	0.998144
538.714821	0.999093
539.075103	0.998644
539.435328	0.999017
539.795497	0.998986
540.155609	0.998496
540.515665	0.998812
540.875665	0.998837
541.235609	0.998608
541.595496	0.998152
541.955328	0.998036
542.315102	0.998919
542.674821	0.998465
543.034483	0.998065
543.394090	0.998057
543.753640	0.998780
544.113134	0.998670
544.472571	0.999435
544.831953	0.998547
545.191278	0.998616
545.550548	0.999049
545.909761	0.998270
546.268918	0.998565
546.628019	0.998620
546.987064	0.998323
547.346053	0.998600
547.704986	0.999244
548.063863	0.998065
548.422684	0.998874
548.781449	0.998864
549.140158	0.997849
549.498811	0.998498
549.857408	0.998132
550.215949	0.999153
550.574434	0.997819
550.932864	0.998261
551.291237	0.998662
551.649555	0.998759
552.007817	0.998437
552.366022	0.997407
552.724173	0.998343
553.082267	0.998177
553.440305	0.997794
553.798288	0.998296
554.156215	0.998710
554.514086	0.998731
554.871902	0.997949
555.229661	0.998108
555.587365	0.998557
555.945014	0.999215
556.302606	0.997798
556.660143	0.997805
557.017625	0.998364
557.375050	0.998388
557.732421	0.998872
558.089735	0.998573
558.446994	0.999312
558.804197	0.998183
559.161345	0.998431
559.518437	0.998912
559.875474	0.997836
560.232455	0.997941
560.589381	0.998878
560.946251	0.997882
561.303065	0.998092
561.659825	0.999048
562.016528	0.997913
562.373177	0.999063
562.729770	0.998355
563.086307	0.998158
563.442789	0.998163
563.799216	0.997977
564.155587	0.997733
564.511904	0.997679
564.868164	0.998006
565.224370	0.997268
565.580520	0.998198
565.936615	0.997724
566.292654	0.998094
566.648638	0.998438
567.004567	0.997730
567.360441	0.998552
567.716260	0.998925
568.072023	0.998304
568.427732	0.997515
568.783385	0.998107
569.138982	0.998245
569.494525	0.997746
569.850013	0.998561
570.205445	0.997906
570.560823	0.998157
570.916145	0.998045
571.271412	0.998292
571.626625	0.997883
571.981782	0.997563
572.336884	0.998320
572.691931	0.998233
573.046923	0.998183
573.401860	0.998439
573.756743	0.997815
574.111570	0.998313
574.466342	0.998268
574.821059	0.998039
575.175722	0.997760
575.530330	0.998571
575.884882	0.997284
576.239380	0.998375
576.593823	0.997703
576.948211	0.997825
577.302544	0.998094
577.656823	0.998231
578.011047	0.998051
578.365216	0.997924
578.719330	0.997433
579.073389	0.998507
579.427394	0.997817
579.781344	0.998191
580.135239	0.998085
580.489080	0.997992
580.842866	0.997925
581.196597	0.997468
581.550273	0.997729
581.903895	0.998195
582.257463	0.997218
582.610975	0.997333
582.964434	0.997547
583.317837	0.998339
583.671186	0.997698
584.024481	0.997856
584.377721	0.997502
584.730906	0.997872
585.084037	0.997538
585.437113	0.998100
585.790135	0.997830
586.143103	0.997309
586.496016	0.997902
586.848874	0.996734
587.201679	0.997743
587.554428	0.997566
587.907124	0.996406
588.259765	0.996629
588.612352	0.998045
588.964884	0.997395
589.317362	0.997576
589.669786	0.996996
590.022155	0.996481
590.374470	0.997208
590.726731	0.996607
591.078937	0.996111
591.431090	0.996508
591.783188	0.996649
592.135232	0.996397
592.487222	0.996598
592.839157	0.996527
593.191038	0.996055
593.542866	0.995696
593.894639	0.996111
594.246358	0.994870
594.598022	0.995763
594.949633	0.996115
595.301190	0.995593
595.652692	0.995712
596.004141	0.995235
596.355535	0.995861
596.706876	0.995984
597.058162	0.995522
597.409395	0.995586
597.760573	0.995139
598.111698	0.995169
598.462768	0.994171
598.813785	0.994186
599.164748	0.995448
599.515657	0.994264
599.866511	0.994522
600.217312	0.993721
600.568060	0.994596
600.918753	0.994289
601.269392	0.993678
601.619978	0.992947
601.970510	0.993451
602.320988	0.993402
602.671412	0.992665
603.021783	0.993415
603.372100	0.993579
603.722363	0.993569
604.072572	0.992787
604.422728	0.992162
604.772830	0.991532
605.122878	0.991786
605.472872	0.991455
605.822813	0.991031
606.172701	0.991469
606.522534	0.991565
606.872314	0.990755
607.222041	0.989703
607.571714	0.990892
607.921333	0.989767
608.270899	0.989326
608.620411	0.989228
608.969870	0.990084
609.319276	0.988888
609.668627	0.988916
610.017926	0.987597
610.367171	0.987079
610.716362	0.987166
611.065500	0.986597
611.414585	0.986666
611.763616	0.986768
612.112594	0.985666
612.461518	0.984891
612.810389	0.984912
613.159207	0.984995
613.507971	0.984109
613.856682	0.984034
614.205340	0.983882
614.553945	0.982339
614.902496	0.982431
615.250994	0.982174
615.599439	0.981829
615.947830	0.980685
616.296169	0.979802
616.644454	0.979579
616.992686	0.978968
617.340864	0.977733
617.688990	0.977581
618.037063	0.977102
618.385082	0.976100
618.733048	0.974901
619.080961	0.974552
619.428821	0.974411
619.776628	0.972048
620.124382	0.972061
620.472083	0.970287
620.819731	0.970981
621.167326	0.970672
621.514868	0.969165
621.862357	0.969460
622.209793	0.969665
622.557176	0.966914
622.904506	0.966868
623.251783	0.966599
623.599007	0.966031
623.946179	0.966016
624.293297	0.965100
624.640363	0.963865
624.987376	0.963597
625.334336	0.963639
625.681243	0.962770
626.028097	0.962380
626.374899	0.961590
626.721647	0.960456
627.068343	0.960629
627.414987	0.958197
627.761577	0.957472
628.108115	0.956546
628.454600	0.956463
628.801032	0.954303
629.147412	0.955001
629.493739	0.952005
629.840014	0.951961
630.186236	0.951671
630.532405	0.949774
630.878521	0.948318
631.224585	0.946791
631.570597	0.946899
631.916556	0.945425
632.262462	0.943795
632.608316	0.942914
632.954117	0.941408
633.299866	0.941225
633.645562	0.939370
633.991206	0.939362
634.336797	0.938780
634.682336	0.937352
635.027823	0.936896
635.373257	0.936276
635.718639	0.935402
636.063968	0.933876
636.409245	0.933934
636.754470	0.932370
637.099642	0.932738
637.444762	0.931321
637.789829	0.929173
638.134845	0.928426
638.479808	0.927418
638.824719	0.926942
639.169577	0.925590
639.514383	0.924509
639.859137	0.923334
640.203839	0.923626
640.548489	0.921154
640.893086	0.920953
641.237632	0.919711
641.582125	0.917786
641.926566	0.915954
642.270955	0.915556
642.615292	0.914495
642.959576	0.912689
643.303809	0.910916
643.647990	0.909453
643.992118	0.909810
644.336195	0.908494
644.680219	0.906791
645.024192	0.905946
645.368112	0.902364
645.711981	0.901431
646.055797	0.898907
646.399562	0.896271
646.743274	0.892639
647.086935	0.891133
647.430544	0.889538
647.774101	0.886729
648.117606	0.886794
648.461059	0.885176
648.804460	0.883808
649.147810	0.884470
649.491108	0.882842
649.834354	0.881280
650.177548	0.882434
650.520690	0.881813
650.863781	0.880602
651.206820	0.878930
651.549807	0.878555
651.892742	0.877016
652.235626	0.876074
652.578458	0.874981
652.921238	0.874301
653.263967	0.873359
653.606644	0.873647
653.949269	0.870624
654.291843	0.870688
654.634365	0.867588
654.976836	0.866151
655.319255	0.865715
655.661622	0.864456
656.003938	0.862554
656.346203	0.863042
656.688416	0.859571
657.030577	0.860315
657.372687	0.858598
657.714746	0.856925
658.056753	0.855467
658.398708	0.853452
658.740612	0.854707
659.082465	0.850276
659.424266	0.849268
659.766016	0.847318
660.107715	0.845592
660.449362	0.843747
660.790958	0.841942
661.132503	0.840379
661.473996	0.838082
661.815438	0.837294
662.156829	0.836566
662.498168	0.835240
662.839456	0.834726
663.180693	0.831741
663.521879	0.831020
663.863013	0.830268
664.204097	0.826299
664.545129	0.824944
664.886110	0.821787
665.227040	0.819603
665.567918	0.820192
665.908746	0.816442
666.249522	0.815074
666.590248	0.815278
666.930922	0.812881
667.271545	0.809440
667.612118	0.809239
667.952639	0.807567
668.293109	0.805827
668.633528	0.805236
668.973896	0.804976
669.314213	0.802218
669.654480	0.800912
669.994695	0.800496
670.334859	0.799795
670.674973	0.796472
671.015035	0.796448
671.355047	0.794251
671.695008	0.792595
672.034918	0.792321
672.374777	0.790756
672.714585	0.790343
673.054342	0.788172
673.394049	0.785789
673.733705	0.782508
674.073310	0.780752
674.412864	0.782616
674.752368	0.779097
675.091820	0.778916
675.431223	0.779690
675.770574	0.777306
676.109875	0.777028
676.449125	0.775320
676.788324	0.774264
677.127473	0.776618
677.466571	0.774144
677.805619	0.772591
678.144616	0.771662
678.483562	0.770169
678.822458	0.770745
679.161303	0.769595
679.500098	0.767522
679.838842	0.768047
680.177535	0.766235
680.516179	0.764254
680.854771	0.761507
681.193314	0.757152
681.531805	0.752767
681.870247	0.744899
682.208638	0.739822
682.546978	0.737988
682.885268	0.737263
683.223508	0.738660
683.561697	0.738381
683.899836	0.738843
684.237925	0.738591
684.575963	0.738824
684.913951	0.739695
685.251889	0.734331
685.589776	0.736229
685.927614	0.736751
686.265401	0.731269
686.603137	0.731536
686.940824	0.725910
687.278460	0.725173
687.616046	0.723390
687.953582	0.719309
688.291068	0.720104
688.628504	0.715688
688.965889	0.715929
689.303224	0.717875
689.640510	0.717424
689.977745	0.718931
690.314930	0.721776
690.652065	0.723000
690.989150	0.726523
691.326185	0.726882
691.663170	0.726280
692.000105	0.729301
692.336990	0.732408
692.673825	0.730741
693.010610	0.734763
693.347345	0.736636
693.684030	0.733840
694.020665	0.736148
694.357251	0.740336
694.693786	0.738857
695.030272	0.740960
695.366707	0.739795
695.703093	0.741432
696.039429	0.738221
696.375716	0.737047
696.711952	0.738826
697.048139	0.740276
697.384276	0.738582
697.720363	0.736736
698.056400	0.733650
698.392388	0.737192
698.728326	0.738698
699.064214	0.739864
699.400053	0.738996
699.735842	0.738514
700.071581	0.739506
700.407270	0.739989
700.742910	0.740113
701.078501	0.743779
701.414042	0.742327
701.749533	0.742074
702.084974	0.747995
702.420366	0.740197
702.755709	0.744377
703.091002	0.749182
703.426246	0.742278
703.761440	0.746689
704.096584	0.749979
704.431679	0.744715
704.766725	0.745351
705.101721	0.745703
705.436668	0.741563
705.771565	0.746198
706.106413	0.743817
706.441212	0.737750
706.775961	0.736480
707.110661	0.738352
707.445311	0.735418
707.779913	0.732307
708.114465	0.731055
708.448967	0.729219
708.783421	0.722827
709.117825	0.718353
709.452180	0.718475
709.786485	0.713754
710.120742	0.705759
710.454949	0.708931
710.789107	0.703514
711.123216	0.696277
711.457275	0.698223
711.791286	0.691198
712.125247	0.689044
712.459159	0.697806
712.793023	0.692498
713.126837	0.691020
713.460602	0.690476
713.794318	0.697249
714.127985	0.693457
714.461602	0.698581
714.795171	0.699930
715.128691	0.702794
715.462162	0.706378
715.795584	0.708351
716.128957	0.708934
716.462281	0.712907
716.795556	0.714343
717.128782	0.716710
717.461960	0.722263
717.795088	0.719085
718.128167	0.723447
718.461198	0.728708
718.794180	0.728942
719.127113	0.728893
719.459997	0.731152
719.792833	0.734281
720.125619	0.735044
720.458357	0.738110
720.791046	0.736788
721.123686	0.739174
721.456278	0.743637
721.788821	0.740946
722.121315	0.742875
722.453761	0.746763
722.786158	0.743021
723.118506	0.739612
723.450805	0.746393
723.783056	0.742700
724.115259	0.739332
724.447412	0.737499
724.779518	0.739537
725.111574	0.737875
725.443582	0.734280
725.775542	0.735718
726.107453	0.729671
726.439315	0.728184
726.771129	0.728643
727.102895	0.723341
727.434612	0.717153
727.766281	0.715011
728.097901	0.715941
728.429473	0.714495
728.760996	0.711750
729.092471	0.711383
729.423897	0.713604
729.755276	0.711570
730.086606	0.711513
730.417887	0.707117
730.749120	0.699777
731.080305	0.690096
731.411442	0.687483
731.742530	0.691168
732.073570	0.689336
732.404562	0.681998
732.735506	0.683100
733.066401	0.686610
733.397249	0.692387
733.728048	0.698344
734.058798	0.707469
734.389501	0.714002
734.720156	0.720614
735.050762	0.726587
735.381320	0.726240
735.711831	0.734075
736.042293	0.736981
736.372707	0.733170
736.703073	0.736405
737.033391	0.739937
737.363661	0.735771
737.693883	0.730804
738.024056	0.731591
738.354182	0.732751
738.684260	0.722819
739.014290	0.720035
739.344272	0.721422
739.674207	0.714939
740.004093	0.714807
740.333931	0.715704
740.663722	0.714450
740.993464	0.714860
741.323159	0.717335
741.652806	0.720265
741.982405	0.723357
742.311956	0.726034
742.641460	0.727038
742.970915	0.728593
743.300323	0.734277
743.629683	0.739490
743.958996	0.739950
744.288260	0.742919
744.617477	0.747562
744.946647	0.747935
745.275768	0.751850
745.604842	0.751259
745.933869	0.760306
746.262847	0.759453
746.591778	0.752050
746.920662	0.758118
747.249498	0.764517
747.578286	0.755796
747.907027	0.751895
748.235720	0.755451
748.564365	0.749119
748.892963	0.748176
749.221514	0.750322
749.550017	0.754742
749.878473	0.753861
750.206881	0.758740
750.535242	0.759540
750.863555	0.759026
751.191821	0.759218
751.520039	0.762678
751.848210	0.766673
752.176334	0.758370
752.504411	0.758085
752.832440	0.765024
753.160421	0.769532
753.488356	0.766042
753.816243	0.763714
754.144082	0.771756
754.471875	0.775036
754.799620	0.770434
755.127318	0.771401
755.454969	0.770649
755.782572	0.769652
756.110129	0.774284
756.437638	0.776940
756.765100	0.772641
757.092515	0.770749
757.419882	0.769986
757.747203	0.775037
758.074477	0.773677
758.401703	0.771400
758.728882	0.767123
759.056014	0.766124
759.383099	0.765452
759.710138	0.766877
760.037129	0.762851
760.364073	0.756937
760.690970	0.759419
761.017820	0.764542
761.344623	0.760195
761.671379	0.751511
761.998088	0.740052
762.324751	0.720034
762.651366	0.684917
762.977935	0.628006
763.304456	0.581360
763.630931	0.570830
763.957359	0.604061
764.283740	0.643165
764.610074	0.665260
764.936362	0.691622
765.262602	0.716075
765.588796	0.734734
765.914943	0.751054
766.241044	0.766606
766.567097	0.772284
766.893104	0.780683
767.219064	0.786508
767.544978	0.791440
767.870845	0.803801
768.196665	0.806716
768.522438	0.804792
768.848165	0.804616
769.173846	0.814127
769.499479	0.817189
769.825066	0.819663
770.150607	0.824641
770.476101	0.818610
770.801548	0.819660
771.126949	0.830279
771.452303	0.834131
771.777611	0.833122
772.102872	0.832011
772.428087	0.835669
772.753256	0.839295
773.078378	0.840983
773.403453	0.849600
773.728482	0.853959
774.053465	0.846759
774.378401	0.850594
774.703291	0.858333
775.028135	0.857495
775.352932	0.859466
775.677683	0.861268
776.002388	0.861641
776.327046	0.860923
776.651658	0.863960
776.976224	0.866849
777.300743	0.867674
777.625216	0.869763
777.949643	0.870226
778.274024	0.870475
778.598359	0.871439
778.922647	0.870594
779.246889	0.871529
779.571086	0.875187
779.895236	0.876127
780.219339	0.874019
780.543397	0.871273
780.867409	0.870266
781.191374	0.872146
781.515294	0.873554
781.839167	0.872829
782.162995	0.875044
782.486776	0.872950
782.810511	0.873188
783.134201	0.876331
783.457844	0.873922
783.781441	0.876663
784.104993	0.882781
784.428498	0.883017
784.751958	0.878242
785.075372	0.879944
785.398739	0.884022
785.722061	0.880987
786.045337	0.875939
786.368568	0.880205
786.691752	0.883958
787.014891	0.868699
787.337983	0.861368
787.661030	0.855333
787.984031	0.840104
788.306987	0.827574
788.629897	0.828396
788.952760	0.832484
789.275579	0.836749
789.598351	0.850102
789.921078	0.861824
790.243759	0.862827
790.566395	0.868318
790.888984	0.875222
791.211529	0.879518
791.534027	0.882606
791.856480	0.884744
792.178888	0.888991
792.501249	0.890948
792.823566	0.892558
793.145836	0.892855
793.468062	0.894778
793.790241	0.894449
794.112375	0.892638
794.434464	0.888468
794.756507	0.887644
795.078505	0.887102
795.400457	0.882675
795.722364	0.872362
796.044226	0.865913
796.366042	0.864517
796.687812	0.867160
797.009538	0.863168
797.331218	0.866042
797.652852	0.870088
797.974442	0.875703
798.295986	0.873307
798.617484	0.877451
798.938938	0.880670
799.260346	0.885509
799.581709	0.887570
799.903026	0.890033
800.224299	0.890342
800.545526	0.893378
800.866708	0.897757
801.187845	0.900701
801.508936	0.900791
801.829983	0.899317
802.150984	0.900770
802.471940	0.906612
802.792851	0.905439
803.113717	0.906281
803.434538	0.904156
803.755314	0.905974
804.076045	0.908431
804.396731	0.908243
804.717372	0.907751
805.037967	0.909913
805.358518	0.907861
805.679024	0.904743
805.999485	0.905092
806.319901	0.905520
806.640272	0.906330
806.960598	0.904060
807.280879	0.902186
807.601115	0.900901
807.921306	0.904506
808.241453	0.903729
808.561554	0.903109
808.881611	0.901567
809.201623	0.903901
809.521590	0.904055
809.841513	0.904892
810.161390	0.903077
810.481223	0.904872
810.801011	0.908806
811.120755	0.910477
811.440453	0.909239
811.760107	0.908435
812.079716	0.908094
812.399281	0.910479
812.718801	0.913311
813.038276	0.914937
813.357707	0.913943
813.677093	0.911030
813.996434	0.912786
814.315731	0.915086
814.634983	0.916945
814.954191	0.915167
815.273354	0.912855
815.592473	0.907304
815.911547	0.908132
816.230577	0.906005
816.549562	0.903121
816.868502	0.904525
817.187399	0.900998
817.506250	0.895385
817.825058	0.897792
818.143821	0.895209
818.462539	0.889266
818.781213	0.881680
819.099843	0.871907
819.418429	0.857404
819.736970	0.841459
820.055466	0.822598
820.373919	0.798300
820.692327	0.766053
821.010691	0.732830
821.329011	0.661997
821.647286	0.556718
821.965517	0.453523
822.283704	0.414170
822.601847	0.415038
822.919945	0.446634
823.237999	0.475133
823.556010	0.517452
823.873976	0.570028
824.191897	0.616771
824.509775	0.656613
824.827609	0.699592
825.145398	0.721181
825.463144	0.723132
825.780845	0.706481
826.098502	0.688877
826.416116	0.646830
826.733685	0.604917
827.051210	0.596887
827.368692	0.610121
827.686129	0.644379
828.003522	0.695403
828.320872	0.740015
828.638177	0.781454
828.955439	0.812645
829.272656	0.833079
829.589830	0.849328
829.906960	0.864419
830.224046	0.875838
830.541088	0.885364
830.858086	0.889625
831.175041	0.895930
831.491952	0.894160
831.808819	0.891099
832.125642	0.885635
832.442421	0.871498
832.759157	0.850906
833.075849	0.807616
833.392497	0.746509
833.709101	0.707029
834.025662	0.716521
834.342179	0.747217
834.658653	0.783034
834.975083	0.817669
835.291469	0.843977
835.607811	0.864013
835.924110	0.879927
836.240366	0.894807
836.556578	0.908618
836.872746	0.916113
837.188871	0.921761
837.504952	0.926269
837.820990	0.928954
838.136984	0.932353
838.452935	0.936118
838.768842	0.937012
839.084706	0.930615
839.400526	0.905853
839.716303	0.868466
840.032037	0.847421
840.347727	0.851105
840.663373	0.869011
840.978977	0.887880
841.294537	0.910700
841.610054	0.924347
841.925527	0.932019
842.240957	0.938631
842.556344	0.946111
842.871687	0.951101
843.186987	0.955457
843.502244	0.955315
843.817458	0.956614
844.132629	0.960157
844.447756	0.964486
844.762840	0.964635
845.077881	0.963641
845.392879	0.963594
845.707833	0.967855
846.022745	0.968151
846.337613	0.968981
846.652438	0.968994
846.967221	0.968144
847.281960	0.968597
847.596656	0.971981
847.911309	0.970279
848.225919	0.971656
848.540485	0.972784
848.855009	0.972538
849.169490	0.972252
849.483928	0.973290
849.798323	0.972292
850.112675	0.973979
850.426984	0.972670
850.741251	0.973892
851.055474	0.974027
851.369654	0.971304
851.683792	0.972890
851.997887	0.974050
852.311938	0.974784
852.625947	0.973711
852.939914	0.972420
853.253837	0.973724
853.567718	0.973584
853.881555	0.974315
854.195350	0.971836
854.509103	0.973364
854.822812	0.974055
855.136479	0.974210
855.450103	0.972671
855.763685	0.971490
856.077224	0.971796
856.390720	0.975316
856.704173	0.974194
857.017584	0.972860
857.330953	0.969975
857.644278	0.972097
857.957561	0.972000
858.270802	0.972288
858.584000	0.971593
858.897155	0.969900
859.210268	0.971337
859.523339	0.971514
859.836367	0.974686
860.149352	0.975040
860.462295	0.972433
860.775195	0.973002
861.088054	0.972493
861.400869	0.973408
861.713642	0.974235
862.026373	0.974408
862.339062	0.974050
862.651708	0.971893
862.964312	0.972248
863.276873	0.973446
863.589392	0.972010
863.901869	0.970763
864.214303	0.969178
864.526696	0.968810
864.839045	0.968482
865.151353	0.965963
865.463619	0.966671
865.775842	0.966998
866.088023	0.966670
866.400162	0.966415
866.712258	0.967389
867.024313	0.967093
867.336325	0.967686
867.648296	0.967212
867.960224	0.966836
868.272110	0.966072
868.583954	0.967911
868.895755	0.969136
869.207515	0.965844
869.519233	0.963262
869.830909	0.966390
870.142542	0.967234
870.454134	0.966904
870.765684	0.965151
871.077191	0.962673
871.388657	0.963878
871.700081	0.963288
872.011463	0.963405
872.322803	0.962486
872.634101	0.961782
872.945357	0.959854
873.256571	0.958590
873.567744	0.957901
873.878874	0.958398
874.189963	0.957491
874.501010	0.956495
874.812015	0.955015
875.122979	0.957399
875.433900	0.958389
875.744780	0.959019
876.055618	0.956445
876.366415	0.955171
876.677169	0.955949
876.987882	0.956446
877.298554	0.956952
877.609183	0.952247
877.919771	0.951006
878.230317	0.948389
878.540822	0.946381
878.851285	0.941677
879.161707	0.934884
879.472087	0.923348
879.782425	0.908276
880.092722	0.875731
880.402977	0.826749
880.713191	0.771386
881.023363	0.716368
881.333494	0.685842
881.643583	0.657926
881.953631	0.656628
882.263637	0.684451
882.573602	0.722922
882.883526	0.746396
883.193408	0.767478
883.503248	0.788224
883.813048	0.812730
884.122806	0.841553
884.432522	0.864946
884.742197	0.881602
885.051831	0.891716
885.361424	0.900707
885.670975	0.911934
885.980485	0.922259
886.289954	0.927538
886.599382	0.931774
886.908768	0.935911
887.218113	0.941173
887.527417	0.945055
887.836680	0.947706
888.145901	0.950040
888.455082	0.951787
888.764221	0.956733
889.073319	0.958513
889.382376	0.957992
889.691392	0.958523
890.000366	0.959304
890.309300	0.959645
890.618193	0.958745
890.927044	0.957094
891.235855	0.958244
891.544625	0.957123
891.853353	0.957538
892.162041	0.955062
892.470687	0.949468
892.779293	0.944452
893.087858	0.941437
893.396381	0.934534
893.704864	0.921734
894.013306	0.899686
894.321707	0.874330
894.630068	0.861859
894.938387	0.856686
895.246665	0.858613
895.554903	0.869636
895.863100	0.881349
896.171256	0.897700
896.479371	0.916315
896.787446	0.928357
897.095480	0.934277
897.403473	0.936297
897.711425	0.939793
898.019336	0.947510
898.327207	0.948751
898.635038	0.951979
898.942827	0.950765
899.250576	0.954145
899.558284	0.957816
899.865952	0.960044
900.173579	0.960915
900.481165	0.960655
900.788711	0.964970
901.096216	0.965764
901.403681	0.966911
901.711105	0.968125
902.018489	0.969324
902.325832	0.967305
902.633135	0.967119
902.940397	0.961375
903.247619	0.950448
903.554800	0.927574
903.861941	0.890518
904.169041	0.859126
904.476101	0.842952
904.783121	0.843357
905.090100	0.858417
905.397039	0.878316
905.703938	0.898565
906.010796	0.916093
906.317614	0.931208
906.624391	0.942482
906.931129	0.950605
907.237826	0.958517
907.544483	0.964081
907.851099	0.968857
908.157675	0.972191
908.464211	0.975045
908.770707	0.977471
909.077163	0.978674
909.383578	0.979277
909.689954	0.979065
909.996289	0.980683
910.302584	0.982374
910.608839	0.983274
910.915054	0.983142
911.221229	0.982692
911.527363	0.981394
911.833458	0.981665
912.139513	0.980878
912.445527	0.979088
912.751502	0.979160
913.057436	0.977275
913.363331	0.975826
913.669186	0.971005
913.975000	0.966861
914.280775	0.961565
914.586510	0.955577
914.892205	0.943498
915.197859	0.924470
915.503475	0.898514
915.809050	0.880776
916.114585	0.877185
916.420081	0.874057
916.725536	0.871560
917.030952	0.878576
917.336328	0.890193
917.641665	0.904518
917.946961	0.918058
918.252218	0.929303
918.557435	0.935659
918.862612	0.945354
919.167750	0.950331
919.472848	0.954067
919.777906	0.958600
920.082925	0.964432
920.387904	0.967803
920.692843	0.968553
920.997743	0.969211
921.302603	0.972205
921.607423	0.973397
921.912204	0.975826
922.216946	0.976918
922.521647	0.979794
922.826310	0.979548
923.130932	0.981282
923.435516	0.982899
923.740059	0.982902
924.044564	0.982894
924.349028	0.984528
924.653454	0.988221
924.957840	0.989044
925.262186	0.987883
925.566493	0.987073
925.870761	0.989045
926.174989	0.989884
926.479178	0.990755
926.783328	0.992320
927.087438	0.991800
927.391509	0.990979
927.695541	0.993522
927.999533	0.993239
928.303486	0.992752
928.607400	0.995381
928.911275	0.991596
929.215110	0.993632
929.518906	0.993401
929.822663	0.992509
930.126381	0.993527
930.430060	0.993542
930.733699	0.993511
931.037299	0.993026
931.340861	0.994696
931.644383	0.992995
931.947866	0.992527
932.251309	0.993198
932.554714	0.993548
932.858080	0.992864
933.161407	0.993531
933.464694	0.993812
933.767943	0.992807
934.071153	0.994580
934.374323	0.994734
934.677455	0.994537
934.980548	0.994324
935.283602	0.992963
935.586617	0.994650
935.889593	0.992495
936.192530	0.994372
936.495428	0.993668
936.798287	0.993979
937.101108	0.992725
937.403890	0.993063
937.706632	0.990739
938.009336	0.990909
938.312002	0.989464
938.614628	0.988896
938.917216	0.987078
939.219765	0.986034
939.522275	0.987438
939.824747	0.986445
940.127179	0.987472
940.429573	0.988063
940.731929	0.986463
941.034246	0.988648
941.336524	0.989029
941.638763	0.990469
941.940964	0.990478
942.243126	0.990016
942.545250	0.990839
942.847335	0.991472
943.149381	0.990863
943.451389	0.991154
943.753359	0.991870
944.055290	0.993552
944.357182	0.993136
944.659036	0.991652
944.960851	0.991630
945.262628	0.993168
945.564367	0.993476
945.866067	0.992617
946.167729	0.993279
946.469352	0.993139
946.770937	0.991419
947.072484	0.994347
947.373992	0.992645
947.675462	0.993058
947.976893	0.994215
948.278286	0.993647
948.579641	0.995096
948.880958	0.993411
949.182236	0.994832
949.483476	0.994482
949.784678	0.993290
950.085841	0.994420
950.386967	0.993260
950.688054	0.994162
950.989103	0.993878
951.290114	0.993046
951.591087	0.992320
951.892021	0.992263
952.192917	0.992342
952.493776	0.991459
952.794596	0.991313
953.095378	0.991389
953.396122	0.992425
953.696828	0.989914
953.997496	0.992893
954.298126	0.993299
954.598718	0.994051
954.899272	0.994681
955.199788	0.993929
955.500266	0.994531
955.800706	0.995313
956.101108	0.995383
956.401472	0.996058
956.701798	0.997215
957.002087	0.994478
957.302337	0.996557
957.602550	0.997507
957.902724	0.997077
958.202861	0.997623
958.502960	0.997077
958.803022	0.995226
959.103045	0.998149
959.403031	0.998083
959.702979	0.997307
960.002889	0.997907
960.302762	0.997223
960.602596	0.998419
960.902393	0.997107
961.202153	0.998374
961.501875	0.998576
961.801559	0.997173
962.101205	0.997954
962.400814	0.998750
962.700385	0.997630
962.999918	0.998328
963.299414	0.998859
963.598873	0.998425
963.898293	0.998040
964.197677	0.997049
964.497022	0.998176
964.796331	0.999693
965.095601	0.998823
965.394835	0.998486
965.694030	0.998332
965.993189	0.998962
966.292309	0.998681
966.591393	0.999142
966.890439	1.000111
967.189447	0.999947
967.488419	0.998359
967.787353	0.997760
968.086249	0.997326
968.385108	0.998885
968.683930	0.998043
968.982714	0.999656
969.281462	0.999123
969.580172	0.997512
969.878844	0.999429
970.177480	0.997745
970.476078	0.999073
970.774639	0.998288
971.073162	0.999738
971.371649	0.997840
971.670098	0.998071
971.968510	0.999573
972.266885	0.997394
972.565223	0.998448
972.863524	0.997155
973.161788	0.997053
973.460014	1.000078
973.758204	0.997921
974.056356	0.998660
974.354471	0.996930
974.652550	0.997517
974.950591	0.997577
975.248595	0.998695
975.546563	0.997980
975.844493	0.998665
976.142386	0.999603
976.440243	0.998543
976.738062	0.998834
977.035845	0.999661
977.333590	0.998665
977.631299	0.999650
977.928971	0.997278
978.226606	0.998330
978.524204	0.997108
978.821765	0.998993
979.119290	0.997572
979.416777	0.999018
979.714228	0.999040
980.011642	0.997033
980.309020	0.999122
980.606360	0.997297
980.903664	1.000065
981.200931	0.997868
981.498162	0.997184
981.795356	0.996614
982.092513	0.995648
982.389633	0.995702
982.686717	0.993903
982.983764	0.994512
983.280775	0.992748
983.577749	0.992369
983.874686	0.993725
984.171587	0.994051
984.468451	0.996285
984.765279	0.997126
985.062070	0.995349
985.358824	0.996441
985.655543	0.997548
985.952224	0.996626
986.248869	0.998000
986.545478	0.998837
986.842050	1.000254
987.138586	0.997196
987.435086	0.999282
987.731549	1.000066
988.027975	0.998649
988.324366	0.998695
988.620719	0.998115
988.917037	0.998080
989.213318	0.999508
989.509563	0.998999
989.805772	0.999317
990.101944	1.000377
990.398080	0.999167
990.694180	0.998629
990.990244	0.999758
991.286271	0.999667
991.582262	0.999374
991.878217	0.998620
992.174136	1.000709
992.470019	1.000082
992.765865	0.999511
993.061676	0.998996
993.357450	0.998482
993.653188	0.998700
993.948890	0.998828
994.244556	0.999099
994.540186	0.998359
994.835780	0.996590
995.131337	0.998203
995.426859	0.997970
995.722345	0.998761
996.017795	0.997345
996.313208	0.997394
996.608586	0.997892
996.903928	0.997942
997.199234	0.997415
997.494504	0.998022
997.789738	0.999021
998.084936	0.997473
998.380099	0.999400
998.675225	0.998095
998.970316	0.999236
999.265371	0.998890
999.560390	0.999190
999.855373	1.000268
1000.150320	0.999002
1000.445232	0.999179
1000.740108	0.997369
1001.034948	0.998718
1001.329752	0.999685
1001.624521	0.999395
1001.919254	0.999924
1002.213951	1.000071
1002.508613	0.998637
1002.803239	0.999686
1003.097829	0.999763
1003.392384	1.000228
1003.686903	0.998711
1003.981386	0.998292
1004.275834	1.000033
1004.570246	1.000115
1004.864623	1.000259
1005.158964	1.000185
1005.453270	0.999889
1005.747540	0.999005
1006.041775	0.998555
1006.335974	1.000289
1006.630138	0.999700
1006.924266	1.000329
1007.218359	1.000542
1007.512416	1.000396
1007.806438	1.000040
1008.100425	0.999114
1008.394376	1.000057
1008.688292	0.999262
1008.982172	1.001228
1009.276017	0.999841
1009.569827	1.000901
1009.863602	0.999619
1010.157341	1.000997
1010.451045	1.000413
1010.744714	1.000455
1011.038347	0.999542
1011.331945	1.000541
1011.625508	0.998194
1011.919036	1.000108
1012.212528	1.000191
1012.505986	0.997985
1012.799408	0.999620
1013.092795	1.000256
1013.386147	0.999769
1013.679464	0.999895
1013.972745	0.999291
1014.265992	0.999000
1014.559204	1.000343
1014.852380	1.000164
1015.145521	0.999857
1015.438628	0.999552
1015.731699	1.000399
1016.024736	1.000649
1016.317737	0.999416
1016.610703	0.999864
1016.903635	1.000016
1017.196531	0.999922
1017.489393	1.000118
1017.782219	0.999510
1018.075011	0.999928
1018.367768	1.000595
1018.660490	1.000334
1018.953177	1.000334
1019.245829	1.000334
