Dividing Wavelength (nm)	Counts (n)	Blue Motor Position (mm): 0.000000	Red Motor Position (mm): 10.900000	
326.493990	1.002003
326.888308	1.002003
327.282561	1.002003
327.676750	0.999995
328.070874	0.999438
328.464933	1.000533
328.858929	0.998977
329.252859	0.999716
329.646726	0.999881
330.040528	1.000147
330.434265	0.999999
330.827938	0.999987
331.221547	1.000604
331.615091	1.000220
332.008571	0.999172
332.401986	0.999695
332.795338	1.000061
333.188625	0.999251
333.581847	1.000584
333.975006	0.999378
334.368100	0.999795
334.761129	1.000505
335.154095	1.001120
335.546996	0.998932
335.939833	0.992359
336.332606	0.993107
336.725315	0.993206
337.117960	0.994887
337.510540	0.992969
337.903056	0.995053
338.295508	0.993005
338.687896	0.995253
339.080220	0.994162
339.472480	0.993740
339.864676	0.993718
340.256807	0.994758
340.648875	0.994641
341.040879	0.994225
341.432818	0.995031
341.824694	0.993301
342.216506	0.995324
342.608253	0.994267
342.999937	0.993679
343.391557	0.994493
343.783113	0.993248
344.174605	0.995267
344.566033	0.994393
344.957397	0.993060
345.348697	0.994110
345.739934	0.994368
346.131106	0.993423
346.522215	0.994509
346.913260	0.993464
347.304241	0.993142
347.695159	0.992560
348.086012	0.993335
348.476802	0.993815
348.867528	0.994317
349.258191	0.994164
349.648789	0.994851
350.039324	0.993946
350.429796	0.994125
350.820203	0.994732
351.210548	0.993330
351.600828	0.993387
351.991045	0.993611
352.381198	0.992648
352.771288	0.993523
353.161314	0.993003
353.551276	0.994413
353.941175	0.993880
354.331010	0.993232
354.720782	0.994672
355.110490	0.993881
355.500135	0.994563
355.889717	0.993897
356.279235	0.993750
356.668689	0.992198
357.058080	0.993562
357.447408	0.995194
357.836672	0.994481
358.225873	0.993303
358.615010	0.994926
359.004084	0.994695
359.393095	0.994765
359.782043	0.994475
360.170927	0.993654
360.559748	0.993720
360.948505	0.992846
361.337199	0.993435
361.725830	0.993199
362.114398	0.993762
362.502903	0.994039
362.891344	0.994625
363.279722	0.993449
363.668037	0.993799
364.056289	0.992791
364.444478	0.994048
364.832603	0.992684
365.220665	0.993042
365.608665	0.992202
365.996601	0.992485
366.384474	0.992984
366.772284	0.993441
367.160031	0.991805
367.547715	0.991032
367.935336	0.994307
368.322893	0.992340
368.710388	0.991913
369.097820	0.992217
369.485189	0.993421
369.872495	0.992368
370.259738	0.991760
370.646918	0.992491
371.034035	0.992043
371.421090	0.992829
371.808081	0.992675
372.195010	0.992116
372.581875	0.991560
372.968678	0.992190
373.355418	0.992406
373.742096	0.992389
374.128710	0.992683
374.515262	0.992353
374.901751	0.992688
375.288177	0.992122
375.674540	0.993731
376.060841	0.991544
376.447079	0.992107
376.833254	0.993424
377.219367	0.993530
377.605417	0.992932
377.991404	0.993642
378.377329	0.991611
378.763191	0.992357
379.148991	0.993613
379.534727	0.993877
379.920402	0.992407
380.306013	0.992282
380.691563	0.991914
381.077049	0.991027
381.462474	0.990813
381.847835	0.989833
382.233134	0.988183
382.618371	0.987890
383.003545	0.985547
383.388657	0.983081
383.773706	0.982515
384.158693	0.979299
384.543618	0.976499
384.928480	0.973618
385.313280	0.968969
385.698017	0.965758
386.082692	0.961667
386.467305	0.957385
386.851856	0.951233
387.236344	0.946905
387.620770	0.939928
388.005133	0.935033
388.389435	0.929983
388.773674	0.923174
389.157851	0.916214
389.541965	0.908664
389.926018	0.904499
390.310008	0.895423
390.693936	0.886294
391.077802	0.877976
391.461606	0.871747
391.845348	0.859626
392.229027	0.853666
392.612645	0.844331
392.996200	0.831701
393.379694	0.820479
393.763125	0.808458
394.146494	0.801926
394.529801	0.788385
394.913047	0.777064
395.296230	0.770996
395.679351	0.758403
396.062410	0.747865
396.445408	0.742855
396.828343	0.731042
397.211217	0.720607
397.594028	0.722673
397.976778	0.706596
398.359466	0.697861
398.742092	0.686539
399.124656	0.690632
399.507158	0.675193
399.889598	0.667115
400.271977	0.654403
400.654294	0.652383
401.036549	0.646429
401.418742	0.645476
401.800874	0.627692
402.182944	0.621176
402.564952	0.608707
402.946898	0.608462
403.328783	0.604605
403.710606	0.611744
404.092367	0.584373
404.474067	0.587483
404.855705	0.583224
405.237282	0.590330
405.618797	0.574306
406.000250	0.568094
406.381642	0.557247
406.762972	0.560001
407.144240	0.557862
407.525447	0.556585
407.906593	0.548644
408.287677	0.543439
408.668700	0.550278
409.049661	0.542658
409.430560	0.538032
409.811399	0.545951
410.192176	0.527883
410.572891	0.534460
410.953545	0.522077
411.334138	0.534542
411.714669	0.527723
412.095139	0.538905
412.475547	0.523530
412.855894	0.525018
413.236180	0.524694
413.616405	0.529651
413.996568	0.519974
414.376670	0.525077
414.756711	0.530716
415.136691	0.527779
415.516609	0.518444
415.896466	0.515144
416.276262	0.510469
416.655997	0.512822
417.035670	0.494111
417.415283	0.486288
417.794834	0.491083
418.174324	0.495761
418.553753	0.505482
418.933121	0.487433
419.312428	0.480538
419.691674	0.486638
420.070859	0.475414
420.449983	0.483195
420.829045	0.472564
421.208047	0.481325
421.586988	0.474855
421.965867	0.473613
422.344686	0.462547
422.723444	0.474662
423.102141	0.491482
423.480777	0.464518
423.859352	0.484991
424.237866	0.462018
424.616319	0.463235
424.994712	0.454366
425.373044	0.464595
425.751314	0.452595
426.129524	0.468891
426.507673	0.452828
426.885762	0.446081
427.263789	0.452480
427.641756	0.461211
428.019662	0.451715
428.397508	0.450352
428.775292	0.455019
429.153016	0.447126
429.530679	0.453398
429.908282	0.446797
430.285824	0.457257
430.663305	0.434731
431.040726	0.455970
431.418086	0.456319
431.795385	0.447565
432.172624	0.445612
432.549802	0.447180
432.926920	0.446285
433.303977	0.445337
433.680974	0.442929
434.057910	0.441370
434.434786	0.441228
434.811601	0.442761
435.188355	0.425085
435.565050	0.434681
435.941683	0.436979
436.318257	0.420394
436.694770	0.421257
437.071222	0.419551
437.447614	0.423860
437.823946	0.430051
438.200218	0.419695
438.576429	0.429502
438.952580	0.422153
439.328670	0.419306
439.704700	0.425693
440.080670	0.427265
440.456580	0.408101
440.832429	0.416107
441.208218	0.427199
441.583947	0.415995
441.959616	0.415591
442.335224	0.420818
442.710773	0.411715
443.086261	0.409170
443.461689	0.423545
443.837057	0.413306
444.212365	0.403155
444.587612	0.410209
444.962800	0.400194
445.337927	0.401565
445.712995	0.427639
446.088002	0.390393
446.462949	0.400601
446.837837	0.405163
447.212664	0.394319
447.587431	0.385677
447.962139	0.356395
448.336786	0.315767
448.711374	0.325955
449.085901	0.369717
449.460369	0.374178
449.834776	0.377765
450.209124	0.357114
450.583412	0.349756
450.957640	0.342618
451.331808	0.353940
451.705917	0.377594
452.079965	0.382182
452.453954	0.370230
452.827883	0.377035
453.201752	0.371804
453.575562	0.382897
453.949311	0.371517
454.323001	0.377995
454.696632	0.373655
455.070202	0.366307
455.443713	0.358002
455.817164	0.353213
456.190556	0.349043
456.563888	0.345439
456.937160	0.343189
457.310373	0.360653
457.683526	0.358904
458.056619	0.364851
458.429653	0.365436
458.802628	0.368768
459.175542	0.363104
459.548398	0.346070
459.921194	0.338426
460.293930	0.338404
460.666607	0.315834
461.039224	0.304211
461.411782	0.299982
461.784280	0.299398
462.156719	0.303445
462.529099	0.307562
462.901419	0.323855
463.273680	0.328181
463.645882	0.327917
464.018024	0.333710
464.390106	0.326403
464.762130	0.310998
465.134094	0.294226
465.505999	0.263337
465.877845	0.233829
466.249631	0.221179
466.621358	0.228803
466.993026	0.242194
467.364634	0.248390
467.736184	0.257031
468.107674	0.265697
468.479105	0.264921
468.850477	0.271895
469.221790	0.278646
469.593043	0.288810
469.964238	0.293492
470.335373	0.292831
470.706449	0.291190
471.077467	0.291571
471.448425	0.253971
471.819324	0.229444
472.190164	0.228781
472.560945	0.257589
472.931667	0.279750
473.302330	0.283956
473.672934	0.295964
474.043479	0.283958
474.413965	0.285571
474.784393	0.289409
475.154761	0.284303
475.525070	0.281226
475.895321	0.287291
476.265513	0.281569
476.635645	0.276396
477.005719	0.276727
477.375734	0.273099
477.745691	0.266495
478.115588	0.262558
478.485427	0.256265
478.855207	0.243105
479.224928	0.225538
479.594591	0.214093
479.964194	0.217444
480.333739	0.218552
480.703226	0.220086
481.072653	0.218600
481.442022	0.213816
481.811333	0.210674
482.180584	0.214317
482.549777	0.219518
482.918912	0.222893
483.287988	0.222581
483.657005	0.222121
484.025964	0.228649
484.394864	0.225984
484.763706	0.226598
485.132489	0.231371
485.501213	0.232161
485.869879	0.230528
486.238487	0.234088
486.607036	0.231564
486.975527	0.236305
487.343959	0.232309
487.712333	0.231214
488.080648	0.232552
488.448905	0.231653
488.817104	0.233387
489.185244	0.227570
489.553326	0.224784
489.921350	0.214501
490.289315	0.197172
490.657222	0.191885
491.025070	0.193246
491.392861	0.195378
491.760593	0.200882
492.128267	0.206427
492.495883	0.212152
492.863440	0.218163
493.230939	0.224806
493.598380	0.225861
493.965763	0.228301
494.333088	0.230587
494.700354	0.231933
495.067563	0.231042
495.434713	0.234368
495.801805	0.232134
496.168839	0.233508
496.535815	0.234945
496.902733	0.235133
497.269593	0.236679
497.636395	0.234290
498.003139	0.234632
498.369825	0.237709
498.736453	0.233957
499.103023	0.235522
499.469535	0.234861
499.835989	0.235090
500.202385	0.235984
500.568723	0.239408
500.935003	0.234372
501.301226	0.238592
501.667390	0.233122
502.033497	0.231430
502.399546	0.234103
502.765537	0.235860
503.131470	0.234464
503.497345	0.230744
503.863163	0.239451
504.228923	0.232381
504.594625	0.230957
504.960269	0.236206
505.325856	0.231790
505.691385	0.236148
506.056856	0.232796
506.422270	0.232396
506.787625	0.234792
507.152924	0.231991
507.518164	0.232639
507.883347	0.234111
508.248472	0.236038
508.613540	0.231046
508.978550	0.233612
509.343503	0.233954
509.708398	0.231621
510.073236	0.229309
510.438016	0.229537
510.802738	0.230217
511.167403	0.229042
511.532010	0.231328
511.896561	0.226433
512.261053	0.225431
512.625488	0.227506
512.989866	0.227928
513.354186	0.227733
513.718449	0.229805
514.082655	0.226356
514.446803	0.228418
514.810894	0.226041
515.174927	0.228769
515.538904	0.228125
515.902822	0.225002
516.266684	0.227308
516.630488	0.228756
516.994235	0.227347
517.357925	0.226108
517.721558	0.224528
518.085133	0.224122
518.448651	0.224177
518.812112	0.226265
519.175516	0.225815
519.538863	0.223532
519.902152	0.225442
520.265385	0.222194
520.628560	0.223844
520.991678	0.224481
521.354739	0.223260
521.717743	0.224254
522.080690	0.224976
522.443580	0.221969
522.806413	0.223210
523.169189	0.222326
523.531908	0.221138
523.894569	0.224890
524.257174	0.225049
524.619722	0.222459
524.982213	0.223613
525.344647	0.222687
525.707025	0.223432
526.069345	0.221557
526.431608	0.223405
526.793815	0.221234
527.155964	0.225294
527.518057	0.224153
527.880093	0.225449
528.242072	0.223825
528.603995	0.225761
528.965860	0.227364
529.327669	0.226446
529.689421	0.227386
530.051117	0.227962
530.412755	0.225678
530.774337	0.228156
531.135862	0.228457
531.497331	0.227908
531.858743	0.230668
532.220098	0.227199
532.581396	0.229829
532.942638	0.230149
533.303824	0.231453
533.664953	0.231024
534.026025	0.232847
534.387040	0.230679
534.747999	0.230839
535.108902	0.229426
535.469748	0.234762
535.830537	0.232376
536.191270	0.232794
536.551947	0.232443
536.912567	0.232589
537.273131	0.234338
537.633638	0.234146
537.994089	0.234948
538.354483	0.235538
538.714821	0.232814
539.075103	0.232718
539.435328	0.233286
539.795497	0.237278
540.155609	0.233528
540.515665	0.231782
540.875665	0.237687
541.235609	0.235882
541.595496	0.236361
541.955328	0.232501
542.315102	0.235381
542.674821	0.235742
543.034483	0.236173
543.394090	0.236240
543.753640	0.237936
544.113134	0.233014
544.472571	0.236186
544.831953	0.233012
545.191278	0.237068
545.550548	0.236686
545.909761	0.233541
546.268918	0.234015
546.628019	0.232439
546.987064	0.234942
547.346053	0.237205
547.704986	0.234669
548.063863	0.235149
548.422684	0.235406
548.781449	0.237149
549.140158	0.234742
549.498811	0.237858
549.857408	0.240580
550.215949	0.235617
550.574434	0.238536
550.932864	0.236682
551.291237	0.235137
551.649555	0.236801
552.007817	0.236416
552.366022	0.237343
552.724173	0.237376
553.082267	0.237704
553.440305	0.234680
553.798288	0.238988
554.156215	0.235613
554.514086	0.236406
554.871902	0.239525
555.229661	0.238781
555.587365	0.239212
555.945014	0.241987
556.302606	0.238759
556.660143	0.241165
557.017625	0.237888
557.375050	0.239912
557.732421	0.236911
558.089735	0.238924
558.446994	0.239297
558.804197	0.238207
559.161345	0.238697
559.518437	0.241639
559.875474	0.239544
560.232455	0.238668
560.589381	0.239967
560.946251	0.239897
561.303065	0.237409
561.659825	0.239281
562.016528	0.240481
562.373177	0.243508
562.729770	0.241024
563.086307	0.242817
563.442789	0.240436
563.799216	0.243512
564.155587	0.242352
564.511904	0.242991
564.868164	0.243357
565.224370	0.243266
565.580520	0.245190
565.936615	0.244578
566.292654	0.247593
566.648638	0.244843
567.004567	0.245547
567.360441	0.246420
567.716260	0.248310
568.072023	0.246184
568.427732	0.246688
568.783385	0.249245
569.138982	0.247183
569.494525	0.247048
569.850013	0.250067
570.205445	0.248291
570.560823	0.250811
570.916145	0.252937
571.271412	0.251323
571.626625	0.252443
571.981782	0.253039
572.336884	0.253937
572.691931	0.253577
573.046923	0.255000
573.401860	0.256089
573.756743	0.257805
574.111570	0.256779
574.466342	0.257390
574.821059	0.256261
575.175722	0.259556
575.530330	0.259049
575.884882	0.259100
576.239380	0.261194
576.593823	0.261878
576.948211	0.261176
577.302544	0.264401
577.656823	0.263822
578.011047	0.264073
578.365216	0.264806
578.719330	0.266844
579.073389	0.266830
579.427394	0.267911
579.781344	0.268883
580.135239	0.270268
580.489080	0.269754
580.842866	0.272510
581.196597	0.272479
581.550273	0.271147
581.903895	0.272431
582.257463	0.270102
582.610975	0.273768
582.964434	0.272999
583.317837	0.275737
583.671186	0.275894
584.024481	0.276243
584.377721	0.278707
584.730906	0.279583
585.084037	0.278237
585.437113	0.280396
585.790135	0.280091
586.143103	0.282688
586.496016	0.283700
586.848874	0.281530
587.201679	0.281973
587.554428	0.285053
587.907124	0.284010
588.259765	0.284696
588.612352	0.285123
588.964884	0.288922
589.317362	0.288713
589.669786	0.288571
590.022155	0.286985
590.374470	0.286605
590.726731	0.288752
591.078937	0.293147
591.431090	0.289806
591.783188	0.293755
592.135232	0.294250
592.487222	0.294041
592.839157	0.292465
593.191038	0.294641
593.542866	0.296432
593.894639	0.300102
594.246358	0.298009
594.598022	0.297666
594.949633	0.301191
595.301190	0.301828
595.652692	0.301175
596.004141	0.297327
596.355535	0.305508
596.706876	0.305955
597.058162	0.308385
597.409395	0.305239
597.760573	0.302985
598.111698	0.306463
598.462768	0.307010
598.813785	0.308112
599.164748	0.309767
599.515657	0.309806
599.866511	0.313320
600.217312	0.308277
600.568060	0.313864
600.918753	0.310329
601.269392	0.311439
601.619978	0.314602
601.970510	0.312035
602.320988	0.312135
602.671412	0.309823
603.021783	0.312266
603.372100	0.313526
603.722363	0.313442
604.072572	0.314443
604.422728	0.313801
604.772830	0.316199
605.122878	0.315816
605.472872	0.316182
605.822813	0.314863
606.172701	0.317181
606.522534	0.314357
606.872314	0.314717
607.222041	0.315792
607.571714	0.313722
607.921333	0.314894
608.270899	0.314393
608.620411	0.311619
608.969870	0.315576
609.319276	0.315439
609.668627	0.315431
610.017926	0.314037
610.367171	0.312878
610.716362	0.313098
611.065500	0.313274
611.414585	0.312544
611.763616	0.312671
612.112594	0.313439
612.461518	0.312820
612.810389	0.310137
613.159207	0.312660
613.507971	0.314708
613.856682	0.310212
614.205340	0.312191
614.553945	0.308788
614.902496	0.312218
615.250994	0.310407
615.599439	0.311193
615.947830	0.310499
616.296169	0.311870
616.644454	0.311135
616.992686	0.311324
617.340864	0.309177
617.688990	0.312897
618.037063	0.309077
618.385082	0.311200
618.733048	0.308005
619.080961	0.310627
619.428821	0.309685
619.776628	0.309162
620.124382	0.311606
620.472083	0.311563
620.819731	0.311228
621.167326	0.314784
621.514868	0.314566
621.862357	0.318702
622.209793	0.318578
622.557176	0.320486
622.904506	0.321748
623.251783	0.323855
623.599007	0.326467
623.946179	0.325616
624.293297	0.327850
624.640363	0.331668
624.987376	0.332223
625.334336	0.334859
625.681243	0.337221
626.028097	0.337889
626.374899	0.338645
626.721647	0.339194
627.068343	0.342190
627.414987	0.343186
627.761577	0.345197
628.108115	0.343646
628.454600	0.348753
628.801032	0.346311
629.147412	0.348266
629.493739	0.348602
629.840014	0.351966
630.186236	0.349307
630.532405	0.354822
630.878521	0.352219
631.224585	0.354541
631.570597	0.358410
631.916556	0.356283
632.262462	0.356781
632.608316	0.359043
632.954117	0.359668
633.299866	0.360562
633.645562	0.360958
633.991206	0.365176
634.336797	0.368009
634.682336	0.370104
635.027823	0.371618
635.373257	0.372719
635.718639	0.376020
636.063968	0.375112
636.409245	0.381618
636.754470	0.381364
637.099642	0.384005
637.444762	0.387371
637.789829	0.386230
638.134845	0.390050
638.479808	0.390931
638.824719	0.390639
639.169577	0.394583
639.514383	0.393855
639.859137	0.398099
640.203839	0.397435
640.548489	0.397914
640.893086	0.399204
641.237632	0.401287
641.582125	0.399644
641.926566	0.400849
642.270955	0.401213
642.615292	0.401727
642.959576	0.400777
643.303809	0.401229
643.647990	0.400988
643.992118	0.401655
644.336195	0.404846
644.680219	0.403583
645.024192	0.403450
645.368112	0.397381
645.711981	0.396982
646.055797	0.392208
646.399562	0.394078
646.743274	0.386731
647.086935	0.383969
647.430544	0.383951
647.774101	0.383171
648.117606	0.382380
648.461059	0.382734
648.804460	0.384758
649.147810	0.390950
649.491108	0.392095
649.834354	0.393479
650.177548	0.399475
650.520690	0.404833
650.863781	0.406105
651.206820	0.404673
651.549807	0.410110
651.892742	0.413774
652.235626	0.413266
652.578458	0.414115
652.921238	0.419831
653.263967	0.417865
653.606644	0.422156
653.949269	0.421703
654.291843	0.425407
654.634365	0.422557
654.976836	0.425696
655.319255	0.425945
655.661622	0.427163
656.003938	0.427283
656.346203	0.430420
656.688416	0.428148
657.030577	0.431552
657.372687	0.433263
657.714746	0.434260
658.056753	0.431354
658.398708	0.435262
658.740612	0.436548
659.082465	0.432694
659.424266	0.433134
659.766016	0.432624
660.107715	0.434613
660.449362	0.434139
660.790958	0.434815
661.132503	0.435098
661.473996	0.433062
661.815438	0.433556
662.156829	0.433785
662.498168	0.434343
662.839456	0.436364
663.180693	0.433858
663.521879	0.433350
663.863013	0.435261
664.204097	0.433225
664.545129	0.430152
664.886110	0.430546
665.227040	0.427611
665.567918	0.430887
665.908746	0.428138
666.249522	0.428167
666.590248	0.428804
666.930922	0.427162
667.271545	0.426611
667.612118	0.426277
667.952639	0.427914
668.293109	0.426444
668.633528	0.429226
668.973896	0.429296
669.314213	0.430103
669.654480	0.430903
669.994695	0.431236
670.334859	0.432238
670.674973	0.432277
671.015035	0.432478
671.355047	0.432828
671.695008	0.434314
672.034918	0.435643
672.374777	0.434812
672.714585	0.436295
673.054342	0.435775
673.394049	0.436228
673.733705	0.433527
674.073310	0.435341
674.412864	0.437570
674.752368	0.438731
675.091820	0.438871
675.431223	0.442857
675.770574	0.443317
676.109875	0.446135
676.449125	0.446728
676.788324	0.448188
677.127473	0.453896
677.466571	0.453274
677.805619	0.455039
678.144616	0.456372
678.483562	0.457515
678.822458	0.460420
679.161303	0.461625
679.500098	0.462393
679.838842	0.463714
680.177535	0.463458
680.516179	0.461768
680.854771	0.461318
681.193314	0.454345
681.531805	0.445353
681.870247	0.433919
682.208638	0.426452
682.546978	0.425624
682.885268	0.426855
683.223508	0.433393
683.561697	0.436634
683.899836	0.440129
684.237925	0.443088
684.575963	0.445754
684.913951	0.448640
685.251889	0.444740
685.589776	0.446759
685.927614	0.449038
686.265401	0.443138
686.603137	0.444216
686.940824	0.438770
687.278460	0.436699
687.616046	0.436225
687.953582	0.430745
688.291068	0.432710
688.628504	0.428144
688.965889	0.430090
689.303224	0.434564
689.640510	0.438348
689.977745	0.444150
690.314930	0.452108
690.652065	0.456845
690.989150	0.463639
691.326185	0.470427
691.663170	0.474825
692.000105	0.481932
692.336990	0.489505
692.673825	0.491993
693.010610	0.499471
693.347345	0.503980
693.684030	0.506216
694.020665	0.510899
694.357251	0.519084
694.693786	0.519563
695.030272	0.523596
695.366707	0.526978
695.703093	0.530493
696.039429	0.528112
696.375716	0.529394
696.711952	0.532642
697.048139	0.534449
697.384276	0.536673
697.720363	0.534380
698.056400	0.533722
698.392388	0.539730
698.728326	0.541942
699.064214	0.545471
699.400053	0.545506
699.735842	0.549253
700.071581	0.552340
700.407270	0.555347
700.742910	0.557701
701.078501	0.563803
701.414042	0.564202
701.749533	0.567574
702.084974	0.576367
702.420366	0.569106
702.755709	0.576560
703.091002	0.584095
703.426246	0.576847
703.761440	0.583488
704.096584	0.587944
704.431679	0.584994
704.766725	0.586690
705.101721	0.588947
705.436668	0.585185
705.771565	0.592165
706.106413	0.588941
706.441212	0.583668
706.775961	0.583231
707.110661	0.585541
707.445311	0.581966
707.779913	0.579049
708.114465	0.578191
708.448967	0.574275
708.783421	0.566022
709.117825	0.561093
709.452180	0.560935
709.786485	0.554584
710.120742	0.544306
710.454949	0.546599
710.789107	0.538555
711.123216	0.530203
711.457275	0.531742
711.791286	0.522963
712.125247	0.521410
712.459159	0.531659
712.793023	0.524570
713.126837	0.528429
713.460602	0.529227
713.794318	0.538074
714.127985	0.536461
714.461602	0.547559
714.795171	0.550694
715.128691	0.558799
715.462162	0.565843
715.795584	0.571759
716.128957	0.574452
716.462281	0.580830
716.795556	0.585136
717.128782	0.589727
717.461960	0.599467
717.795088	0.597901
718.128167	0.603618
718.461198	0.612350
718.794180	0.613072
719.127113	0.616060
719.459997	0.619399
719.792833	0.626167
720.125619	0.626824
720.458357	0.632701
720.791046	0.632654
721.123686	0.636296
721.456278	0.643253
721.788821	0.640426
722.121315	0.644647
722.453761	0.648304
722.786158	0.647186
723.118506	0.643068
723.450805	0.651043
723.783056	0.646864
724.115259	0.644219
724.447412	0.644615
724.779518	0.644956
725.111574	0.642651
725.443582	0.639377
725.775542	0.641001
726.107453	0.633456
726.439315	0.633163
726.771129	0.631423
727.102895	0.625170
727.434612	0.618430
727.766281	0.615936
728.097901	0.615863
728.429473	0.615298
728.760996	0.614194
729.092471	0.613955
729.423897	0.617181
729.755276	0.616756
730.086606	0.617096
730.417887	0.610909
730.749120	0.601980
731.080305	0.592307
731.411442	0.588976
731.742530	0.593686
732.073570	0.593164
732.404562	0.585064
732.735506	0.586459
733.066401	0.591606
733.397249	0.600489
733.728048	0.611663
734.058798	0.624635
734.389501	0.634741
734.720156	0.645056
735.050762	0.653130
735.381320	0.654240
735.711831	0.663126
736.042293	0.668095
736.372707	0.664130
736.703073	0.668800
737.033391	0.671389
737.363661	0.667593
737.693883	0.663157
738.024056	0.661998
738.354182	0.661923
738.684260	0.651614
739.014290	0.647007
739.344272	0.647791
739.674207	0.641502
740.004093	0.640588
740.333931	0.641578
740.663722	0.641877
740.993464	0.642377
741.323159	0.645848
741.652806	0.650898
741.982405	0.655850
742.311956	0.660004
742.641460	0.662417
742.970915	0.665844
743.300323	0.673670
743.629683	0.679828
743.958996	0.681551
744.288260	0.686623
744.617477	0.693432
744.946647	0.694027
745.275768	0.699403
745.604842	0.699551
745.933869	0.709609
746.262847	0.710114
746.591778	0.703879
746.920662	0.709670
747.249498	0.715554
747.578286	0.707406
747.907027	0.702698
748.235720	0.703976
748.564365	0.699118
748.892963	0.698895
749.221514	0.701183
749.550017	0.706291
749.878473	0.706490
750.206881	0.712454
750.535242	0.713823
750.863555	0.714628
751.191821	0.715282
751.520039	0.718139
751.848210	0.723443
752.176334	0.715598
752.504411	0.715776
752.832440	0.722634
753.160421	0.726975
753.488356	0.724866
753.816243	0.722323
754.144082	0.730817
754.471875	0.734528
754.799620	0.729877
755.127318	0.731756
755.454969	0.731529
755.782572	0.730583
756.110129	0.735396
756.437638	0.737872
756.765100	0.734091
757.092515	0.731998
757.419882	0.731304
757.747203	0.736702
758.074477	0.736028
758.401703	0.733594
758.728882	0.728238
759.056014	0.727435
759.383099	0.726291
759.710138	0.726886
760.037129	0.723991
760.364073	0.717448
760.690970	0.720191
761.017820	0.727013
761.344623	0.720869
761.671379	0.712405
761.998088	0.700448
762.324751	0.677659
762.651366	0.636189
762.977935	0.568362
763.304456	0.516297
763.630931	0.506714
763.957359	0.545635
764.283740	0.590478
764.610074	0.617792
764.936362	0.649637
765.262602	0.676075
765.588796	0.697779
765.914943	0.714757
766.241044	0.733663
766.567097	0.739816
766.893104	0.750368
767.219064	0.756695
767.544978	0.763226
767.870845	0.775820
768.196665	0.780159
768.522438	0.778006
768.848165	0.779797
769.173846	0.788951
769.499479	0.793572
769.825066	0.795839
770.150607	0.801256
770.476101	0.796794
770.801548	0.797796
771.126949	0.809446
771.452303	0.813285
771.777611	0.811526
772.102872	0.811836
772.428087	0.816488
772.753256	0.819947
773.078378	0.822469
773.403453	0.831284
773.728482	0.834663
774.053465	0.828491
774.378401	0.832282
774.703291	0.840431
775.028135	0.840670
775.352932	0.841735
775.677683	0.844791
776.002388	0.845928
776.327046	0.845116
776.651658	0.848957
776.976224	0.851663
777.300743	0.851860
777.625216	0.854460
777.949643	0.855541
778.274024	0.856622
778.598359	0.857707
778.922647	0.856073
779.246889	0.856867
779.571086	0.859994
779.895236	0.863052
780.219339	0.860614
780.543397	0.857608
780.867409	0.856100
781.191374	0.858705
781.515294	0.860248
781.839167	0.858111
782.162995	0.861586
782.486776	0.859778
782.810511	0.858942
783.134201	0.863291
783.457844	0.859922
783.781441	0.862697
784.104993	0.869542
784.428498	0.868565
784.751958	0.865273
785.075372	0.868319
785.398739	0.871026
785.722061	0.868300
786.045337	0.863283
786.368568	0.868224
786.691752	0.870503
787.014891	0.856301
787.337983	0.847336
787.661030	0.841028
787.984031	0.822324
788.306987	0.808691
788.629897	0.811112
788.952760	0.815901
789.275579	0.820148
789.598351	0.835306
789.921078	0.847930
790.243759	0.849574
790.566395	0.855584
790.888984	0.862364
791.211529	0.867604
791.534027	0.871414
791.856480	0.873002
792.178888	0.877642
792.501249	0.881562
792.823566	0.881852
793.145836	0.882009
793.468062	0.884457
793.790241	0.883509
794.112375	0.882260
794.434464	0.876789
794.756507	0.877259
795.078505	0.876502
795.400457	0.870632
795.722364	0.859286
796.044226	0.851575
796.366042	0.851640
796.687812	0.854602
797.009538	0.850434
797.331218	0.853843
797.652852	0.857411
797.974442	0.864224
798.295986	0.863479
798.617484	0.865128
798.938938	0.870203
799.260346	0.874985
799.581709	0.876548
799.903026	0.878432
800.224299	0.879629
800.545526	0.883869
800.866708	0.887950
801.187845	0.891242
801.508936	0.890830
801.829983	0.889206
802.150984	0.891716
802.471940	0.896187
802.792851	0.895606
803.113717	0.897732
803.434538	0.894604
803.755314	0.897389
804.076045	0.899463
804.396731	0.899124
804.717372	0.899204
805.037967	0.901190
805.358518	0.899131
805.679024	0.895890
805.999485	0.896606
806.319901	0.895683
806.640272	0.897987
806.960598	0.895467
807.280879	0.892248
807.601115	0.890753
807.921306	0.894677
808.241453	0.895348
808.561554	0.891989
808.881611	0.893633
809.201623	0.894188
809.521590	0.895193
809.841513	0.896488
810.161390	0.894749
810.481223	0.896270
810.801011	0.899431
811.120755	0.901951
811.440453	0.899899
811.760107	0.899707
812.079716	0.899560
812.399281	0.902986
812.718801	0.905862
813.038276	0.907002
813.357707	0.906742
813.677093	0.902371
813.996434	0.906432
814.315731	0.907870
814.634983	0.908312
814.954191	0.906579
815.273354	0.904439
815.592473	0.900078
815.911547	0.901471
816.230577	0.897785
816.549562	0.895167
816.868502	0.896655
817.187399	0.892585
817.506250	0.886805
817.825058	0.888405
818.143821	0.885044
818.462539	0.880444
818.781213	0.872328
819.099843	0.861124
819.418429	0.845326
819.736970	0.828425
820.055466	0.808432
820.373919	0.782645
820.692327	0.748555
821.010691	0.713744
821.329011	0.635317
821.647286	0.518836
821.965517	0.403990
822.283704	0.360998
822.601847	0.361859
822.919945	0.397471
823.237999	0.432174
823.556010	0.479494
823.873976	0.534883
824.191897	0.586753
824.509775	0.629126
824.827609	0.675005
825.145398	0.698264
825.463144	0.701176
825.780845	0.684381
826.098502	0.665520
826.416116	0.618798
826.733685	0.574603
827.051210	0.566420
827.368692	0.580290
827.686129	0.618338
828.003522	0.671990
828.320872	0.719916
828.638177	0.763394
828.955439	0.797770
829.272656	0.820077
829.589830	0.837124
829.906960	0.853534
830.224046	0.865604
830.541088	0.875329
830.858086	0.880342
831.175041	0.885816
831.491952	0.885437
831.808819	0.882220
832.125642	0.874905
832.442421	0.861133
832.759157	0.838280
833.075849	0.791873
833.392497	0.726696
833.709101	0.686195
834.025662	0.695048
834.342179	0.728247
834.658653	0.766521
834.975083	0.803348
835.291469	0.828995
835.607811	0.853914
835.924110	0.868301
836.240366	0.886633
836.556578	0.899271
836.872746	0.907625
837.188871	0.913876
837.504952	0.919307
837.820990	0.923342
838.136984	0.925893
838.452935	0.929344
838.768842	0.931089
839.084706	0.923593
839.400526	0.898681
839.716303	0.856419
840.032037	0.833712
840.347727	0.837481
840.663373	0.856759
840.978977	0.877986
841.294537	0.900567
841.610054	0.917031
841.925527	0.925852
842.240957	0.933319
842.556344	0.938720
842.871687	0.945270
843.186987	0.949763
843.502244	0.949820
843.817458	0.951635
844.132629	0.954592
844.447756	0.959784
844.762840	0.960163
845.077881	0.959789
845.392879	0.959186
845.707833	0.962571
846.022745	0.964356
846.337613	0.964579
846.652438	0.965701
846.967221	0.964876
847.281960	0.965712
847.596656	0.966496
847.911309	0.966472
848.225919	0.967214
848.540485	0.967122
848.855009	0.968775
849.169490	0.967904
849.483928	0.969354
849.798323	0.969675
850.112675	0.969940
850.426984	0.969463
850.741251	0.969738
851.055474	0.971244
851.369654	0.968400
851.683792	0.968775
851.997887	0.969607
852.311938	0.969556
852.625947	0.969144
852.939914	0.968582
853.253837	0.968810
853.567718	0.970087
853.881555	0.970568
854.195350	0.968161
854.509103	0.970767
854.822812	0.970843
855.136479	0.968406
855.450103	0.969270
855.763685	0.967816
856.077224	0.968613
856.390720	0.970393
856.704173	0.969630
857.017584	0.967900
857.330953	0.967050
857.644278	0.966871
857.957561	0.968328
858.270802	0.967949
858.584000	0.968198
858.897155	0.966465
859.210268	0.967567
859.523339	0.968988
859.836367	0.969321
860.149352	0.969553
860.462295	0.968801
860.775195	0.969044
861.088054	0.969414
861.400869	0.969344
861.713642	0.970036
862.026373	0.969319
862.339062	0.971442
862.651708	0.968860
862.964312	0.968199
863.276873	0.969035
863.589392	0.969360
863.901869	0.964924
864.214303	0.964545
864.526696	0.963368
864.839045	0.963217
865.151353	0.961704
865.463619	0.962264
865.775842	0.961800
866.088023	0.962127
866.400162	0.962391
866.712258	0.961665
867.024313	0.962276
867.336325	0.963310
867.648296	0.961954
867.960224	0.962433
868.272110	0.961815
868.583954	0.963244
868.895755	0.963894
869.207515	0.962158
869.519233	0.958659
869.830909	0.960258
870.142542	0.962441
870.454134	0.961894
870.765684	0.959629
871.077191	0.957617
871.388657	0.958005
871.700081	0.957944
872.011463	0.958233
872.322803	0.957215
872.634101	0.956276
872.945357	0.953796
873.256571	0.953226
873.567744	0.951971
873.878874	0.952682
874.189963	0.951465
874.501010	0.950659
874.812015	0.949305
875.122979	0.951004
875.433900	0.951618
875.744780	0.953181
876.055618	0.949852
876.366415	0.949064
876.677169	0.949560
876.987882	0.950323
877.298554	0.950329
877.609183	0.946637
877.919771	0.945239
878.230317	0.942347
878.540822	0.939266
878.851285	0.933600
879.161707	0.925548
879.472087	0.914414
879.782425	0.896427
880.092722	0.862566
880.402977	0.809629
880.713191	0.747119
881.023363	0.687031
881.333494	0.651941
881.643583	0.624166
881.953631	0.624099
882.263637	0.652012
882.573602	0.692014
882.883526	0.718505
883.193408	0.743234
883.503248	0.765637
883.813048	0.793617
884.122806	0.824129
884.432522	0.847674
884.742197	0.868402
885.051831	0.878246
885.361424	0.889682
885.670975	0.901948
885.980485	0.910924
886.289954	0.917557
886.599382	0.924333
886.908768	0.926575
887.218113	0.934289
887.527417	0.938331
887.836680	0.940618
888.145901	0.942320
888.455082	0.945232
888.764221	0.950082
889.073319	0.951768
889.382376	0.952170
889.691392	0.951945
890.000366	0.951925
890.309300	0.953672
890.618193	0.951360
890.927044	0.951070
891.235855	0.950298
891.544625	0.950226
891.853353	0.950081
892.162041	0.948985
892.470687	0.941649
892.779293	0.936679
893.087858	0.932151
893.396381	0.923684
893.704864	0.910396
894.013306	0.886665
894.321707	0.859445
894.630068	0.844542
894.938387	0.839297
895.246665	0.841206
895.554903	0.854518
895.863100	0.867464
896.171256	0.884857
896.479371	0.903716
896.787446	0.918038
897.095480	0.922884
897.403473	0.927136
897.711425	0.931033
898.019336	0.938928
898.327207	0.941506
898.635038	0.943440
898.942827	0.943205
899.250576	0.946940
899.558284	0.951796
899.865952	0.952673
900.173579	0.954605
900.481165	0.954432
900.788711	0.959314
901.096216	0.960806
901.403681	0.960882
901.711105	0.961958
902.018489	0.963063
902.325832	0.961791
902.633135	0.960956
902.940397	0.954518
903.247619	0.942658
903.554800	0.915875
903.861941	0.875657
904.169041	0.839941
904.476101	0.820820
904.783121	0.822722
905.090100	0.839037
905.397039	0.861456
905.703938	0.883198
906.010796	0.903962
906.317614	0.921148
906.624391	0.933726
906.931129	0.942058
907.237826	0.950514
907.544483	0.957572
907.851099	0.961467
908.157675	0.966803
908.464211	0.968975
908.770707	0.972406
909.077163	0.973920
909.383578	0.972679
909.689954	0.974606
909.996289	0.975491
910.302584	0.977120
910.608839	0.978664
910.915054	0.977764
911.221229	0.976282
911.527363	0.978169
911.833458	0.976252
912.139513	0.976468
912.445527	0.974962
912.751502	0.973466
913.057436	0.972150
913.363331	0.970574
913.669186	0.965036
913.975000	0.959803
914.280775	0.954288
914.586510	0.946233
914.892205	0.933819
915.197859	0.911967
915.503475	0.883070
915.809050	0.863929
916.114585	0.856967
916.420081	0.854987
916.725536	0.851174
917.030952	0.860798
917.336328	0.873161
917.641665	0.889150
917.946961	0.904465
918.252218	0.916414
918.557435	0.926117
918.862612	0.935425
919.167750	0.940209
919.472848	0.947099
919.777906	0.950189
920.082925	0.956877
920.387904	0.961365
920.692843	0.963215
920.997743	0.963686
921.302603	0.967500
921.607423	0.969040
921.912204	0.970737
922.216946	0.971209
922.521647	0.972019
922.826310	0.975194
923.130932	0.975850
923.435516	0.977239
923.740059	0.979763
924.044564	0.979072
924.349028	0.980835
924.653454	0.982552
924.957840	0.984758
925.262186	0.983349
925.566493	0.982583
925.870761	0.983578
926.174989	0.986656
926.479178	0.987266
926.783328	0.987982
927.087438	0.988004
927.391509	0.988102
927.695541	0.989840
927.999533	0.989866
928.303486	0.990309
928.607400	0.990872
928.911275	0.987262
929.215110	0.990710
929.518906	0.990945
929.822663	0.989691
930.126381	0.991733
930.430060	0.990014
930.733699	0.990727
931.037299	0.988593
931.340861	0.989917
931.644383	0.989720
931.947866	0.989443
932.251309	0.989921
932.554714	0.990422
932.858080	0.990057
933.161407	0.990276
933.464694	0.989672
933.767943	0.990630
934.071153	0.990770
934.374323	0.991603
934.677455	0.992004
934.980548	0.991210
935.283602	0.991025
935.586617	0.990994
935.889593	0.990719
936.192530	0.990732
936.495428	0.990601
936.798287	0.991081
937.101108	0.989203
937.403890	0.988988
937.706632	0.988479
938.009336	0.987288
938.312002	0.986406
938.614628	0.983456
938.917216	0.982791
939.219765	0.981439
939.522275	0.983092
939.824747	0.982127
940.127179	0.982600
940.429573	0.984000
940.731929	0.983064
941.034246	0.984130
941.336524	0.985353
941.638763	0.985260
941.940964	0.985974
942.243126	0.985855
942.545250	0.987165
942.847335	0.988876
943.149381	0.988108
943.451389	0.987943
943.753359	0.987050
944.055290	0.990358
944.357182	0.989263
944.659036	0.988452
944.960851	0.989224
945.262628	0.989596
945.564367	0.990929
945.866067	0.990016
946.167729	0.990749
946.469352	0.989471
946.770937	0.987841
947.072484	0.990232
947.373992	0.989044
947.675462	0.989882
947.976893	0.989366
948.278286	0.989938
948.579641	0.991292
948.880958	0.991161
949.182236	0.991157
949.483476	0.990211
949.784678	0.989545
950.085841	0.991081
950.386967	0.991133
950.688054	0.990437
950.989103	0.989818
951.290114	0.989234
951.591087	0.989584
951.892021	0.989641
952.192917	0.989142
952.493776	0.987834
952.794596	0.989818
953.095378	0.986704
953.396122	0.987718
953.696828	0.985876
953.997496	0.990443
954.298126	0.990079
954.598718	0.990407
954.899272	0.990327
955.199788	0.989907
955.500266	0.992018
955.800706	0.993015
956.101108	0.993148
956.401472	0.994212
956.701798	0.994777
957.002087	0.993540
957.302337	0.993944
957.602550	0.994900
957.902724	0.994655
958.202861	0.996148
958.502960	0.994873
958.803022	0.994164
959.103045	0.996615
959.403031	0.996773
959.702979	0.994600
960.002889	0.996800
960.302762	0.994709
960.602596	0.995813
960.902393	0.995018
961.202153	0.996359
961.501875	0.996894
961.801559	0.996125
962.101205	0.995654
962.400814	0.996459
962.700385	0.997081
962.999918	0.996818
963.299414	0.996270
963.598873	0.996126
963.898293	0.996590
964.197677	0.997740
964.497022	0.996173
964.796331	0.997722
965.095601	0.996699
965.394835	0.996811
965.694030	0.996152
965.993189	0.997317
966.292309	0.997003
966.591393	0.998642
966.890439	0.997442
967.189447	0.996999
967.488419	0.997752
967.787353	0.996609
968.086249	0.996881
968.385108	0.997129
968.683930	0.997549
968.982714	0.997084
969.281462	0.997521
969.580172	0.997334
969.878844	0.996524
970.177480	0.997868
970.476078	0.997007
970.774639	0.997024
971.073162	0.998151
971.371649	0.997181
971.670098	0.995885
971.968510	0.997522
972.266885	0.994793
972.565223	0.996559
972.863524	0.995752
973.161788	0.996502
973.460014	0.998230
973.758204	0.996524
974.056356	0.996586
974.354471	0.993895
974.652550	0.996831
974.950591	0.995994
975.248595	0.996059
975.546563	0.996996
975.844493	0.998425
976.142386	0.998101
976.440243	0.998105
976.738062	0.997314
977.035845	0.998109
977.333590	0.996921
977.631299	0.997273
977.928971	0.997124
978.226606	0.996647
978.524204	0.996955
978.821765	0.998270
979.119290	0.997153
979.416777	0.997164
979.714228	0.998358
980.011642	0.996328
980.309020	0.997194
980.606360	0.997375
980.903664	0.998467
981.200931	0.995725
981.498162	0.995143
981.795356	0.995029
982.092513	0.993527
982.389633	0.994738
982.686717	0.991137
982.983764	0.991576
983.280775	0.991218
983.577749	0.990993
983.874686	0.991332
984.171587	0.991771
984.468451	0.994516
984.765279	0.995504
985.062070	0.993997
985.358824	0.995121
985.655543	0.996778
985.952224	0.996107
986.248869	0.996100
986.545478	0.996003
986.842050	0.999736
987.138586	0.995833
987.435086	0.997215
987.731549	0.998034
988.027975	0.997425
988.324366	0.997482
988.620719	0.997285
988.917037	0.995816
989.213318	0.998721
989.509563	0.998217
989.805772	0.999874
990.101944	0.997294
990.398080	0.998065
990.694180	0.997338
990.990244	0.998170
991.286271	0.998184
991.582262	0.998485
991.878217	0.998524
992.174136	0.998630
992.470019	0.999697
992.765865	0.998339
993.061676	0.998587
993.357450	0.998126
993.653188	0.996487
993.948890	0.997582
994.244556	0.997934
994.540186	0.998472
994.835780	0.997317
995.131337	0.998565
995.426859	0.996995
995.722345	0.997370
996.017795	0.996187
996.313208	0.997403
996.608586	0.996756
996.903928	0.997318
997.199234	0.996702
997.494504	0.997040
997.789738	0.996812
998.084936	0.996522
998.380099	0.998344
998.675225	0.997678
998.970316	0.997233
999.265371	0.998194
999.560390	0.998349
999.855373	0.998547
1000.150320	0.998194
1000.445232	0.998051
1000.740108	0.998273
1001.034948	0.998002
1001.329752	1.000633
1001.624521	0.999296
1001.919254	0.999002
1002.213951	0.998564
1002.508613	0.998446
1002.803239	0.999898
1003.097829	0.999310
1003.392384	0.998213
1003.686903	0.998515
1003.981386	0.998731
1004.275834	0.998120
1004.570246	0.998373
1004.864623	0.999013
1005.158964	1.000273
1005.453270	0.998645
1005.747540	0.998639
1006.041775	0.998694
1006.335974	1.000355
1006.630138	0.998965
1006.924266	1.000551
1007.218359	1.000548
1007.512416	1.000925
1007.806438	0.998500
1008.100425	0.999953
1008.394376	0.999436
1008.688292	0.998479
1008.982172	1.000992
1009.276017	1.000616
1009.569827	0.998662
1009.863602	0.998453
1010.157341	1.000386
1010.451045	0.999686
1010.744714	0.999329
1011.038347	0.999764
1011.331945	0.998738
1011.625508	0.997410
1011.919036	0.999825
1012.212528	0.998321
1012.505986	0.998949
1012.799408	0.998965
1013.092795	0.999536
1013.386147	0.999892
1013.679464	0.998721
1013.972745	0.998633
1014.265992	0.998679
1014.559204	0.999976
1014.852380	1.000040
1015.145521	0.999324
1015.438628	0.999938
1015.731699	0.998342
1016.024736	0.999348
1016.317737	0.998710
1016.610703	1.000005
1016.903635	0.999020
1017.196531	0.998912
1017.489393	0.999704
1017.782219	0.999016
1018.075011	0.999694
1018.367768	0.998392
1018.660490	1.001024
1018.953177	1.001024
1019.245829	1.001024
