Dividing Wavelength (nm)	Counts (n)	Blue Motor Position (mm): 0.000000	Red Motor Position (mm): 28.000000	
326.493990	1.001368
326.888308	1.001368
327.282561	1.001368
327.676750	0.999320
328.070874	0.998950
328.464933	0.999636
328.858929	0.999525
329.252859	0.998908
329.646726	0.999322
330.040528	1.000271
330.434265	0.998567
330.827938	1.000684
331.221547	1.000896
331.615091	1.000483
332.008571	1.000036
332.401986	0.999245
332.795338	1.000310
333.188625	0.998243
333.581847	0.999996
333.975006	0.998915
334.368100	0.999312
334.761129	0.999186
335.154095	1.000532
335.546996	0.997954
335.939833	0.992919
336.332606	0.993755
336.725315	0.994518
337.117960	0.995563
337.510540	0.995225
337.903056	0.995047
338.295508	0.994240
338.687896	0.995592
339.080220	0.994580
339.472480	0.995278
339.864676	0.994314
340.256807	0.995421
340.648875	0.994945
341.040879	0.996056
341.432818	0.994738
341.824694	0.995119
342.216506	0.994882
342.608253	0.994581
342.999937	0.995047
343.391557	0.994311
343.783113	0.993887
344.174605	0.994947
344.566033	0.995318
344.957397	0.993562
345.348697	0.995269
345.739934	0.995014
346.131106	0.994187
346.522215	0.994752
346.913260	0.995119
347.304241	0.994586
347.695159	0.994516
348.086012	0.994248
348.476802	0.994228
348.867528	0.994834
349.258191	0.993486
349.648789	0.995560
350.039324	0.995186
350.429796	0.993992
350.820203	0.994470
351.210548	0.994656
351.600828	0.995815
351.991045	0.994246
352.381198	0.994546
352.771288	0.994866
353.161314	0.994459
353.551276	0.995278
353.941175	0.993873
354.331010	0.995224
354.720782	0.994714
355.110490	0.994391
355.500135	0.995767
355.889717	0.994754
356.279235	0.994406
356.668689	0.994912
357.058080	0.995299
357.447408	0.997336
357.836672	0.994827
358.225873	0.995278
358.615010	0.995360
359.004084	0.995975
359.393095	0.995503
359.782043	0.994296
360.170927	0.995798
360.559748	0.996492
360.948505	0.994343
361.337199	0.994848
361.725830	0.995143
362.114398	0.994987
362.502903	0.995684
362.891344	0.996299
363.279722	0.995120
363.668037	0.995834
364.056289	0.995204
364.444478	0.995631
364.832603	0.995252
365.220665	0.995014
365.608665	0.995513
365.996601	0.994551
366.384474	0.995527
366.772284	0.994568
367.160031	0.992838
367.547715	0.994151
367.935336	0.994948
368.322893	0.994609
368.710388	0.994419
369.097820	0.994898
369.485189	0.994434
369.872495	0.994240
370.259738	0.992417
370.646918	0.995178
371.034035	0.994863
371.421090	0.994955
371.808081	0.994259
372.195010	0.995847
372.581875	0.995250
372.968678	0.994991
373.355418	0.994885
373.742096	0.994549
374.128710	0.995321
374.515262	0.994612
374.901751	0.996668
375.288177	0.995576
375.674540	0.995670
376.060841	0.995196
376.447079	0.995766
376.833254	0.996114
377.219367	0.996076
377.605417	0.995872
377.991404	0.995732
378.377329	0.995020
378.763191	0.996204
379.148991	0.995996
379.534727	0.996097
379.920402	0.995831
380.306013	0.994650
380.691563	0.996670
381.077049	0.996132
381.462474	0.996026
381.847835	0.996362
382.233134	0.995290
382.618371	0.995495
383.003545	0.995332
383.388657	0.995329
383.773706	0.997182
384.158693	0.996955
384.543618	0.996229
384.928480	0.997235
385.313280	0.996690
385.698017	0.996842
386.082692	0.997519
386.467305	0.996380
386.851856	0.997013
387.236344	0.996675
387.620770	0.995743
388.005133	0.996813
388.389435	0.997611
388.773674	0.997506
389.157851	0.997040
389.541965	0.997494
389.926018	0.996891
390.310008	0.998201
390.693936	0.996460
391.077802	0.997732
391.461606	0.996789
391.845348	0.997981
392.229027	0.998500
392.612645	0.997470
392.996200	0.998025
393.379694	0.997450
393.763125	0.998987
394.146494	0.997915
394.529801	0.996616
394.913047	0.998117
395.296230	0.998011
395.679351	0.998237
396.062410	0.997643
396.445408	0.997631
396.828343	0.998114
397.211217	0.996821
397.594028	0.998206
397.976778	0.997113
398.359466	0.997402
398.742092	0.996853
399.124656	0.996477
399.507158	0.997838
399.889598	0.997582
400.271977	0.998141
400.654294	0.998228
401.036549	0.998835
401.418742	0.999050
401.800874	0.997802
402.182944	0.997944
402.564952	0.997688
402.946898	0.998863
403.328783	0.997716
403.710606	0.997876
404.092367	0.998067
404.474067	0.998160
404.855705	0.997497
405.237282	0.998861
405.618797	0.998543
406.000250	0.997519
406.381642	0.998461
406.762972	0.997615
407.144240	0.998601
407.525447	0.997500
407.906593	0.998460
408.287677	0.997772
408.668700	0.997264
409.049661	0.996413
409.430560	0.998445
409.811399	0.997405
410.192176	0.997390
410.572891	0.997557
410.953545	0.998291
411.334138	0.998204
411.714669	0.997489
412.095139	0.997235
412.475547	0.998765
412.855894	0.998833
413.236180	0.998481
413.616405	0.998255
413.996568	0.998984
414.376670	0.998371
414.756711	0.997423
415.136691	0.997745
415.516609	0.998236
415.896466	0.998097
416.276262	0.996489
416.655997	0.998530
417.035670	0.997497
417.415283	0.997685
417.794834	0.998009
418.174324	0.997799
418.553753	0.999014
418.933121	0.997752
419.312428	0.997818
419.691674	0.997727
420.070859	0.998646
420.449983	0.999367
420.829045	0.997794
421.208047	0.998572
421.586988	0.999081
421.965867	0.998106
422.344686	0.999072
422.723444	0.998295
423.102141	0.997569
423.480777	0.998479
423.859352	0.998162
424.237866	0.998034
424.616319	0.998384
424.994712	0.999021
425.373044	0.998651
425.751314	0.998263
426.129524	0.998383
426.507673	0.998559
426.885762	0.998916
427.263789	0.998461
427.641756	0.998371
428.019662	0.998447
428.397508	0.998142
428.775292	0.998211
429.153016	0.998397
429.530679	0.998949
429.908282	0.998648
430.285824	0.997378
430.663305	0.998382
431.040726	0.997424
431.418086	0.999796
431.795385	0.998947
432.172624	0.997493
432.549802	0.999141
432.926920	0.998576
433.303977	0.998284
433.680974	0.998807
434.057910	0.998459
434.434786	0.999004
434.811601	0.998193
435.188355	0.997788
435.565050	0.997735
435.941683	0.998635
436.318257	0.999267
436.694770	0.997686
437.071222	0.998543
437.447614	0.997747
437.823946	0.998615
438.200218	0.998302
438.576429	0.997950
438.952580	0.998096
439.328670	0.998152
439.704700	0.998408
440.080670	0.998561
440.456580	0.998087
440.832429	0.997405
441.208218	0.998876
441.583947	0.997858
441.959616	0.998172
442.335224	0.997997
442.710773	0.998619
443.086261	0.997687
443.461689	0.997618
443.837057	0.997864
444.212365	0.998209
444.587612	0.997248
444.962800	0.997254
445.337927	0.997889
445.712995	0.997998
446.088002	0.998198
446.462949	0.997921
446.837837	0.996947
447.212664	0.997418
447.587431	0.996983
447.962139	0.996673
448.336786	0.996212
448.711374	0.996945
449.085901	0.995553
449.460369	0.995829
449.834776	0.994765
450.209124	0.994668
450.583412	0.994526
450.957640	0.993561
451.331808	0.993304
451.705917	0.992503
452.079965	0.991834
452.453954	0.991072
452.827883	0.990873
453.201752	0.990606
453.575562	0.989222
453.949311	0.987755
454.323001	0.987130
454.696632	0.986363
455.070202	0.983995
455.443713	0.982070
455.817164	0.981642
456.190556	0.980644
456.563888	0.978913
456.937160	0.976427
457.310373	0.976181
457.683526	0.974752
458.056619	0.972723
458.429653	0.971406
458.802628	0.968758
459.175542	0.966821
459.548398	0.963984
459.921194	0.960991
460.293930	0.958545
460.666607	0.952223
461.039224	0.948164
461.411782	0.946080
461.784280	0.943467
462.156719	0.942125
462.529099	0.939289
462.901419	0.937537
463.273680	0.935373
463.645882	0.931831
464.018024	0.928836
464.390106	0.924280
464.762130	0.918841
465.134094	0.911234
465.505999	0.898918
465.877845	0.888424
466.249631	0.884071
466.621358	0.882296
466.993026	0.880041
467.364634	0.877812
467.736184	0.873895
468.107674	0.869240
468.479105	0.862235
468.850477	0.859733
469.221790	0.855368
469.593043	0.851102
469.964238	0.846026
470.335373	0.839534
470.706449	0.832494
471.077467	0.826870
471.448425	0.809487
471.819324	0.796116
472.190164	0.790662
472.560945	0.792345
472.931667	0.790867
473.302330	0.784934
473.672934	0.781853
474.043479	0.770339
474.413965	0.764004
474.784393	0.756888
475.154761	0.748940
475.525070	0.740197
475.895321	0.735659
476.265513	0.724984
476.635645	0.716629
477.005719	0.707964
477.375734	0.698616
477.745691	0.688370
478.115588	0.678444
478.485427	0.667841
478.855207	0.653817
479.224928	0.636766
479.594591	0.624078
479.964194	0.616886
480.333739	0.610616
480.703226	0.600801
481.072653	0.592693
481.442022	0.581647
481.811333	0.572198
482.180584	0.566860
482.549777	0.559730
482.918912	0.554513
483.287988	0.546016
483.657005	0.538432
484.025964	0.533779
484.394864	0.523923
484.763706	0.515985
485.132489	0.512161
485.501213	0.504523
485.869879	0.497075
486.238487	0.489921
486.607036	0.482395
486.975527	0.477396
487.343959	0.467439
487.712333	0.459965
488.080648	0.454375
488.448905	0.446439
488.817104	0.440960
489.185244	0.430069
489.553326	0.420986
489.921350	0.408015
490.289315	0.388702
490.657222	0.379530
491.025070	0.373500
491.392861	0.369706
491.760593	0.367842
492.128267	0.365403
492.495883	0.363555
492.863440	0.363068
493.230939	0.362482
493.598380	0.358200
493.965763	0.355042
494.333088	0.352898
494.700354	0.348327
495.067563	0.343544
495.434713	0.341598
495.801805	0.335276
496.168839	0.332712
496.535815	0.329374
496.902733	0.325895
497.269593	0.322842
497.636395	0.317577
498.003139	0.313793
498.369825	0.313302
498.736453	0.306335
499.103023	0.304930
499.469535	0.300902
499.835989	0.298003
500.202385	0.295928
500.568723	0.296227
500.935003	0.289439
501.301226	0.290302
501.667390	0.283046
502.033497	0.278808
502.399546	0.279161
502.765537	0.278599
503.131470	0.274600
503.497345	0.269379
503.863163	0.275714
504.228923	0.267149
504.594625	0.264003
504.960269	0.267414
505.325856	0.261029
505.691385	0.263999
506.056856	0.259439
506.422270	0.257519
506.787625	0.258826
507.152924	0.254880
507.518164	0.254410
507.883347	0.254552
508.248472	0.255436
508.613540	0.249873
508.978550	0.251579
509.343503	0.251198
509.708398	0.247912
510.073236	0.244943
510.438016	0.244197
510.802738	0.244824
511.167403	0.243139
511.532010	0.244491
511.896561	0.239501
512.261053	0.237732
512.625488	0.239607
512.989866	0.239368
513.354186	0.239047
513.718449	0.240809
514.082655	0.236988
514.446803	0.238642
514.810894	0.236088
515.174927	0.238459
515.538904	0.237573
515.902822	0.234322
516.266684	0.236577
516.630488	0.237319
516.994235	0.235993
517.357925	0.234579
517.721558	0.232806
518.085133	0.231909
518.448651	0.232010
518.812112	0.234193
519.175516	0.233554
519.538863	0.230889
519.902152	0.232355
520.265385	0.229388
520.628560	0.230888
520.991678	0.231467
521.354739	0.229980
521.717743	0.231186
522.080690	0.231819
522.443580	0.228508
522.806413	0.229520
523.169189	0.228788
523.531908	0.227472
523.894569	0.231009
524.257174	0.231024
524.619722	0.228633
524.982213	0.229701
525.344647	0.228348
525.707025	0.229336
526.069345	0.227405
526.431608	0.229089
526.793815	0.227024
527.155964	0.231241
527.518057	0.229987
527.880093	0.231049
528.242072	0.229311
528.603995	0.231212
528.965860	0.232972
529.327669	0.231871
529.689421	0.232683
530.051117	0.233598
530.412755	0.230993
530.774337	0.233441
531.135862	0.233642
531.497331	0.233050
531.858743	0.235709
532.220098	0.232579
532.581396	0.235160
532.942638	0.235585
533.303824	0.236548
533.664953	0.236332
534.026025	0.237960
534.387040	0.235815
534.747999	0.235802
535.108902	0.234683
535.469748	0.239662
535.830537	0.237545
536.191270	0.238127
536.551947	0.237411
536.912567	0.237530
537.273131	0.239169
537.633638	0.239428
537.994089	0.239921
538.354483	0.240807
538.714821	0.238013
539.075103	0.237538
539.435328	0.238259
539.795497	0.242049
540.155609	0.238655
540.515665	0.236831
540.875665	0.242265
541.235609	0.240808
541.595496	0.240878
541.955328	0.237328
542.315102	0.240262
542.674821	0.241246
543.034483	0.241058
543.394090	0.240543
543.753640	0.242419
544.113134	0.237580
544.472571	0.241154
544.831953	0.237959
545.191278	0.241819
545.550548	0.241602
545.909761	0.238198
546.268918	0.238935
546.628019	0.237197
546.987064	0.240208
547.346053	0.241746
547.704986	0.239874
548.063863	0.240024
548.422684	0.240301
548.781449	0.242171
549.140158	0.239690
549.498811	0.242653
549.857408	0.245715
550.215949	0.240500
550.574434	0.243650
550.932864	0.241568
551.291237	0.240102
551.649555	0.241465
552.007817	0.241013
552.366022	0.241938
552.724173	0.242255
553.082267	0.242513
553.440305	0.239673
553.798288	0.244096
554.156215	0.240770
554.514086	0.241382
554.871902	0.244107
555.229661	0.243514
555.587365	0.243992
555.945014	0.246547
556.302606	0.243505
556.660143	0.246136
557.017625	0.242342
557.375050	0.244865
557.732421	0.241663
558.089735	0.243828
558.446994	0.243792
558.804197	0.243030
559.161345	0.243112
559.518437	0.246539
559.875474	0.244348
560.232455	0.243665
560.589381	0.245055
560.946251	0.244801
561.303065	0.242293
561.659825	0.243944
562.016528	0.245201
562.373177	0.248260
562.729770	0.245307
563.086307	0.247963
563.442789	0.245418
563.799216	0.248437
564.155587	0.246701
564.511904	0.248154
564.868164	0.248220
565.224370	0.248038
565.580520	0.249464
565.936615	0.249606
566.292654	0.252767
566.648638	0.249814
567.004567	0.250243
567.360441	0.251095
567.716260	0.253256
568.072023	0.251043
568.427732	0.251757
568.783385	0.253946
569.138982	0.252433
569.494525	0.251910
569.850013	0.254857
570.205445	0.253366
570.560823	0.255562
570.916145	0.257758
571.271412	0.256034
571.626625	0.257409
571.981782	0.257819
572.336884	0.258803
572.691931	0.258646
573.046923	0.259495
573.401860	0.260687
573.756743	0.262677
574.111570	0.261252
574.466342	0.261894
574.821059	0.261205
575.175722	0.264111
575.530330	0.263702
575.884882	0.263917
576.239380	0.265971
576.593823	0.266557
576.948211	0.266015
577.302544	0.269091
577.656823	0.268917
578.011047	0.268945
578.365216	0.269415
578.719330	0.271709
579.073389	0.271395
579.427394	0.272448
579.781344	0.273381
580.135239	0.274766
580.489080	0.274783
580.842866	0.277320
581.196597	0.277086
581.550273	0.276138
581.903895	0.277042
582.257463	0.275189
582.610975	0.278576
582.964434	0.277874
583.317837	0.280507
583.671186	0.280932
584.024481	0.280784
584.377721	0.283227
584.730906	0.284275
585.084037	0.283239
585.437113	0.284976
585.790135	0.284422
586.143103	0.287225
586.496016	0.288311
586.848874	0.285993
587.201679	0.286469
587.554428	0.290097
587.907124	0.288629
588.259765	0.289443
588.612352	0.290139
588.964884	0.293549
589.317362	0.293348
589.669786	0.293028
590.022155	0.291855
590.374470	0.291171
590.726731	0.293123
591.078937	0.297824
591.431090	0.294285
591.783188	0.298701
592.135232	0.298724
592.487222	0.298762
592.839157	0.296858
593.191038	0.299365
593.542866	0.301029
593.894639	0.304858
594.246358	0.302826
594.598022	0.302175
594.949633	0.306081
595.301190	0.306897
595.652692	0.305939
596.004141	0.302138
596.355535	0.309868
596.706876	0.310468
597.058162	0.312594
597.409395	0.310219
597.760573	0.307391
598.111698	0.311154
598.462768	0.311831
598.813785	0.312909
599.164748	0.314137
599.515657	0.314313
599.866511	0.317608
600.217312	0.313187
600.568060	0.318207
600.918753	0.314794
601.269392	0.315714
601.619978	0.318773
601.970510	0.316418
602.320988	0.317010
602.671412	0.314616
603.021783	0.316916
603.372100	0.318638
603.722363	0.318155
604.072572	0.318980
604.422728	0.318802
604.772830	0.320429
605.122878	0.320341
605.472872	0.320858
605.822813	0.319307
606.172701	0.321762
606.522534	0.319585
606.872314	0.319631
607.222041	0.320042
607.571714	0.318233
607.921333	0.319619
608.270899	0.319632
608.620411	0.316225
608.969870	0.320074
609.319276	0.320441
609.668627	0.320300
610.017926	0.318553
610.367171	0.317136
610.716362	0.317729
611.065500	0.318294
611.414585	0.316586
611.763616	0.317482
612.112594	0.317694
612.461518	0.317160
612.810389	0.314621
613.159207	0.317502
613.507971	0.319404
613.856682	0.314919
614.205340	0.316323
614.553945	0.313742
614.902496	0.317124
615.250994	0.315169
615.599439	0.316219
615.947830	0.315601
616.296169	0.316105
616.644454	0.315596
616.992686	0.316103
617.340864	0.313750
617.688990	0.317212
618.037063	0.313876
618.385082	0.315669
618.733048	0.312872
619.080961	0.314937
619.428821	0.314488
619.776628	0.314308
620.124382	0.315880
620.472083	0.316018
620.819731	0.315817
621.167326	0.319520
621.514868	0.319268
621.862357	0.323701
622.209793	0.323028
622.557176	0.325564
622.904506	0.326317
623.251783	0.328555
623.599007	0.330965
623.946179	0.330567
624.293297	0.332480
624.640363	0.336388
624.987376	0.337047
625.334336	0.339674
625.681243	0.341604
626.028097	0.342366
626.374899	0.343198
626.721647	0.343695
627.068343	0.346727
627.414987	0.347833
627.761577	0.350273
628.108115	0.348042
628.454600	0.353376
628.801032	0.350739
629.147412	0.353020
629.493739	0.353141
629.840014	0.356241
630.186236	0.353758
630.532405	0.359180
630.878521	0.356802
631.224585	0.359215
631.570597	0.362800
631.916556	0.360890
632.262462	0.361558
632.608316	0.362906
632.954117	0.364173
633.299866	0.365022
633.645562	0.365310
633.991206	0.369963
634.336797	0.372999
634.682336	0.374961
635.027823	0.376313
635.373257	0.376711
635.718639	0.380265
636.063968	0.379416
636.409245	0.385554
636.754470	0.386431
637.099642	0.388202
637.444762	0.391441
637.789829	0.390680
638.134845	0.393876
638.479808	0.395338
638.824719	0.395183
639.169577	0.399332
639.514383	0.398048
639.859137	0.402098
640.203839	0.401879
640.548489	0.402525
640.893086	0.403699
641.237632	0.405472
641.582125	0.404011
641.926566	0.405167
642.270955	0.405646
642.615292	0.405930
642.959576	0.404680
643.303809	0.406108
643.647990	0.405138
643.992118	0.406039
644.336195	0.409190
644.680219	0.407934
645.024192	0.408421
645.368112	0.401988
645.711981	0.400880
646.055797	0.395857
646.399562	0.398576
646.743274	0.390287
647.086935	0.388503
647.430544	0.388349
647.774101	0.387659
648.117606	0.386574
648.461059	0.387842
648.804460	0.389761
649.147810	0.395063
649.491108	0.396569
649.834354	0.398020
650.177548	0.403530
650.520690	0.408778
650.863781	0.410066
651.206820	0.409262
651.549807	0.414169
651.892742	0.418100
652.235626	0.417182
652.578458	0.418851
652.921238	0.424005
653.263967	0.422066
653.606644	0.425663
653.949269	0.426140
654.291843	0.430055
654.634365	0.426533
654.976836	0.429835
655.319255	0.429590
655.661622	0.432141
656.003938	0.431407
656.346203	0.434274
656.688416	0.432530
657.030577	0.435517
657.372687	0.437903
657.714746	0.438227
658.056753	0.435525
658.398708	0.439187
658.740612	0.440732
659.082465	0.436669
659.424266	0.437267
659.766016	0.436684
660.107715	0.439356
660.449362	0.438007
660.790958	0.439340
661.132503	0.439491
661.473996	0.437347
661.815438	0.437788
662.156829	0.438182
662.498168	0.438345
662.839456	0.440558
663.180693	0.437947
663.521879	0.437961
663.863013	0.438849
664.204097	0.437381
664.545129	0.434000
664.886110	0.434997
665.227040	0.432070
665.567918	0.434703
665.908746	0.432746
666.249522	0.432205
666.590248	0.433308
666.930922	0.431565
667.271545	0.430160
667.612118	0.430194
667.952639	0.431801
668.293109	0.431174
668.633528	0.433639
668.973896	0.433153
669.314213	0.434155
669.654480	0.435537
669.994695	0.435875
670.334859	0.437151
670.674973	0.436620
671.015035	0.437113
671.355047	0.437043
671.695008	0.437870
672.034918	0.439365
672.374777	0.439366
672.714585	0.440597
673.054342	0.440561
673.394049	0.440200
673.733705	0.438272
674.073310	0.439434
674.412864	0.442166
674.752368	0.442809
675.091820	0.442819
675.431223	0.447125
675.770574	0.447469
676.109875	0.450257
676.449125	0.449894
676.788324	0.452420
677.127473	0.457872
677.466571	0.457449
677.805619	0.459100
678.144616	0.460447
678.483562	0.461918
678.822458	0.464915
679.161303	0.465090
679.500098	0.465650
679.838842	0.467409
680.177535	0.467017
680.516179	0.465485
680.854771	0.464715
681.193314	0.458351
681.531805	0.449940
681.870247	0.438119
682.208638	0.430559
682.546978	0.429599
682.885268	0.431455
683.223508	0.437945
683.561697	0.441443
683.899836	0.443781
684.237925	0.447122
684.575963	0.450041
684.913951	0.453251
685.251889	0.449032
685.589776	0.450531
685.927614	0.453271
686.265401	0.447495
686.603137	0.448754
686.940824	0.443152
687.278460	0.441269
687.616046	0.440434
687.953582	0.435253
688.291068	0.436911
688.628504	0.432762
688.965889	0.434481
689.303224	0.439110
689.640510	0.442506
689.977745	0.448362
690.314930	0.456504
690.652065	0.460790
690.989150	0.468287
691.326185	0.474459
691.663170	0.478871
692.000105	0.486235
692.336990	0.493105
692.673825	0.495920
693.010610	0.503102
693.347345	0.508203
693.684030	0.509455
694.020665	0.514103
694.357251	0.522581
694.693786	0.523120
695.030272	0.526974
695.366707	0.530501
695.703093	0.533836
696.039429	0.531803
696.375716	0.533205
696.711952	0.536245
697.048139	0.537834
697.384276	0.540103
697.720363	0.538179
698.056400	0.538354
698.392388	0.542687
698.728326	0.546373
699.064214	0.548459
699.400053	0.549642
699.735842	0.552950
700.071581	0.555893
700.407270	0.558226
700.742910	0.560697
701.078501	0.567526
701.414042	0.568014
701.749533	0.571549
702.084974	0.579974
702.420366	0.571788
702.755709	0.580448
703.091002	0.587993
703.426246	0.580999
703.761440	0.586481
704.096584	0.591541
704.431679	0.588381
704.766725	0.590720
705.101721	0.592355
705.436668	0.588072
705.771565	0.595697
706.106413	0.592406
706.441212	0.586813
706.775961	0.586188
707.110661	0.588549
707.445311	0.585084
707.779913	0.582510
708.114465	0.580700
708.448967	0.577662
708.783421	0.569250
709.117825	0.564606
709.452180	0.564539
709.786485	0.558981
710.120742	0.548284
710.454949	0.550589
710.789107	0.542812
711.123216	0.533878
711.457275	0.535608
711.791286	0.526771
712.125247	0.525260
712.459159	0.535726
712.793023	0.528192
713.126837	0.532143
713.460602	0.532996
713.794318	0.542655
714.127985	0.541050
714.461602	0.550675
714.795171	0.554893
715.128691	0.562301
715.462162	0.569191
715.795584	0.574791
716.128957	0.578254
716.462281	0.585142
716.795556	0.588543
717.128782	0.593226
717.461960	0.602698
717.795088	0.601448
718.128167	0.607820
718.461198	0.617085
718.794180	0.616708
719.127113	0.619341
719.459997	0.622682
719.792833	0.629169
720.125619	0.630259
720.458357	0.636083
720.791046	0.635270
721.123686	0.638976
721.456278	0.646174
721.788821	0.643538
722.121315	0.648001
722.453761	0.652524
722.786158	0.649572
723.118506	0.646105
723.450805	0.653000
723.783056	0.650568
724.115259	0.647313
724.447412	0.645876
724.779518	0.648118
725.111574	0.646452
725.443582	0.642649
725.775542	0.644416
726.107453	0.636948
726.439315	0.636586
726.771129	0.635057
727.102895	0.628593
727.434612	0.621977
727.766281	0.620126
728.097901	0.619047
728.429473	0.619086
728.760996	0.617648
729.092471	0.616964
729.423897	0.620954
729.755276	0.620365
730.086606	0.620552
730.417887	0.614818
730.749120	0.605718
731.080305	0.596096
731.411442	0.592595
731.742530	0.597434
732.073570	0.596236
732.404562	0.589169
732.735506	0.590163
733.066401	0.595081
733.397249	0.603687
733.728048	0.615909
734.058798	0.627095
734.389501	0.638716
734.720156	0.647547
735.050762	0.655996
735.381320	0.656589
735.711831	0.666230
736.042293	0.671343
736.372707	0.666350
736.703073	0.671193
737.033391	0.674841
737.363661	0.670605
737.693883	0.666009
738.024056	0.665055
738.354182	0.665797
738.684260	0.655224
739.014290	0.650744
739.344272	0.651338
739.674207	0.644664
740.004093	0.644757
740.333931	0.644367
740.663722	0.644949
740.993464	0.645130
741.323159	0.648555
741.652806	0.653871
741.982405	0.658834
742.311956	0.663338
742.641460	0.666243
742.970915	0.669048
743.300323	0.676524
743.629683	0.683613
743.958996	0.685220
744.288260	0.689280
744.617477	0.696569
744.946647	0.697040
745.275768	0.702671
745.604842	0.702988
745.933869	0.712412
746.262847	0.713398
746.591778	0.706764
746.920662	0.711574
747.249498	0.718973
747.578286	0.709331
747.907027	0.706369
748.235720	0.706852
748.564365	0.702241
748.892963	0.702020
749.221514	0.704657
749.550017	0.710203
749.878473	0.709609
750.206881	0.715215
750.535242	0.717919
750.863555	0.716720
751.191821	0.717923
751.520039	0.721345
751.848210	0.725334
752.176334	0.718379
752.504411	0.718146
752.832440	0.725775
753.160421	0.730042
753.488356	0.727537
753.816243	0.725362
754.144082	0.732974
754.471875	0.736636
754.799620	0.732787
755.127318	0.734799
755.454969	0.733825
755.782572	0.733703
756.110129	0.737738
756.437638	0.740621
756.765100	0.736853
757.092515	0.735192
757.419882	0.734118
757.747203	0.740029
758.074477	0.738801
758.401703	0.735889
758.728882	0.731184
759.056014	0.730076
759.383099	0.728083
759.710138	0.729268
760.037129	0.727057
760.364073	0.721564
760.690970	0.722974
761.017820	0.729142
761.344623	0.724599
761.671379	0.715343
761.998088	0.704182
762.324751	0.681189
762.651366	0.640430
762.977935	0.573392
763.304456	0.521628
763.630931	0.512140
763.957359	0.551402
764.283740	0.595345
764.610074	0.622366
764.936362	0.652101
765.262602	0.679384
765.588796	0.700783
765.914943	0.718909
766.241044	0.736809
766.567097	0.743155
766.893104	0.752082
767.219064	0.758581
767.544978	0.766281
767.870845	0.779255
768.196665	0.782648
768.522438	0.781452
768.848165	0.781592
769.173846	0.789965
769.499479	0.795266
769.825066	0.798699
770.150607	0.804177
770.476101	0.798765
770.801548	0.799763
771.126949	0.811559
771.452303	0.815203
771.777611	0.813821
772.102872	0.813212
772.428087	0.818725
772.753256	0.821546
773.078378	0.823772
773.403453	0.832593
773.728482	0.837611
774.053465	0.830556
774.378401	0.834408
774.703291	0.842578
775.028135	0.841682
775.352932	0.843652
775.677683	0.846880
776.002388	0.847224
776.327046	0.846528
776.651658	0.849672
776.976224	0.854104
777.300743	0.853942
777.625216	0.856218
777.949643	0.858431
778.274024	0.857779
778.598359	0.858693
778.922647	0.857573
779.246889	0.857943
779.571086	0.862408
779.895236	0.864804
780.219339	0.861947
780.543397	0.858689
780.867409	0.857335
781.191374	0.859895
781.515294	0.860291
781.839167	0.859711
782.162995	0.863870
782.486776	0.860202
782.810511	0.860814
783.134201	0.864876
783.457844	0.861890
783.781441	0.865034
784.104993	0.870153
784.428498	0.870776
784.751958	0.866478
785.075372	0.869320
785.398739	0.872775
785.722061	0.870645
786.045337	0.865191
786.368568	0.869686
786.691752	0.872613
787.014891	0.858512
787.337983	0.849154
787.661030	0.842391
787.984031	0.824856
788.306987	0.811901
788.629897	0.815317
788.952760	0.818302
789.275579	0.822515
789.598351	0.837460
789.921078	0.850710
790.243759	0.852649
790.566395	0.856278
790.888984	0.864423
791.211529	0.870073
791.534027	0.872080
791.856480	0.873250
792.178888	0.879350
792.501249	0.882336
792.823566	0.883515
793.145836	0.883778
793.468062	0.885352
793.790241	0.886005
794.112375	0.883267
794.434464	0.879318
794.756507	0.878125
795.078505	0.877729
795.400457	0.872297
795.722364	0.860532
796.044226	0.853836
796.366042	0.853245
796.687812	0.856827
797.009538	0.853353
797.331218	0.855602
797.652852	0.860527
797.974442	0.865248
798.295986	0.864575
798.617484	0.867607
798.938938	0.871740
799.260346	0.877038
799.581709	0.878204
799.903026	0.881512
800.224299	0.881190
800.545526	0.885319
800.866708	0.889182
801.187845	0.893278
801.508936	0.892192
801.829983	0.890242
802.150984	0.892914
802.471940	0.898809
802.792851	0.898182
803.113717	0.898457
803.434538	0.896919
803.755314	0.898975
804.076045	0.900489
804.396731	0.900028
804.717372	0.901020
805.037967	0.902394
805.358518	0.900556
805.679024	0.896704
805.999485	0.897106
806.319901	0.898647
806.640272	0.898578
806.960598	0.896455
807.280879	0.894212
807.601115	0.891629
807.921306	0.896353
808.241453	0.897033
808.561554	0.894671
808.881611	0.893957
809.201623	0.897205
809.521590	0.896612
809.841513	0.897734
810.161390	0.896660
810.481223	0.897719
810.801011	0.902282
811.120755	0.903871
811.440453	0.902113
811.760107	0.900699
812.079716	0.901366
812.399281	0.904937
812.718801	0.907325
813.038276	0.908285
813.357707	0.907257
813.677093	0.904882
813.996434	0.907390
814.315731	0.909140
814.634983	0.910018
814.954191	0.908335
815.273354	0.905631
815.592473	0.901856
815.911547	0.902040
816.230577	0.899941
816.549562	0.897096
816.868502	0.897067
817.187399	0.894146
817.506250	0.889878
817.825058	0.892119
818.143821	0.888381
818.462539	0.882097
818.781213	0.873604
819.099843	0.864032
819.418429	0.847700
819.736970	0.831645
820.055466	0.811263
820.373919	0.786699
820.692327	0.753284
821.010691	0.719843
821.329011	0.642997
821.647286	0.529901
821.965517	0.416069
822.283704	0.373633
822.601847	0.375614
822.919945	0.410825
823.237999	0.444506
823.556010	0.490166
823.873976	0.545232
824.191897	0.595470
824.509775	0.637531
824.827609	0.681962
825.145398	0.704738
825.463144	0.707720
825.780845	0.690395
826.098502	0.672208
826.416116	0.626588
826.733685	0.583341
827.051210	0.575652
827.368692	0.589645
827.686129	0.626329
828.003522	0.678525
828.320872	0.726436
828.638177	0.769045
828.955439	0.801264
829.272656	0.822981
829.589830	0.840355
829.906960	0.856191
830.224046	0.867720
830.541088	0.878084
830.858086	0.882702
831.175041	0.889408
831.491952	0.887380
831.808819	0.883879
832.125642	0.878255
832.442421	0.863959
832.759157	0.841782
833.075849	0.796546
833.392497	0.732394
833.709101	0.692650
834.025662	0.701866
834.342179	0.733652
834.658653	0.771758
834.975083	0.807791
835.291469	0.833643
835.607811	0.855690
835.924110	0.871707
836.240366	0.890016
836.556578	0.902687
836.872746	0.910056
837.188871	0.915360
837.504952	0.920394
837.820990	0.925084
838.136984	0.927321
838.452935	0.930028
838.768842	0.932206
839.084706	0.925248
839.400526	0.899739
839.716303	0.861339
840.032037	0.838495
840.347727	0.842194
840.663373	0.860777
840.978977	0.881112
841.294537	0.903480
841.610054	0.919289
841.925527	0.926072
842.240957	0.932944
842.556344	0.939387
842.871687	0.946274
843.186987	0.950839
843.502244	0.950152
843.817458	0.952707
844.132629	0.955788
844.447756	0.960234
844.762840	0.961980
845.077881	0.961295
845.392879	0.960893
845.707833	0.963179
846.022745	0.965585
846.337613	0.965819
846.652438	0.965222
846.967221	0.965014
847.281960	0.966717
847.596656	0.967262
847.911309	0.966180
848.225919	0.967634
848.540485	0.968184
848.855009	0.968624
849.169490	0.968661
849.483928	0.969594
849.798323	0.969664
850.112675	0.970425
850.426984	0.969977
850.741251	0.971094
851.055474	0.970429
851.369654	0.968175
851.683792	0.970516
851.997887	0.970377
852.311938	0.970555
852.625947	0.969941
852.939914	0.968587
853.253837	0.968491
853.567718	0.971525
853.881555	0.971388
854.195350	0.967572
854.509103	0.970135
854.822812	0.970682
855.136479	0.969360
855.450103	0.970020
855.763685	0.967885
856.077224	0.969463
856.390720	0.969720
856.704173	0.971312
857.017584	0.968500
857.330953	0.966721
857.644278	0.967496
857.957561	0.969489
858.270802	0.968601
858.584000	0.967960
858.897155	0.966566
859.210268	0.968153
859.523339	0.967965
859.836367	0.971997
860.149352	0.970668
860.462295	0.968917
860.775195	0.970318
861.088054	0.969473
861.400869	0.969763
861.713642	0.970168
862.026373	0.971452
862.339062	0.971038
862.651708	0.968045
862.964312	0.967760
863.276873	0.968915
863.589392	0.969327
863.901869	0.967720
864.214303	0.965778
864.526696	0.963742
864.839045	0.964271
865.151353	0.961849
865.463619	0.964207
865.775842	0.962666
866.088023	0.962818
866.400162	0.961609
866.712258	0.962525
867.024313	0.964065
867.336325	0.964512
867.648296	0.964170
867.960224	0.962785
868.272110	0.962974
868.583954	0.964885
868.895755	0.964159
869.207515	0.962498
869.519233	0.959931
869.830909	0.961705
870.142542	0.963263
870.454134	0.963164
870.765684	0.961874
871.077191	0.956488
871.388657	0.959745
871.700081	0.958223
872.011463	0.959924
872.322803	0.958844
872.634101	0.957521
872.945357	0.955279
873.256571	0.953326
873.567744	0.953909
873.878874	0.953775
874.189963	0.953010
874.501010	0.951641
874.812015	0.950124
875.122979	0.950916
875.433900	0.953338
875.744780	0.954172
876.055618	0.951396
876.366415	0.949457
876.677169	0.950156
876.987882	0.952018
877.298554	0.952138
877.609183	0.946883
877.919771	0.945678
878.230317	0.943308
878.540822	0.941979
878.851285	0.936375
879.161707	0.928584
879.472087	0.916753
879.782425	0.901464
880.092722	0.867080
880.402977	0.816219
880.713191	0.756091
881.023363	0.699316
881.333494	0.666153
881.643583	0.637358
881.953631	0.637340
882.263637	0.665686
882.573602	0.705477
882.883526	0.730479
883.193408	0.753139
883.503248	0.774377
883.813048	0.802333
884.122806	0.830599
884.432522	0.854314
884.742197	0.873591
885.051831	0.883768
885.361424	0.893698
885.670975	0.904725
885.980485	0.915645
886.289954	0.920308
886.599382	0.926597
886.908768	0.929852
887.218113	0.935807
887.527417	0.940167
887.836680	0.942986
888.145901	0.944887
888.455082	0.946743
888.764221	0.951245
889.073319	0.953705
889.382376	0.954431
889.691392	0.953469
890.000366	0.954066
890.309300	0.954339
890.618193	0.953376
890.927044	0.952917
891.235855	0.953210
891.544625	0.952521
891.853353	0.953441
892.162041	0.950196
892.470687	0.943813
892.779293	0.939333
893.087858	0.935338
893.396381	0.927435
893.704864	0.915111
894.013306	0.892069
894.321707	0.865718
894.630068	0.850565
894.938387	0.846822
895.246665	0.848350
895.554903	0.860034
895.863100	0.872831
896.171256	0.889744
896.479371	0.909024
896.787446	0.920783
897.095480	0.926952
897.403473	0.929991
897.711425	0.933841
898.019336	0.942624
898.327207	0.944481
898.635038	0.946798
898.942827	0.945768
899.250576	0.948957
899.558284	0.952445
899.865952	0.955465
900.173579	0.956862
900.481165	0.956984
900.788711	0.960326
901.096216	0.961814
901.403681	0.962356
901.711105	0.964108
902.018489	0.964180
902.325832	0.963850
902.633135	0.961680
902.940397	0.956134
903.247619	0.945423
903.554800	0.919237
903.861941	0.881049
904.169041	0.846686
904.476101	0.830422
904.783121	0.831895
905.090100	0.847434
905.397039	0.868438
905.703938	0.888997
906.010796	0.909135
906.317614	0.925351
906.624391	0.937190
906.931129	0.945838
907.237826	0.953323
907.544483	0.959786
907.851099	0.963487
908.157675	0.967963
908.464211	0.969946
908.770707	0.973373
909.077163	0.974165
909.383578	0.975483
909.689954	0.975202
909.996289	0.975323
910.302584	0.977968
910.608839	0.980330
910.915054	0.978991
911.221229	0.977935
911.527363	0.976849
911.833458	0.977741
912.139513	0.977667
912.445527	0.976500
912.751502	0.974467
913.057436	0.973072
913.363331	0.970758
913.669186	0.966342
913.975000	0.962456
914.280775	0.956456
914.586510	0.949153
914.892205	0.936604
915.197859	0.916786
915.503475	0.889433
915.809050	0.871229
916.114585	0.865893
916.420081	0.863475
916.725536	0.860216
917.030952	0.868139
917.336328	0.880852
917.641665	0.895348
917.946961	0.910013
918.252218	0.921690
918.557435	0.929644
918.862612	0.937871
919.167750	0.944421
919.472848	0.949112
919.777906	0.954420
920.082925	0.958669
920.387904	0.962390
920.692843	0.964386
920.997743	0.965068
921.302603	0.968352
921.607423	0.969545
921.912204	0.972641
922.216946	0.972744
922.521647	0.973959
922.826310	0.976395
923.130932	0.976655
923.435516	0.978828
923.740059	0.979996
924.044564	0.979672
924.349028	0.981228
924.653454	0.982228
924.957840	0.984681
925.262186	0.985729
925.566493	0.984301
925.870761	0.984992
926.174989	0.986541
926.479178	0.988763
926.783328	0.988659
927.087438	0.988068
927.391509	0.988930
927.695541	0.990317
927.999533	0.989331
928.303486	0.989958
928.607400	0.990608
928.911275	0.989865
929.215110	0.990317
929.518906	0.991037
929.822663	0.988904
930.126381	0.990909
930.430060	0.990604
930.733699	0.990617
931.037299	0.989123
931.340861	0.991168
931.644383	0.989247
931.947866	0.989995
932.251309	0.990287
932.554714	0.991252
932.858080	0.990086
933.161407	0.991309
933.464694	0.991165
933.767943	0.989270
934.071153	0.990778
934.374323	0.991777
934.677455	0.991080
934.980548	0.993225
935.283602	0.990988
935.586617	0.992285
935.889593	0.990361
936.192530	0.990182
936.495428	0.989923
936.798287	0.990751
937.101108	0.990561
937.403890	0.988675
937.706632	0.988319
938.009336	0.987210
938.312002	0.985706
938.614628	0.984275
938.917216	0.984570
939.219765	0.982096
939.522275	0.984125
939.824747	0.983195
940.127179	0.983732
940.429573	0.985451
940.731929	0.982718
941.034246	0.983335
941.336524	0.985488
941.638763	0.985869
941.940964	0.985645
942.243126	0.986105
942.545250	0.987575
942.847335	0.988923
943.149381	0.987924
943.451389	0.987570
943.753359	0.988575
944.055290	0.990478
944.357182	0.988587
944.659036	0.988857
944.960851	0.988421
945.262628	0.990300
945.564367	0.990236
945.866067	0.989847
946.167729	0.990337
946.469352	0.988978
946.770937	0.988482
947.072484	0.991592
947.373992	0.990226
947.675462	0.990087
947.976893	0.989670
948.278286	0.989585
948.579641	0.991867
948.880958	0.989830
949.182236	0.991478
949.483476	0.990787
949.784678	0.990057
950.085841	0.990714
950.386967	0.991359
950.688054	0.990616
950.989103	0.991224
951.290114	0.990254
951.591087	0.989925
951.892021	0.989903
952.192917	0.989523
952.493776	0.989265
952.794596	0.988817
953.095378	0.987263
953.396122	0.988979
953.696828	0.988455
953.997496	0.990507
954.298126	0.990290
954.598718	0.990724
954.899272	0.991401
955.199788	0.990403
955.500266	0.991894
955.800706	0.993146
956.101108	0.992599
956.401472	0.993315
956.701798	0.993200
957.002087	0.992932
957.302337	0.992868
957.602550	0.996031
957.902724	0.994670
958.202861	0.994440
958.502960	0.995597
958.803022	0.994032
959.103045	0.996166
959.403031	0.995837
959.702979	0.995324
960.002889	0.995264
960.302762	0.994631
960.602596	0.996673
960.902393	0.994393
961.202153	0.995945
961.501875	0.996492
961.801559	0.995172
962.101205	0.995237
962.400814	0.996492
962.700385	0.997294
962.999918	0.996489
963.299414	0.995822
963.598873	0.995110
963.898293	0.995396
964.197677	0.996599
964.497022	0.996555
964.796331	0.996287
965.095601	0.997078
965.394835	0.995575
965.694030	0.997467
965.993189	0.996117
966.292309	0.996025
966.591393	0.997222
966.890439	0.995570
967.189447	0.997340
967.488419	0.997259
967.787353	0.995783
968.086249	0.995876
968.385108	0.996226
968.683930	0.997508
968.982714	0.996579
969.281462	0.996970
969.580172	0.996079
969.878844	0.997067
970.177480	0.996787
970.476078	0.997122
970.774639	0.996615
971.073162	0.996346
971.371649	0.996671
971.670098	0.994936
971.968510	0.996702
972.266885	0.995275
972.565223	0.995675
972.863524	0.995538
973.161788	0.995734
973.460014	0.996880
973.758204	0.994964
974.056356	0.995479
974.354471	0.993714
974.652550	0.995311
974.950591	0.996096
975.248595	0.995256
975.546563	0.995460
975.844493	0.997649
976.142386	0.996635
976.440243	0.997506
976.738062	0.997564
977.035845	0.997613
977.333590	0.996097
977.631299	0.997503
977.928971	0.996415
978.226606	0.995857
978.524204	0.994910
978.821765	0.997897
979.119290	0.996697
979.416777	0.996449
979.714228	0.996929
980.011642	0.995233
980.309020	0.996941
980.606360	0.997155
980.903664	0.997490
981.200931	0.995985
981.498162	0.994042
981.795356	0.994894
982.092513	0.993233
982.389633	0.994830
982.686717	0.991739
982.983764	0.990544
983.280775	0.989689
983.577749	0.990111
983.874686	0.991741
984.171587	0.992348
984.468451	0.994702
984.765279	0.995125
985.062070	0.993428
985.358824	0.995578
985.655543	0.995338
985.952224	0.995853
986.248869	0.996072
986.545478	0.996624
986.842050	0.998247
987.138586	0.995490
987.435086	0.996820
987.731549	0.997379
988.027975	0.997292
988.324366	0.997183
988.620719	0.996834
988.917037	0.995512
989.213318	0.998009
989.509563	0.997316
989.805772	0.998433
990.101944	0.998677
990.398080	0.997303
990.694180	0.997123
990.990244	0.996230
991.286271	0.997909
991.582262	0.997438
991.878217	0.998208
992.174136	0.997637
992.470019	0.998194
992.765865	0.997460
993.061676	0.996896
993.357450	0.997381
993.653188	0.996330
993.948890	0.997162
994.244556	0.997522
994.540186	0.997051
994.835780	0.996609
995.131337	0.996945
995.426859	0.996025
995.722345	0.997459
996.017795	0.995670
996.313208	0.996290
996.608586	0.995331
996.903928	0.995997
997.199234	0.995975
997.494504	0.996690
997.789738	0.995046
998.084936	0.997151
998.380099	0.997832
998.675225	0.997373
998.970316	0.997522
999.265371	0.997370
999.560390	0.997490
999.855373	0.999049
1000.150320	0.997907
1000.445232	0.998742
1000.740108	0.998281
1001.034948	0.998711
1001.329752	0.997878
1001.624521	0.998232
1001.919254	0.996713
1002.213951	0.997050
1002.508613	0.997196
1002.803239	0.999364
1003.097829	0.998307
1003.392384	0.999031
1003.686903	0.997298
1003.981386	0.998981
1004.275834	0.998822
1004.570246	0.997279
1004.864623	0.998215
1005.158964	0.999037
1005.453270	0.998414
1005.747540	0.996478
1006.041775	0.998235
1006.335974	0.999304
1006.630138	0.998954
1006.924266	0.998831
1007.218359	0.999680
1007.512416	0.999268
1007.806438	0.999787
1008.100425	0.998757
1008.394376	0.998841
1008.688292	0.997082
1008.982172	0.999981
1009.276017	0.998388
1009.569827	0.998219
1009.863602	0.999974
1010.157341	0.999272
1010.451045	0.998637
1010.744714	0.998800
1011.038347	0.999452
1011.331945	0.998651
1011.625508	0.996299
1011.919036	0.999188
1012.212528	0.998505
1012.505986	0.997995
1012.799408	0.997846
1013.092795	0.999969
1013.386147	0.998266
1013.679464	0.999997
1013.972745	0.998258
1014.265992	0.997284
1014.559204	0.997596
1014.852380	0.998523
1015.145521	0.998312
1015.438628	0.998656
1015.731699	0.998495
1016.024736	0.997909
1016.317737	0.999142
1016.610703	0.998134
1016.903635	0.999327
1017.196531	0.998726
1017.489393	0.999868
1017.782219	0.998476
1018.075011	0.998335
1018.367768	0.998701
1018.660490	0.998960
1018.953177	0.998960
1019.245829	0.998960
