Dividing Wavelength (nm)	Counts (n)	Blue Motor Position (mm): 0.000000	Red Motor Position (mm): 38.200000	
326.493990	1.000401
326.888308	1.000401
327.282561	1.000401
327.676750	1.000568
328.070874	0.998867
328.464933	1.000018
328.858929	1.000075
329.252859	0.999206
329.646726	0.999931
330.040528	0.998725
330.434265	0.999897
330.827938	0.999948
331.221547	1.000381
331.615091	0.999708
332.008571	0.999872
332.401986	0.999798
332.795338	1.000723
333.188625	0.997934
333.581847	1.000892
333.975006	0.999057
334.368100	1.000555
334.761129	0.999433
335.154095	1.000818
335.546996	0.998430
335.939833	0.996778
336.332606	0.997400
336.725315	0.997211
337.117960	0.998965
337.510540	0.997491
337.903056	0.997854
338.295508	0.995719
338.687896	0.997531
339.080220	0.997640
339.472480	0.998543
339.864676	0.996986
340.256807	0.997510
340.648875	0.998584
341.040879	0.998079
341.432818	0.997266
341.824694	0.997189
342.216506	0.997846
342.608253	0.996995
342.999937	0.997047
343.391557	0.997882
343.783113	0.996434
344.174605	0.997771
344.566033	0.998536
344.957397	0.995806
345.348697	0.996468
345.739934	0.997370
346.131106	0.997341
346.522215	0.997198
346.913260	0.997190
347.304241	0.996034
347.695159	0.997443
348.086012	0.995726
348.476802	0.997596
348.867528	0.996790
349.258191	0.996077
349.648789	0.997584
350.039324	0.996241
350.429796	0.998147
350.820203	0.996339
351.210548	0.997286
351.600828	0.997207
351.991045	0.997467
352.381198	0.996156
352.771288	0.996741
353.161314	0.996709
353.551276	0.998367
353.941175	0.997323
354.331010	0.996700
354.720782	0.996640
355.110490	0.997132
355.500135	0.998306
355.889717	0.997772
356.279235	0.997211
356.668689	0.996497
357.058080	0.997767
357.447408	0.997580
357.836672	0.997329
358.225873	0.997125
358.615010	0.997160
359.004084	0.999109
359.393095	0.997276
359.782043	0.998349
360.170927	0.997679
360.559748	0.998034
360.948505	0.997782
361.337199	0.997754
361.725830	0.997650
362.114398	0.997500
362.502903	0.998177
362.891344	0.999695
363.279722	0.997013
363.668037	0.998835
364.056289	0.995792
364.444478	1.000124
364.832603	0.997803
365.220665	0.997124
365.608665	0.997734
365.996601	0.997058
366.384474	0.997226
366.772284	0.997403
367.160031	0.996698
367.547715	0.995835
367.935336	0.997367
368.322893	0.998198
368.710388	0.996856
369.097820	0.997544
369.485189	0.996475
369.872495	0.996713
370.259738	0.995713
370.646918	0.998239
371.034035	0.998117
371.421090	0.997050
371.808081	0.997719
372.195010	0.997989
372.581875	0.997384
372.968678	0.996995
373.355418	0.997777
373.742096	0.996617
374.128710	0.998063
374.515262	0.997152
374.901751	0.997763
375.288177	0.998032
375.674540	0.997942
376.060841	0.996404
376.447079	0.998915
376.833254	0.997894
377.219367	0.997823
377.605417	0.998425
377.991404	0.998325
378.377329	0.996963
378.763191	0.998519
379.148991	0.998762
379.534727	0.998258
379.920402	0.998334
380.306013	0.996936
380.691563	0.999409
381.077049	0.998294
381.462474	0.998376
381.847835	0.997602
382.233134	0.998975
382.618371	0.998552
383.003545	0.998166
383.388657	0.998644
383.773706	0.998965
384.158693	0.996566
384.543618	0.998613
384.928480	0.998821
385.313280	0.999060
385.698017	0.999649
386.082692	0.999431
386.467305	0.999213
386.851856	0.999148
387.236344	0.998748
387.620770	0.997383
388.005133	0.998751
388.389435	1.000599
388.773674	0.997668
389.157851	0.998686
389.541965	0.998641
389.926018	0.999132
390.310008	1.000666
390.693936	0.998626
391.077802	0.999329
391.461606	0.999290
391.845348	0.999060
392.229027	1.000661
392.612645	0.998927
392.996200	0.999560
393.379694	0.999068
393.763125	0.999900
394.146494	0.998731
394.529801	0.998908
394.913047	0.999618
395.296230	0.998742
395.679351	0.999165
396.062410	0.999022
396.445408	1.000197
396.828343	0.999538
397.211217	0.999071
397.594028	0.999975
397.976778	0.998791
398.359466	0.998458
398.742092	0.998939
399.124656	0.999319
399.507158	0.999976
399.889598	0.998765
400.271977	0.999672
400.654294	0.999896
401.036549	0.999825
401.418742	0.999112
401.800874	0.999089
402.182944	0.999649
402.564952	0.998798
402.946898	1.000096
403.328783	0.999330
403.710606	0.999800
404.092367	0.999943
404.474067	0.999382
404.855705	0.999328
405.237282	1.000045
405.618797	0.998831
406.000250	0.999039
406.381642	0.999694
406.762972	0.999116
407.144240	1.000493
407.525447	0.999724
407.906593	0.999401
408.287677	0.999520
408.668700	0.999759
409.049661	0.998755
409.430560	1.000263
409.811399	0.999334
410.192176	0.999510
410.572891	0.999321
410.953545	0.999387
411.334138	0.998972
411.714669	0.999543
412.095139	0.998686
412.475547	1.000293
412.855894	0.999813
413.236180	0.999449
413.616405	0.999679
413.996568	0.999391
414.376670	0.999247
414.756711	0.998375
415.136691	0.999983
415.516609	1.000032
415.896466	0.999118
416.276262	0.998739
416.655997	1.000101
417.035670	0.999487
417.415283	0.999899
417.794834	0.999859
418.174324	0.999461
418.553753	1.000039
418.933121	0.999177
419.312428	0.999398
419.691674	1.000215
420.070859	1.000036
420.449983	0.999642
420.829045	0.999557
421.208047	0.999736
421.586988	1.000304
421.965867	1.000034
422.344686	1.000193
422.723444	0.999344
423.102141	1.000069
423.480777	1.000217
423.859352	0.999640
424.237866	0.999681
424.616319	0.999954
424.994712	1.000555
425.373044	1.000819
425.751314	1.000037
426.129524	0.999594
426.507673	1.000337
426.885762	1.001116
427.263789	0.999994
427.641756	1.000432
428.019662	1.000499
428.397508	0.999166
428.775292	0.999441
429.153016	0.999776
429.530679	0.999813
429.908282	1.000561
430.285824	1.000194
430.663305	1.000257
431.040726	0.999239
431.418086	1.000704
431.795385	0.999687
432.172624	0.999347
432.549802	0.999848
432.926920	1.000429
433.303977	0.999715
433.680974	1.000184
434.057910	1.000529
434.434786	1.000297
434.811601	0.999394
435.188355	0.999313
435.565050	1.000101
435.941683	1.000736
436.318257	1.001027
436.694770	0.999272
437.071222	1.000428
437.447614	0.999944
437.823946	1.000363
438.200218	1.000502
438.576429	0.999771
438.952580	0.999957
439.328670	0.999883
439.704700	1.000434
440.080670	1.000713
440.456580	1.000148
440.832429	0.999775
441.208218	1.000315
441.583947	0.999911
441.959616	0.999892
442.335224	1.000106
442.710773	1.000721
443.086261	0.999770
443.461689	0.999988
443.837057	1.000081
444.212365	1.000496
444.587612	0.999958
444.962800	0.998890
445.337927	1.000308
445.712995	1.000548
446.088002	1.000624
446.462949	1.000027
446.837837	1.000056
447.212664	1.000863
447.587431	1.001070
447.962139	0.999789
448.336786	1.001065
448.711374	1.000044
449.085901	1.000058
449.460369	1.001019
449.834776	0.999405
450.209124	1.001226
450.583412	0.999629
450.957640	1.001105
451.331808	1.000477
451.705917	0.999889
452.079965	0.999504
452.453954	1.000219
452.827883	1.000050
453.201752	1.000204
453.575562	1.001048
453.949311	1.000463
454.323001	1.000459
454.696632	0.999751
455.070202	1.000118
455.443713	1.000211
455.817164	1.000116
456.190556	1.000775
456.563888	1.000389
456.937160	1.000781
457.310373	0.999789
457.683526	1.000216
458.056619	1.000129
458.429653	1.000448
458.802628	0.999670
459.175542	0.999838
459.548398	1.000810
459.921194	1.000252
460.293930	1.000636
460.666607	1.000474
461.039224	0.999531
461.411782	1.000306
461.784280	1.000112
462.156719	1.000858
462.529099	1.000999
462.901419	1.000432
463.273680	1.000302
463.645882	1.000445
464.018024	1.000176
464.390106	1.001064
464.762130	1.000760
465.134094	1.000612
465.505999	1.001155
465.877845	1.000479
466.249631	1.000989
466.621358	1.001025
466.993026	1.000289
467.364634	1.000350
467.736184	1.000619
468.107674	1.000469
468.479105	1.000123
468.850477	1.000737
469.221790	1.000481
469.593043	1.000785
469.964238	1.001266
470.335373	1.000429
470.706449	1.000806
471.077467	1.000813
471.448425	1.000678
471.819324	1.002092
472.190164	1.000613
472.560945	1.000942
472.931667	1.000475
473.302330	0.999843
473.672934	1.001230
474.043479	1.000680
474.413965	1.000343
474.784393	1.000638
475.154761	1.000626
475.525070	0.999812
475.895321	1.000483
476.265513	1.000245
476.635645	1.000642
477.005719	1.000875
477.375734	0.999697
477.745691	1.000578
478.115588	1.000828
478.485427	1.000969
478.855207	1.000677
479.224928	1.000495
479.594591	1.000622
479.964194	1.000723
480.333739	1.000654
480.703226	1.000782
481.072653	1.001181
481.442022	1.001198
481.811333	1.000017
482.180584	1.001297
482.549777	1.000463
482.918912	1.000824
483.287988	1.000214
483.657005	1.000670
484.025964	1.001175
484.394864	1.001364
484.763706	1.001091
485.132489	1.000433
485.501213	1.000868
485.869879	1.001045
486.238487	1.000872
486.607036	1.001211
486.975527	0.999900
487.343959	1.000034
487.712333	1.000763
488.080648	0.999907
488.448905	1.000944
488.817104	1.001215
489.185244	1.000891
489.553326	1.000726
489.921350	0.999626
490.289315	1.000662
490.657222	1.000788
491.025070	1.001129
491.392861	1.001015
491.760593	1.000442
492.128267	1.001043
492.495883	1.000450
492.863440	1.001080
493.230939	1.000894
493.598380	1.000641
493.965763	1.000677
494.333088	1.000729
494.700354	1.000284
495.067563	1.000763
495.434713	0.999892
495.801805	1.001775
496.168839	1.000359
496.535815	0.999932
496.902733	1.000115
497.269593	1.000117
497.636395	1.000648
498.003139	1.000588
498.369825	1.000699
498.736453	1.000434
499.103023	0.999791
499.469535	0.999481
499.835989	1.000277
500.202385	1.000701
500.568723	1.000509
500.935003	1.000274
501.301226	1.000445
501.667390	1.000436
502.033497	1.000570
502.399546	1.001474
502.765537	1.000138
503.131470	1.000051
503.497345	1.000271
503.863163	1.001195
504.228923	1.000325
504.594625	1.000523
504.960269	1.001150
505.325856	1.000413
505.691385	1.000383
506.056856	1.000468
506.422270	1.000360
506.787625	1.000838
507.152924	1.000860
507.518164	0.999743
507.883347	0.999871
508.248472	0.999718
508.613540	1.000367
508.978550	0.999937
509.343503	1.000280
509.708398	1.000175
510.073236	1.000380
510.438016	1.000472
510.802738	1.000086
511.167403	1.000252
511.532010	1.000227
511.896561	0.999824
512.261053	1.000568
512.625488	0.999717
512.989866	1.000065
513.354186	0.999695
513.718449	1.000072
514.082655	0.999580
514.446803	1.000236
514.810894	1.000489
515.174927	0.999564
515.538904	0.999682
515.902822	0.999484
516.266684	0.999818
516.630488	1.000319
516.994235	0.999483
517.357925	0.999435
517.721558	0.999803
518.085133	0.998904
518.448651	1.000203
518.812112	1.000476
519.175516	0.999233
519.538863	0.999597
519.902152	0.999600
520.265385	0.999847
520.628560	0.999510
520.991678	0.999617
521.354739	0.999689
521.717743	0.999424
522.080690	0.999863
522.443580	0.999081
522.806413	0.998905
523.169189	0.999155
523.531908	0.999046
523.894569	0.999246
524.257174	0.999044
524.619722	0.998901
524.982213	0.999227
525.344647	0.998981
525.707025	0.998893
526.069345	0.998517
526.431608	0.999057
526.793815	0.999159
527.155964	0.998702
527.518057	0.999478
527.880093	0.999246
528.242072	0.998560
528.603995	0.998708
528.965860	0.998858
529.327669	0.999132
529.689421	0.998458
530.051117	0.998913
530.412755	0.998280
530.774337	0.998982
531.135862	0.998131
531.497331	0.998640
531.858743	0.998005
532.220098	0.998540
532.581396	0.998023
532.942638	0.998586
533.303824	0.998484
533.664953	0.997918
534.026025	0.997291
534.387040	0.997379
534.747999	0.997649
535.108902	0.997491
535.469748	0.996947
535.830537	0.997191
536.191270	0.996936
536.551947	0.996834
536.912567	0.997097
537.273131	0.997453
537.633638	0.996112
537.994089	0.996025
538.354483	0.996323
538.714821	0.996057
539.075103	0.995737
539.435328	0.995723
539.795497	0.995942
540.155609	0.995161
540.515665	0.995000
540.875665	0.994845
541.235609	0.994759
541.595496	0.994246
541.955328	0.993578
542.315102	0.994369
542.674821	0.993448
543.034483	0.992680
543.394090	0.992943
543.753640	0.993435
544.113134	0.992939
544.472571	0.992436
544.831953	0.992434
545.191278	0.991876
545.550548	0.992372
545.909761	0.990414
546.268918	0.990240
546.628019	0.990528
546.987064	0.989294
547.346053	0.989308
547.704986	0.989285
548.063863	0.989508
548.422684	0.988481
548.781449	0.988209
549.140158	0.986588
549.498811	0.987218
549.857408	0.986745
550.215949	0.985860
550.574434	0.984741
550.932864	0.983802
551.291237	0.984223
551.649555	0.983516
552.007817	0.982806
552.366022	0.981880
552.724173	0.981445
553.082267	0.980871
553.440305	0.979282
553.798288	0.979186
554.156215	0.978307
554.514086	0.977462
554.871902	0.976477
555.229661	0.976010
555.587365	0.974895
555.945014	0.975389
556.302606	0.972750
556.660143	0.972408
557.017625	0.971369
557.375050	0.970313
557.732421	0.968964
558.089735	0.968058
558.446994	0.968182
558.804197	0.966549
559.161345	0.965414
559.518437	0.965245
559.875474	0.962396
560.232455	0.961138
560.589381	0.960612
560.946251	0.957248
561.303065	0.957235
561.659825	0.955936
562.016528	0.954507
562.373177	0.954032
562.729770	0.952205
563.086307	0.951422
563.442789	0.949488
563.799216	0.947341
564.155587	0.946010
564.511904	0.943947
564.868164	0.942710
565.224370	0.941142
565.580520	0.938705
565.936615	0.938143
566.292654	0.935525
566.648638	0.934543
567.004567	0.932159
567.360441	0.931189
567.716260	0.928796
568.072023	0.926998
568.427732	0.924512
568.783385	0.923721
569.138982	0.920405
569.494525	0.918329
569.850013	0.916914
570.205445	0.914703
570.560823	0.913254
570.916145	0.910123
571.271412	0.908356
571.626625	0.905796
571.981782	0.903801
572.336884	0.901519
572.691931	0.899552
573.046923	0.895906
573.401860	0.894846
573.756743	0.891862
574.111570	0.890206
574.466342	0.888509
574.821059	0.885168
575.175722	0.883525
575.530330	0.880737
575.884882	0.877434
576.239380	0.875575
576.593823	0.873492
576.948211	0.870201
577.302544	0.869206
577.656823	0.864357
578.011047	0.862865
578.365216	0.859617
578.719330	0.857476
579.073389	0.854441
579.427394	0.852596
579.781344	0.850085
580.135239	0.847446
580.489080	0.844104
580.842866	0.841508
581.196597	0.837710
581.550273	0.835337
581.903895	0.831636
582.257463	0.828900
582.610975	0.825072
582.964434	0.822743
583.317837	0.821001
583.671186	0.818208
584.024481	0.813779
584.377721	0.811845
584.730906	0.808937
585.084037	0.805556
585.437113	0.803520
585.790135	0.799145
586.143103	0.796877
586.496016	0.794812
586.848874	0.790313
587.201679	0.787925
587.554428	0.786003
587.907124	0.781616
588.259765	0.779252
588.612352	0.776292
588.964884	0.775028
589.317362	0.770868
589.669786	0.767758
590.022155	0.765213
590.374470	0.760024
590.726731	0.759196
591.078937	0.756554
591.431090	0.751631
591.783188	0.750838
592.135232	0.746946
592.487222	0.744958
592.839157	0.740093
593.191038	0.738094
593.542866	0.735426
593.894639	0.733616
594.246358	0.728930
594.598022	0.726437
594.949633	0.723938
595.301190	0.720982
595.652692	0.718118
596.004141	0.712975
596.355535	0.712993
596.706876	0.709570
597.058162	0.708073
597.409395	0.703161
597.760573	0.698653
598.111698	0.696573
598.462768	0.693792
598.813785	0.691824
599.164748	0.688139
599.515657	0.686132
599.866511	0.683120
600.217312	0.678984
600.568060	0.678329
600.918753	0.673389
601.269392	0.670846
601.619978	0.668918
601.970510	0.664776
602.320988	0.661924
602.671412	0.657067
603.021783	0.655898
603.372100	0.653932
603.722363	0.649143
604.072572	0.647239
604.422728	0.644258
604.772830	0.642418
605.122878	0.638134
605.472872	0.636373
605.822813	0.631382
606.172701	0.630430
606.522534	0.625074
606.872314	0.623057
607.222041	0.619784
607.571714	0.615569
607.921333	0.613301
608.270899	0.609672
608.620411	0.605298
608.969870	0.604943
609.319276	0.600905
609.668627	0.598434
610.017926	0.594902
610.367171	0.590311
610.716362	0.588805
611.065500	0.585694
611.414585	0.581351
611.763616	0.580119
612.112594	0.577039
612.461518	0.573864
612.810389	0.570420
613.159207	0.569168
613.507971	0.567535
613.856682	0.561504
614.205340	0.560423
614.553945	0.555210
614.902496	0.555012
615.250994	0.551335
615.599439	0.549473
615.947830	0.545772
616.296169	0.544092
616.644454	0.541346
616.992686	0.538495
617.340864	0.533666
617.688990	0.534148
618.037063	0.529611
618.385082	0.528512
618.733048	0.523353
619.080961	0.523570
619.428821	0.520459
619.776628	0.516867
620.124382	0.516472
620.472083	0.513186
620.819731	0.511023
621.167326	0.510839
621.514868	0.508381
621.862357	0.509334
622.209793	0.506461
622.557176	0.505038
622.904506	0.503110
623.251783	0.503186
623.599007	0.501997
623.946179	0.499795
624.293297	0.498381
624.640363	0.499375
624.987376	0.496956
625.334336	0.497026
625.681243	0.496271
626.028097	0.494877
626.374899	0.493878
626.721647	0.490612
627.068343	0.492325
627.414987	0.490668
627.761577	0.490457
628.108115	0.487558
628.454600	0.489204
628.801032	0.484687
629.147412	0.485516
629.493739	0.483426
629.840014	0.484231
630.186236	0.480774
630.532405	0.483458
630.878521	0.479499
631.224585	0.479403
631.570597	0.481238
631.916556	0.477819
632.262462	0.476580
632.608316	0.476654
632.954117	0.475123
633.299866	0.474933
633.645562	0.472822
633.991206	0.475929
634.336797	0.475659
634.682336	0.476326
635.027823	0.475449
635.373257	0.474746
635.718639	0.475882
636.063968	0.473414
636.409245	0.476766
636.754470	0.475387
637.099642	0.476256
637.444762	0.477199
637.789829	0.474969
638.134845	0.476549
638.479808	0.475894
638.824719	0.474604
639.169577	0.476895
639.514383	0.474104
639.859137	0.476931
640.203839	0.475807
640.548489	0.474333
640.893086	0.474791
641.237632	0.474445
641.582125	0.472021
641.926566	0.472148
642.270955	0.471006
642.615292	0.470446
642.959576	0.468912
643.303809	0.468278
643.647990	0.466618
643.992118	0.466305
644.336195	0.468684
644.680219	0.465775
645.024192	0.465895
645.368112	0.459266
645.711981	0.457784
646.055797	0.452583
646.399562	0.453703
646.743274	0.446182
647.086935	0.443371
647.430544	0.442577
647.774101	0.440762
648.117606	0.439770
648.461059	0.439102
648.804460	0.439981
649.147810	0.444062
649.491108	0.444384
649.834354	0.444812
650.177548	0.449071
650.520690	0.452866
650.863781	0.453203
651.206820	0.451587
651.549807	0.455478
651.892742	0.458035
652.235626	0.456887
652.578458	0.457001
652.921238	0.462211
653.263967	0.459261
653.606644	0.462655
653.949269	0.461564
654.291843	0.464580
654.634365	0.460791
654.976836	0.463475
655.319255	0.463252
655.661622	0.463838
656.003938	0.463606
656.346203	0.466135
656.688416	0.462913
657.030577	0.465891
657.372687	0.467043
657.714746	0.467312
658.056753	0.464246
658.398708	0.467051
658.740612	0.467685
659.082465	0.463315
659.424266	0.463466
659.766016	0.462240
660.107715	0.464572
660.449362	0.462861
660.790958	0.463607
661.132503	0.463241
661.473996	0.460679
661.815438	0.460866
662.156829	0.460562
662.498168	0.460761
662.839456	0.462455
663.180693	0.459415
663.521879	0.458843
663.863013	0.459173
664.204097	0.457692
664.545129	0.454517
664.886110	0.454565
665.227040	0.451450
665.567918	0.453856
665.908746	0.451987
666.249522	0.450586
666.590248	0.451954
666.930922	0.449741
667.271545	0.448435
667.612118	0.448048
667.952639	0.449374
668.293109	0.447639
668.633528	0.450102
668.973896	0.449728
669.314213	0.449701
669.654480	0.450842
669.994695	0.451023
670.334859	0.451759
670.674973	0.451607
671.015035	0.451722
671.355047	0.451090
671.695008	0.451983
672.034918	0.453946
672.374777	0.452695
672.714585	0.453652
673.054342	0.453404
673.394049	0.453552
673.733705	0.450615
674.073310	0.451854
674.412864	0.454627
674.752368	0.454717
675.091820	0.455155
675.431223	0.458936
675.770574	0.458602
676.109875	0.461420
676.449125	0.460870
676.788324	0.463000
677.127473	0.468068
677.466571	0.467395
677.805619	0.469071
678.144616	0.470006
678.483562	0.471119
678.822458	0.474065
679.161303	0.475074
679.500098	0.474713
679.838842	0.476434
680.177535	0.476112
680.516179	0.474747
680.854771	0.473650
681.193314	0.467391
681.531805	0.458271
681.870247	0.447066
682.208638	0.439544
682.546978	0.438374
682.885268	0.439931
683.223508	0.446074
683.561697	0.449068
683.899836	0.451958
684.237925	0.454882
684.575963	0.457598
684.913951	0.460775
685.251889	0.456476
685.589776	0.458610
685.927614	0.460729
686.265401	0.454819
686.603137	0.456561
686.940824	0.449925
687.278460	0.449028
687.616046	0.447843
687.953582	0.443041
688.291068	0.444139
688.628504	0.439630
688.965889	0.441973
689.303224	0.446102
689.640510	0.449822
689.977745	0.455471
690.314930	0.462723
690.652065	0.467204
690.989150	0.474740
691.326185	0.480827
691.663170	0.484966
692.000105	0.492437
692.336990	0.499442
692.673825	0.501831
693.010610	0.508239
693.347345	0.513775
693.684030	0.515189
694.020665	0.519896
694.357251	0.528252
694.693786	0.528125
695.030272	0.532787
695.366707	0.535561
695.703093	0.538711
696.039429	0.536856
696.375716	0.537738
696.711952	0.540704
697.048139	0.543152
697.384276	0.544702
697.720363	0.543295
698.056400	0.542775
698.392388	0.547789
698.728326	0.550579
699.064214	0.553912
699.400053	0.554082
699.735842	0.557400
700.071581	0.560354
700.407270	0.562625
700.742910	0.565575
701.078501	0.572254
701.414042	0.571946
701.749533	0.575480
702.084974	0.584102
702.420366	0.576123
702.755709	0.583801
703.091002	0.591322
703.426246	0.584069
703.761440	0.591592
704.096584	0.595585
704.431679	0.592679
704.766725	0.594379
705.101721	0.595874
705.436668	0.592428
705.771565	0.599435
706.106413	0.596244
706.441212	0.590916
706.775961	0.589788
707.110661	0.592695
707.445311	0.588723
707.779913	0.586536
708.114465	0.584294
708.448967	0.581745
708.783421	0.573668
709.117825	0.568255
709.452180	0.568202
709.786485	0.561797
710.120742	0.552417
710.454949	0.554193
710.789107	0.546870
711.123216	0.537682
711.457275	0.538719
711.791286	0.529850
712.125247	0.528867
712.459159	0.539695
712.793023	0.533013
713.126837	0.536433
713.460602	0.536519
713.794318	0.546068
714.127985	0.544664
714.461602	0.554797
714.795171	0.558341
715.128691	0.565505
715.462162	0.572540
715.795584	0.578327
716.128957	0.580994
716.462281	0.588088
716.795556	0.591674
717.128782	0.596562
717.461960	0.605919
717.795088	0.604090
718.128167	0.610284
718.461198	0.619654
718.794180	0.620244
719.127113	0.622866
719.459997	0.625839
719.792833	0.632704
720.125619	0.633575
720.458357	0.638763
720.791046	0.639134
721.123686	0.642088
721.456278	0.648922
721.788821	0.646702
722.121315	0.650278
722.453761	0.655359
722.786158	0.652238
723.118506	0.649045
723.450805	0.656325
723.783056	0.653301
724.115259	0.650584
724.447412	0.650479
724.779518	0.651199
725.111574	0.649977
725.443582	0.645172
725.775542	0.647879
726.107453	0.640028
726.439315	0.640038
726.771129	0.638141
727.102895	0.631488
727.434612	0.625070
727.766281	0.622100
728.097901	0.622637
728.429473	0.621864
728.760996	0.620000
729.092471	0.620572
729.423897	0.623787
729.755276	0.623046
730.086606	0.622903
730.417887	0.617119
730.749120	0.608761
731.080305	0.599429
731.411442	0.595746
731.742530	0.600580
732.073570	0.600248
732.404562	0.591507
732.735506	0.593890
733.066401	0.598659
733.397249	0.607153
733.728048	0.618834
734.058798	0.631127
734.389501	0.642157
734.720156	0.650917
735.050762	0.659047
735.381320	0.660521
735.711831	0.668852
736.042293	0.673791
736.372707	0.669954
736.703073	0.674216
737.033391	0.677222
737.363661	0.674448
737.693883	0.668916
738.024056	0.668328
738.354182	0.668551
738.684260	0.657878
739.014290	0.653195
739.344272	0.653878
739.674207	0.648029
740.004093	0.647237
740.333931	0.647748
740.663722	0.647611
740.993464	0.647870
741.323159	0.652051
741.652806	0.657394
741.982405	0.662387
742.311956	0.666551
742.641460	0.668239
742.970915	0.672376
743.300323	0.679733
743.629683	0.685838
743.958996	0.688069
744.288260	0.692375
744.617477	0.698204
744.946647	0.698693
745.275768	0.705565
745.604842	0.704270
745.933869	0.715240
746.262847	0.715261
746.591778	0.708660
746.920662	0.715929
747.249498	0.721672
747.578286	0.712738
747.907027	0.708262
748.235720	0.709678
748.564365	0.704402
748.892963	0.704487
749.221514	0.707293
749.550017	0.712393
749.878473	0.712411
750.206881	0.718761
750.535242	0.720644
750.863555	0.719010
751.191821	0.720323
751.520039	0.723919
751.848210	0.728503
752.176334	0.720762
752.504411	0.720640
752.832440	0.728249
753.160421	0.732319
753.488356	0.730196
753.816243	0.728362
754.144082	0.737001
754.471875	0.739448
754.799620	0.734969
755.127318	0.736949
755.454969	0.736807
755.782572	0.736771
756.110129	0.740746
756.437638	0.743538
756.765100	0.740592
757.092515	0.738332
757.419882	0.736906
757.747203	0.741530
758.074477	0.741723
758.401703	0.738708
758.728882	0.734105
759.056014	0.733251
759.383099	0.732028
759.710138	0.733540
760.037129	0.729258
760.364073	0.723213
760.690970	0.726290
761.017820	0.731587
761.344623	0.727639
761.671379	0.718566
761.998088	0.706938
762.324751	0.683616
762.651366	0.642897
762.977935	0.577243
763.304456	0.526034
763.630931	0.516392
763.957359	0.554131
764.283740	0.598918
764.610074	0.625587
764.936362	0.656617
765.262602	0.683067
765.588796	0.703913
765.914943	0.721993
766.241044	0.739930
766.567097	0.745753
766.893104	0.754782
767.219064	0.761532
767.544978	0.768547
767.870845	0.781641
768.196665	0.785488
768.522438	0.782405
768.848165	0.785107
769.173846	0.793787
769.499479	0.798052
769.825066	0.801242
770.150607	0.806280
770.476101	0.800778
770.801548	0.803240
771.126949	0.814062
771.452303	0.816819
771.777611	0.817038
772.102872	0.815905
772.428087	0.821130
772.753256	0.824408
773.078378	0.826068
773.403453	0.834089
773.728482	0.839520
774.053465	0.833437
774.378401	0.836847
774.703291	0.844804
775.028135	0.844735
775.352932	0.845535
775.677683	0.849181
776.002388	0.849616
776.327046	0.847904
776.651658	0.852190
776.976224	0.855121
777.300743	0.855108
777.625216	0.858343
777.949643	0.859766
778.274024	0.859408
778.598359	0.860366
778.922647	0.860733
779.246889	0.860767
779.571086	0.864090
779.895236	0.866757
780.219339	0.864329
780.543397	0.861685
780.867409	0.859870
781.191374	0.862026
781.515294	0.862776
781.839167	0.862401
782.162995	0.865378
782.486776	0.863686
782.810511	0.863702
783.134201	0.867079
783.457844	0.864517
783.781441	0.866198
784.104993	0.873041
784.428498	0.872832
784.751958	0.869342
785.075372	0.871146
785.398739	0.875055
785.722061	0.871395
786.045337	0.866588
786.368568	0.872307
786.691752	0.874980
787.014891	0.861137
787.337983	0.851623
787.661030	0.844072
787.984031	0.827280
788.306987	0.814413
788.629897	0.816425
788.952760	0.820416
789.275579	0.824595
789.598351	0.840251
789.921078	0.853457
790.243759	0.855202
790.566395	0.859985
790.888984	0.867422
791.211529	0.871306
791.534027	0.874858
791.856480	0.877780
792.178888	0.882056
792.501249	0.884653
792.823566	0.886056
793.145836	0.885836
793.468062	0.887514
793.790241	0.887864
794.112375	0.885409
794.434464	0.881755
794.756507	0.881003
795.078505	0.880575
795.400457	0.874675
795.722364	0.864026
796.044226	0.856581
796.366042	0.856192
796.687812	0.857740
797.009538	0.855156
797.331218	0.857836
797.652852	0.862627
797.974442	0.867779
798.295986	0.866846
798.617484	0.869569
798.938938	0.874792
799.260346	0.878888
799.581709	0.880326
799.903026	0.882897
800.224299	0.883433
800.545526	0.887190
800.866708	0.891929
801.187845	0.896030
801.508936	0.894866
801.829983	0.892547
802.150984	0.895323
802.471940	0.901058
802.792851	0.900032
803.113717	0.900556
803.434538	0.898796
803.755314	0.901665
804.076045	0.902294
804.396731	0.903478
804.717372	0.903012
805.037967	0.903954
805.358518	0.902987
805.679024	0.900368
805.999485	0.899783
806.319901	0.899685
806.640272	0.900930
806.960598	0.899144
807.280879	0.896712
807.601115	0.895046
807.921306	0.899204
808.241453	0.898440
808.561554	0.896933
808.881611	0.896425
809.201623	0.899675
809.521590	0.899264
809.841513	0.900330
810.161390	0.898783
810.481223	0.900923
810.801011	0.903500
811.120755	0.905327
811.440453	0.903709
811.760107	0.902515
812.079716	0.903006
812.399281	0.906942
812.718801	0.909365
813.038276	0.910293
813.357707	0.909535
813.677093	0.906467
813.996434	0.910414
814.315731	0.911860
814.634983	0.912319
814.954191	0.910798
815.273354	0.909121
815.592473	0.904088
815.911547	0.903776
816.230577	0.902385
816.549562	0.898765
816.868502	0.900336
817.187399	0.896282
817.506250	0.891951
817.825058	0.893137
818.143821	0.889513
818.462539	0.884760
818.781213	0.876691
819.099843	0.864926
819.418429	0.851010
819.736970	0.833439
820.055466	0.815578
820.373919	0.790219
820.692327	0.757167
821.010691	0.723912
821.329011	0.648945
821.647286	0.536089
821.965517	0.422953
822.283704	0.381017
822.601847	0.383336
822.919945	0.418507
823.237999	0.451446
823.556010	0.496931
823.873976	0.551946
824.191897	0.601286
824.509775	0.643186
824.827609	0.687566
825.145398	0.710682
825.463144	0.712203
825.780845	0.695310
826.098502	0.676706
826.416116	0.632301
826.733685	0.589110
827.051210	0.581204
827.368692	0.595034
827.686129	0.632000
828.003522	0.683839
828.320872	0.730747
828.638177	0.773865
828.955439	0.805229
829.272656	0.826876
829.589830	0.843666
829.906960	0.858473
830.224046	0.871601
830.541088	0.881297
830.858086	0.885691
831.175041	0.891770
831.491952	0.891436
831.808819	0.886645
832.125642	0.880684
832.442421	0.867153
832.759157	0.845206
833.075849	0.800380
833.392497	0.737628
833.709101	0.697338
834.025662	0.706797
834.342179	0.737928
834.658653	0.775684
834.975083	0.811738
835.291469	0.837119
835.607811	0.859253
835.924110	0.873470
836.240366	0.891264
836.556578	0.905631
836.872746	0.912042
837.188871	0.917803
837.504952	0.922878
837.820990	0.926996
838.136984	0.929937
838.452935	0.933035
838.768842	0.933863
839.084706	0.928264
839.400526	0.902867
839.716303	0.864130
840.032037	0.841662
840.347727	0.845720
840.663373	0.863160
840.978977	0.883617
841.294537	0.905977
841.610054	0.922283
841.925527	0.929480
842.240957	0.935249
842.556344	0.943306
842.871687	0.949546
843.186987	0.954852
843.502244	0.952096
843.817458	0.954774
844.132629	0.957618
844.447756	0.962532
844.762840	0.963385
845.077881	0.961958
845.392879	0.961696
845.707833	0.964232
846.022745	0.967370
846.337613	0.967080
846.652438	0.967973
846.967221	0.965696
847.281960	0.967361
847.596656	0.969714
847.911309	0.968029
848.225919	0.970391
848.540485	0.971465
848.855009	0.970957
849.169490	0.970114
849.483928	0.970582
849.798323	0.971947
850.112675	0.972208
850.426984	0.972513
850.741251	0.971796
851.055474	0.972101
851.369654	0.969381
851.683792	0.971779
851.997887	0.972296
852.311938	0.973577
852.625947	0.972108
852.939914	0.969705
853.253837	0.971211
853.567718	0.973484
853.881555	0.973347
854.195350	0.970039
854.509103	0.972442
854.822812	0.972083
855.136479	0.972207
855.450103	0.971557
855.763685	0.971416
856.077224	0.970339
856.390720	0.971737
856.704173	0.971985
857.017584	0.970868
857.330953	0.969359
857.644278	0.969545
857.957561	0.969683
858.270802	0.971305
858.584000	0.969494
858.897155	0.969028
859.210268	0.969652
859.523339	0.969954
859.836367	0.971763
860.149352	0.973369
860.462295	0.970729
860.775195	0.971817
861.088054	0.971714
861.400869	0.971973
861.713642	0.973345
862.026373	0.972691
862.339062	0.972937
862.651708	0.969501
862.964312	0.970445
863.276873	0.971515
863.589392	0.970353
863.901869	0.969081
864.214303	0.966785
864.526696	0.966885
864.839045	0.965392
865.151353	0.964408
865.463619	0.965816
865.775842	0.964544
866.088023	0.964378
866.400162	0.964522
866.712258	0.965486
867.024313	0.965470
867.336325	0.966467
867.648296	0.965688
867.960224	0.965692
868.272110	0.962821
868.583954	0.967128
868.895755	0.966982
869.207515	0.964653
869.519233	0.961673
869.830909	0.964509
870.142542	0.965467
870.454134	0.964260
870.765684	0.963628
871.077191	0.961202
871.388657	0.960448
871.700081	0.959886
872.011463	0.960901
872.322803	0.959841
872.634101	0.959679
872.945357	0.957284
873.256571	0.956401
873.567744	0.956096
873.878874	0.956904
874.189963	0.954831
874.501010	0.953399
874.812015	0.951777
875.122979	0.953470
875.433900	0.956054
875.744780	0.956246
876.055618	0.953103
876.366415	0.953081
876.677169	0.951986
876.987882	0.955658
877.298554	0.954756
877.609183	0.950920
877.919771	0.948052
878.230317	0.946924
878.540822	0.943601
878.851285	0.938864
879.161707	0.931666
879.472087	0.920350
879.782425	0.905738
880.092722	0.871416
880.402977	0.821531
880.713191	0.764086
881.023363	0.707381
881.333494	0.674938
881.643583	0.647266
881.953631	0.646354
882.263637	0.674173
882.573602	0.713732
882.883526	0.738864
883.193408	0.760537
883.503248	0.782175
883.813048	0.808459
884.122806	0.835468
884.432522	0.859954
884.742197	0.877434
885.051831	0.888795
885.361424	0.898081
885.670975	0.908867
885.980485	0.917706
886.289954	0.924564
886.599382	0.929938
886.908768	0.932957
887.218113	0.937879
887.527417	0.943728
887.836680	0.945717
888.145901	0.947099
888.455082	0.950227
888.764221	0.954559
889.073319	0.956174
889.382376	0.957428
889.691392	0.955527
890.000366	0.955266
890.309300	0.957550
890.618193	0.956617
890.927044	0.954729
891.235855	0.954933
891.544625	0.954823
891.853353	0.955699
892.162041	0.952281
892.470687	0.947455
892.779293	0.942218
893.087858	0.939193
893.396381	0.931364
893.704864	0.919469
894.013306	0.895859
894.321707	0.870809
894.630068	0.856666
894.938387	0.851860
895.246665	0.853617
895.554903	0.866188
895.863100	0.877742
896.171256	0.894930
896.479371	0.913282
896.787446	0.925996
897.095480	0.930942
897.403473	0.932796
897.711425	0.937248
898.019336	0.944731
898.327207	0.948110
898.635038	0.949643
898.942827	0.949389
899.250576	0.952238
899.558284	0.956387
899.865952	0.957452
900.173579	0.957785
900.481165	0.959070
900.788711	0.963561
901.096216	0.964588
901.403681	0.965831
901.711105	0.966625
902.018489	0.966051
902.325832	0.965036
902.633135	0.965806
902.940397	0.959494
903.247619	0.948335
903.554800	0.923813
903.861941	0.886190
904.169041	0.852507
904.476101	0.837943
904.783121	0.837716
905.090100	0.853000
905.397039	0.873515
905.703938	0.893330
906.010796	0.912642
906.317614	0.928904
906.624391	0.939565
906.931129	0.948317
907.237826	0.955843
907.544483	0.962741
907.851099	0.966181
908.157675	0.970482
908.464211	0.973529
908.770707	0.975057
909.077163	0.976679
909.383578	0.976850
909.689954	0.977866
909.996289	0.977666
910.302584	0.980547
910.608839	0.981473
910.915054	0.981185
911.221229	0.981291
911.527363	0.979135
911.833458	0.980442
912.139513	0.980034
912.445527	0.976818
912.751502	0.976602
913.057436	0.976361
913.363331	0.972592
913.669186	0.970905
913.975000	0.964565
914.280775	0.959566
914.586510	0.953295
914.892205	0.941479
915.197859	0.920625
915.503475	0.894925
915.809050	0.876528
916.114585	0.872172
916.420081	0.871268
916.725536	0.866217
917.030952	0.874497
917.336328	0.886086
917.641665	0.900804
917.946961	0.914049
918.252218	0.925537
918.557435	0.934023
918.862612	0.941382
919.167750	0.946621
919.472848	0.951267
919.777906	0.957796
920.082925	0.962612
920.387904	0.966783
920.692843	0.966026
920.997743	0.968450
921.302603	0.970619
921.607423	0.972445
921.912204	0.975506
922.216946	0.974899
922.521647	0.977071
922.826310	0.977244
923.130932	0.979054
923.435516	0.981595
923.740059	0.982634
924.044564	0.980598
924.349028	0.982378
924.653454	0.985631
924.957840	0.987646
925.262186	0.986238
925.566493	0.985928
925.870761	0.987178
926.174989	0.988197
926.479178	0.989875
926.783328	0.989448
927.087438	0.989959
927.391509	0.990816
927.695541	0.991373
927.999533	0.992363
928.303486	0.991955
928.607400	0.993152
928.911275	0.991019
929.215110	0.992669
929.518906	0.991464
929.822663	0.991839
930.126381	0.991479
930.430060	0.993034
930.733699	0.991397
931.037299	0.991300
931.340861	0.991818
931.644383	0.991225
931.947866	0.991313
932.251309	0.992904
932.554714	0.991397
932.858080	0.992346
933.161407	0.992265
933.464694	0.993002
933.767943	0.990147
934.071153	0.993660
934.374323	0.993346
934.677455	0.992184
934.980548	0.991916
935.283602	0.993014
935.586617	0.992681
935.889593	0.992482
936.192530	0.991001
936.495428	0.991316
936.798287	0.991734
937.101108	0.992033
937.403890	0.989977
937.706632	0.990341
938.009336	0.989424
938.312002	0.987489
938.614628	0.986376
938.917216	0.985723
939.219765	0.983796
939.522275	0.985585
939.824747	0.985692
940.127179	0.984748
940.429573	0.987074
940.731929	0.986943
941.034246	0.987320
941.336524	0.987521
941.638763	0.989309
941.940964	0.988991
942.243126	0.989063
942.545250	0.989045
942.847335	0.989347
943.149381	0.989692
943.451389	0.990334
943.753359	0.990047
944.055290	0.992334
944.357182	0.990766
944.659036	0.989621
944.960851	0.991581
945.262628	0.991069
945.564367	0.992287
945.866067	0.991451
946.167729	0.991725
946.469352	0.990888
946.770937	0.990530
947.072484	0.993272
947.373992	0.991932
947.675462	0.992594
947.976893	0.991641
948.278286	0.991771
948.579641	0.993418
948.880958	0.992976
949.182236	0.992183
949.483476	0.993458
949.784678	0.991935
950.085841	0.993403
950.386967	0.993224
950.688054	0.992187
950.989103	0.991437
951.290114	0.991555
951.591087	0.990527
951.892021	0.991631
952.192917	0.991252
952.493776	0.989297
952.794596	0.990318
953.095378	0.988435
953.396122	0.989682
953.696828	0.989720
953.997496	0.991194
954.298126	0.992403
954.598718	0.992185
954.899272	0.992269
955.199788	0.991388
955.500266	0.993426
955.800706	0.994404
956.101108	0.994789
956.401472	0.994914
956.701798	0.995574
957.002087	0.995414
957.302337	0.995047
957.602550	0.996282
957.902724	0.996541
958.202861	0.997372
958.502960	0.995413
958.803022	0.994711
959.103045	0.997098
959.403031	0.996453
959.702979	0.996636
960.002889	0.997114
960.302762	0.995584
960.602596	0.997125
960.902393	0.995899
961.202153	0.997903
961.501875	0.997864
961.801559	0.996684
962.101205	0.996910
962.400814	0.998251
962.700385	0.998024
962.999918	0.997013
963.299414	0.997607
963.598873	0.996401
963.898293	0.997949
964.197677	0.995907
964.497022	0.997422
964.796331	0.998638
965.095601	0.998052
965.394835	0.997046
965.694030	0.997315
965.993189	0.998361
966.292309	0.997950
966.591393	0.997697
966.890439	0.998006
967.189447	0.998490
967.488419	0.997336
967.787353	0.997319
968.086249	0.997100
968.385108	0.997418
968.683930	0.997570
968.982714	0.998523
969.281462	0.998044
969.580172	0.997187
969.878844	0.998629
970.177480	0.997456
970.476078	0.997164
970.774639	0.997500
971.073162	0.998097
971.371649	0.996896
971.670098	0.997484
971.968510	0.998537
972.266885	0.996918
972.565223	0.996302
972.863524	0.996015
973.161788	0.997026
973.460014	0.998729
973.758204	0.996825
974.056356	0.996990
974.354471	0.995621
974.652550	0.995636
974.950591	0.996595
975.248595	0.996789
975.546563	0.998080
975.844493	0.998317
976.142386	0.997480
976.440243	0.997904
976.738062	0.998261
977.035845	0.998811
977.333590	0.997837
977.631299	0.997846
977.928971	0.996861
978.226606	0.997716
978.524204	0.996577
978.821765	0.998938
979.119290	0.997504
979.416777	0.997345
979.714228	0.997348
980.011642	0.997699
980.309020	0.997470
980.606360	0.998294
980.903664	1.000317
981.200931	0.998060
981.498162	0.995519
981.795356	0.995352
982.092513	0.994270
982.389633	0.995722
982.686717	0.993527
982.983764	0.992059
983.280775	0.991899
983.577749	0.992067
983.874686	0.993625
984.171587	0.993440
984.468451	0.995107
984.765279	0.996323
985.062070	0.994245
985.358824	0.996566
985.655543	0.995241
985.952224	0.996359
986.248869	0.998200
986.545478	0.997915
986.842050	0.999892
987.138586	0.996292
987.435086	0.997753
987.731549	0.999271
988.027975	0.999187
988.324366	0.997943
988.620719	0.998275
988.917037	0.997425
989.213318	0.998973
989.509563	0.998534
989.805772	0.999408
990.101944	0.999219
990.398080	0.997837
990.694180	0.998406
990.990244	0.998007
991.286271	0.999574
991.582262	0.999368
991.878217	0.998630
992.174136	0.997746
992.470019	0.999516
992.765865	0.998345
993.061676	0.998312
993.357450	0.998189
993.653188	0.996898
993.948890	0.997689
994.244556	0.998574
994.540186	0.998162
994.835780	0.997407
995.131337	0.998340
995.426859	0.997899
995.722345	0.998574
996.017795	0.996185
996.313208	0.996976
996.608586	0.996229
996.903928	0.997341
997.199234	0.997103
997.494504	0.997742
997.789738	0.996785
998.084936	0.996937
998.380099	0.998503
998.675225	0.998981
998.970316	0.998237
999.265371	0.998038
999.560390	0.998298
999.855373	0.999608
1000.150320	0.999235
1000.445232	0.997775
1000.740108	0.998735
1001.034948	0.998197
1001.329752	1.000160
1001.624521	1.000355
1001.919254	0.998630
1002.213951	0.998503
1002.508613	0.998474
1002.803239	1.000175
1003.097829	0.999219
1003.392384	1.000556
1003.686903	0.997726
1003.981386	0.998969
1004.275834	0.999856
1004.570246	0.998561
1004.864623	0.999872
1005.158964	0.999200
1005.453270	0.999588
1005.747540	0.997753
1006.041775	0.999130
1006.335974	0.999510
1006.630138	0.999872
1006.924266	1.000755
1007.218359	1.000639
1007.512416	0.998804
1007.806438	0.999403
1008.100425	1.000138
1008.394376	0.999495
1008.688292	0.999551
1008.982172	1.001060
1009.276017	0.998831
1009.569827	0.997833
1009.863602	0.999739
1010.157341	0.999984
1010.451045	0.999245
1010.744714	0.999216
1011.038347	0.998957
1011.331945	1.000228
1011.625508	0.998624
1011.919036	0.999567
1012.212528	0.999056
1012.505986	0.998354
1012.799408	0.998455
1013.092795	0.998932
1013.386147	1.000287
1013.679464	0.998348
1013.972745	0.998763
1014.265992	0.998572
1014.559204	0.999757
1014.852380	0.999042
1015.145521	0.999924
1015.438628	0.999613
1015.731699	0.999042
1016.024736	0.998761
1016.317737	0.999974
1016.610703	0.998214
1016.903635	1.000574
1017.196531	0.999529
1017.489393	1.000775
1017.782219	0.998738
1018.075011	0.998993
1018.367768	0.999290
1018.660490	0.999256
1018.953177	0.999256
1019.245829	0.999256
