Dividing Wavelength (nm)	Counts (n)	Blue Motor Position (mm): 0.000000	Red Motor Position (mm): 19.600000	
326.493990	1.000961
326.888308	1.000961
327.282561	1.000961
327.676750	1.000058
328.070874	0.998975
328.464933	1.000238
328.858929	0.998588
329.252859	0.998955
329.646726	1.000238
330.040528	1.000377
330.434265	0.999998
330.827938	1.000526
331.221547	1.000508
331.615091	1.000526
332.008571	1.000592
332.401986	1.000390
332.795338	1.001455
333.188625	0.999334
333.581847	0.999712
333.975006	0.999255
334.368100	0.999077
334.761129	1.000385
335.154095	1.000698
335.546996	0.997292
335.939833	0.992739
336.332606	0.993395
336.725315	0.994781
337.117960	0.996302
337.510540	0.993493
337.903056	0.995294
338.295508	0.994277
338.687896	0.994598
339.080220	0.994260
339.472480	0.994490
339.864676	0.994890
340.256807	0.994481
340.648875	0.996797
341.040879	0.994783
341.432818	0.994951
341.824694	0.994220
342.216506	0.995114
342.608253	0.994550
342.999937	0.994426
343.391557	0.993989
343.783113	0.995213
344.174605	0.994546
344.566033	0.995251
344.957397	0.993784
345.348697	0.993961
345.739934	0.995347
346.131106	0.994142
346.522215	0.993915
346.913260	0.993936
347.304241	0.995357
347.695159	0.994577
348.086012	0.993546
348.476802	0.994587
348.867528	0.995359
349.258191	0.993143
349.648789	0.995106
350.039324	0.994384
350.429796	0.995174
350.820203	0.994937
351.210548	0.994258
351.600828	0.994455
351.991045	0.994633
352.381198	0.993391
352.771288	0.993991
353.161314	0.994159
353.551276	0.995615
353.941175	0.994236
354.331010	0.993765
354.720782	0.994899
355.110490	0.994067
355.500135	0.994737
355.889717	0.994720
356.279235	0.994014
356.668689	0.993856
357.058080	0.994060
357.447408	0.995760
357.836672	0.994288
358.225873	0.995613
358.615010	0.993859
359.004084	0.995172
359.393095	0.994671
359.782043	0.994952
360.170927	0.995499
360.559748	0.995402
360.948505	0.994072
361.337199	0.994438
361.725830	0.994789
362.114398	0.994727
362.502903	0.994428
362.891344	0.995866
363.279722	0.994363
363.668037	0.994080
364.056289	0.994473
364.444478	0.996105
364.832603	0.995211
365.220665	0.993998
365.608665	0.995938
365.996601	0.994902
366.384474	0.994163
366.772284	0.994189
367.160031	0.993709
367.547715	0.994159
367.935336	0.993909
368.322893	0.993558
368.710388	0.993872
369.097820	0.994092
369.485189	0.993544
369.872495	0.993987
370.259738	0.993101
370.646918	0.996216
371.034035	0.995137
371.421090	0.993947
371.808081	0.994409
372.195010	0.995559
372.581875	0.994586
372.968678	0.994652
373.355418	0.994299
373.742096	0.993575
374.128710	0.995259
374.515262	0.994520
374.901751	0.994396
375.288177	0.994858
375.674540	0.995049
376.060841	0.994200
376.447079	0.995098
376.833254	0.994397
377.219367	0.995300
377.605417	0.994669
377.991404	0.995136
378.377329	0.994102
378.763191	0.994807
379.148991	0.996272
379.534727	0.994973
379.920402	0.995400
380.306013	0.995160
380.691563	0.996392
381.077049	0.995484
381.462474	0.995083
381.847835	0.995716
382.233134	0.995390
382.618371	0.995753
383.003545	0.994456
383.388657	0.995551
383.773706	0.996370
384.158693	0.994880
384.543618	0.995999
384.928480	0.995827
385.313280	0.995976
385.698017	0.996305
386.082692	0.996864
386.467305	0.995759
386.851856	0.996335
387.236344	0.995224
387.620770	0.995050
388.005133	0.995850
388.389435	0.996105
388.773674	0.995220
389.157851	0.996523
389.541965	0.995373
389.926018	0.996261
390.310008	0.996195
390.693936	0.995706
391.077802	0.996733
391.461606	0.996574
391.845348	0.996467
392.229027	0.996763
392.612645	0.996193
392.996200	0.997322
393.379694	0.995983
393.763125	0.996648
394.146494	0.997085
394.529801	0.995830
394.913047	0.995952
395.296230	0.995521
395.679351	0.995788
396.062410	0.996138
396.445408	0.996062
396.828343	0.996500
397.211217	0.995123
397.594028	0.996796
397.976778	0.995401
398.359466	0.996253
398.742092	0.995579
399.124656	0.994567
399.507158	0.995371
399.889598	0.994932
400.271977	0.996087
400.654294	0.995569
401.036549	0.996337
401.418742	0.995217
401.800874	0.994853
402.182944	0.995704
402.564952	0.995588
402.946898	0.996439
403.328783	0.995691
403.710606	0.995299
404.092367	0.995236
404.474067	0.996192
404.855705	0.995818
405.237282	0.994771
405.618797	0.995184
406.000250	0.994779
406.381642	0.995368
406.762972	0.994807
407.144240	0.995120
407.525447	0.994793
407.906593	0.993913
408.287677	0.993595
408.668700	0.993233
409.049661	0.991195
409.430560	0.991496
409.811399	0.990026
410.192176	0.989686
410.572891	0.987620
410.953545	0.986823
411.334138	0.984465
411.714669	0.984431
412.095139	0.982492
412.475547	0.981566
412.855894	0.977822
413.236180	0.975623
413.616405	0.973500
413.996568	0.970916
414.376670	0.967196
414.756711	0.964659
415.136691	0.961746
415.516609	0.958321
415.896466	0.953576
416.276262	0.948802
416.655997	0.946248
417.035670	0.939112
417.415283	0.934330
417.794834	0.929524
418.174324	0.926095
418.553753	0.922424
418.933121	0.914722
419.312428	0.908352
419.691674	0.903356
420.070859	0.895456
420.449983	0.889872
420.829045	0.881966
421.208047	0.877576
421.586988	0.868711
421.965867	0.861167
422.344686	0.849792
422.723444	0.846949
423.102141	0.844342
423.480777	0.828411
423.859352	0.826588
424.237866	0.809960
424.616319	0.803381
424.994712	0.791748
425.373044	0.786612
425.751314	0.772576
426.129524	0.769970
426.507673	0.755094
426.885762	0.744676
427.263789	0.736483
427.641756	0.733750
428.019662	0.719177
428.397508	0.709867
428.775292	0.702197
429.153016	0.689250
429.530679	0.684793
429.908282	0.671863
430.285824	0.669824
430.663305	0.647636
431.040726	0.651524
431.418086	0.644875
431.795385	0.630780
432.172624	0.621765
432.549802	0.614559
432.926920	0.606051
433.303977	0.597194
433.680974	0.588500
434.057910	0.579386
434.434786	0.572389
434.811601	0.567090
435.188355	0.546605
435.565050	0.547644
435.941683	0.542442
436.318257	0.524164
436.694770	0.517902
437.071222	0.510731
437.447614	0.508358
437.823946	0.508970
438.200218	0.494569
438.576429	0.498031
438.952580	0.487284
439.328670	0.479402
439.704700	0.481646
440.080670	0.478618
440.456580	0.457365
440.832429	0.460578
441.208218	0.467830
441.583947	0.454436
441.959616	0.451366
442.335224	0.453102
442.710773	0.441715
443.086261	0.437635
443.461689	0.448784
443.837057	0.436797
444.212365	0.424891
444.587612	0.430425
444.962800	0.418248
445.337927	0.418563
445.712995	0.442867
446.088002	0.404216
446.462949	0.413391
446.837837	0.417008
447.212664	0.404717
447.587431	0.395501
447.962139	0.365737
448.336786	0.324994
448.711374	0.334372
449.085901	0.377801
449.460369	0.381239
449.834776	0.384134
450.209124	0.363148
450.583412	0.355478
450.957640	0.348301
451.331808	0.359132
451.705917	0.382280
452.079965	0.386220
452.453954	0.374550
452.827883	0.380976
453.201752	0.375652
453.575562	0.387311
453.949311	0.375423
454.323001	0.381013
454.696632	0.376997
455.070202	0.369813
455.443713	0.361383
455.817164	0.356129
456.190556	0.352122
456.563888	0.348477
456.937160	0.346301
457.310373	0.363187
457.683526	0.362229
458.056619	0.367480
458.429653	0.368415
458.802628	0.370974
459.175542	0.365841
459.548398	0.348290
459.921194	0.340480
460.293930	0.340754
460.666607	0.318103
461.039224	0.306405
461.411782	0.302326
461.784280	0.301942
462.156719	0.305515
462.529099	0.309789
462.901419	0.326231
463.273680	0.330313
463.645882	0.330292
464.018024	0.335650
464.390106	0.328499
464.762130	0.313606
465.134094	0.296667
465.505999	0.265790
465.877845	0.236375
466.249631	0.223303
466.621358	0.231074
466.993026	0.244701
467.364634	0.250970
467.736184	0.259618
468.107674	0.268574
468.479105	0.267427
468.850477	0.274309
469.221790	0.280811
469.593043	0.291168
469.964238	0.296006
470.335373	0.295156
470.706449	0.293594
471.077467	0.294311
471.448425	0.256223
471.819324	0.232365
472.190164	0.231494
472.560945	0.260124
472.931667	0.282301
473.302330	0.286374
473.672934	0.298360
474.043479	0.286679
474.413965	0.288515
474.784393	0.291924
475.154761	0.286615
475.525070	0.283979
475.895321	0.289949
476.265513	0.283901
476.635645	0.279401
477.005719	0.279274
477.375734	0.275893
477.745691	0.269344
478.115588	0.265955
478.485427	0.259382
478.855207	0.246199
479.224928	0.228849
479.594591	0.217034
479.964194	0.220362
480.333739	0.221648
480.703226	0.223018
481.072653	0.221741
481.442022	0.217392
481.811333	0.213703
482.180584	0.217114
482.549777	0.222424
482.918912	0.225807
483.287988	0.225685
483.657005	0.225224
484.025964	0.231718
484.394864	0.229211
484.763706	0.229703
485.132489	0.234525
485.501213	0.235201
485.869879	0.233692
486.238487	0.237116
486.607036	0.234683
486.975527	0.239250
487.343959	0.235163
487.712333	0.234500
488.080648	0.235550
488.448905	0.234729
488.817104	0.236127
489.185244	0.230650
489.553326	0.227670
489.921350	0.217357
490.289315	0.199706
490.657222	0.194930
491.025070	0.196151
491.392861	0.198041
491.760593	0.203592
492.128267	0.209307
492.495883	0.215082
492.863440	0.221079
493.230939	0.227366
493.598380	0.228686
493.965763	0.230923
494.333088	0.233187
494.700354	0.234823
495.067563	0.233342
495.434713	0.236876
495.801805	0.234734
496.168839	0.236422
496.535815	0.237225
496.902733	0.237354
497.269593	0.238873
497.636395	0.237030
498.003139	0.237260
498.369825	0.240139
498.736453	0.236371
499.103023	0.238082
499.469535	0.237515
499.835989	0.237531
500.202385	0.238732
500.568723	0.241631
500.935003	0.236990
501.301226	0.241191
501.667390	0.235526
502.033497	0.233402
502.399546	0.236669
502.765537	0.238290
503.131470	0.236695
503.497345	0.233027
503.863163	0.241836
504.228923	0.234680
504.594625	0.233568
504.960269	0.238925
505.325856	0.234638
505.691385	0.238435
506.056856	0.235301
506.422270	0.234895
506.787625	0.237141
507.152924	0.234768
507.518164	0.234894
507.883347	0.236788
508.248472	0.238650
508.613540	0.233736
508.978550	0.235949
509.343503	0.236323
509.708398	0.234031
510.073236	0.231794
510.438016	0.231711
510.802738	0.232989
511.167403	0.231833
511.532010	0.233767
511.896561	0.229140
512.261053	0.227943
512.625488	0.230034
512.989866	0.230431
513.354186	0.230668
513.718449	0.232621
514.082655	0.228774
514.446803	0.231125
514.810894	0.228624
515.174927	0.231455
515.538904	0.230768
515.902822	0.227791
516.266684	0.230136
516.630488	0.231618
516.994235	0.229990
517.357925	0.228938
517.721558	0.227067
518.085133	0.226648
518.448651	0.226688
518.812112	0.228903
519.175516	0.228733
519.538863	0.226298
519.902152	0.227725
520.265385	0.224789
520.628560	0.226428
520.991678	0.227072
521.354739	0.226065
521.717743	0.226994
522.080690	0.227486
522.443580	0.224818
522.806413	0.225716
523.169189	0.225284
523.531908	0.223983
523.894569	0.227634
524.257174	0.227610
524.619722	0.225220
524.982213	0.226376
525.344647	0.225190
525.707025	0.226206
526.069345	0.224226
526.431608	0.226116
526.793815	0.223899
527.155964	0.227979
527.518057	0.226917
527.880093	0.228029
528.242072	0.226425
528.603995	0.228548
528.965860	0.230133
529.327669	0.228798
529.689421	0.230026
530.051117	0.230732
530.412755	0.228068
530.774337	0.230816
531.135862	0.231195
531.497331	0.230420
531.858743	0.233190
532.220098	0.230102
532.581396	0.232406
532.942638	0.233273
533.303824	0.234169
533.664953	0.233733
534.026025	0.235195
534.387040	0.233472
534.747999	0.233615
535.108902	0.232278
535.469748	0.237033
535.830537	0.235045
536.191270	0.235346
536.551947	0.235201
536.912567	0.235048
537.273131	0.236900
537.633638	0.237028
537.994089	0.237287
538.354483	0.238575
538.714821	0.235452
539.075103	0.235040
539.435328	0.236058
539.795497	0.239633
540.155609	0.236314
540.515665	0.234334
540.875665	0.240101
541.235609	0.238824
541.595496	0.238921
541.955328	0.235470
542.315102	0.238016
542.674821	0.238935
543.034483	0.238896
543.394090	0.238688
543.753640	0.240330
544.113134	0.235607
544.472571	0.238704
544.831953	0.235643
545.191278	0.239656
545.550548	0.239141
545.909761	0.236142
546.268918	0.236690
546.628019	0.235256
546.987064	0.237801
547.346053	0.239607
547.704986	0.237321
548.063863	0.237765
548.422684	0.237628
548.781449	0.239957
549.140158	0.237739
549.498811	0.240182
549.857408	0.243573
550.215949	0.238295
550.574434	0.241277
550.932864	0.239156
551.291237	0.238027
551.649555	0.239240
552.007817	0.238881
552.366022	0.239657
552.724173	0.239865
553.082267	0.240399
553.440305	0.237405
553.798288	0.241623
554.156215	0.238385
554.514086	0.238691
554.871902	0.242013
555.229661	0.241213
555.587365	0.241833
555.945014	0.244163
556.302606	0.241385
556.660143	0.244096
557.017625	0.240045
557.375050	0.242625
557.732421	0.239489
558.089735	0.241605
558.446994	0.241761
558.804197	0.240664
559.161345	0.240824
559.518437	0.244166
559.875474	0.241843
560.232455	0.241246
560.589381	0.242497
560.946251	0.242450
561.303065	0.240049
561.659825	0.241661
562.016528	0.243083
562.373177	0.246053
562.729770	0.243197
563.086307	0.245372
563.442789	0.243319
563.799216	0.246215
564.155587	0.244734
564.511904	0.245742
564.868164	0.245982
565.224370	0.245992
565.580520	0.247416
565.936615	0.247379
566.292654	0.250531
566.648638	0.247098
567.004567	0.248439
567.360441	0.249190
567.716260	0.250829
568.072023	0.248934
568.427732	0.249289
568.783385	0.251613
569.138982	0.250228
569.494525	0.249796
569.850013	0.252365
570.205445	0.250660
570.560823	0.253473
570.916145	0.255321
571.271412	0.253521
571.626625	0.255186
571.981782	0.255622
572.336884	0.256616
572.691931	0.256290
573.046923	0.257329
573.401860	0.258386
573.756743	0.260283
574.111570	0.259002
574.466342	0.259688
574.821059	0.258958
575.175722	0.261713
575.530330	0.261328
575.884882	0.261444
576.239380	0.263466
576.593823	0.264219
576.948211	0.263681
577.302544	0.266861
577.656823	0.266514
578.011047	0.266650
578.365216	0.267338
578.719330	0.269300
579.073389	0.269015
579.427394	0.270142
579.781344	0.271246
580.135239	0.272410
580.489080	0.272096
580.842866	0.274957
581.196597	0.274848
581.550273	0.273813
581.903895	0.274664
582.257463	0.272725
582.610975	0.276432
582.964434	0.275533
583.317837	0.277968
583.671186	0.278546
584.024481	0.278594
584.377721	0.280877
584.730906	0.281708
585.084037	0.280919
585.437113	0.282574
585.790135	0.281919
586.143103	0.284933
586.496016	0.286128
586.848874	0.283637
587.201679	0.284367
587.554428	0.287621
587.907124	0.286304
588.259765	0.286660
588.612352	0.287542
588.964884	0.291570
589.317362	0.290819
589.669786	0.290765
590.022155	0.289182
590.374470	0.288575
590.726731	0.291116
591.078937	0.295240
591.431090	0.291655
591.783188	0.296064
592.135232	0.296447
592.487222	0.296336
592.839157	0.294922
593.191038	0.297201
593.542866	0.298758
593.894639	0.302423
594.246358	0.300086
594.598022	0.299764
594.949633	0.303336
595.301190	0.304132
595.652692	0.303238
596.004141	0.299659
596.355535	0.307607
596.706876	0.307857
597.058162	0.310361
597.409395	0.307454
597.760573	0.305453
598.111698	0.308438
598.462768	0.308908
598.813785	0.310940
599.164748	0.311746
599.515657	0.311858
599.866511	0.315287
600.217312	0.310709
600.568060	0.316307
600.918753	0.312654
601.269392	0.313560
601.619978	0.316603
601.970510	0.314325
602.320988	0.314270
602.671412	0.312048
603.021783	0.314515
603.372100	0.316101
603.722363	0.315610
604.072572	0.316359
604.422728	0.316215
604.772830	0.318374
605.122878	0.318024
605.472872	0.317945
605.822813	0.316740
606.172701	0.319456
606.522534	0.316864
606.872314	0.316881
607.222041	0.317696
607.571714	0.316130
607.921333	0.317412
608.270899	0.317006
608.620411	0.313466
608.969870	0.317625
609.319276	0.317666
609.668627	0.317772
610.017926	0.315861
610.367171	0.314569
610.716362	0.315761
611.065500	0.315596
611.414585	0.314638
611.763616	0.314841
612.112594	0.315343
612.461518	0.314642
612.810389	0.312832
613.159207	0.314759
613.507971	0.316655
613.856682	0.312142
614.205340	0.314161
614.553945	0.310631
614.902496	0.314564
615.250994	0.312582
615.599439	0.313308
615.947830	0.312554
616.296169	0.313722
616.644454	0.313448
616.992686	0.313276
617.340864	0.311142
617.688990	0.314830
618.037063	0.311516
618.385082	0.313456
618.733048	0.309959
619.080961	0.312414
619.428821	0.311853
619.776628	0.311277
620.124382	0.313747
620.472083	0.314098
620.819731	0.313101
621.167326	0.316963
621.514868	0.316729
621.862357	0.320867
622.209793	0.320546
622.557176	0.322572
622.904506	0.324073
623.251783	0.326341
623.599007	0.328286
623.946179	0.328085
624.293297	0.329820
624.640363	0.333875
624.987376	0.334308
625.334336	0.337069
625.681243	0.338850
626.028097	0.339853
626.374899	0.340997
626.721647	0.341146
627.068343	0.344521
627.414987	0.345236
627.761577	0.347617
628.108115	0.346167
628.454600	0.351082
628.801032	0.348256
629.147412	0.350035
629.493739	0.350679
629.840014	0.353918
630.186236	0.351130
630.532405	0.356555
630.878521	0.354439
631.224585	0.356677
631.570597	0.359747
631.916556	0.358822
632.262462	0.358611
632.608316	0.360617
632.954117	0.361636
633.299866	0.362349
633.645562	0.362832
633.991206	0.366774
634.336797	0.369662
634.682336	0.372556
635.027823	0.373891
635.373257	0.374439
635.718639	0.378052
636.063968	0.377599
636.409245	0.383207
636.754470	0.383252
637.099642	0.386152
637.444762	0.389478
637.789829	0.388423
638.134845	0.391629
638.479808	0.392833
638.824719	0.392609
639.169577	0.397006
639.514383	0.395392
639.859137	0.399826
640.203839	0.399891
640.548489	0.400169
640.893086	0.400868
641.237632	0.402768
641.582125	0.401421
641.926566	0.403146
642.270955	0.403225
642.615292	0.403582
642.959576	0.402448
643.303809	0.402945
643.647990	0.402974
643.992118	0.403199
644.336195	0.407348
644.680219	0.405155
645.024192	0.405983
645.368112	0.399337
645.711981	0.398153
646.055797	0.393674
646.399562	0.396807
646.743274	0.388506
647.086935	0.385797
647.430544	0.385873
647.774101	0.384441
648.117606	0.383878
648.461059	0.384200
648.804460	0.387003
649.147810	0.392270
649.491108	0.394278
649.834354	0.395630
650.177548	0.400731
650.520690	0.406683
650.863781	0.407416
651.206820	0.407058
651.549807	0.411523
651.892742	0.415392
652.235626	0.414896
652.578458	0.416133
652.921238	0.421994
653.263967	0.419902
653.606644	0.423921
653.949269	0.423810
654.291843	0.427780
654.634365	0.424020
654.976836	0.427566
655.319255	0.427127
655.661622	0.429223
656.003938	0.429322
656.346203	0.432270
656.688416	0.429573
657.030577	0.433617
657.372687	0.435636
657.714746	0.436543
658.056753	0.433393
658.398708	0.437234
658.740612	0.438167
659.082465	0.434188
659.424266	0.435184
659.766016	0.434249
660.107715	0.437400
660.449362	0.436421
660.790958	0.436600
661.132503	0.436755
661.473996	0.434755
661.815438	0.435464
662.156829	0.435541
662.498168	0.436730
662.839456	0.438222
663.180693	0.435452
663.521879	0.435301
663.863013	0.436325
664.204097	0.434918
664.545129	0.432021
664.886110	0.432278
665.227040	0.429660
665.567918	0.432375
665.908746	0.430210
666.249522	0.429466
666.590248	0.431019
666.930922	0.428550
667.271545	0.427911
667.612118	0.428043
667.952639	0.429705
668.293109	0.428340
668.633528	0.431007
668.973896	0.430575
669.314213	0.431452
669.654480	0.432861
669.994695	0.433451
670.334859	0.434299
670.674973	0.434183
671.015035	0.434602
671.355047	0.434295
671.695008	0.435219
672.034918	0.437565
672.374777	0.436042
672.714585	0.438066
673.054342	0.438145
673.394049	0.437964
673.733705	0.435384
674.073310	0.436750
674.412864	0.439975
674.752368	0.440393
675.091820	0.440531
675.431223	0.444925
675.770574	0.444487
676.109875	0.447733
676.449125	0.447632
676.788324	0.450251
677.127473	0.455460
677.466571	0.455874
677.805619	0.456501
678.144616	0.457496
678.483562	0.459657
678.822458	0.461795
679.161303	0.462913
679.500098	0.463102
679.838842	0.465003
680.177535	0.464826
680.516179	0.463245
680.854771	0.463169
681.193314	0.455848
681.531805	0.447233
681.870247	0.435854
682.208638	0.427819
682.546978	0.426962
682.885268	0.429199
683.223508	0.435005
683.561697	0.438863
683.899836	0.441322
684.237925	0.445033
684.575963	0.447635
684.913951	0.450544
685.251889	0.446287
685.589776	0.448622
685.927614	0.450681
686.265401	0.445087
686.603137	0.446430
686.940824	0.440197
687.278460	0.438581
687.616046	0.437804
687.953582	0.432188
688.291068	0.434110
688.628504	0.429920
688.965889	0.432405
689.303224	0.436554
689.640510	0.439739
689.977745	0.445971
690.314930	0.453406
690.652065	0.458299
690.989150	0.466085
691.326185	0.471727
691.663170	0.477135
692.000105	0.484421
692.336990	0.491081
692.673825	0.493341
693.010610	0.500366
693.347345	0.506088
693.684030	0.507549
694.020665	0.512295
694.357251	0.520883
694.693786	0.520498
695.030272	0.524332
695.366707	0.528275
695.703093	0.531831
696.039429	0.529545
696.375716	0.531564
696.711952	0.534464
697.048139	0.535742
697.384276	0.538085
697.720363	0.536044
698.056400	0.535626
698.392388	0.540732
698.728326	0.543853
699.064214	0.546916
699.400053	0.547736
699.735842	0.550748
700.071581	0.554008
700.407270	0.556942
700.742910	0.559574
701.078501	0.564970
701.414042	0.566283
701.749533	0.568566
702.084974	0.578231
702.420366	0.570353
702.755709	0.578444
703.091002	0.585839
703.426246	0.579395
703.761440	0.584814
704.096584	0.590428
704.431679	0.586830
704.766725	0.589106
705.101721	0.590133
705.436668	0.586464
705.771565	0.593577
706.106413	0.590169
706.441212	0.585212
706.775961	0.583895
707.110661	0.587207
707.445311	0.583151
707.779913	0.580304
708.114465	0.578777
708.448967	0.575955
708.783421	0.568066
709.117825	0.562623
709.452180	0.563014
709.786485	0.556223
710.120742	0.546197
710.454949	0.548408
710.789107	0.540813
711.123216	0.531722
711.457275	0.533096
711.791286	0.523471
712.125247	0.523266
712.459159	0.533867
712.793023	0.526963
713.126837	0.530119
713.460602	0.530761
713.794318	0.540135
714.127985	0.539073
714.461602	0.548935
714.795171	0.552013
715.128691	0.560198
715.462162	0.566821
715.795584	0.573367
716.128957	0.576684
716.462281	0.582943
716.795556	0.586159
717.128782	0.591285
717.461960	0.601498
717.795088	0.599455
718.128167	0.605699
718.461198	0.615087
718.794180	0.614802
719.127113	0.617284
719.459997	0.621250
719.792833	0.627147
720.125619	0.628652
720.458357	0.634326
720.791046	0.633539
721.123686	0.638050
721.456278	0.644162
721.788821	0.642068
722.121315	0.645266
722.453761	0.650407
722.786158	0.647838
723.118506	0.644409
723.450805	0.651866
723.783056	0.648279
724.115259	0.646366
724.447412	0.645060
724.779518	0.646537
725.111574	0.645517
725.443582	0.641032
725.775542	0.643285
726.107453	0.634674
726.439315	0.634295
726.771129	0.633693
727.102895	0.627178
727.434612	0.620011
727.766281	0.617433
728.097901	0.617423
728.429473	0.617409
728.760996	0.614928
729.092471	0.614764
729.423897	0.619037
729.755276	0.618521
730.086606	0.617950
730.417887	0.612052
730.749120	0.603506
731.080305	0.594494
731.411442	0.590358
731.742530	0.595292
732.073570	0.594660
732.404562	0.586488
732.735506	0.588332
733.066401	0.592696
733.397249	0.602414
733.728048	0.613454
734.058798	0.625785
734.389501	0.636519
734.720156	0.646198
735.050762	0.654076
735.381320	0.655842
735.711831	0.664733
736.042293	0.669791
736.372707	0.665390
736.703073	0.669843
737.033391	0.671534
737.363661	0.669462
737.693883	0.664060
738.024056	0.663592
738.354182	0.663766
738.684260	0.653263
739.014290	0.649024
739.344272	0.648936
739.674207	0.643073
740.004093	0.642188
740.333931	0.643405
740.663722	0.642774
740.993464	0.643175
741.323159	0.647529
741.652806	0.651734
741.982405	0.657793
742.311956	0.661984
742.641460	0.663706
742.970915	0.668167
743.300323	0.675227
743.629683	0.681566
743.958996	0.683908
744.288260	0.687857
744.617477	0.694280
744.946647	0.695135
745.275768	0.700896
745.604842	0.701283
745.933869	0.710752
746.262847	0.710700
746.591778	0.705365
746.920662	0.710741
747.249498	0.717172
747.578286	0.708237
747.907027	0.704280
748.235720	0.705127
748.564365	0.700412
748.892963	0.699629
749.221514	0.703100
749.550017	0.707998
749.878473	0.707302
750.206881	0.714497
750.535242	0.715737
750.863555	0.715079
751.191821	0.716496
751.520039	0.719684
751.848210	0.724882
752.176334	0.716942
752.504411	0.716359
752.832440	0.723078
753.160421	0.727300
753.488356	0.726300
753.816243	0.723898
754.144082	0.731654
754.471875	0.735954
754.799620	0.730807
755.127318	0.732363
755.454969	0.732368
755.782572	0.731789
756.110129	0.737128
756.437638	0.739362
756.765100	0.735192
757.092515	0.733599
757.419882	0.733133
757.747203	0.738313
758.074477	0.736732
758.401703	0.734444
758.728882	0.730010
759.056014	0.728561
759.383099	0.728070
759.710138	0.729172
760.037129	0.725756
760.364073	0.719132
760.690970	0.721668
761.017820	0.727431
761.344623	0.722924
761.671379	0.713069
761.998088	0.702242
762.324751	0.679145
762.651366	0.637834
762.977935	0.571300
763.304456	0.519177
763.630931	0.509796
763.957359	0.548371
764.283740	0.592541
764.610074	0.620818
764.936362	0.650824
765.262602	0.677199
765.588796	0.700016
765.914943	0.717262
766.241044	0.735154
766.567097	0.741594
766.893104	0.751131
767.219064	0.758057
767.544978	0.763938
767.870845	0.777917
768.196665	0.781595
768.522438	0.779491
768.848165	0.780675
769.173846	0.789058
769.499479	0.793904
769.825066	0.797352
770.150607	0.802220
770.476101	0.797869
770.801548	0.799196
771.126949	0.811897
771.452303	0.814412
771.777611	0.814212
772.102872	0.812064
772.428087	0.817693
772.753256	0.820660
773.078378	0.823137
773.403453	0.832680
773.728482	0.836141
774.053465	0.829378
774.378401	0.833611
774.703291	0.842337
775.028135	0.840782
775.352932	0.843065
775.677683	0.846038
776.002388	0.846244
776.327046	0.845485
776.651658	0.849744
776.976224	0.851742
777.300743	0.852488
777.625216	0.855499
777.949643	0.856503
778.274024	0.856783
778.598359	0.858145
778.922647	0.857327
779.246889	0.858066
779.571086	0.862022
779.895236	0.864634
780.219339	0.860867
780.543397	0.857844
780.867409	0.856807
781.191374	0.858632
781.515294	0.859522
781.839167	0.858977
782.162995	0.861766
782.486776	0.860335
782.810511	0.859908
783.134201	0.864339
783.457844	0.861547
783.781441	0.864682
784.104993	0.869263
784.428498	0.870658
784.751958	0.866040
785.075372	0.868837
785.398739	0.872960
785.722061	0.868989
786.045337	0.865273
786.368568	0.868806
786.691752	0.871975
787.014891	0.857474
787.337983	0.849231
787.661030	0.840942
787.984031	0.823834
788.306987	0.810628
788.629897	0.812654
788.952760	0.817038
789.275579	0.821374
789.598351	0.836616
789.921078	0.849362
790.243759	0.851474
790.566395	0.856873
790.888984	0.864373
791.211529	0.868232
791.534027	0.872076
791.856480	0.874680
792.178888	0.877824
792.501249	0.880636
792.823566	0.882859
793.145836	0.883388
793.468062	0.884367
793.790241	0.884782
794.112375	0.882883
794.434464	0.878636
794.756507	0.877301
795.078505	0.877583
795.400457	0.872587
795.722364	0.860592
796.044226	0.852800
796.366042	0.852935
796.687812	0.854492
797.009538	0.851497
797.331218	0.854195
797.652852	0.860351
797.974442	0.863939
798.295986	0.863868
798.617484	0.866449
798.938938	0.871393
799.260346	0.876295
799.581709	0.877912
799.903026	0.879735
800.224299	0.880391
800.545526	0.883146
800.866708	0.888771
801.187845	0.891903
801.508936	0.892263
801.829983	0.890265
802.150984	0.892407
802.471940	0.897316
802.792851	0.896443
803.113717	0.897788
803.434538	0.895778
803.755314	0.898525
804.076045	0.899306
804.396731	0.900397
804.717372	0.900256
805.037967	0.902775
805.358518	0.898652
805.679024	0.896546
805.999485	0.896578
806.319901	0.896551
806.640272	0.898630
806.960598	0.896163
807.280879	0.894259
807.601115	0.892689
807.921306	0.896237
808.241453	0.897327
808.561554	0.893513
808.881611	0.894130
809.201623	0.895212
809.521590	0.896869
809.841513	0.896469
810.161390	0.897699
810.481223	0.898250
810.801011	0.901188
811.120755	0.901973
811.440453	0.901631
811.760107	0.899631
812.079716	0.900717
812.399281	0.903843
812.718801	0.906049
813.038276	0.907197
813.357707	0.906556
813.677093	0.903982
813.996434	0.907019
814.315731	0.907953
814.634983	0.910427
814.954191	0.907189
815.273354	0.904930
815.592473	0.901014
815.911547	0.901921
816.230577	0.898902
816.549562	0.895730
816.868502	0.897247
817.187399	0.892956
817.506250	0.887769
817.825058	0.890396
818.143821	0.886710
818.462539	0.881781
818.781213	0.873393
819.099843	0.862945
819.418429	0.845832
819.736970	0.829309
820.055466	0.809811
820.373919	0.783752
820.692327	0.752068
821.010691	0.716514
821.329011	0.638966
821.647286	0.523953
821.965517	0.410039
822.283704	0.367516
822.601847	0.369250
822.919945	0.404245
823.237999	0.438012
823.556010	0.485516
823.873976	0.540690
824.191897	0.591750
824.509775	0.633985
824.827609	0.679368
825.145398	0.701975
825.463144	0.703957
825.780845	0.687264
826.098502	0.668976
826.416116	0.622764
826.733685	0.578908
827.051210	0.570725
827.368692	0.584518
827.686129	0.622364
828.003522	0.675709
828.320872	0.722631
828.638177	0.767585
828.955439	0.800461
829.272656	0.821086
829.589830	0.838153
829.906960	0.855002
830.224046	0.866068
830.541088	0.876798
830.858086	0.882210
831.175041	0.888071
831.491952	0.887003
831.808819	0.883876
832.125642	0.876936
832.442421	0.862134
832.759157	0.840354
833.075849	0.794193
833.392497	0.730014
833.709101	0.689238
834.025662	0.698761
834.342179	0.731378
834.658653	0.768767
834.975083	0.806819
835.291469	0.830838
835.607811	0.854042
835.924110	0.869410
836.240366	0.887375
836.556578	0.902267
836.872746	0.908783
837.188871	0.914909
837.504952	0.920372
837.820990	0.923991
838.136984	0.927966
838.452935	0.929812
838.768842	0.931056
839.084706	0.925089
839.400526	0.899250
839.716303	0.859025
840.032037	0.835669
840.347727	0.840313
840.663373	0.859086
840.978977	0.879873
841.294537	0.902197
841.610054	0.918517
841.925527	0.927298
842.240957	0.932881
842.556344	0.940469
842.871687	0.945449
843.186987	0.950503
843.502244	0.949955
843.817458	0.951799
844.132629	0.955968
844.447756	0.960509
844.762840	0.961013
845.077881	0.959294
845.392879	0.960604
845.707833	0.964183
846.022745	0.964449
846.337613	0.964300
846.652438	0.965723
846.967221	0.964687
847.281960	0.965346
847.596656	0.967308
847.911309	0.965624
848.225919	0.968209
848.540485	0.969394
848.855009	0.968246
849.169490	0.968927
849.483928	0.968273
849.798323	0.968997
850.112675	0.970422
850.426984	0.969321
850.741251	0.970434
851.055474	0.971209
851.369654	0.967834
851.683792	0.969577
851.997887	0.970303
852.311938	0.970457
852.625947	0.969919
852.939914	0.968431
853.253837	0.968703
853.567718	0.971312
853.881555	0.970386
854.195350	0.968948
854.509103	0.969960
854.822812	0.969722
855.136479	0.971032
855.450103	0.970862
855.763685	0.968876
856.077224	0.969375
856.390720	0.971717
856.704173	0.970691
857.017584	0.968615
857.330953	0.966482
857.644278	0.968688
857.957561	0.968553
858.270802	0.968558
858.584000	0.968489
858.897155	0.967382
859.210268	0.968111
859.523339	0.967776
859.836367	0.968896
860.149352	0.970508
860.462295	0.969194
860.775195	0.969553
861.088054	0.969865
861.400869	0.970471
861.713642	0.971624
862.026373	0.969947
862.339062	0.971257
862.651708	0.967135
862.964312	0.968756
863.276873	0.968670
863.589392	0.967489
863.901869	0.966488
864.214303	0.966123
864.526696	0.964199
864.839045	0.963663
865.151353	0.962085
865.463619	0.963766
865.775842	0.962863
866.088023	0.962678
866.400162	0.962642
866.712258	0.962304
867.024313	0.963502
867.336325	0.963545
867.648296	0.964208
867.960224	0.963463
868.272110	0.962285
868.583954	0.964288
868.895755	0.964710
869.207515	0.961713
869.519233	0.959527
869.830909	0.961126
870.142542	0.963471
870.454134	0.962533
870.765684	0.961161
871.077191	0.957837
871.388657	0.960029
871.700081	0.957636
872.011463	0.959006
872.322803	0.958621
872.634101	0.957003
872.945357	0.955191
873.256571	0.953932
873.567744	0.953328
873.878874	0.954598
874.189963	0.952683
874.501010	0.951941
874.812015	0.950022
875.122979	0.951706
875.433900	0.953731
875.744780	0.953790
876.055618	0.950849
876.366415	0.949668
876.677169	0.950591
876.987882	0.951619
877.298554	0.951620
877.609183	0.947762
877.919771	0.945203
878.230317	0.942799
878.540822	0.941036
878.851285	0.934875
879.161707	0.927326
879.472087	0.915665
879.782425	0.898822
880.092722	0.865812
880.402977	0.812563
880.713191	0.751447
881.023363	0.693031
881.333494	0.659579
881.643583	0.631477
881.953631	0.630725
882.263637	0.660252
882.573602	0.699063
882.883526	0.725037
883.193408	0.748691
883.503248	0.770604
883.813048	0.799205
884.122806	0.827273
884.432522	0.851081
884.742197	0.871601
885.051831	0.881253
885.361424	0.892036
885.670975	0.903857
885.980485	0.914638
886.289954	0.919736
886.599382	0.925279
886.908768	0.929313
887.218113	0.934098
887.527417	0.940049
887.836680	0.942961
888.145901	0.943716
888.455082	0.946904
888.764221	0.951362
889.073319	0.952733
889.382376	0.953152
889.691392	0.953405
890.000366	0.953033
890.309300	0.954170
890.618193	0.953405
890.927044	0.952807
891.235855	0.951152
891.544625	0.951393
891.853353	0.952508
892.162041	0.950457
892.470687	0.943151
892.779293	0.937763
893.087858	0.934499
893.396381	0.927004
893.704864	0.913793
894.013306	0.890112
894.321707	0.862994
894.630068	0.849168
894.938387	0.843600
895.246665	0.844203
895.554903	0.857495
895.863100	0.870011
896.171256	0.887446
896.479371	0.907983
896.787446	0.919416
897.095480	0.925099
897.403473	0.929164
897.711425	0.932595
898.019336	0.940714
898.327207	0.943757
898.635038	0.945502
898.942827	0.945810
899.250576	0.947515
899.558284	0.952528
899.865952	0.954048
900.173579	0.956184
900.481165	0.955348
900.788711	0.960731
901.096216	0.961831
901.403681	0.961866
901.711105	0.963551
902.018489	0.964707
902.325832	0.962935
902.633135	0.962310
902.940397	0.955796
903.247619	0.944666
903.554800	0.917959
903.861941	0.878950
904.169041	0.843033
904.476101	0.826486
904.783121	0.827632
905.090100	0.843720
905.397039	0.865082
905.703938	0.886523
906.010796	0.906153
906.317614	0.922368
906.624391	0.934423
906.931129	0.944434
907.237826	0.952342
907.544483	0.959631
907.851099	0.963069
908.157675	0.967467
908.464211	0.970160
908.770707	0.973550
909.077163	0.974202
909.383578	0.976394
909.689954	0.975956
909.996289	0.976137
910.302584	0.978515
910.608839	0.979509
910.915054	0.978837
911.221229	0.979415
911.527363	0.977162
911.833458	0.976564
912.139513	0.978196
912.445527	0.974574
912.751502	0.973824
913.057436	0.973000
913.363331	0.971010
913.669186	0.966788
913.975000	0.961101
914.280775	0.956656
914.586510	0.948948
914.892205	0.935434
915.197859	0.913728
915.503475	0.887466
915.809050	0.868236
916.114585	0.862192
916.420081	0.858922
916.725536	0.856419
917.030952	0.864551
917.336328	0.877532
917.641665	0.892968
917.946961	0.907018
918.252218	0.919949
918.557435	0.927755
918.862612	0.936747
919.167750	0.942505
919.472848	0.946575
919.777906	0.953404
920.082925	0.957926
920.387904	0.963137
920.692843	0.963059
920.997743	0.964893
921.302603	0.967701
921.607423	0.969456
921.912204	0.972158
922.216946	0.971538
922.521647	0.974049
922.826310	0.974144
923.130932	0.977748
923.435516	0.979367
923.740059	0.980597
924.044564	0.979534
924.349028	0.980262
924.653454	0.983059
924.957840	0.984760
925.262186	0.984360
925.566493	0.984722
925.870761	0.984885
926.174989	0.986447
926.479178	0.987409
926.783328	0.987847
927.087438	0.988309
927.391509	0.989080
927.695541	0.990364
927.999533	0.990243
928.303486	0.989172
928.607400	0.992102
928.911275	0.989588
929.215110	0.991672
929.518906	0.990409
929.822663	0.990538
930.126381	0.991875
930.430060	0.990002
930.733699	0.992008
931.037299	0.990012
931.340861	0.991550
931.644383	0.990993
931.947866	0.989326
932.251309	0.990381
932.554714	0.990936
932.858080	0.991130
933.161407	0.990140
933.464694	0.990924
933.767943	0.989155
934.071153	0.990439
934.374323	0.991340
934.677455	0.991242
934.980548	0.991038
935.283602	0.991626
935.586617	0.991044
935.889593	0.990351
936.192530	0.991170
936.495428	0.990667
936.798287	0.990995
937.101108	0.989971
937.403890	0.990135
937.706632	0.989430
938.009336	0.987465
938.312002	0.985566
938.614628	0.985424
938.917216	0.982863
939.219765	0.982426
939.522275	0.983693
939.824747	0.983509
940.127179	0.982874
940.429573	0.984014
940.731929	0.984643
941.034246	0.984799
941.336524	0.986024
941.638763	0.986788
941.940964	0.986576
942.243126	0.985993
942.545250	0.988387
942.847335	0.988700
943.149381	0.988117
943.451389	0.988349
943.753359	0.988188
944.055290	0.989823
944.357182	0.990726
944.659036	0.988115
944.960851	0.989948
945.262628	0.990254
945.564367	0.991641
945.866067	0.990359
946.167729	0.989989
946.469352	0.989773
946.770937	0.989420
947.072484	0.991120
947.373992	0.990963
947.675462	0.991839
947.976893	0.989613
948.278286	0.990915
948.579641	0.991628
948.880958	0.990805
949.182236	0.991429
949.483476	0.992302
949.784678	0.990094
950.085841	0.991693
950.386967	0.990883
950.688054	0.990613
950.989103	0.991137
951.290114	0.988881
951.591087	0.990854
951.892021	0.989861
952.192917	0.988468
952.493776	0.988457
952.794596	0.988944
953.095378	0.987637
953.396122	0.988571
953.696828	0.988689
953.997496	0.990206
954.298126	0.991640
954.598718	0.991525
954.899272	0.991466
955.199788	0.990931
955.500266	0.991614
955.800706	0.992580
956.101108	0.994491
956.401472	0.994012
956.701798	0.994308
957.002087	0.993858
957.302337	0.993638
957.602550	0.996446
957.902724	0.995541
958.202861	0.995459
958.502960	0.995037
958.803022	0.993752
959.103045	0.995964
959.403031	0.995774
959.702979	0.995378
960.002889	0.996616
960.302762	0.994384
960.602596	0.995572
960.902393	0.995030
961.202153	0.997275
961.501875	0.996499
961.801559	0.997982
962.101205	0.995051
962.400814	0.996867
962.700385	0.997208
962.999918	0.997814
963.299414	0.996593
963.598873	0.995478
963.898293	0.997542
964.197677	0.996525
964.497022	0.997137
964.796331	0.997192
965.095601	0.996745
965.394835	0.996788
965.694030	0.997327
965.993189	0.997868
966.292309	0.997762
966.591393	0.998405
966.890439	0.997307
967.189447	0.997873
967.488419	0.997109
967.787353	0.996287
968.086249	0.995200
968.385108	0.996596
968.683930	0.996821
968.982714	0.997534
969.281462	0.997495
969.580172	0.996311
969.878844	0.996898
970.177480	0.997410
970.476078	0.996579
970.774639	0.996872
971.073162	0.997085
971.371649	0.996569
971.670098	0.996795
971.968510	0.996851
972.266885	0.995748
972.565223	0.995608
972.863524	0.997333
973.161788	0.996646
973.460014	0.998081
973.758204	0.995669
974.056356	0.997089
974.354471	0.994888
974.652550	0.997139
974.950591	0.997180
975.248595	0.997146
975.546563	0.997499
975.844493	0.997834
976.142386	0.997325
976.440243	0.996498
976.738062	0.997977
977.035845	0.998004
977.333590	0.996987
977.631299	0.998306
977.928971	0.996859
978.226606	0.996924
978.524204	0.995677
978.821765	0.998794
979.119290	0.997393
979.416777	0.997216
979.714228	0.996938
980.011642	0.996170
980.309020	0.997389
980.606360	0.998316
980.903664	0.998332
981.200931	0.996054
981.498162	0.995252
981.795356	0.995253
982.092513	0.994344
982.389633	0.995145
982.686717	0.991752
982.983764	0.992324
983.280775	0.991089
983.577749	0.991761
983.874686	0.992910
984.171587	0.991744
984.468451	0.995609
984.765279	0.994642
985.062070	0.994620
985.358824	0.996312
985.655543	0.995202
985.952224	0.996542
986.248869	0.996653
986.545478	0.997316
986.842050	0.998520
987.138586	0.995182
987.435086	0.997781
987.731549	0.998498
988.027975	0.997673
988.324366	0.997779
988.620719	0.998168
988.917037	0.996406
989.213318	0.997442
989.509563	0.999909
989.805772	0.998655
990.101944	0.999248
990.398080	0.996834
990.694180	0.998662
990.990244	0.997625
991.286271	0.997945
991.582262	0.998064
991.878217	0.998648
992.174136	0.998939
992.470019	1.000540
992.765865	0.998746
993.061676	0.998441
993.357450	0.997817
993.653188	0.997278
993.948890	0.998235
994.244556	0.998331
994.540186	0.996739
994.835780	0.996891
995.131337	0.998028
995.426859	0.996762
995.722345	0.997903
996.017795	0.997002
996.313208	0.995787
996.608586	0.997544
996.903928	0.997102
997.199234	0.997468
997.494504	0.996908
997.789738	0.996606
998.084936	0.996348
998.380099	0.999310
998.675225	0.997274
998.970316	0.998626
999.265371	0.998190
999.560390	0.997660
999.855373	0.999186
1000.150320	0.998112
1000.445232	0.999240
1000.740108	0.997370
1001.034948	0.997523
1001.329752	1.000186
1001.624521	0.999006
1001.919254	0.998336
1002.213951	0.998255
1002.508613	0.997734
1002.803239	0.998614
1003.097829	0.999003
1003.392384	0.999365
1003.686903	0.998001
1003.981386	0.998229
1004.275834	0.998517
1004.570246	0.999799
1004.864623	0.998906
1005.158964	0.998984
1005.453270	0.998124
1005.747540	0.997941
1006.041775	0.999475
1006.335974	1.000304
1006.630138	0.999230
1006.924266	0.998958
1007.218359	1.001395
1007.512416	1.000256
1007.806438	0.999314
1008.100425	0.999297
1008.394376	0.999407
1008.688292	0.999173
1008.982172	1.000521
1009.276017	1.000074
1009.569827	0.999527
1009.863602	0.999788
1010.157341	0.999907
1010.451045	0.999503
1010.744714	0.998750
1011.038347	0.999981
1011.331945	0.999054
1011.625508	0.998843
1011.919036	0.998309
1012.212528	0.999063
1012.505986	0.997829
1012.799408	0.999032
1013.092795	0.999568
1013.386147	0.998999
1013.679464	0.999829
1013.972745	0.998439
1014.265992	0.996974
1014.559204	0.998510
1014.852380	0.999785
1015.145521	1.000514
1015.438628	0.998699
1015.731699	0.998363
1016.024736	1.000342
1016.317737	0.999048
1016.610703	0.999740
1016.903635	0.999895
1017.196531	0.998825
1017.489393	0.999631
1017.782219	0.999072
1018.075011	0.998113
1018.367768	0.999558
1018.660490	0.999594
1018.953177	0.999594
1019.245829	0.999594
