Dividing Wavelength (nm)	Counts (n)	Blue Motor Position (mm): 0.000000	Red Motor Position (mm): 38.000000	
326.493990	1.000650
326.888308	1.000650
327.282561	1.000650
327.676750	0.998822
328.070874	0.998910
328.464933	1.000022
328.858929	1.000358
329.252859	0.998952
329.646726	1.000072
330.040528	0.999785
330.434265	0.998746
330.827938	1.000489
331.221547	1.000916
331.615091	0.999116
332.008571	0.999899
332.401986	0.999945
332.795338	1.000571
333.188625	0.998537
333.581847	1.000260
333.975006	0.999398
334.368100	0.999781
334.761129	0.999482
335.154095	1.000565
335.546996	0.998988
335.939833	0.996513
336.332606	0.996419
336.725315	0.996960
337.117960	0.999177
337.510540	0.997872
337.903056	0.997111
338.295508	0.995178
338.687896	0.997140
339.080220	0.997453
339.472480	0.997046
339.864676	0.998097
340.256807	0.996125
340.648875	0.998531
341.040879	0.997213
341.432818	0.996835
341.824694	0.997031
342.216506	0.996762
342.608253	0.996906
342.999937	0.997593
343.391557	0.997586
343.783113	0.997554
344.174605	0.997792
344.566033	0.998156
344.957397	0.996452
345.348697	0.996693
345.739934	0.995560
346.131106	0.996789
346.522215	0.996880
346.913260	0.997549
347.304241	0.997193
347.695159	0.997287
348.086012	0.996540
348.476802	0.997333
348.867528	0.996874
349.258191	0.996363
349.648789	0.998136
350.039324	0.996680
350.429796	0.997220
350.820203	0.998670
351.210548	0.996511
351.600828	0.996694
351.991045	0.996519
352.381198	0.996931
352.771288	0.997225
353.161314	0.997411
353.551276	0.998046
353.941175	0.997129
354.331010	0.996879
354.720782	0.997556
355.110490	0.996984
355.500135	0.997574
355.889717	0.997170
356.279235	0.998097
356.668689	0.996521
357.058080	0.995645
357.447408	0.998717
357.836672	0.997601
358.225873	0.997708
358.615010	0.997148
359.004084	0.998143
359.393095	0.997527
359.782043	0.997644
360.170927	0.997274
360.559748	0.998550
360.948505	0.995718
361.337199	0.997274
361.725830	0.997426
362.114398	0.996495
362.502903	0.998398
362.891344	0.998263
363.279722	0.997791
363.668037	0.997979
364.056289	0.997874
364.444478	0.997852
364.832603	0.998537
365.220665	0.996906
365.608665	0.997553
365.996601	0.997370
366.384474	0.997127
366.772284	0.997209
367.160031	0.996551
367.547715	0.995518
367.935336	0.997836
368.322893	0.997053
368.710388	0.996413
369.097820	0.998329
369.485189	0.997253
369.872495	0.996670
370.259738	0.995358
370.646918	0.998172
371.034035	0.997741
371.421090	0.997391
371.808081	0.996987
372.195010	0.997782
372.581875	0.997787
372.968678	0.997426
373.355418	0.997599
373.742096	0.997235
374.128710	0.998191
374.515262	0.997010
374.901751	0.996603
375.288177	0.997615
375.674540	0.997779
376.060841	0.997436
376.447079	0.997501
376.833254	0.997355
377.219367	0.997996
377.605417	0.999296
377.991404	0.997631
378.377329	0.997885
378.763191	0.996939
379.148991	0.998592
379.534727	0.998798
379.920402	0.998050
380.306013	0.998659
380.691563	0.998935
381.077049	0.998290
381.462474	0.998634
381.847835	0.999175
382.233134	0.998323
382.618371	0.998864
383.003545	0.999542
383.388657	0.998409
383.773706	0.998508
384.158693	0.999418
384.543618	0.998937
384.928480	0.998865
385.313280	0.998931
385.698017	0.999110
386.082692	0.999522
386.467305	0.998530
386.851856	0.998491
387.236344	0.997791
387.620770	0.997677
388.005133	0.998539
388.389435	0.999793
388.773674	0.998203
389.157851	0.999257
389.541965	0.998156
389.926018	0.998993
390.310008	1.000049
390.693936	0.998181
391.077802	0.998735
391.461606	0.998951
391.845348	0.999013
392.229027	0.999036
392.612645	0.999533
392.996200	0.999801
393.379694	0.998563
393.763125	0.999747
394.146494	0.999593
394.529801	0.999417
394.913047	0.999859
395.296230	0.998868
395.679351	0.999338
396.062410	0.999261
396.445408	1.000065
396.828343	0.998809
397.211217	0.999800
397.594028	0.999531
397.976778	0.999108
398.359466	0.999120
398.742092	0.998846
399.124656	0.998418
399.507158	0.998763
399.889598	0.999257
400.271977	0.999295
400.654294	0.999404
401.036549	0.999440
401.418742	0.999780
401.800874	0.998848
402.182944	0.999631
402.564952	0.998025
402.946898	1.000119
403.328783	0.999744
403.710606	0.998711
404.092367	0.999207
404.474067	0.999635
404.855705	0.998900
405.237282	0.999738
405.618797	1.000040
406.000250	0.999199
406.381642	0.999635
406.762972	0.998786
407.144240	1.000497
407.525447	1.000057
407.906593	0.999292
408.287677	1.000052
408.668700	0.999733
409.049661	0.998512
409.430560	1.000211
409.811399	0.999391
410.192176	0.999263
410.572891	0.999650
410.953545	0.999411
411.334138	0.998898
411.714669	0.999920
412.095139	0.999155
412.475547	1.000189
412.855894	0.999942
413.236180	0.999267
413.616405	0.998931
413.996568	1.000099
414.376670	0.999499
414.756711	0.999395
415.136691	1.000462
415.516609	0.999117
415.896466	0.998767
416.276262	0.998423
416.655997	0.999506
417.035670	0.999154
417.415283	0.998886
417.794834	0.998914
418.174324	0.999869
418.553753	0.999598
418.933121	0.999881
419.312428	0.999688
419.691674	1.000101
420.070859	0.999787
420.449983	0.999743
420.829045	0.999361
421.208047	0.999640
421.586988	1.000517
421.965867	0.999453
422.344686	0.999920
422.723444	1.000040
423.102141	0.999887
423.480777	0.999696
423.859352	0.999906
424.237866	1.000037
424.616319	0.999304
424.994712	1.000475
425.373044	1.000412
425.751314	0.999269
426.129524	0.999406
426.507673	1.000067
426.885762	1.000234
427.263789	0.999543
427.641756	1.000224
428.019662	1.000837
428.397508	0.999195
428.775292	0.998970
429.153016	0.999313
429.530679	0.999740
429.908282	1.000009
430.285824	0.998740
430.663305	0.999117
431.040726	0.999724
431.418086	1.000022
431.795385	1.000710
432.172624	0.999630
432.549802	1.000270
432.926920	1.000388
433.303977	0.999348
433.680974	1.000142
434.057910	0.999914
434.434786	0.999879
434.811601	0.999780
435.188355	0.999863
435.565050	0.999452
435.941683	0.999778
436.318257	1.000612
436.694770	0.999022
437.071222	1.000011
437.447614	1.000341
437.823946	0.999585
438.200218	0.999823
438.576429	0.999701
438.952580	1.000233
439.328670	0.999320
439.704700	1.000399
440.080670	1.000862
440.456580	1.000257
440.832429	0.999107
441.208218	0.999507
441.583947	0.999473
441.959616	0.999426
442.335224	0.999336
442.710773	1.001090
443.086261	0.999669
443.461689	1.000205
443.837057	0.999441
444.212365	1.000431
444.587612	0.999853
444.962800	1.000285
445.337927	0.999686
445.712995	1.000232
446.088002	1.000914
446.462949	1.000736
446.837837	1.001259
447.212664	1.000389
447.587431	0.999938
447.962139	1.000436
448.336786	0.999964
448.711374	1.000147
449.085901	1.000234
449.460369	1.000876
449.834776	1.000131
450.209124	0.999957
450.583412	0.999734
450.957640	0.999242
451.331808	0.999721
451.705917	1.000101
452.079965	0.999828
452.453954	0.999665
452.827883	0.999780
453.201752	1.000036
453.575562	1.001320
453.949311	1.000308
454.323001	0.999973
454.696632	0.999907
455.070202	0.999686
455.443713	0.999485
455.817164	1.000439
456.190556	1.000238
456.563888	1.000031
456.937160	1.001344
457.310373	0.999470
457.683526	0.999831
458.056619	1.000097
458.429653	1.000526
458.802628	0.999919
459.175542	0.999409
459.548398	0.999552
459.921194	0.999587
460.293930	1.000106
460.666607	0.999961
461.039224	0.998510
461.411782	0.999477
461.784280	0.999252
462.156719	1.000204
462.529099	1.000376
462.901419	1.000074
463.273680	0.999990
463.645882	0.999914
464.018024	1.000537
464.390106	1.000331
464.762130	1.000552
465.134094	0.999545
465.505999	0.999527
465.877845	0.999947
466.249631	1.000350
466.621358	1.000273
466.993026	1.000172
467.364634	0.999634
467.736184	1.000288
468.107674	0.999865
468.479105	0.999683
468.850477	1.000179
469.221790	1.000022
469.593043	1.000836
469.964238	1.001275
470.335373	0.999416
470.706449	1.000339
471.077467	1.000578
471.448425	0.999719
471.819324	1.000365
472.190164	1.000483
472.560945	0.999907
472.931667	0.999799
473.302330	0.999872
473.672934	0.999860
474.043479	1.000579
474.413965	0.999930
474.784393	1.000504
475.154761	1.000049
475.525070	0.999555
475.895321	1.000212
476.265513	1.000002
476.635645	1.000033
477.005719	1.000522
477.375734	0.999521
477.745691	1.000419
478.115588	1.000048
478.485427	1.000040
478.855207	1.000252
479.224928	1.000456
479.594591	0.999937
479.964194	1.000138
480.333739	0.999527
480.703226	0.999934
481.072653	1.000900
481.442022	1.000367
481.811333	0.999587
482.180584	1.000627
482.549777	0.999805
482.918912	1.000414
483.287988	1.000099
483.657005	0.999921
484.025964	1.000474
484.394864	1.000479
484.763706	1.000197
485.132489	1.000854
485.501213	1.000159
485.869879	1.000006
486.238487	1.000917
486.607036	1.000531
486.975527	0.999734
487.343959	0.999495
487.712333	0.999651
488.080648	0.999938
488.448905	0.999963
488.817104	1.000349
489.185244	1.000437
489.553326	1.000158
489.921350	0.999712
490.289315	1.000001
490.657222	0.999832
491.025070	1.000534
491.392861	1.000618
491.760593	1.000637
492.128267	1.000040
492.495883	1.000534
492.863440	1.000308
493.230939	1.000491
493.598380	0.999992
493.965763	1.000080
494.333088	1.000789
494.700354	0.999593
495.067563	0.999651
495.434713	0.999613
495.801805	1.000169
496.168839	1.000019
496.535815	0.999599
496.902733	1.000220
497.269593	0.999680
497.636395	1.000130
498.003139	1.000003
498.369825	1.000644
498.736453	0.999787
499.103023	0.999289
499.469535	0.999432
499.835989	0.999674
500.202385	1.000090
500.568723	0.999164
500.935003	1.000371
501.301226	0.999935
501.667390	0.999913
502.033497	0.999939
502.399546	1.000138
502.765537	0.999915
503.131470	1.000297
503.497345	0.999631
503.863163	1.000386
504.228923	1.000184
504.594625	1.000547
504.960269	1.000172
505.325856	1.000003
505.691385	1.000059
506.056856	0.999799
506.422270	0.999596
506.787625	0.999881
507.152924	1.000137
507.518164	0.999134
507.883347	0.999537
508.248472	0.999491
508.613540	1.000248
508.978550	0.999791
509.343503	0.999759
509.708398	0.999875
510.073236	0.999478
510.438016	1.000024
510.802738	0.999529
511.167403	0.999950
511.532010	0.999980
511.896561	0.999700
512.261053	1.000940
512.625488	0.999550
512.989866	0.998999
513.354186	0.999541
513.718449	0.999778
514.082655	0.999247
514.446803	0.999189
514.810894	0.999974
515.174927	0.999820
515.538904	0.999215
515.902822	0.999983
516.266684	0.999661
516.630488	1.000112
516.994235	0.999579
517.357925	0.998983
517.721558	0.999791
518.085133	0.998312
518.448651	0.999671
518.812112	0.999105
519.175516	0.999110
519.538863	0.998900
519.902152	0.999495
520.265385	0.999104
520.628560	0.999043
520.991678	0.998751
521.354739	0.999846
521.717743	0.999399
522.080690	0.998458
522.443580	0.998671
522.806413	0.999088
523.169189	0.998299
523.531908	0.998199
523.894569	0.998535
524.257174	0.998776
524.619722	0.998587
524.982213	0.998798
525.344647	0.999034
525.707025	0.998292
526.069345	0.998441
526.431608	0.998055
526.793815	0.998976
527.155964	0.998095
527.518057	0.998627
527.880093	0.998594
528.242072	0.997646
528.603995	0.998201
528.965860	0.999441
529.327669	0.997831
529.689421	0.997997
530.051117	0.998881
530.412755	0.997512
530.774337	0.998159
531.135862	0.997667
531.497331	0.997122
531.858743	0.997974
532.220098	0.997245
532.581396	0.997671
532.942638	0.997563
533.303824	0.996889
533.664953	0.996665
534.026025	0.996243
534.387040	0.996277
534.747999	0.996669
535.108902	0.996616
535.469748	0.995824
535.830537	0.996003
536.191270	0.996004
536.551947	0.995234
536.912567	0.995605
537.273131	0.996311
537.633638	0.994186
537.994089	0.995140
538.354483	0.994363
538.714821	0.995001
539.075103	0.993728
539.435328	0.994628
539.795497	0.994181
540.155609	0.993072
540.515665	0.992997
540.875665	0.993043
541.235609	0.992965
541.595496	0.991900
541.955328	0.991622
542.315102	0.991748
542.674821	0.991117
543.034483	0.990404
543.394090	0.989813
543.753640	0.990297
544.113134	0.989949
544.472571	0.989154
544.831953	0.988822
545.191278	0.988384
545.550548	0.988378
545.909761	0.986846
546.268918	0.987471
546.628019	0.986909
546.987064	0.986061
547.346053	0.985894
547.704986	0.985025
548.063863	0.984586
548.422684	0.983826
548.781449	0.983956
549.140158	0.982052
549.498811	0.981965
549.857408	0.981592
550.215949	0.980584
550.574434	0.979097
550.932864	0.978651
551.291237	0.978895
551.649555	0.977658
552.007817	0.976457
552.366022	0.975564
552.724173	0.974932
553.082267	0.974182
553.440305	0.972861
553.798288	0.972527
554.156215	0.971328
554.514086	0.970045
554.871902	0.969516
555.229661	0.968127
555.587365	0.967228
555.945014	0.966449
556.302606	0.964384
556.660143	0.963823
557.017625	0.961202
557.375050	0.960990
557.732421	0.959337
558.089735	0.958914
558.446994	0.958261
558.804197	0.955430
559.161345	0.954927
559.518437	0.954535
559.875474	0.950908
560.232455	0.949403
560.589381	0.948631
560.946251	0.945165
561.303065	0.944872
561.659825	0.943172
562.016528	0.941927
562.373177	0.941157
562.729770	0.938269
563.086307	0.936558
563.442789	0.934770
563.799216	0.932810
564.155587	0.931502
564.511904	0.928786
564.868164	0.927184
565.224370	0.925901
565.580520	0.923141
565.936615	0.922426
566.292654	0.919429
566.648638	0.917375
567.004567	0.914202
567.360441	0.913808
567.716260	0.911759
568.072023	0.909741
568.427732	0.906018
568.783385	0.905551
569.138982	0.901568
569.494525	0.898900
569.850013	0.898293
570.205445	0.894208
570.560823	0.893151
570.916145	0.889943
571.271412	0.887985
571.626625	0.885639
571.981782	0.882994
572.336884	0.880942
572.691931	0.878393
573.046923	0.874486
573.401860	0.873059
573.756743	0.869711
574.111570	0.866959
574.466342	0.865773
574.821059	0.861347
575.175722	0.859464
575.530330	0.856498
575.884882	0.853808
576.239380	0.850618
576.593823	0.849063
576.948211	0.845020
577.302544	0.844430
577.656823	0.839911
578.011047	0.837576
578.365216	0.833850
578.719330	0.831848
579.073389	0.828026
579.427394	0.826491
579.781344	0.823384
580.135239	0.820037
580.489080	0.816955
580.842866	0.813801
581.196597	0.810144
581.550273	0.806889
581.903895	0.803745
582.257463	0.800546
582.610975	0.796665
582.964434	0.794180
583.317837	0.791556
583.671186	0.788915
584.024481	0.785269
584.377721	0.782824
584.730906	0.780099
585.084037	0.776371
585.437113	0.774224
585.790135	0.770860
586.143103	0.768132
586.496016	0.766447
586.848874	0.761225
587.201679	0.758801
587.554428	0.756397
587.907124	0.752604
588.259765	0.749317
588.612352	0.746069
588.964884	0.744532
589.317362	0.740632
589.669786	0.737094
590.022155	0.733753
590.374470	0.729303
590.726731	0.727682
591.078937	0.725841
591.431090	0.719968
591.783188	0.718925
592.135232	0.715448
592.487222	0.713098
592.839157	0.708001
593.191038	0.706036
593.542866	0.703439
593.894639	0.702150
594.246358	0.697348
594.598022	0.693811
594.949633	0.692641
595.301190	0.689292
595.652692	0.686075
596.004141	0.680112
596.355535	0.681319
596.706876	0.678193
597.058162	0.675531
597.409395	0.671288
597.760573	0.666537
598.111698	0.665294
598.462768	0.661860
598.813785	0.659536
599.164748	0.656505
599.515657	0.654471
599.866511	0.651459
600.217312	0.646662
600.568060	0.646847
600.918753	0.640893
601.269392	0.639055
601.619978	0.637250
601.970510	0.632647
602.320988	0.630201
602.671412	0.624508
603.021783	0.623358
603.372100	0.621424
603.722363	0.616853
604.072572	0.614950
604.422728	0.611477
604.772830	0.609897
605.122878	0.605702
605.472872	0.603897
605.822813	0.599127
606.172701	0.598414
606.522534	0.593694
606.872314	0.590681
607.222041	0.587651
607.571714	0.584463
607.921333	0.581625
608.270899	0.578911
608.620411	0.574068
608.969870	0.574416
609.319276	0.570723
609.668627	0.567950
610.017926	0.564234
610.367171	0.560378
610.716362	0.557907
611.065500	0.555376
611.414585	0.550984
611.763616	0.549999
612.112594	0.546874
612.461518	0.543754
612.810389	0.539497
613.159207	0.537860
613.507971	0.536583
613.856682	0.530925
614.205340	0.529427
614.553945	0.524704
614.902496	0.524716
615.250994	0.520550
615.599439	0.518893
615.947830	0.515256
616.296169	0.514926
616.644454	0.511224
616.992686	0.509429
617.340864	0.505355
617.688990	0.505535
618.037063	0.501412
618.385082	0.500470
618.733048	0.495523
619.080961	0.495433
619.428821	0.492843
619.776628	0.489946
620.124382	0.488844
620.472083	0.486613
620.819731	0.484178
621.167326	0.484609
621.514868	0.482360
621.862357	0.483609
622.209793	0.480192
622.557176	0.479450
622.904506	0.477618
623.251783	0.477879
623.599007	0.476566
623.946179	0.474107
624.293297	0.473279
624.640363	0.474295
624.987376	0.472466
625.334336	0.473084
625.681243	0.472092
626.028097	0.470762
626.374899	0.469685
626.721647	0.466883
627.068343	0.468981
627.414987	0.467831
627.761577	0.467000
628.108115	0.464544
628.454600	0.466713
628.801032	0.462104
629.147412	0.463404
629.493739	0.461595
629.840014	0.462688
630.186236	0.459559
630.532405	0.462076
630.878521	0.458750
631.224585	0.458648
631.570597	0.460676
631.916556	0.458047
632.262462	0.456781
632.608316	0.456936
632.954117	0.456301
633.299866	0.455921
633.645562	0.454206
633.991206	0.456785
634.336797	0.457597
634.682336	0.458006
635.027823	0.457402
635.373257	0.456675
635.718639	0.458135
636.063968	0.455739
636.409245	0.460024
636.754470	0.458272
637.099642	0.459019
637.444762	0.460819
637.789829	0.458553
638.134845	0.460708
638.479808	0.460317
638.824719	0.458824
639.169577	0.461484
639.514383	0.459104
639.859137	0.462339
640.203839	0.461169
640.548489	0.459983
640.893086	0.460432
641.237632	0.460830
641.582125	0.458368
641.926566	0.458419
642.270955	0.457637
642.615292	0.457109
642.959576	0.455496
643.303809	0.455283
643.647990	0.453394
643.992118	0.453768
644.336195	0.455988
644.680219	0.453768
645.024192	0.453109
645.368112	0.446589
645.711981	0.445015
646.055797	0.440126
646.399562	0.442123
646.743274	0.434009
647.086935	0.431236
647.430544	0.430816
647.774101	0.429241
648.117606	0.427824
648.461059	0.427532
648.804460	0.428479
649.147810	0.433316
649.491108	0.433580
649.834354	0.434323
650.177548	0.438715
650.520690	0.442960
650.863781	0.443540
651.206820	0.442192
651.549807	0.446308
651.892742	0.449012
652.235626	0.447925
652.578458	0.448812
652.921238	0.453384
653.263967	0.451341
653.606644	0.454396
653.949269	0.453987
654.291843	0.457316
654.634365	0.453149
654.976836	0.455645
655.319255	0.455692
655.661622	0.456677
656.003938	0.455849
656.346203	0.458385
656.688416	0.455627
657.030577	0.458550
657.372687	0.459950
657.714746	0.460520
658.056753	0.456785
658.398708	0.460812
658.740612	0.461233
659.082465	0.457215
659.424266	0.457198
659.766016	0.455686
660.107715	0.458234
660.449362	0.457493
660.790958	0.457428
661.132503	0.457656
661.473996	0.455134
661.815438	0.455693
662.156829	0.455081
662.498168	0.455649
662.839456	0.456733
663.180693	0.454604
663.521879	0.454082
663.863013	0.454730
664.204097	0.452562
664.545129	0.449727
664.886110	0.449557
665.227040	0.446918
665.567918	0.449455
665.908746	0.446625
666.249522	0.446422
666.590248	0.447223
666.930922	0.445735
667.271545	0.444250
667.612118	0.443548
667.952639	0.445525
668.293109	0.443801
668.633528	0.446704
668.973896	0.445804
669.314213	0.445669
669.654480	0.447171
669.994695	0.447342
670.334859	0.448246
670.674973	0.448051
671.015035	0.447602
671.355047	0.447666
671.695008	0.448717
672.034918	0.450375
672.374777	0.449701
672.714585	0.450765
673.054342	0.450396
673.394049	0.450076
673.733705	0.447773
674.073310	0.449029
674.412864	0.452226
674.752368	0.452162
675.091820	0.452039
675.431223	0.455887
675.770574	0.456061
676.109875	0.458972
676.449125	0.458655
676.788324	0.460389
677.127473	0.465883
677.466571	0.465397
677.805619	0.467129
678.144616	0.468169
678.483562	0.469701
678.822458	0.472311
679.161303	0.472835
679.500098	0.473524
679.838842	0.475095
680.177535	0.474152
680.516179	0.472195
680.854771	0.471796
681.193314	0.464655
681.531805	0.456524
681.870247	0.444899
682.208638	0.437552
682.546978	0.436306
682.885268	0.438009
683.223508	0.444046
683.561697	0.447863
683.899836	0.450125
684.237925	0.453589
684.575963	0.456150
684.913951	0.459443
685.251889	0.454819
685.589776	0.456881
685.927614	0.459671
686.265401	0.453317
686.603137	0.454421
686.940824	0.448515
687.278460	0.446942
687.616046	0.446400
687.953582	0.441030
688.291068	0.442729
688.628504	0.438207
688.965889	0.440391
689.303224	0.444583
689.640510	0.448177
689.977745	0.453871
690.314930	0.461963
690.652065	0.465780
690.989150	0.473588
691.326185	0.480031
691.663170	0.484208
692.000105	0.491579
692.336990	0.498156
692.673825	0.500186
693.010610	0.507316
693.347345	0.513020
693.684030	0.514350
694.020665	0.519385
694.357251	0.527556
694.693786	0.526968
695.030272	0.531369
695.366707	0.534618
695.703093	0.537873
696.039429	0.536067
696.375716	0.537066
696.711952	0.540295
697.048139	0.542484
697.384276	0.544448
697.720363	0.542057
698.056400	0.541796
698.392388	0.546805
698.728326	0.549717
699.064214	0.552729
699.400053	0.553088
699.735842	0.556550
700.071581	0.559744
700.407270	0.562439
700.742910	0.565308
701.078501	0.571350
701.414042	0.571190
701.749533	0.574757
702.084974	0.583468
702.420366	0.575743
702.755709	0.583369
703.091002	0.591210
703.426246	0.584278
703.761440	0.590372
704.096584	0.595443
704.431679	0.592293
704.766725	0.594527
705.101721	0.595618
705.436668	0.592072
705.771565	0.598077
706.106413	0.595723
706.441212	0.590230
706.775961	0.588687
707.110661	0.591845
707.445311	0.588321
707.779913	0.585876
708.114465	0.584654
708.448967	0.580862
708.783421	0.573472
709.117825	0.567124
709.452180	0.568485
709.786485	0.561976
710.120742	0.552396
710.454949	0.553617
710.789107	0.546124
711.123216	0.536774
711.457275	0.539434
711.791286	0.530160
712.125247	0.528613
712.459159	0.539953
712.793023	0.531868
713.126837	0.535609
713.460602	0.536574
713.794318	0.545777
714.127985	0.544180
714.461602	0.554630
714.795171	0.557674
715.128691	0.565789
715.462162	0.572829
715.795584	0.578518
716.128957	0.581034
716.462281	0.588461
716.795556	0.591617
717.128782	0.596370
717.461960	0.605432
717.795088	0.604324
718.128167	0.610557
718.461198	0.619009
718.794180	0.619322
719.127113	0.621408
719.459997	0.626074
719.792833	0.631957
720.125619	0.632736
720.458357	0.639674
720.791046	0.638282
721.123686	0.642195
721.456278	0.649252
721.788821	0.646501
722.121315	0.649961
722.453761	0.653540
722.786158	0.651807
723.118506	0.648790
723.450805	0.656668
723.783056	0.652575
724.115259	0.649017
724.447412	0.649705
724.779518	0.651345
725.111574	0.649474
725.443582	0.645423
725.775542	0.647286
726.107453	0.639992
726.439315	0.639591
726.771129	0.637702
727.102895	0.631735
727.434612	0.624772
727.766281	0.623154
728.097901	0.621803
728.429473	0.621830
728.760996	0.619919
729.092471	0.620011
729.423897	0.624111
729.755276	0.623559
730.086606	0.622940
730.417887	0.617108
730.749120	0.608459
731.080305	0.599522
731.411442	0.595428
731.742530	0.600445
732.073570	0.599402
732.404562	0.591762
732.735506	0.593659
733.066401	0.597704
733.397249	0.606675
733.728048	0.618382
734.058798	0.631141
734.389501	0.641539
734.720156	0.651153
735.050762	0.658860
735.381320	0.659828
735.711831	0.669248
736.042293	0.673900
736.372707	0.668840
736.703073	0.674224
737.033391	0.675800
737.363661	0.673308
737.693883	0.668298
738.024056	0.667609
738.354182	0.668161
738.684260	0.657416
739.014290	0.653581
739.344272	0.654446
739.674207	0.647944
740.004093	0.647728
740.333931	0.647781
740.663722	0.647502
740.993464	0.647801
741.323159	0.651874
741.652806	0.656574
741.982405	0.661675
742.311956	0.666437
742.641460	0.668484
742.970915	0.672296
743.300323	0.679497
743.629683	0.686214
743.958996	0.687867
744.288260	0.692239
744.617477	0.698171
744.946647	0.699872
745.275768	0.705262
745.604842	0.704430
745.933869	0.715222
746.262847	0.715234
746.591778	0.708836
746.920662	0.715109
747.249498	0.721018
747.578286	0.712730
747.907027	0.708398
748.235720	0.709304
748.564365	0.703971
748.892963	0.704898
749.221514	0.706780
749.550017	0.712093
749.878473	0.711887
750.206881	0.718344
750.535242	0.719644
750.863555	0.719121
751.191821	0.720338
751.520039	0.723960
751.848210	0.727946
752.176334	0.721325
752.504411	0.720508
752.832440	0.728239
753.160421	0.731994
753.488356	0.730943
753.816243	0.727575
754.144082	0.736492
754.471875	0.739627
754.799620	0.735344
755.127318	0.735993
755.454969	0.737211
755.782572	0.736793
756.110129	0.741447
756.437638	0.743064
756.765100	0.740962
757.092515	0.738945
757.419882	0.736715
757.747203	0.742397
758.074477	0.740919
758.401703	0.738558
758.728882	0.733532
759.056014	0.732542
759.383099	0.730885
759.710138	0.732707
760.037129	0.729325
760.364073	0.723110
760.690970	0.726296
761.017820	0.731568
761.344623	0.726786
761.671379	0.717816
761.998088	0.706853
762.324751	0.684118
762.651366	0.642327
762.977935	0.576934
763.304456	0.525594
763.630931	0.515880
763.957359	0.555063
764.283740	0.598522
764.610074	0.625360
764.936362	0.656372
765.262602	0.682775
765.588796	0.703575
765.914943	0.721148
766.241044	0.738476
766.567097	0.746052
766.893104	0.755264
767.219064	0.761593
767.544978	0.767182
767.870845	0.781401
768.196665	0.785196
768.522438	0.782440
768.848165	0.784544
769.173846	0.793188
769.499479	0.797442
769.825066	0.800937
770.150607	0.805982
770.476101	0.801486
770.801548	0.802525
771.126949	0.813788
771.452303	0.817932
771.777611	0.816835
772.102872	0.815155
772.428087	0.821032
772.753256	0.823868
773.078378	0.826789
773.403453	0.835218
773.728482	0.838551
774.053465	0.833031
774.378401	0.836699
774.703291	0.845164
775.028135	0.844066
775.352932	0.845952
775.677683	0.848716
776.002388	0.849413
776.327046	0.848821
776.651658	0.852293
776.976224	0.854933
777.300743	0.856166
777.625216	0.858729
777.949643	0.859563
778.274024	0.860643
778.598359	0.860792
778.922647	0.860371
779.246889	0.860283
779.571086	0.864338
779.895236	0.867051
780.219339	0.863422
780.543397	0.860641
780.867409	0.859200
781.191374	0.862256
781.515294	0.863183
781.839167	0.862016
782.162995	0.865016
782.486776	0.862694
782.810511	0.864497
783.134201	0.866815
783.457844	0.865532
783.781441	0.867600
784.104993	0.873727
784.428498	0.873569
784.751958	0.868677
785.075372	0.871013
785.398739	0.875338
785.722061	0.871240
786.045337	0.866127
786.368568	0.872007
786.691752	0.874860
787.014891	0.859554
787.337983	0.852760
787.661030	0.844880
787.984031	0.826673
788.306987	0.813527
788.629897	0.816649
788.952760	0.820252
789.275579	0.824353
789.598351	0.839861
789.921078	0.852921
790.243759	0.854769
790.566395	0.859854
790.888984	0.866344
791.211529	0.871652
791.534027	0.875061
791.856480	0.876463
792.178888	0.882015
792.501249	0.884253
792.823566	0.886774
793.145836	0.884306
793.468062	0.888395
793.790241	0.887808
794.112375	0.886705
794.434464	0.881521
794.756507	0.880288
795.078505	0.880729
795.400457	0.875298
795.722364	0.863214
796.044226	0.856114
796.366042	0.855174
796.687812	0.859039
797.009538	0.855657
797.331218	0.857268
797.652852	0.863309
797.974442	0.866850
798.295986	0.866569
798.617484	0.869459
798.938938	0.874028
799.260346	0.879207
799.581709	0.880944
799.903026	0.882636
800.224299	0.883214
800.545526	0.887092
800.866708	0.891770
801.187845	0.895619
801.508936	0.894113
801.829983	0.893872
802.150984	0.895394
802.471940	0.900424
802.792851	0.899602
803.113717	0.901666
803.434538	0.897960
803.755314	0.901564
804.076045	0.902166
804.396731	0.903416
804.717372	0.902493
805.037967	0.903975
805.358518	0.902100
805.679024	0.899551
805.999485	0.898308
806.319901	0.900390
806.640272	0.900408
806.960598	0.899307
807.280879	0.897094
807.601115	0.895461
807.921306	0.898966
808.241453	0.899036
808.561554	0.896846
808.881611	0.897436
809.201623	0.898753
809.521590	0.898648
809.841513	0.900524
810.161390	0.898180
810.481223	0.900378
810.801011	0.903693
811.120755	0.904906
811.440453	0.905270
811.760107	0.903154
812.079716	0.903114
812.399281	0.906750
812.718801	0.908533
813.038276	0.910326
813.357707	0.909478
813.677093	0.905817
813.996434	0.909607
814.315731	0.911444
814.634983	0.912415
814.954191	0.910613
815.273354	0.908126
815.592473	0.904497
815.911547	0.904282
816.230577	0.900984
816.549562	0.899162
816.868502	0.900135
817.187399	0.896010
817.506250	0.890351
817.825058	0.892965
818.143821	0.889622
818.462539	0.885061
818.781213	0.876045
819.099843	0.865815
819.418429	0.850111
819.736970	0.834208
820.055466	0.814460
820.373919	0.789631
820.692327	0.757191
821.010691	0.723139
821.329011	0.647954
821.647286	0.535556
821.965517	0.423030
822.283704	0.381149
822.601847	0.383169
822.919945	0.417865
823.237999	0.451057
823.556010	0.496628
823.873976	0.551431
824.191897	0.600708
824.509775	0.643103
824.827609	0.687083
825.145398	0.709237
825.463144	0.711594
825.780845	0.694957
826.098502	0.677309
826.416116	0.632202
826.733685	0.588236
827.051210	0.581176
827.368692	0.595033
827.686129	0.631562
828.003522	0.684577
828.320872	0.730766
828.638177	0.773081
828.955439	0.805036
829.272656	0.827056
829.589830	0.842897
829.906960	0.858887
830.224046	0.871161
830.541088	0.881168
830.858086	0.885179
831.175041	0.891424
831.491952	0.891038
831.808819	0.887326
832.125642	0.880410
832.442421	0.866983
832.759157	0.845466
833.075849	0.800466
833.392497	0.738152
833.709101	0.696453
834.025662	0.706763
834.342179	0.738248
834.658653	0.776758
834.975083	0.811206
835.291469	0.837203
835.607811	0.859198
835.924110	0.874182
836.240366	0.890444
836.556578	0.905352
836.872746	0.911670
837.188871	0.917705
837.504952	0.922381
837.820990	0.926323
838.136984	0.931090
838.452935	0.933927
838.768842	0.933643
839.084706	0.927967
839.400526	0.902270
839.716303	0.863546
840.032037	0.841411
840.347727	0.845494
840.663373	0.863429
840.978977	0.883613
841.294537	0.906118
841.610054	0.920958
841.925527	0.928436
842.240957	0.935698
842.556344	0.942425
842.871687	0.948991
843.186987	0.952660
843.502244	0.952762
843.817458	0.953664
844.132629	0.958255
844.447756	0.963131
844.762840	0.962499
845.077881	0.961480
845.392879	0.961575
845.707833	0.964524
846.022745	0.966021
846.337613	0.966568
846.652438	0.967570
846.967221	0.966505
847.281960	0.967498
847.596656	0.969868
847.911309	0.967526
848.225919	0.969917
848.540485	0.969755
848.855009	0.971620
849.169490	0.970744
849.483928	0.971340
849.798323	0.971386
850.112675	0.972052
850.426984	0.971511
850.741251	0.971292
851.055474	0.972482
851.369654	0.970764
851.683792	0.971855
851.997887	0.971822
852.311938	0.972494
852.625947	0.972452
852.939914	0.969096
853.253837	0.971443
853.567718	0.971926
853.881555	0.972769
854.195350	0.970999
854.509103	0.970359
854.822812	0.971366
855.136479	0.972509
855.450103	0.972621
855.763685	0.969603
856.077224	0.970832
856.390720	0.972357
856.704173	0.971903
857.017584	0.970155
857.330953	0.969078
857.644278	0.969917
857.957561	0.969192
858.270802	0.970981
858.584000	0.969320
858.897155	0.968461
859.210268	0.968734
859.523339	0.970926
859.836367	0.971125
860.149352	0.972695
860.462295	0.971381
860.775195	0.971586
861.088054	0.969886
861.400869	0.970508
861.713642	0.972217
862.026373	0.971810
862.339062	0.973209
862.651708	0.970127
862.964312	0.969410
863.276873	0.971289
863.589392	0.971258
863.901869	0.969102
864.214303	0.966837
864.526696	0.966828
864.839045	0.966283
865.151353	0.964347
865.463619	0.965524
865.775842	0.964834
866.088023	0.964907
866.400162	0.964518
866.712258	0.964539
867.024313	0.965279
867.336325	0.966061
867.648296	0.966056
867.960224	0.965155
868.272110	0.964447
868.583954	0.966219
868.895755	0.966596
869.207515	0.964291
869.519233	0.962385
869.830909	0.964011
870.142542	0.965268
870.454134	0.964709
870.765684	0.963039
871.077191	0.960130
871.388657	0.961733
871.700081	0.960944
872.011463	0.961435
872.322803	0.960470
872.634101	0.959374
872.945357	0.956350
873.256571	0.956379
873.567744	0.954729
873.878874	0.956828
874.189963	0.954546
874.501010	0.953903
874.812015	0.951688
875.122979	0.953808
875.433900	0.955222
875.744780	0.955855
876.055618	0.954412
876.366415	0.953660
876.677169	0.953240
876.987882	0.954688
877.298554	0.953893
877.609183	0.951500
877.919771	0.947923
878.230317	0.945675
878.540822	0.944286
878.851285	0.939714
879.161707	0.930917
879.472087	0.919732
879.782425	0.904500
880.092722	0.872357
880.402977	0.821823
880.713191	0.763376
881.023363	0.706702
881.333494	0.674565
881.643583	0.646234
881.953631	0.645826
882.263637	0.674710
882.573602	0.713624
882.883526	0.738345
883.193408	0.760516
883.503248	0.781956
883.813048	0.807956
884.122806	0.836833
884.432522	0.859209
884.742197	0.877321
885.051831	0.887230
885.361424	0.897591
885.670975	0.908638
885.980485	0.918543
886.289954	0.923717
886.599382	0.928948
886.908768	0.933447
887.218113	0.938899
887.527417	0.943380
887.836680	0.946106
888.145901	0.945714
888.455082	0.950484
888.764221	0.953901
889.073319	0.956064
889.382376	0.955739
889.691392	0.955382
890.000366	0.955704
890.309300	0.956820
890.618193	0.956561
890.927044	0.955367
891.235855	0.954628
891.544625	0.953509
891.853353	0.956265
892.162041	0.953244
892.470687	0.946754
892.779293	0.941600
893.087858	0.938891
893.396381	0.932124
893.704864	0.918988
894.013306	0.895577
894.321707	0.870846
894.630068	0.856725
894.938387	0.852107
895.246665	0.854204
895.554903	0.865551
895.863100	0.877300
896.171256	0.894414
896.479371	0.913578
896.787446	0.924504
897.095480	0.930044
897.403473	0.933961
897.711425	0.936746
898.019336	0.943699
898.327207	0.946922
898.635038	0.949898
898.942827	0.948405
899.250576	0.952212
899.558284	0.956095
899.865952	0.957833
900.173579	0.957434
900.481165	0.958755
900.788711	0.963699
901.096216	0.965236
901.403681	0.964488
901.711105	0.965798
902.018489	0.967120
902.325832	0.965068
902.633135	0.965010
902.940397	0.959694
903.247619	0.948015
903.554800	0.922673
903.861941	0.887113
904.169041	0.853535
904.476101	0.837211
904.783121	0.838211
905.090100	0.852922
905.397039	0.872908
905.703938	0.893390
906.010796	0.912198
906.317614	0.928294
906.624391	0.939751
906.931129	0.947770
907.237826	0.956672
907.544483	0.962562
907.851099	0.964615
908.157675	0.969573
908.464211	0.971923
908.770707	0.975201
909.077163	0.977523
909.383578	0.977605
909.689954	0.977072
909.996289	0.977093
910.302584	0.979820
910.608839	0.982384
910.915054	0.981221
911.221229	0.980559
911.527363	0.979830
911.833458	0.979393
912.139513	0.978878
912.445527	0.976202
912.751502	0.976935
913.057436	0.975005
913.363331	0.972878
913.669186	0.969368
913.975000	0.964751
914.280775	0.959196
914.586510	0.953388
914.892205	0.941004
915.197859	0.921036
915.503475	0.894500
915.809050	0.876135
916.114585	0.871785
916.420081	0.869819
916.725536	0.865896
917.030952	0.872907
917.336328	0.886696
917.641665	0.899911
917.946961	0.915531
918.252218	0.926130
918.557435	0.934213
918.862612	0.941552
919.167750	0.947656
919.472848	0.951304
919.777906	0.956527
920.082925	0.962622
920.387904	0.964790
920.692843	0.967439
920.997743	0.967556
921.302603	0.971501
921.607423	0.972304
921.912204	0.975078
922.216946	0.973975
922.521647	0.975704
922.826310	0.976920
923.130932	0.980245
923.435516	0.981496
923.740059	0.981812
924.044564	0.981481
924.349028	0.982488
924.653454	0.985430
924.957840	0.987681
925.262186	0.986726
925.566493	0.986042
925.870761	0.986057
926.174989	0.988066
926.479178	0.990530
926.783328	0.990195
927.087438	0.990467
927.391509	0.989990
927.695541	0.991955
927.999533	0.990478
928.303486	0.991206
928.607400	0.993107
928.911275	0.990632
929.215110	0.991996
929.518906	0.991689
929.822663	0.991265
930.126381	0.993172
930.430060	0.992206
930.733699	0.991533
931.037299	0.989713
931.340861	0.992957
931.644383	0.990481
931.947866	0.990891
932.251309	0.992243
932.554714	0.991626
932.858080	0.992310
933.161407	0.990789
933.464694	0.992266
933.767943	0.991624
934.071153	0.992453
934.374323	0.993697
934.677455	0.992115
934.980548	0.993056
935.283602	0.992187
935.586617	0.992975
935.889593	0.992993
936.192530	0.992443
936.495428	0.991797
936.798287	0.992884
937.101108	0.991578
937.403890	0.991326
937.706632	0.990977
938.009336	0.988756
938.312002	0.988981
938.614628	0.986679
938.917216	0.986102
939.219765	0.985141
939.522275	0.985632
939.824747	0.983595
940.127179	0.986151
940.429573	0.987730
940.731929	0.986196
941.034246	0.986162
941.336524	0.987496
941.638763	0.988982
941.940964	0.988797
942.243126	0.987455
942.545250	0.989494
942.847335	0.990501
943.149381	0.989373
943.451389	0.990572
943.753359	0.990497
944.055290	0.992180
944.357182	0.992380
944.659036	0.989003
944.960851	0.989798
945.262628	0.991637
945.564367	0.991483
945.866067	0.991552
946.167729	0.991148
946.469352	0.991469
946.770937	0.990330
947.072484	0.992627
947.373992	0.991683
947.675462	0.991024
947.976893	0.991434
948.278286	0.991648
948.579641	0.994030
948.880958	0.991242
949.182236	0.993040
949.483476	0.992907
949.784678	0.991512
950.085841	0.993556
950.386967	0.991687
950.688054	0.992392
950.989103	0.992520
951.290114	0.991449
951.591087	0.990948
951.892021	0.990748
952.192917	0.990322
952.493776	0.989417
952.794596	0.989397
953.095378	0.989458
953.396122	0.989472
953.696828	0.988988
953.997496	0.991523
954.298126	0.992660
954.598718	0.991686
954.899272	0.993335
955.199788	0.993060
955.500266	0.993952
955.800706	0.993356
956.101108	0.994122
956.401472	0.994592
956.701798	0.994928
957.002087	0.994151
957.302337	0.994616
957.602550	0.996272
957.902724	0.996471
958.202861	0.996126
958.502960	0.995846
958.803022	0.995697
959.103045	0.997372
959.403031	0.997281
959.702979	0.996563
960.002889	0.997118
960.302762	0.994970
960.602596	0.996836
960.902393	0.995122
961.202153	0.998029
961.501875	0.996288
961.801559	0.997230
962.101205	0.996399
962.400814	0.997479
962.700385	0.997338
962.999918	0.996468
963.299414	0.997202
963.598873	0.996239
963.898293	0.997389
964.197677	0.995463
964.497022	0.996667
964.796331	0.999353
965.095601	0.998456
965.394835	0.998307
965.694030	0.998432
965.993189	0.996888
966.292309	0.997670
966.591393	0.998111
966.890439	0.998194
967.189447	0.996860
967.488419	0.998378
967.787353	0.996674
968.086249	0.996973
968.385108	0.998235
968.683930	0.998113
968.982714	0.998209
969.281462	0.998153
969.580172	0.997507
969.878844	0.997324
970.177480	0.997484
970.476078	0.997901
970.774639	0.998091
971.073162	0.998446
971.371649	0.997617
971.670098	0.996353
971.968510	0.999050
972.266885	0.996652
972.565223	0.998012
972.863524	0.996425
973.161788	0.996439
973.460014	0.998712
973.758204	0.995874
974.056356	0.997739
974.354471	0.995287
974.652550	0.996684
974.950591	0.997428
975.248595	0.996026
975.546563	0.997740
975.844493	0.998734
976.142386	0.998011
976.440243	0.998684
976.738062	0.997019
977.035845	0.998109
977.333590	0.998575
977.631299	0.998363
977.928971	0.997433
978.226606	0.997906
978.524204	0.997072
978.821765	0.999270
979.119290	0.997436
979.416777	0.997029
979.714228	0.997984
980.011642	0.996245
980.309020	0.997143
980.606360	0.998318
980.903664	0.999118
981.200931	0.997185
981.498162	0.995739
981.795356	0.996452
982.092513	0.995340
982.389633	0.994908
982.686717	0.993721
982.983764	0.992706
983.280775	0.992043
983.577749	0.991730
983.874686	0.992621
984.171587	0.993041
984.468451	0.995126
984.765279	0.995384
985.062070	0.995107
985.358824	0.997154
985.655543	0.995443
985.952224	0.995968
986.248869	0.998716
986.545478	0.997700
986.842050	0.999626
987.138586	0.995549
987.435086	0.998144
987.731549	0.999935
988.027975	0.997378
988.324366	0.998986
988.620719	0.997869
988.917037	0.996558
989.213318	0.998908
989.509563	0.999649
989.805772	0.999467
990.101944	0.999760
990.398080	0.998018
990.694180	0.999037
990.990244	0.997000
991.286271	0.998252
991.582262	0.998377
991.878217	0.998384
992.174136	1.000059
992.470019	0.999240
992.765865	0.998784
993.061676	0.999507
993.357450	0.998058
993.653188	0.997929
993.948890	0.997212
994.244556	0.999277
994.540186	0.997379
994.835780	0.995711
995.131337	0.998025
995.426859	0.996162
995.722345	0.998326
996.017795	0.996314
996.313208	0.996276
996.608586	0.997300
996.903928	0.996948
997.199234	0.996573
997.494504	0.997128
997.789738	0.996828
998.084936	0.996097
998.380099	0.998124
998.675225	0.997554
998.970316	0.998336
999.265371	0.998721
999.560390	0.999267
999.855373	0.998679
1000.150320	0.998495
1000.445232	0.998635
1000.740108	0.999248
1001.034948	0.998959
1001.329752	0.999448
1001.624521	0.998307
1001.919254	0.999572
1002.213951	0.998218
1002.508613	0.997578
1002.803239	0.999318
1003.097829	0.998978
1003.392384	0.999510
1003.686903	0.998207
1003.981386	0.997970
1004.275834	0.998769
1004.570246	0.998306
1004.864623	0.998032
1005.158964	0.999951
1005.453270	0.998354
1005.747540	0.998788
1006.041775	0.998069
1006.335974	0.999853
1006.630138	0.999808
1006.924266	1.000073
1007.218359	1.000646
1007.512416	0.999276
1007.806438	0.999678
1008.100425	0.999314
1008.394376	0.998487
1008.688292	0.999287
1008.982172	1.000517
1009.276017	0.999492
1009.569827	0.998593
1009.863602	0.998852
1010.157341	1.000010
1010.451045	0.999823
1010.744714	0.999921
1011.038347	0.998807
1011.331945	0.999874
1011.625508	0.997756
1011.919036	0.999556
1012.212528	0.998493
1012.505986	0.997959
1012.799408	0.998749
1013.092795	0.999869
1013.386147	0.999257
1013.679464	0.998807
1013.972745	0.998704
1014.265992	0.997820
1014.559204	0.999291
1014.852380	0.999663
1015.145521	0.998843
1015.438628	0.999414
1015.731699	0.998689
1016.024736	0.997910
1016.317737	0.999251
1016.610703	0.998654
1016.903635	1.000130
1017.196531	0.999265
1017.489393	0.999841
1017.782219	0.998380
1018.075011	0.998535
1018.367768	0.999065
1018.660490	1.000002
1018.953177	1.000002
1019.245829	1.000002
