Dividing Wavelength (nm)	Counts (n)	Blue Motor Position (mm): 0.000000	Red Motor Position (mm): 34.700000	
326.493990	1.000545
326.888308	1.000545
327.282561	1.000545
327.676750	0.998724
328.070874	0.999311
328.464933	0.999931
328.858929	0.999946
329.252859	0.999725
329.646726	0.999209
330.040528	0.999654
330.434265	0.999535
330.827938	1.000599
331.221547	1.000334
331.615091	1.001027
332.008571	0.999960
332.401986	0.999114
332.795338	1.000073
333.188625	0.998604
333.581847	1.000535
333.975006	1.000038
334.368100	0.999112
334.761129	1.000097
335.154095	1.002098
335.546996	0.999656
335.939833	0.995999
336.332606	0.996791
336.725315	0.997127
337.117960	0.997601
337.510540	0.995615
337.903056	0.997265
338.295508	0.995815
338.687896	0.996171
339.080220	0.996371
339.472480	0.996513
339.864676	0.996580
340.256807	0.996986
340.648875	0.997210
341.040879	0.996608
341.432818	0.996394
341.824694	0.996641
342.216506	0.997445
342.608253	0.996285
342.999937	0.995381
343.391557	0.996562
343.783113	0.996413
344.174605	0.997310
344.566033	0.996731
344.957397	0.995056
345.348697	0.996333
345.739934	0.997194
346.131106	0.995500
346.522215	0.996419
346.913260	0.995764
347.304241	0.997591
347.695159	0.995824
348.086012	0.995767
348.476802	0.996228
348.867528	0.996566
349.258191	0.995794
349.648789	0.996581
350.039324	0.995931
350.429796	0.997920
350.820203	0.997504
351.210548	0.997746
351.600828	0.995408
351.991045	0.996694
352.381198	0.995861
352.771288	0.997214
353.161314	0.996758
353.551276	0.997430
353.941175	0.996215
354.331010	0.995811
354.720782	0.997036
355.110490	0.995938
355.500135	0.998120
355.889717	0.996838
356.279235	0.996715
356.668689	0.995719
357.058080	0.997059
357.447408	0.997906
357.836672	0.997567
358.225873	0.997873
358.615010	0.996887
359.004084	0.997419
359.393095	0.996495
359.782043	0.996559
360.170927	0.997394
360.559748	0.997384
360.948505	0.996139
361.337199	0.996839
361.725830	0.997539
362.114398	0.996661
362.502903	0.996443
362.891344	0.997503
363.279722	0.995446
363.668037	0.998009
364.056289	0.995145
364.444478	0.996954
364.832603	0.996991
365.220665	0.996581
365.608665	0.996914
365.996601	0.996927
366.384474	0.996055
366.772284	0.995957
367.160031	0.994947
367.547715	0.996606
367.935336	0.997077
368.322893	0.997431
368.710388	0.994832
369.097820	0.997564
369.485189	0.996163
369.872495	0.996437
370.259738	0.995460
370.646918	0.998235
371.034035	0.997290
371.421090	0.997275
371.808081	0.996360
372.195010	0.997088
372.581875	0.997526
372.968678	0.996553
373.355418	0.997317
373.742096	0.997834
374.128710	0.997573
374.515262	0.996225
374.901751	0.997014
375.288177	0.996891
375.674540	0.997067
376.060841	0.996685
376.447079	0.997481
376.833254	0.997033
377.219367	0.997463
377.605417	0.996424
377.991404	0.996673
378.377329	0.996929
378.763191	0.996947
379.148991	0.996857
379.534727	0.997619
379.920402	0.996868
380.306013	0.998198
380.691563	0.998021
381.077049	0.997122
381.462474	0.996909
381.847835	0.998914
382.233134	0.996926
382.618371	0.996980
383.003545	0.997283
383.388657	0.997479
383.773706	0.997956
384.158693	0.997382
384.543618	0.996295
384.928480	0.998077
385.313280	0.997072
385.698017	0.998605
386.082692	0.997891
386.467305	0.997622
386.851856	0.997932
387.236344	0.998253
387.620770	0.997323
388.005133	0.997995
388.389435	0.997204
388.773674	0.998863
389.157851	0.998007
389.541965	0.998228
389.926018	0.997010
390.310008	0.998732
390.693936	0.998516
391.077802	0.998753
391.461606	0.997542
391.845348	0.999202
392.229027	0.998332
392.612645	0.999510
392.996200	0.999577
393.379694	0.997602
393.763125	0.998468
394.146494	0.998529
394.529801	0.998199
394.913047	0.998725
395.296230	0.998472
395.679351	0.998052
396.062410	0.997936
396.445408	0.998207
396.828343	0.997858
397.211217	0.997786
397.594028	0.998612
397.976778	0.997464
398.359466	0.998178
398.742092	0.998354
399.124656	0.996953
399.507158	0.997942
399.889598	0.997911
400.271977	0.998028
400.654294	0.999063
401.036549	0.998668
401.418742	0.998836
401.800874	0.997091
402.182944	0.997494
402.564952	0.996978
402.946898	0.998362
403.328783	0.998583
403.710606	0.999137
404.092367	0.998489
404.474067	0.999342
404.855705	0.997913
405.237282	0.998341
405.618797	0.998214
406.000250	0.998107
406.381642	0.998642
406.762972	0.998032
407.144240	0.998722
407.525447	0.999177
407.906593	0.998576
408.287677	0.998086
408.668700	0.998337
409.049661	0.997875
409.430560	0.998413
409.811399	0.997919
410.192176	0.997976
410.572891	0.998034
410.953545	0.998647
411.334138	0.997604
411.714669	0.998575
412.095139	0.998309
412.475547	0.998899
412.855894	0.999037
413.236180	0.998401
413.616405	0.998254
413.996568	0.998906
414.376670	0.998235
414.756711	0.997465
415.136691	0.998121
415.516609	0.998255
415.896466	0.998380
416.276262	0.997392
416.655997	0.998275
417.035670	0.998332
417.415283	0.998934
417.794834	0.997854
418.174324	0.998160
418.553753	0.999446
418.933121	0.998207
419.312428	0.998336
419.691674	0.998386
420.070859	0.998723
420.449983	0.998711
420.829045	0.998237
421.208047	0.999209
421.586988	0.999128
421.965867	0.997732
422.344686	0.998592
422.723444	0.997888
423.102141	0.998250
423.480777	0.999028
423.859352	0.998196
424.237866	0.998032
424.616319	0.999139
424.994712	0.999377
425.373044	0.999076
425.751314	0.998640
426.129524	0.998807
426.507673	0.998892
426.885762	0.999039
427.263789	0.998409
427.641756	0.998861
428.019662	0.999295
428.397508	0.997656
428.775292	0.998137
429.153016	0.998070
429.530679	0.998743
429.908282	0.999385
430.285824	0.998605
430.663305	0.998283
431.040726	0.998543
431.418086	0.999628
431.795385	0.998581
432.172624	0.997912
432.549802	0.999810
432.926920	0.999948
433.303977	0.997886
433.680974	0.999284
434.057910	0.998230
434.434786	0.999055
434.811601	0.998182
435.188355	0.998641
435.565050	0.998534
435.941683	0.998297
436.318257	1.000024
436.694770	0.998077
437.071222	0.998406
437.447614	0.998711
437.823946	0.998628
438.200218	0.998409
438.576429	0.999040
438.952580	0.999661
439.328670	0.998495
439.704700	0.999606
440.080670	0.999759
440.456580	0.998507
440.832429	0.997417
441.208218	0.999024
441.583947	0.997839
441.959616	0.998873
442.335224	0.998348
442.710773	0.999721
443.086261	0.998963
443.461689	0.997989
443.837057	0.998493
444.212365	0.999361
444.587612	0.998958
444.962800	0.998934
445.337927	0.998943
445.712995	0.998412
446.088002	0.999448
446.462949	0.998834
446.837837	0.999402
447.212664	0.999159
447.587431	0.999004
447.962139	0.999417
448.336786	0.998944
448.711374	0.998833
449.085901	0.999021
449.460369	0.999207
449.834776	0.998802
450.209124	0.998911
450.583412	0.998594
450.957640	0.998702
451.331808	0.997737
451.705917	0.998655
452.079965	0.998032
452.453954	0.998509
452.827883	0.999090
453.201752	0.998794
453.575562	0.999576
453.949311	0.998845
454.323001	0.998907
454.696632	0.998923
455.070202	0.998946
455.443713	0.998942
455.817164	0.999373
456.190556	0.999941
456.563888	0.998936
456.937160	0.999302
457.310373	0.998199
457.683526	0.998632
458.056619	0.998976
458.429653	0.998943
458.802628	0.998754
459.175542	0.997968
459.548398	0.998835
459.921194	0.998054
460.293930	0.998949
460.666607	0.998738
461.039224	0.998817
461.411782	0.999251
461.784280	0.998357
462.156719	0.999292
462.529099	0.999425
462.901419	0.998444
463.273680	0.998751
463.645882	0.998665
464.018024	0.998819
464.390106	0.998883
464.762130	0.999016
465.134094	0.998611
465.505999	0.999654
465.877845	0.999547
466.249631	0.999735
466.621358	0.998713
466.993026	0.999066
467.364634	0.999351
467.736184	0.999233
468.107674	0.998905
468.479105	0.998445
468.850477	0.998845
469.221790	0.998668
469.593043	0.999292
469.964238	0.999399
470.335373	0.998676
470.706449	0.998225
471.077467	0.999293
471.448425	0.998528
471.819324	0.999826
472.190164	0.999042
472.560945	0.998480
472.931667	0.998475
473.302330	0.998549
473.672934	0.999290
474.043479	0.998170
474.413965	0.998505
474.784393	0.999266
475.154761	0.998225
475.525070	0.998095
475.895321	0.999446
476.265513	0.998559
476.635645	0.998674
477.005719	0.998783
477.375734	0.998445
477.745691	0.999373
478.115588	0.998721
478.485427	0.999091
478.855207	0.998380
479.224928	0.999042
479.594591	0.999178
479.964194	0.998672
480.333739	0.998995
480.703226	0.998573
481.072653	0.999169
481.442022	0.999666
481.811333	0.998728
482.180584	0.998790
482.549777	0.998743
482.918912	0.998911
483.287988	0.998745
483.657005	0.998439
484.025964	0.999484
484.394864	0.999268
484.763706	0.999058
485.132489	0.998696
485.501213	0.998784
485.869879	0.998559
486.238487	0.999068
486.607036	0.998643
486.975527	0.997978
487.343959	0.998222
487.712333	0.998377
488.080648	0.999109
488.448905	0.998820
488.817104	0.998631
489.185244	0.998793
489.553326	0.998512
489.921350	0.998372
490.289315	0.998564
490.657222	0.998448
491.025070	0.998855
491.392861	0.998937
491.760593	0.999068
492.128267	0.998107
492.495883	0.997966
492.863440	0.998267
493.230939	0.998360
493.598380	0.998353
493.965763	0.998080
494.333088	0.998137
494.700354	0.996905
495.067563	0.998088
495.434713	0.997624
495.801805	0.998282
496.168839	0.997802
496.535815	0.997668
496.902733	0.996918
497.269593	0.997070
497.636395	0.997241
498.003139	0.997493
498.369825	0.997935
498.736453	0.996657
499.103023	0.996410
499.469535	0.996532
499.835989	0.995862
500.202385	0.996525
500.568723	0.996103
500.935003	0.995864
501.301226	0.996041
501.667390	0.995195
502.033497	0.995279
502.399546	0.994934
502.765537	0.994549
503.131470	0.993676
503.497345	0.993658
503.863163	0.994380
504.228923	0.993161
504.594625	0.992379
504.960269	0.991913
505.325856	0.992307
505.691385	0.991522
506.056856	0.991505
506.422270	0.990511
506.787625	0.990218
507.152924	0.989680
507.518164	0.988704
507.883347	0.987795
508.248472	0.987411
508.613540	0.986324
508.978550	0.986001
509.343503	0.984688
509.708398	0.985007
510.073236	0.984001
510.438016	0.983068
510.802738	0.981607
511.167403	0.981052
511.532010	0.980523
511.896561	0.978990
512.261053	0.978670
512.625488	0.976761
512.989866	0.975533
513.354186	0.974139
513.718449	0.973166
514.082655	0.972027
514.446803	0.970889
514.810894	0.969915
515.174927	0.967770
515.538904	0.966090
515.902822	0.964738
516.266684	0.963540
516.630488	0.962427
516.994235	0.959218
517.357925	0.957460
517.721558	0.956660
518.085133	0.954317
518.448651	0.952971
518.812112	0.951115
519.175516	0.948466
519.538863	0.946710
519.902152	0.944671
520.265385	0.941576
520.628560	0.940107
520.991678	0.937825
521.354739	0.935840
521.717743	0.933347
522.080690	0.931382
522.443580	0.927195
522.806413	0.924964
523.169189	0.922750
523.531908	0.919064
523.894569	0.916976
524.257174	0.914697
524.619722	0.911038
524.982213	0.908381
525.344647	0.904750
525.707025	0.901524
526.069345	0.897880
526.431608	0.894738
526.793815	0.892212
527.155964	0.887804
527.518057	0.885949
527.880093	0.882222
528.242072	0.878949
528.603995	0.874739
528.965860	0.872587
529.327669	0.867409
529.689421	0.864200
530.051117	0.861551
530.412755	0.855648
530.774337	0.853223
531.135862	0.848367
531.497331	0.845433
531.858743	0.840781
532.220098	0.837296
532.581396	0.833634
532.942638	0.829445
533.303824	0.825181
533.664953	0.820537
534.026025	0.817185
534.387040	0.811577
534.747999	0.808083
535.108902	0.803134
535.469748	0.799562
535.830537	0.794927
536.191270	0.790809
536.551947	0.785501
536.912567	0.781676
537.273131	0.777847
537.633638	0.772484
537.994089	0.768286
538.354483	0.763523
538.714821	0.758717
539.075103	0.753437
539.435328	0.749118
539.795497	0.746058
540.155609	0.739333
540.515665	0.734443
540.875665	0.731482
541.235609	0.725827
541.595496	0.720838
541.955328	0.713806
542.315102	0.710658
542.674821	0.705742
543.034483	0.700787
543.394090	0.695519
543.753640	0.691980
544.113134	0.683750
544.472571	0.680975
544.831953	0.674327
545.191278	0.670879
545.550548	0.666946
545.909761	0.659965
546.268918	0.655414
546.628019	0.649981
546.987064	0.645075
547.346053	0.642931
547.704986	0.635679
548.063863	0.631676
548.422684	0.628345
548.781449	0.623285
549.140158	0.616784
549.498811	0.613745
549.857408	0.611512
550.215949	0.602303
550.574434	0.599762
550.932864	0.593042
551.291237	0.588595
551.649555	0.582810
552.007817	0.579150
552.366022	0.574723
552.724173	0.570099
553.082267	0.566764
553.440305	0.557741
553.798288	0.557730
554.156215	0.549554
554.514086	0.545343
554.871902	0.543447
555.229661	0.538157
555.587365	0.533910
555.945014	0.532055
556.302606	0.523837
556.660143	0.522636
557.017625	0.514321
557.375050	0.511863
557.732421	0.505114
558.089735	0.502196
558.446994	0.498489
558.804197	0.493150
559.161345	0.488966
559.518437	0.487938
559.875474	0.480616
560.232455	0.476152
560.589381	0.474265
560.946251	0.467916
561.303065	0.463917
561.659825	0.460605
562.016528	0.457645
562.373177	0.456683
562.729770	0.449357
563.086307	0.447953
563.442789	0.442920
563.799216	0.440091
564.155587	0.435873
564.511904	0.432107
564.868164	0.429521
565.224370	0.425996
565.580520	0.423344
565.936615	0.420690
566.292654	0.418639
566.648638	0.413652
567.004567	0.410615
567.360441	0.408445
567.716260	0.406336
568.072023	0.401760
568.427732	0.398245
568.783385	0.398650
569.138982	0.392921
569.494525	0.389399
569.850013	0.389204
570.205445	0.384263
570.560823	0.384481
570.916145	0.382204
571.271412	0.378163
571.626625	0.376936
571.981782	0.374691
572.336884	0.372357
572.691931	0.369986
573.046923	0.367946
573.401860	0.366434
573.756743	0.365383
574.111570	0.361684
574.466342	0.360041
574.821059	0.357001
575.175722	0.356808
575.530330	0.354212
575.884882	0.352055
576.239380	0.351724
576.593823	0.349465
576.948211	0.347029
577.302544	0.348487
577.656823	0.345557
578.011047	0.343960
578.365216	0.342419
578.719330	0.342554
579.073389	0.340437
579.427394	0.340017
579.781344	0.339062
580.135239	0.338516
580.489080	0.336691
580.842866	0.337610
581.196597	0.335667
581.550273	0.333142
581.903895	0.332333
582.257463	0.329397
582.610975	0.331225
582.964434	0.329058
583.317837	0.329691
583.671186	0.329309
584.024481	0.327791
584.377721	0.329047
584.730906	0.328352
585.084037	0.326103
585.437113	0.326945
585.790135	0.324904
586.143103	0.326663
586.496016	0.326332
586.848874	0.323155
587.201679	0.322607
587.554428	0.324663
587.907124	0.322461
588.259765	0.322301
588.612352	0.321698
588.964884	0.324639
589.317362	0.322925
589.669786	0.322201
590.022155	0.320261
590.374470	0.318351
590.726731	0.319452
591.078937	0.323251
591.431090	0.319163
591.783188	0.322074
592.135232	0.322243
592.487222	0.321212
592.839157	0.319325
593.191038	0.320432
593.542866	0.321400
593.894639	0.324690
594.246358	0.322207
594.598022	0.320853
594.949633	0.323924
595.301190	0.323927
595.652692	0.322441
596.004141	0.318229
596.355535	0.325774
596.706876	0.325652
597.058162	0.327671
597.409395	0.324301
597.760573	0.321873
598.111698	0.324394
598.462768	0.324698
598.813785	0.325683
599.164748	0.326089
599.515657	0.326221
599.866511	0.329130
600.217312	0.324168
600.568060	0.329436
600.918753	0.325272
601.269392	0.325885
601.619978	0.329183
601.970510	0.326547
602.320988	0.325971
602.671412	0.323339
603.021783	0.325681
603.372100	0.327131
603.722363	0.326425
604.072572	0.326851
604.422728	0.326460
604.772830	0.328688
605.122878	0.327573
605.472872	0.328350
605.822813	0.326790
606.172701	0.329046
606.522534	0.325954
606.872314	0.325834
607.222041	0.326702
607.571714	0.324948
607.921333	0.326102
608.270899	0.325557
608.620411	0.322353
608.969870	0.325835
609.319276	0.326028
609.668627	0.325954
610.017926	0.324357
610.367171	0.322835
610.716362	0.323574
611.065500	0.323443
611.414585	0.322426
611.763616	0.322674
612.112594	0.322956
612.461518	0.322263
612.810389	0.319785
613.159207	0.322245
613.507971	0.323719
613.856682	0.319301
614.205340	0.320876
614.553945	0.318044
614.902496	0.321387
615.250994	0.319597
615.599439	0.320384
615.947830	0.319916
616.296169	0.320724
616.644454	0.319823
616.992686	0.320313
617.340864	0.318031
617.688990	0.321247
618.037063	0.317922
618.385082	0.319636
618.733048	0.316713
619.080961	0.318984
619.428821	0.318077
619.776628	0.317727
620.124382	0.319786
620.472083	0.320102
620.819731	0.319427
621.167326	0.322734
621.514868	0.322704
621.862357	0.327051
622.209793	0.326493
622.557176	0.328592
622.904506	0.329436
623.251783	0.332088
623.599007	0.334466
623.946179	0.333671
624.293297	0.335481
624.640363	0.338919
624.987376	0.339620
625.334336	0.342376
625.681243	0.344540
626.028097	0.345264
626.374899	0.345983
626.721647	0.345795
627.068343	0.349720
627.414987	0.350526
627.761577	0.353037
628.108115	0.350972
628.454600	0.356298
628.801032	0.353338
629.147412	0.355043
629.493739	0.355652
629.840014	0.359204
630.186236	0.356325
630.532405	0.361746
630.878521	0.358822
631.224585	0.361412
631.570597	0.364927
631.916556	0.363205
632.262462	0.363731
632.608316	0.365953
632.954117	0.366529
633.299866	0.367740
633.645562	0.367476
633.991206	0.371653
634.336797	0.374614
634.682336	0.377136
635.027823	0.378659
635.373257	0.379086
635.718639	0.382567
636.063968	0.381732
636.409245	0.387670
636.754470	0.387918
637.099642	0.390642
637.444762	0.393804
637.789829	0.393261
638.134845	0.396367
638.479808	0.397411
638.824719	0.397316
639.169577	0.401140
639.514383	0.400148
639.859137	0.403988
640.203839	0.403824
640.548489	0.404652
640.893086	0.405640
641.237632	0.407153
641.582125	0.405827
641.926566	0.407433
642.270955	0.407538
642.615292	0.407945
642.959576	0.406622
643.303809	0.407823
643.647990	0.406705
643.992118	0.407908
644.336195	0.411275
644.680219	0.409303
645.024192	0.410100
645.368112	0.403812
645.711981	0.402809
646.055797	0.398108
646.399562	0.400446
646.743274	0.392844
647.086935	0.389801
647.430544	0.390063
647.774101	0.388786
648.117606	0.388591
648.461059	0.389125
648.804460	0.391515
649.147810	0.396688
649.491108	0.399027
649.834354	0.400098
650.177548	0.405401
650.520690	0.410637
650.863781	0.412063
651.206820	0.411499
651.549807	0.415584
651.892742	0.419930
652.235626	0.419121
652.578458	0.420488
652.921238	0.426012
653.263967	0.424176
653.606644	0.428453
653.949269	0.428087
654.291843	0.431713
654.634365	0.428286
654.976836	0.431336
655.319255	0.431397
655.661622	0.433742
656.003938	0.433452
656.346203	0.436293
656.688416	0.434148
657.030577	0.437502
657.372687	0.439225
657.714746	0.440486
658.056753	0.437260
658.398708	0.441325
658.740612	0.442208
659.082465	0.438357
659.424266	0.439444
659.766016	0.438030
660.107715	0.440893
660.449362	0.440300
660.790958	0.441113
661.132503	0.440998
661.473996	0.438585
661.815438	0.439843
662.156829	0.440027
662.498168	0.441021
662.839456	0.442354
663.180693	0.440033
663.521879	0.440120
663.863013	0.440570
664.204097	0.439220
664.545129	0.436451
664.886110	0.437040
665.227040	0.434180
665.567918	0.436516
665.908746	0.434109
666.249522	0.434156
666.590248	0.434791
666.930922	0.433103
667.271545	0.432356
667.612118	0.432289
667.952639	0.433910
668.293109	0.432440
668.633528	0.435526
668.973896	0.434882
669.314213	0.435527
669.654480	0.436734
669.994695	0.437819
670.334859	0.437737
670.674973	0.438906
671.015035	0.438977
671.355047	0.438512
671.695008	0.439755
672.034918	0.441345
672.374777	0.440740
672.714585	0.442227
673.054342	0.442037
673.394049	0.442498
673.733705	0.439619
674.073310	0.441227
674.412864	0.443954
674.752368	0.444464
675.091820	0.445011
675.431223	0.449294
675.770574	0.448887
676.109875	0.451973
676.449125	0.452462
676.788324	0.454349
677.127473	0.459429
677.466571	0.459313
677.805619	0.460684
678.144616	0.462014
678.483562	0.463893
678.822458	0.465857
679.161303	0.467300
679.500098	0.467514
679.838842	0.469390
680.177535	0.468690
680.516179	0.468066
680.854771	0.466455
681.193314	0.459915
681.531805	0.451246
681.870247	0.439363
682.208638	0.432536
682.546978	0.431352
682.885268	0.432579
683.223508	0.439632
683.561697	0.443012
683.899836	0.445847
684.237925	0.449294
684.575963	0.451628
684.913951	0.454508
685.251889	0.450431
685.589776	0.452685
685.927614	0.454782
686.265401	0.449082
686.603137	0.450332
686.940824	0.444985
687.278460	0.443157
687.616046	0.442432
687.953582	0.436914
688.291068	0.438655
688.628504	0.434435
688.965889	0.436421
689.303224	0.440387
689.640510	0.444754
689.977745	0.450588
690.314930	0.457729
690.652065	0.462115
690.989150	0.470274
691.326185	0.476689
691.663170	0.481254
692.000105	0.487882
692.336990	0.494962
692.673825	0.498017
693.010610	0.504225
693.347345	0.509611
693.684030	0.511399
694.020665	0.516275
694.357251	0.524561
694.693786	0.524394
695.030272	0.528910
695.366707	0.532624
695.703093	0.535116
696.039429	0.533339
696.375716	0.535316
696.711952	0.537184
697.048139	0.540297
697.384276	0.541579
697.720363	0.539713
698.056400	0.539537
698.392388	0.544818
698.728326	0.547709
699.064214	0.550724
699.400053	0.551202
699.735842	0.554535
700.071581	0.557448
700.407270	0.560513
700.742910	0.562426
701.078501	0.569249
701.414042	0.569961
701.749533	0.572921
702.084974	0.581254
702.420366	0.573453
702.755709	0.581640
703.091002	0.589149
703.426246	0.581851
703.761440	0.588362
704.096584	0.593004
704.431679	0.590226
704.766725	0.592221
705.101721	0.594265
705.436668	0.589628
705.771565	0.597056
706.106413	0.594062
706.441212	0.588807
706.775961	0.587637
707.110661	0.590375
707.445311	0.587300
707.779913	0.584486
708.114465	0.583056
708.448967	0.579362
708.783421	0.571401
709.117825	0.566372
709.452180	0.566492
709.786485	0.559917
710.120742	0.550105
710.454949	0.552600
710.789107	0.543175
711.123216	0.535481
711.457275	0.537192
711.791286	0.527681
712.125247	0.526923
712.459159	0.537791
712.793023	0.530641
713.126837	0.534508
713.460602	0.534883
713.794318	0.544285
714.127985	0.543011
714.461602	0.552975
714.795171	0.556121
715.128691	0.563923
715.462162	0.571577
715.795584	0.577198
716.128957	0.580377
716.462281	0.586294
716.795556	0.589766
717.128782	0.594678
717.461960	0.604521
717.795088	0.602673
718.128167	0.608256
718.461198	0.617632
718.794180	0.618550
719.127113	0.621653
719.459997	0.624441
719.792833	0.631448
720.125619	0.632516
720.458357	0.638111
720.791046	0.636955
721.123686	0.640633
721.456278	0.648548
721.788821	0.645900
722.121315	0.648878
722.453761	0.653479
722.786158	0.650489
723.118506	0.647386
723.450805	0.655766
723.783056	0.651367
724.115259	0.648832
724.447412	0.647826
724.779518	0.649891
725.111574	0.648748
725.443582	0.644447
725.775542	0.645977
726.107453	0.638294
726.439315	0.638850
726.771129	0.637604
727.102895	0.630316
727.434612	0.623635
727.766281	0.621219
728.097901	0.620372
728.429473	0.620504
728.760996	0.619003
729.092471	0.618829
729.423897	0.623340
729.755276	0.621733
730.086606	0.621554
730.417887	0.616406
730.749120	0.607811
731.080305	0.597964
731.411442	0.594313
731.742530	0.598919
732.073570	0.598492
732.404562	0.591156
732.735506	0.592109
733.066401	0.596841
733.397249	0.605660
733.728048	0.617207
734.058798	0.629342
734.389501	0.640779
734.720156	0.649766
735.050762	0.658034
735.381320	0.658449
735.711831	0.668122
736.042293	0.673794
736.372707	0.668714
736.703073	0.672877
737.033391	0.675540
737.363661	0.672296
737.693883	0.667439
738.024056	0.666974
738.354182	0.666744
738.684260	0.656378
739.014290	0.652282
739.344272	0.652411
739.674207	0.647162
740.004093	0.646459
740.333931	0.647175
740.663722	0.647157
740.993464	0.646866
741.323159	0.652002
741.652806	0.656311
741.982405	0.660389
742.311956	0.665685
742.641460	0.666905
742.970915	0.671257
743.300323	0.678476
743.629683	0.685417
743.958996	0.686964
744.288260	0.691220
744.617477	0.697016
744.946647	0.698869
745.275768	0.704293
745.604842	0.703774
745.933869	0.713930
746.262847	0.714652
746.591778	0.707878
746.920662	0.714435
747.249498	0.720274
747.578286	0.711853
747.907027	0.707434
748.235720	0.709542
748.564365	0.703274
748.892963	0.703451
749.221514	0.706506
749.550017	0.711711
749.878473	0.710686
750.206881	0.717022
750.535242	0.719236
750.863555	0.718953
751.191821	0.719882
751.520039	0.723836
751.848210	0.727949
752.176334	0.720510
752.504411	0.719215
752.832440	0.727660
753.160421	0.731687
753.488356	0.729698
753.816243	0.726954
754.144082	0.736108
754.471875	0.738643
754.799620	0.734062
755.127318	0.735728
755.454969	0.735479
755.782572	0.734738
756.110129	0.740629
756.437638	0.742667
756.765100	0.739139
757.092515	0.736783
757.419882	0.736670
757.747203	0.741341
758.074477	0.740086
758.401703	0.737773
758.728882	0.732348
759.056014	0.731426
759.383099	0.730555
759.710138	0.732109
760.037129	0.728749
760.364073	0.722355
760.690970	0.725321
761.017820	0.732057
761.344623	0.725370
761.671379	0.717422
761.998088	0.706554
762.324751	0.683458
762.651366	0.642969
762.977935	0.576361
763.304456	0.524049
763.630931	0.514417
763.957359	0.553755
764.283740	0.597298
764.610074	0.624117
764.936362	0.655746
765.262602	0.681925
765.588796	0.703148
765.914943	0.721153
766.241044	0.738094
766.567097	0.744707
766.893104	0.754645
767.219064	0.760360
767.544978	0.766506
767.870845	0.780030
768.196665	0.785461
768.522438	0.782770
768.848165	0.784062
769.173846	0.792929
769.499479	0.797072
769.825066	0.800443
770.150607	0.805722
770.476101	0.800166
770.801548	0.802069
771.126949	0.812802
771.452303	0.816587
771.777611	0.816234
772.102872	0.814958
772.428087	0.820575
772.753256	0.823282
773.078378	0.825520
773.403453	0.834243
773.728482	0.838820
774.053465	0.832589
774.378401	0.836182
774.703291	0.845044
775.028135	0.843239
775.352932	0.846091
775.677683	0.848648
776.002388	0.848458
776.327046	0.847487
776.651658	0.851735
776.976224	0.854938
777.300743	0.855453
777.625216	0.856739
777.949643	0.859556
778.274024	0.858972
778.598359	0.860586
778.922647	0.858750
779.246889	0.859807
779.571086	0.864165
779.895236	0.866504
780.219339	0.863551
780.543397	0.859953
780.867409	0.858874
781.191374	0.860513
781.515294	0.862030
781.839167	0.861140
782.162995	0.864403
782.486776	0.861417
782.810511	0.862420
783.134201	0.867093
783.457844	0.863917
783.781441	0.866937
784.104993	0.872753
784.428498	0.873325
784.751958	0.868957
785.075372	0.870510
785.398739	0.874921
785.722061	0.870404
786.045337	0.866471
786.368568	0.870825
786.691752	0.873817
787.014891	0.859648
787.337983	0.850653
787.661030	0.843836
787.984031	0.826790
788.306987	0.813080
788.629897	0.816261
788.952760	0.819687
789.275579	0.823934
789.598351	0.838770
789.921078	0.852464
790.243759	0.853109
790.566395	0.859266
790.888984	0.865575
791.211529	0.870853
791.534027	0.873806
791.856480	0.876508
792.178888	0.881439
792.501249	0.883876
792.823566	0.884764
793.145836	0.884699
793.468062	0.886525
793.790241	0.886933
794.112375	0.885237
794.434464	0.880359
794.756507	0.881077
795.078505	0.879574
795.400457	0.874403
795.722364	0.862724
796.044226	0.855580
796.366042	0.854292
796.687812	0.858319
797.009538	0.854225
797.331218	0.857306
797.652852	0.861806
797.974442	0.867065
798.295986	0.866452
798.617484	0.869909
798.938938	0.873538
799.260346	0.878416
799.581709	0.880218
799.903026	0.882587
800.224299	0.883273
800.545526	0.886986
800.866708	0.890299
801.187845	0.894245
801.508936	0.894535
801.829983	0.892001
802.150984	0.894962
802.471940	0.899476
802.792851	0.898845
803.113717	0.900183
803.434538	0.897856
803.755314	0.900757
804.076045	0.902362
804.396731	0.903019
804.717372	0.901901
805.037967	0.903837
805.358518	0.901265
805.679024	0.898938
805.999485	0.898814
806.319901	0.898526
806.640272	0.900900
806.960598	0.898708
807.280879	0.895874
807.601115	0.894311
807.921306	0.898561
808.241453	0.898538
808.561554	0.896035
808.881611	0.895977
809.201623	0.898300
809.521590	0.898469
809.841513	0.899075
810.161390	0.897926
810.481223	0.900810
810.801011	0.902487
811.120755	0.904368
811.440453	0.904603
811.760107	0.902394
812.079716	0.902386
812.399281	0.906471
812.718801	0.909244
813.038276	0.909640
813.357707	0.908290
813.677093	0.905487
813.996434	0.908857
814.315731	0.910753
814.634983	0.912466
814.954191	0.910078
815.273354	0.906659
815.592473	0.903420
815.911547	0.904063
816.230577	0.901562
816.549562	0.898590
816.868502	0.899931
817.187399	0.895684
817.506250	0.890629
817.825058	0.892092
818.143821	0.888733
818.462539	0.884209
818.781213	0.876018
819.099843	0.865144
819.418429	0.850290
819.736970	0.833709
820.055466	0.813191
820.373919	0.789037
820.692327	0.756245
821.010691	0.722290
821.329011	0.647064
821.647286	0.533899
821.965517	0.421811
822.283704	0.379096
822.601847	0.380717
822.919945	0.416631
823.237999	0.448995
823.556010	0.495095
823.873976	0.549477
824.191897	0.599842
824.509775	0.641264
824.827609	0.685396
825.145398	0.708725
825.463144	0.710480
825.780845	0.693706
826.098502	0.675474
826.416116	0.630446
826.733685	0.587106
827.051210	0.578656
827.368692	0.593850
827.686129	0.630106
828.003522	0.682812
828.320872	0.729043
828.638177	0.772736
828.955439	0.804836
829.272656	0.825137
829.589830	0.842389
829.906960	0.857665
830.224046	0.869205
830.541088	0.880126
830.858086	0.884823
831.175041	0.890413
831.491952	0.888893
831.808819	0.886498
832.125642	0.879731
832.442421	0.866128
832.759157	0.843880
833.075849	0.797884
833.392497	0.736346
833.709101	0.696004
834.025662	0.705515
834.342179	0.736434
834.658653	0.774141
834.975083	0.810303
835.291469	0.836066
835.607811	0.857870
835.924110	0.872334
836.240366	0.889872
836.556578	0.903253
836.872746	0.911355
837.188871	0.917094
837.504952	0.921920
837.820990	0.926115
838.136984	0.929643
838.452935	0.932300
838.768842	0.934529
839.084706	0.927636
839.400526	0.902689
839.716303	0.862431
840.032037	0.840060
840.347727	0.844284
840.663373	0.861646
840.978977	0.883239
841.294537	0.904648
841.610054	0.921185
841.925527	0.927655
842.240957	0.934944
842.556344	0.941412
842.871687	0.948810
843.186987	0.952421
843.502244	0.952154
843.817458	0.953758
844.132629	0.956979
844.447756	0.961591
844.762840	0.962092
845.077881	0.961793
845.392879	0.961315
845.707833	0.963920
846.022745	0.965410
846.337613	0.965970
846.652438	0.967434
846.967221	0.966400
847.281960	0.966166
847.596656	0.968523
847.911309	0.967159
848.225919	0.968556
848.540485	0.969258
848.855009	0.970498
849.169490	0.970316
849.483928	0.970045
849.798323	0.970202
850.112675	0.971376
850.426984	0.970523
850.741251	0.970790
851.055474	0.972012
851.369654	0.969852
851.683792	0.970490
851.997887	0.970870
852.311938	0.971275
852.625947	0.971565
852.939914	0.969172
853.253837	0.970638
853.567718	0.972225
853.881555	0.971894
854.195350	0.969443
854.509103	0.971398
854.822812	0.970868
855.136479	0.971927
855.450103	0.971411
855.763685	0.969820
856.077224	0.969084
856.390720	0.971318
856.704173	0.971528
857.017584	0.969214
857.330953	0.967806
857.644278	0.970192
857.957561	0.969968
858.270802	0.969184
858.584000	0.970361
858.897155	0.968426
859.210268	0.968633
859.523339	0.970204
859.836367	0.970157
860.149352	0.972703
860.462295	0.970733
860.775195	0.970530
861.088054	0.970475
861.400869	0.970430
861.713642	0.972341
862.026373	0.971317
862.339062	0.972725
862.651708	0.969631
862.964312	0.968989
863.276873	0.971595
863.589392	0.970702
863.901869	0.967433
864.214303	0.966649
864.526696	0.964709
864.839045	0.965356
865.151353	0.962940
865.463619	0.964718
865.775842	0.964144
866.088023	0.963890
866.400162	0.963517
866.712258	0.964583
867.024313	0.964490
867.336325	0.965677
867.648296	0.964678
867.960224	0.964220
868.272110	0.964321
868.583954	0.965304
868.895755	0.965247
869.207515	0.963775
869.519233	0.960886
869.830909	0.963257
870.142542	0.963832
870.454134	0.964221
870.765684	0.961572
871.077191	0.959336
871.388657	0.960893
871.700081	0.960055
872.011463	0.960397
872.322803	0.959353
872.634101	0.959042
872.945357	0.956006
873.256571	0.955703
873.567744	0.954633
873.878874	0.956189
874.189963	0.955917
874.501010	0.952771
874.812015	0.951858
875.122979	0.954656
875.433900	0.955659
875.744780	0.956033
876.055618	0.953928
876.366415	0.953384
876.677169	0.951879
876.987882	0.953363
877.298554	0.952962
877.609183	0.949959
877.919771	0.947005
878.230317	0.945656
878.540822	0.944156
878.851285	0.938066
879.161707	0.929497
879.472087	0.918616
879.782425	0.903379
880.092722	0.870597
880.402977	0.819923
880.713191	0.761940
881.023363	0.704942
881.333494	0.672352
881.643583	0.644415
881.953631	0.643465
882.263637	0.672592
882.573602	0.711229
882.883526	0.735928
883.193408	0.759097
883.503248	0.779214
883.813048	0.806967
884.122806	0.834829
884.432522	0.857259
884.742197	0.875853
885.051831	0.886819
885.361424	0.896208
885.670975	0.908468
885.980485	0.917221
886.289954	0.923524
886.599382	0.928019
886.908768	0.930441
887.218113	0.937500
887.527417	0.942225
887.836680	0.945347
888.145901	0.947156
888.455082	0.948456
888.764221	0.952775
889.073319	0.954444
889.382376	0.955397
889.691392	0.954902
890.000366	0.956531
890.309300	0.956389
890.618193	0.955906
890.927044	0.954718
891.235855	0.953037
891.544625	0.953941
891.853353	0.954574
892.162041	0.952334
892.470687	0.944553
892.779293	0.941351
893.087858	0.937659
893.396381	0.930727
893.704864	0.916858
894.013306	0.894470
894.321707	0.869199
894.630068	0.855207
894.938387	0.851122
895.246665	0.852111
895.554903	0.863625
895.863100	0.876673
896.171256	0.893075
896.479371	0.911761
896.787446	0.923532
897.095480	0.929998
897.403473	0.931570
897.711425	0.936310
898.019336	0.943915
898.327207	0.945670
898.635038	0.948491
898.942827	0.949160
899.250576	0.950848
899.558284	0.955485
899.865952	0.955965
900.173579	0.957503
900.481165	0.958446
900.788711	0.963215
901.096216	0.964063
901.403681	0.962936
901.711105	0.964840
902.018489	0.965742
902.325832	0.965068
902.633135	0.964096
902.940397	0.958329
903.247619	0.946967
903.554800	0.923149
903.861941	0.885735
904.169041	0.851450
904.476101	0.835208
904.783121	0.836129
905.090100	0.851837
905.397039	0.870936
905.703938	0.892835
906.010796	0.912057
906.317614	0.926811
906.624391	0.938105
906.931129	0.946686
907.237826	0.955398
907.544483	0.961869
907.851099	0.965072
908.157675	0.969198
908.464211	0.971601
908.770707	0.973843
909.077163	0.976493
909.383578	0.976875
909.689954	0.976576
909.996289	0.976925
910.302584	0.979288
910.608839	0.980454
910.915054	0.979345
911.221229	0.980867
911.527363	0.978635
911.833458	0.978307
912.139513	0.978148
912.445527	0.976742
912.751502	0.974811
913.057436	0.973218
913.363331	0.972214
913.669186	0.968192
913.975000	0.964939
914.280775	0.958078
914.586510	0.953148
914.892205	0.940186
915.197859	0.918182
915.503475	0.893021
915.809050	0.875210
916.114585	0.870997
916.420081	0.868428
916.725536	0.865020
917.030952	0.872227
917.336328	0.884010
917.641665	0.898303
917.946961	0.913531
918.252218	0.925260
918.557435	0.933513
918.862612	0.940894
919.167750	0.946548
919.472848	0.951185
919.777906	0.956144
920.082925	0.960953
920.387904	0.964592
920.692843	0.965542
920.997743	0.966379
921.302603	0.968880
921.607423	0.971675
921.912204	0.974498
922.216946	0.974089
922.521647	0.975229
922.826310	0.976828
923.130932	0.977938
923.435516	0.980909
923.740059	0.981062
924.044564	0.979614
924.349028	0.982067
924.653454	0.983829
924.957840	0.985085
925.262186	0.985565
925.566493	0.985240
925.870761	0.987238
926.174989	0.987307
926.479178	0.988902
926.783328	0.989360
927.087438	0.989474
927.391509	0.989301
927.695541	0.991389
927.999533	0.991256
928.303486	0.990741
928.607400	0.993096
928.911275	0.990247
929.215110	0.992097
929.518906	0.990975
929.822663	0.990470
930.126381	0.992944
930.430060	0.991484
930.733699	0.990953
931.037299	0.990406
931.340861	0.990153
931.644383	0.992259
931.947866	0.989547
932.251309	0.991454
932.554714	0.991349
932.858080	0.991122
933.161407	0.990806
933.464694	0.991154
933.767943	0.990094
934.071153	0.992644
934.374323	0.992605
934.677455	0.991973
934.980548	0.992439
935.283602	0.991433
935.586617	0.992063
935.889593	0.990965
936.192530	0.991139
936.495428	0.991801
936.798287	0.990956
937.101108	0.991446
937.403890	0.990042
937.706632	0.989982
938.009336	0.988316
938.312002	0.987826
938.614628	0.985745
938.917216	0.984403
939.219765	0.983393
939.522275	0.984218
939.824747	0.984684
940.127179	0.984915
940.429573	0.986295
940.731929	0.984664
941.034246	0.986060
941.336524	0.987410
941.638763	0.986477
941.940964	0.988291
942.243126	0.987746
942.545250	0.988003
942.847335	0.990066
943.149381	0.988575
943.451389	0.988234
943.753359	0.989596
944.055290	0.991676
944.357182	0.991191
944.659036	0.989804
944.960851	0.990594
945.262628	0.989966
945.564367	0.991561
945.866067	0.990925
946.167729	0.991931
946.469352	0.989426
946.770937	0.990440
947.072484	0.991654
947.373992	0.990294
947.675462	0.989891
947.976893	0.991074
948.278286	0.991326
948.579641	0.991786
948.880958	0.991783
949.182236	0.991381
949.483476	0.991773
949.784678	0.990534
950.085841	0.992248
950.386967	0.992006
950.688054	0.992404
950.989103	0.991558
951.290114	0.990887
951.591087	0.989967
951.892021	0.990046
952.192917	0.990067
952.493776	0.988901
952.794596	0.990270
953.095378	0.988873
953.396122	0.988664
953.696828	0.988746
953.997496	0.990472
954.298126	0.991772
954.598718	0.990952
954.899272	0.991588
955.199788	0.991902
955.500266	0.992619
955.800706	0.994203
956.101108	0.994537
956.401472	0.994238
956.701798	0.994956
957.002087	0.993947
957.302337	0.993424
957.602550	0.994927
957.902724	0.995084
958.202861	0.995997
958.502960	0.995373
958.803022	0.993561
959.103045	0.996996
959.403031	0.996375
959.702979	0.996079
960.002889	0.996105
960.302762	0.995706
960.602596	0.996057
960.902393	0.995365
961.202153	0.996685
961.501875	0.997429
961.801559	0.996581
962.101205	0.995620
962.400814	0.996817
962.700385	0.997133
962.999918	0.995587
963.299414	0.997639
963.598873	0.997090
963.898293	0.995390
964.197677	0.996987
964.497022	0.996895
964.796331	0.998077
965.095601	0.998331
965.394835	0.997073
965.694030	0.997617
965.993189	0.997757
966.292309	0.996586
966.591393	0.997780
966.890439	0.997601
967.189447	0.996051
967.488419	0.997830
967.787353	0.996234
968.086249	0.996165
968.385108	0.996266
968.683930	0.998010
968.982714	0.997514
969.281462	0.997530
969.580172	0.996063
969.878844	0.998371
970.177480	0.997024
970.476078	0.997940
970.774639	0.997967
971.073162	0.996883
971.371649	0.997769
971.670098	0.996457
971.968510	0.998042
972.266885	0.996603
972.565223	0.997135
972.863524	0.997051
973.161788	0.996789
973.460014	0.998802
973.758204	0.996162
974.056356	0.996655
974.354471	0.995818
974.652550	0.996845
974.950591	0.997481
975.248595	0.996412
975.546563	0.996811
975.844493	0.998375
976.142386	0.996491
976.440243	0.997869
976.738062	0.998116
977.035845	0.997541
977.333590	0.996564
977.631299	0.998442
977.928971	0.997658
978.226606	0.997239
978.524204	0.996898
978.821765	0.997663
979.119290	0.996851
979.416777	0.996961
979.714228	0.998870
980.011642	0.995906
980.309020	0.997787
980.606360	0.996905
980.903664	0.997955
981.200931	0.997213
981.498162	0.994335
981.795356	0.995367
982.092513	0.994415
982.389633	0.996087
982.686717	0.992830
982.983764	0.992261
983.280775	0.991999
983.577749	0.990388
983.874686	0.992662
984.171587	0.992638
984.468451	0.995430
984.765279	0.995901
985.062070	0.995657
985.358824	0.996157
985.655543	0.994126
985.952224	0.998499
986.248869	0.997679
986.545478	0.998188
986.842050	0.998331
987.138586	0.995724
987.435086	0.997214
987.731549	0.998195
988.027975	0.998086
988.324366	0.998187
988.620719	0.996429
988.917037	0.997011
989.213318	0.998053
989.509563	0.999086
989.805772	0.999136
990.101944	0.999417
990.398080	0.998911
990.694180	0.998202
990.990244	0.997940
991.286271	0.999927
991.582262	0.997672
991.878217	0.998259
992.174136	0.998135
992.470019	0.998803
992.765865	0.999478
993.061676	0.998622
993.357450	0.997780
993.653188	0.997063
993.948890	0.997118
994.244556	0.997849
994.540186	0.996721
994.835780	0.997347
995.131337	0.996625
995.426859	0.997119
995.722345	0.997789
996.017795	0.997376
996.313208	0.996468
996.608586	0.995874
996.903928	0.997332
997.199234	0.997178
997.494504	0.996563
997.789738	0.996333
998.084936	0.996817
998.380099	0.997940
998.675225	0.998693
998.970316	0.998940
999.265371	0.998802
999.560390	0.997805
999.855373	0.999075
1000.150320	0.997109
1000.445232	0.999028
1000.740108	0.997381
1001.034948	0.999177
1001.329752	0.999041
1001.624521	0.998575
1001.919254	0.998205
1002.213951	0.998083
1002.508613	0.998909
1002.803239	1.000332
1003.097829	0.997610
1003.392384	1.000067
1003.686903	0.998461
1003.981386	0.998207
1004.275834	0.998297
1004.570246	0.999681
1004.864623	0.998024
1005.158964	1.000886
1005.453270	0.998353
1005.747540	0.998523
1006.041775	0.998969
1006.335974	0.999817
1006.630138	0.999519
1006.924266	0.999607
1007.218359	1.000682
1007.512416	1.000011
1007.806438	0.999123
1008.100425	0.998718
1008.394376	0.998209
1008.688292	0.998953
1008.982172	1.001314
1009.276017	0.999252
1009.569827	0.999168
1009.863602	0.998551
1010.157341	0.999759
1010.451045	0.999156
1010.744714	0.998916
1011.038347	0.999419
1011.331945	0.999787
1011.625508	0.997476
1011.919036	0.998372
1012.212528	0.998633
1012.505986	0.999324
1012.799408	0.998849
1013.092795	0.999515
1013.386147	0.999271
1013.679464	0.999806
1013.972745	0.997943
1014.265992	0.998620
1014.559204	0.998506
1014.852380	0.997888
1015.145521	0.998998
1015.438628	0.997744
1015.731699	0.999313
1016.024736	0.999033
1016.317737	0.999110
1016.610703	0.998720
1016.903635	0.999082
1017.196531	0.998174
1017.489393	0.999516
1017.782219	0.998977
1018.075011	0.999058
1018.367768	0.998498
1018.660490	0.998785
1018.953177	0.998785
1019.245829	0.998785
