Dividing Wavelength (nm)	Counts (n)	Blue Motor Position (mm): 0.000000	Red Motor Position (mm): 21.000000	
326.493990	1.002303
326.888308	1.002303
327.282561	1.002303
327.676750	1.000361
328.070874	1.000297
328.464933	1.000489
328.858929	0.998950
329.252859	1.000460
329.646726	1.000253
330.040528	1.001002
330.434265	0.999265
330.827938	1.000310
331.221547	1.002196
331.615091	1.001195
332.008571	1.001461
332.401986	0.999473
332.795338	1.001314
333.188625	0.998991
333.581847	1.000461
333.975006	1.000444
334.368100	0.999713
334.761129	1.000569
335.154095	1.000303
335.546996	0.999084
335.939833	0.995103
336.332606	0.993999
336.725315	0.994798
337.117960	0.997054
337.510540	0.994587
337.903056	0.995596
338.295508	0.994320
338.687896	0.995996
339.080220	0.994937
339.472480	0.995319
339.864676	0.993981
340.256807	0.994396
340.648875	0.997429
341.040879	0.994631
341.432818	0.995943
341.824694	0.995113
342.216506	0.995303
342.608253	0.995022
342.999937	0.994967
343.391557	0.995077
343.783113	0.994868
344.174605	0.994253
344.566033	0.995396
344.957397	0.994161
345.348697	0.994944
345.739934	0.994696
346.131106	0.994384
346.522215	0.994638
346.913260	0.994173
347.304241	0.994312
347.695159	0.994647
348.086012	0.993132
348.476802	0.994398
348.867528	0.994631
349.258191	0.994250
349.648789	0.994544
350.039324	0.995209
350.429796	0.995341
350.820203	0.994935
351.210548	0.995410
351.600828	0.995297
351.991045	0.995160
352.381198	0.994207
352.771288	0.994307
353.161314	0.994982
353.551276	0.995753
353.941175	0.994426
354.331010	0.994873
354.720782	0.994992
355.110490	0.994321
355.500135	0.995508
355.889717	0.994560
356.279235	0.996020
356.668689	0.994129
357.058080	0.995032
357.447408	0.995932
357.836672	0.994580
358.225873	0.995974
358.615010	0.995296
359.004084	0.995267
359.393095	0.996035
359.782043	0.995990
360.170927	0.997057
360.559748	0.995349
360.948505	0.994550
361.337199	0.994566
361.725830	0.995559
362.114398	0.995643
362.502903	0.994785
362.891344	0.996073
363.279722	0.995438
363.668037	0.995826
364.056289	0.993897
364.444478	0.994542
364.832603	0.996003
365.220665	0.994311
365.608665	0.995215
365.996601	0.994942
366.384474	0.994690
366.772284	0.994684
367.160031	0.994412
367.547715	0.993876
367.935336	0.994951
368.322893	0.993970
368.710388	0.994605
369.097820	0.995778
369.485189	0.994666
369.872495	0.994116
370.259738	0.993110
370.646918	0.995828
371.034035	0.995480
371.421090	0.994812
371.808081	0.993680
372.195010	0.994806
372.581875	0.995231
372.968678	0.995344
373.355418	0.994136
373.742096	0.993662
374.128710	0.996372
374.515262	0.994970
374.901751	0.994610
375.288177	0.995345
375.674540	0.995800
376.060841	0.993713
376.447079	0.996447
376.833254	0.995021
377.219367	0.995049
377.605417	0.995166
377.991404	0.995242
378.377329	0.995170
378.763191	0.995376
379.148991	0.996425
379.534727	0.995827
379.920402	0.995747
380.306013	0.995264
380.691563	0.997450
381.077049	0.994634
381.462474	0.996187
381.847835	0.995939
382.233134	0.995976
382.618371	0.996177
383.003545	0.996257
383.388657	0.995703
383.773706	0.997278
384.158693	0.996154
384.543618	0.996189
384.928480	0.996870
385.313280	0.995966
385.698017	0.996815
386.082692	0.996523
386.467305	0.996696
386.851856	0.996039
387.236344	0.995704
387.620770	0.995642
388.005133	0.997141
388.389435	0.997588
388.773674	0.995775
389.157851	0.996733
389.541965	0.996478
389.926018	0.995777
390.310008	0.996630
390.693936	0.996229
391.077802	0.996031
391.461606	0.995783
391.845348	0.997273
392.229027	0.997822
392.612645	0.996404
392.996200	0.997815
393.379694	0.995244
393.763125	0.997020
394.146494	0.997055
394.529801	0.996143
394.913047	0.997208
395.296230	0.996246
395.679351	0.996840
396.062410	0.995895
396.445408	0.996464
396.828343	0.996423
397.211217	0.995472
397.594028	0.996103
397.976778	0.996028
398.359466	0.995597
398.742092	0.995414
399.124656	0.996144
399.507158	0.995875
399.889598	0.995578
400.271977	0.996564
400.654294	0.995917
401.036549	0.996107
401.418742	0.997943
401.800874	0.995472
402.182944	0.995700
402.564952	0.995628
402.946898	0.996935
403.328783	0.996426
403.710606	0.995684
404.092367	0.996141
404.474067	0.996259
404.855705	0.996699
405.237282	0.996314
405.618797	0.996141
406.000250	0.995249
406.381642	0.995315
406.762972	0.996565
407.144240	0.996724
407.525447	0.996262
407.906593	0.996014
408.287677	0.995498
408.668700	0.996252
409.049661	0.995061
409.430560	0.995288
409.811399	0.994456
410.192176	0.995153
410.572891	0.994502
410.953545	0.994931
411.334138	0.994994
411.714669	0.995145
412.095139	0.993947
412.475547	0.995603
412.855894	0.994767
413.236180	0.994634
413.616405	0.993542
413.996568	0.994502
414.376670	0.992901
414.756711	0.991675
415.136691	0.991667
415.516609	0.991122
415.896466	0.989552
416.276262	0.987745
416.655997	0.988102
417.035670	0.985521
417.415283	0.984095
417.794834	0.982877
418.174324	0.981275
418.553753	0.979836
418.933121	0.976390
419.312428	0.973966
419.691674	0.971064
420.070859	0.969545
420.449983	0.966949
420.829045	0.962896
421.208047	0.961612
421.586988	0.957595
421.965867	0.953832
422.344686	0.949195
422.723444	0.946219
423.102141	0.944320
423.480777	0.937837
423.859352	0.935394
424.237866	0.927840
424.616319	0.923487
424.994712	0.917580
425.373044	0.913195
425.751314	0.906369
426.129524	0.901870
426.507673	0.893964
426.885762	0.887682
427.263789	0.881144
427.641756	0.878166
428.019662	0.868481
428.397508	0.861072
428.775292	0.853703
429.153016	0.845225
429.530679	0.840392
429.908282	0.830869
430.285824	0.826575
430.663305	0.811104
431.040726	0.809664
431.418086	0.802727
431.795385	0.791574
432.172624	0.782083
432.549802	0.774856
432.926920	0.765800
433.303977	0.756110
433.680974	0.747228
434.057910	0.737502
434.434786	0.728422
434.811601	0.720874
435.188355	0.703508
435.565050	0.699462
435.941683	0.691439
436.318257	0.673892
436.694770	0.664200
437.071222	0.656169
437.447614	0.649883
437.823946	0.645241
438.200218	0.630588
438.576429	0.629046
438.952580	0.615816
439.328670	0.605604
439.704700	0.602439
440.080670	0.595848
440.456580	0.573831
440.832429	0.571428
441.208218	0.573363
441.583947	0.557863
441.959616	0.551128
442.335224	0.548396
442.710773	0.534226
443.086261	0.525915
443.461689	0.531554
443.837057	0.516912
444.212365	0.502575
444.587612	0.503474
444.962800	0.488691
445.337927	0.485096
445.712995	0.503137
446.088002	0.464720
446.462949	0.469461
446.837837	0.468957
447.212664	0.455589
447.587431	0.443043
447.962139	0.412812
448.336786	0.371874
448.711374	0.377954
449.085901	0.415183
449.460369	0.415458
449.834776	0.415764
450.209124	0.393170
450.583412	0.383142
450.957640	0.374691
451.331808	0.382657
451.705917	0.402879
452.079965	0.405566
452.453954	0.392141
452.827883	0.397170
453.201752	0.390535
453.575562	0.400141
453.949311	0.387946
454.323001	0.392131
454.696632	0.387407
455.070202	0.378931
455.443713	0.370011
455.817164	0.364447
456.190556	0.359401
456.563888	0.354762
456.937160	0.352376
457.310373	0.368347
457.683526	0.367264
458.056619	0.372256
458.429653	0.371937
458.802628	0.374852
459.175542	0.369366
459.548398	0.351882
459.921194	0.344043
460.293930	0.343983
460.666607	0.321036
461.039224	0.309571
461.411782	0.304907
461.784280	0.303790
462.156719	0.307830
462.529099	0.312168
462.901419	0.327991
463.273680	0.332050
463.645882	0.331693
464.018024	0.337545
464.390106	0.330074
464.762130	0.315304
465.134094	0.298094
465.505999	0.267370
465.877845	0.237990
466.249631	0.224932
466.621358	0.232078
466.993026	0.245935
467.364634	0.252107
467.736184	0.260860
468.107674	0.269101
468.479105	0.268308
468.850477	0.275568
469.221790	0.281958
469.593043	0.291804
469.964238	0.296788
470.335373	0.295994
470.706449	0.294694
471.077467	0.294863
471.448425	0.257411
471.819324	0.232817
472.190164	0.232027
472.560945	0.260880
472.931667	0.283208
473.302330	0.287148
473.672934	0.299319
474.043479	0.287364
474.413965	0.289205
474.784393	0.292696
475.154761	0.287544
475.525070	0.284501
475.895321	0.290553
476.265513	0.284636
476.635645	0.279959
477.005719	0.279996
477.375734	0.276379
477.745691	0.270046
478.115588	0.266344
478.485427	0.260179
478.855207	0.247008
479.224928	0.229665
479.594591	0.217570
479.964194	0.220962
480.333739	0.222224
480.703226	0.223612
481.072653	0.222097
481.442022	0.217934
481.811333	0.214005
482.180584	0.217943
482.549777	0.223092
482.918912	0.226448
483.287988	0.226137
483.657005	0.225645
484.025964	0.232189
484.394864	0.229318
484.763706	0.230274
485.132489	0.235012
485.501213	0.236075
485.869879	0.234312
486.238487	0.237591
486.607036	0.235423
486.975527	0.239936
487.343959	0.235640
487.712333	0.234734
488.080648	0.236325
488.448905	0.235634
488.817104	0.236602
489.185244	0.231341
489.553326	0.228037
489.921350	0.218011
490.289315	0.200420
490.657222	0.195548
491.025070	0.196859
491.392861	0.198712
491.760593	0.204290
492.128267	0.209907
492.495883	0.215566
492.863440	0.221673
493.230939	0.228040
493.598380	0.229366
493.965763	0.231438
494.333088	0.234025
494.700354	0.235235
495.067563	0.233967
495.434713	0.237344
495.801805	0.235357
496.168839	0.236977
496.535815	0.238141
496.902733	0.238227
497.269593	0.239474
497.636395	0.237263
498.003139	0.237521
498.369825	0.240730
498.736453	0.237088
499.103023	0.238422
499.469535	0.238022
499.835989	0.238195
500.202385	0.239054
500.568723	0.242339
500.935003	0.237402
501.301226	0.241597
501.667390	0.235951
502.033497	0.234225
502.399546	0.236763
502.765537	0.238726
503.131470	0.237415
503.497345	0.233626
503.863163	0.242368
504.228923	0.235189
504.594625	0.234243
504.960269	0.239426
505.325856	0.234585
505.691385	0.238836
506.056856	0.235647
506.422270	0.235045
506.787625	0.237469
507.152924	0.235288
507.518164	0.235274
507.883347	0.237043
508.248472	0.238950
508.613540	0.233854
508.978550	0.236248
509.343503	0.236677
509.708398	0.234598
510.073236	0.232188
510.438016	0.232341
510.802738	0.232925
511.167403	0.232243
511.532010	0.234207
511.896561	0.229683
512.261053	0.228409
512.625488	0.230362
512.989866	0.230674
513.354186	0.230865
513.718449	0.232682
514.082655	0.229244
514.446803	0.231394
514.810894	0.229211
515.174927	0.231874
515.538904	0.231219
515.902822	0.227983
516.266684	0.230335
516.630488	0.231887
516.994235	0.230352
517.357925	0.229325
517.721558	0.227497
518.085133	0.226944
518.448651	0.227132
518.812112	0.229223
519.175516	0.229295
519.538863	0.226535
519.902152	0.228058
520.265385	0.224992
520.628560	0.226798
520.991678	0.227359
521.354739	0.226308
521.717743	0.227629
522.080690	0.228043
522.443580	0.225217
522.806413	0.226054
523.169189	0.225504
523.531908	0.224368
523.894569	0.227824
524.257174	0.227814
524.619722	0.225667
524.982213	0.226892
525.344647	0.225613
525.707025	0.226512
526.069345	0.224660
526.431608	0.226188
526.793815	0.224484
527.155964	0.228216
527.518057	0.227478
527.880093	0.228718
528.242072	0.226943
528.603995	0.228848
528.965860	0.230580
529.327669	0.229260
529.689421	0.229986
530.051117	0.231141
530.412755	0.228791
530.774337	0.231263
531.135862	0.231515
531.497331	0.230937
531.858743	0.233479
532.220098	0.230693
532.581396	0.233041
532.942638	0.233749
533.303824	0.234422
533.664953	0.234259
534.026025	0.235915
534.387040	0.233811
534.747999	0.233592
535.108902	0.232705
535.469748	0.237519
535.830537	0.235631
536.191270	0.235972
536.551947	0.235513
536.912567	0.235581
537.273131	0.237208
537.633638	0.237630
537.994089	0.237886
538.354483	0.238819
538.714821	0.235731
539.075103	0.235603
539.435328	0.236659
539.795497	0.240107
540.155609	0.236713
540.515665	0.234818
540.875665	0.240178
541.235609	0.239047
541.595496	0.238989
541.955328	0.235743
542.315102	0.238285
542.674821	0.239493
543.034483	0.239224
543.394090	0.239086
543.753640	0.240788
544.113134	0.236032
544.472571	0.239234
544.831953	0.236217
545.191278	0.240328
545.550548	0.239960
545.909761	0.236559
546.268918	0.237544
546.628019	0.235510
546.987064	0.238348
547.346053	0.240143
547.704986	0.238109
548.063863	0.238313
548.422684	0.238435
548.781449	0.240392
549.140158	0.238172
549.498811	0.240944
549.857408	0.243760
550.215949	0.238752
550.574434	0.241728
550.932864	0.239948
551.291237	0.238222
551.649555	0.239965
552.007817	0.239332
552.366022	0.240391
552.724173	0.240567
553.082267	0.240949
553.440305	0.237809
553.798288	0.242130
554.156215	0.238650
554.514086	0.239439
554.871902	0.242860
555.229661	0.241883
555.587365	0.242358
555.945014	0.244921
556.302606	0.241911
556.660143	0.244254
557.017625	0.240740
557.375050	0.242983
557.732421	0.240193
558.089735	0.242211
558.446994	0.242273
558.804197	0.241132
559.161345	0.241374
559.518437	0.244900
559.875474	0.242491
560.232455	0.242087
560.589381	0.243071
560.946251	0.243165
561.303065	0.240578
561.659825	0.242356
562.016528	0.243634
562.373177	0.246740
562.729770	0.243869
563.086307	0.246020
563.442789	0.243905
563.799216	0.246588
564.155587	0.245198
564.511904	0.246395
564.868164	0.246678
565.224370	0.246113
565.580520	0.248313
565.936615	0.248233
566.292654	0.251045
566.648638	0.248022
567.004567	0.248639
567.360441	0.249521
567.716260	0.251369
568.072023	0.249480
568.427732	0.250234
568.783385	0.252417
569.138982	0.250775
569.494525	0.250306
569.850013	0.253081
570.205445	0.251549
570.560823	0.253891
570.916145	0.255816
571.271412	0.254067
571.626625	0.255585
571.981782	0.256143
572.336884	0.257178
572.691931	0.256821
573.046923	0.258050
573.401860	0.259117
573.756743	0.260826
574.111570	0.259706
574.466342	0.259980
574.821059	0.259381
575.175722	0.262265
575.530330	0.261845
575.884882	0.262011
576.239380	0.264132
576.593823	0.264758
576.948211	0.264319
577.302544	0.267480
577.656823	0.266943
578.011047	0.266971
578.365216	0.267873
578.719330	0.269669
579.073389	0.269724
579.427394	0.270822
579.781344	0.271839
580.135239	0.273194
580.489080	0.272703
580.842866	0.275524
581.196597	0.275490
581.550273	0.274443
581.903895	0.275436
582.257463	0.273421
582.610975	0.276913
582.964434	0.276081
583.317837	0.278512
583.671186	0.279000
584.024481	0.278838
584.377721	0.281488
584.730906	0.282254
585.084037	0.281246
585.437113	0.283205
585.790135	0.282660
586.143103	0.285858
586.496016	0.286884
586.848874	0.284383
587.201679	0.284870
587.554428	0.288534
587.907124	0.286849
588.259765	0.287595
588.612352	0.287971
588.964884	0.291927
589.317362	0.291321
589.669786	0.291317
590.022155	0.289958
590.374470	0.289314
590.726731	0.290990
591.078937	0.295879
591.431090	0.292389
591.783188	0.296738
592.135232	0.297237
592.487222	0.297016
592.839157	0.295229
593.191038	0.297679
593.542866	0.299290
593.894639	0.303108
594.246358	0.300860
594.598022	0.300242
594.949633	0.303917
595.301190	0.304819
595.652692	0.303769
596.004141	0.300518
596.355535	0.307999
596.706876	0.308603
597.058162	0.311300
597.409395	0.308319
597.760573	0.306328
598.111698	0.309626
598.462768	0.309912
598.813785	0.311146
599.164748	0.312245
599.515657	0.312577
599.866511	0.316114
600.217312	0.311075
600.568060	0.316599
600.918753	0.312888
601.269392	0.313731
601.619978	0.317005
601.970510	0.314539
602.320988	0.315062
602.671412	0.312622
603.021783	0.315129
603.372100	0.316698
603.722363	0.316361
604.072572	0.317119
604.422728	0.317175
604.772830	0.319009
605.122878	0.318269
605.472872	0.318978
605.822813	0.317056
606.172701	0.319991
606.522534	0.317302
606.872314	0.317224
607.222041	0.318279
607.571714	0.316655
607.921333	0.317714
608.270899	0.317373
608.620411	0.314402
608.969870	0.318137
609.319276	0.318253
609.668627	0.318271
610.017926	0.316662
610.367171	0.315500
610.716362	0.316046
611.065500	0.316180
611.414585	0.315009
611.763616	0.315843
612.112594	0.316151
612.461518	0.315393
612.810389	0.313172
613.159207	0.315395
613.507971	0.317417
613.856682	0.313193
614.205340	0.314475
614.553945	0.311168
614.902496	0.315324
615.250994	0.313390
615.599439	0.313832
615.947830	0.313338
616.296169	0.314321
616.644454	0.313610
616.992686	0.314051
617.340864	0.311820
617.688990	0.315040
618.037063	0.312111
618.385082	0.313984
618.733048	0.310639
619.080961	0.313060
619.428821	0.312520
619.776628	0.312184
620.124382	0.313866
620.472083	0.314355
620.819731	0.313519
621.167326	0.317406
621.514868	0.317477
621.862357	0.321696
622.209793	0.321185
622.557176	0.323693
622.904506	0.324071
623.251783	0.326883
623.599007	0.328570
623.946179	0.328401
624.293297	0.330635
624.640363	0.334075
624.987376	0.334866
625.334336	0.337534
625.681243	0.339584
626.028097	0.340495
626.374899	0.341502
626.721647	0.341239
627.068343	0.344905
627.414987	0.345653
627.761577	0.347968
628.108115	0.346266
628.454600	0.351417
628.801032	0.348472
629.147412	0.350758
629.493739	0.351138
629.840014	0.354465
630.186236	0.352051
630.532405	0.357382
630.878521	0.354518
631.224585	0.356913
631.570597	0.360906
631.916556	0.358816
632.262462	0.359349
632.608316	0.360975
632.954117	0.361709
633.299866	0.362865
633.645562	0.363169
633.991206	0.367312
634.336797	0.370712
634.682336	0.372811
635.027823	0.374296
635.373257	0.374809
635.718639	0.378518
636.063968	0.377755
636.409245	0.383681
636.754470	0.384104
637.099642	0.386268
637.444762	0.389466
637.789829	0.389239
638.134845	0.392422
638.479808	0.393399
638.824719	0.392701
639.169577	0.396977
639.514383	0.395871
639.859137	0.400186
640.203839	0.399892
640.548489	0.400290
640.893086	0.401840
641.237632	0.403064
641.582125	0.402042
641.926566	0.402907
642.270955	0.404028
642.615292	0.404260
642.959576	0.403017
643.303809	0.403648
643.647990	0.403042
643.992118	0.403728
644.336195	0.407622
644.680219	0.405221
645.024192	0.406509
645.368112	0.399895
645.711981	0.399175
646.055797	0.394322
646.399562	0.396817
646.743274	0.388726
647.086935	0.386321
647.430544	0.386658
647.774101	0.385009
648.117606	0.384799
648.461059	0.385149
648.804460	0.387796
649.147810	0.392652
649.491108	0.394822
649.834354	0.396333
650.177548	0.401556
650.520690	0.406641
650.863781	0.408247
651.206820	0.406979
651.549807	0.411941
651.892742	0.415994
652.235626	0.415280
652.578458	0.416489
652.921238	0.422502
653.263967	0.420071
653.606644	0.424788
653.949269	0.424028
654.291843	0.427884
654.634365	0.424867
654.976836	0.428151
655.319255	0.428146
655.661622	0.429465
656.003938	0.429182
656.346203	0.432428
656.688416	0.430195
657.030577	0.433983
657.372687	0.435488
657.714746	0.436804
658.056753	0.433187
658.398708	0.437286
658.740612	0.438894
659.082465	0.434513
659.424266	0.435236
659.766016	0.434877
660.107715	0.437674
660.449362	0.436569
660.790958	0.437304
661.132503	0.437433
661.473996	0.435292
661.815438	0.436424
662.156829	0.436599
662.498168	0.437125
662.839456	0.438732
663.180693	0.436471
663.521879	0.435805
663.863013	0.436548
664.204097	0.435705
664.545129	0.432280
664.886110	0.432680
665.227040	0.430177
665.567918	0.432675
665.908746	0.430814
666.249522	0.430335
666.590248	0.431208
666.930922	0.429637
667.271545	0.428172
667.612118	0.428332
667.952639	0.430331
668.293109	0.428692
668.633528	0.431927
668.973896	0.431227
669.314213	0.431961
669.654480	0.433610
669.994695	0.434028
670.334859	0.434674
670.674973	0.435029
671.015035	0.435043
671.355047	0.435142
671.695008	0.436128
672.034918	0.437733
672.374777	0.437168
672.714585	0.438496
673.054342	0.438403
673.394049	0.438523
673.733705	0.436138
674.073310	0.437547
674.412864	0.440084
674.752368	0.441051
675.091820	0.440598
675.431223	0.445595
675.770574	0.445148
676.109875	0.448030
676.449125	0.448238
676.788324	0.450447
677.127473	0.456170
677.466571	0.455682
677.805619	0.457815
678.144616	0.458142
678.483562	0.460176
678.822458	0.462380
679.161303	0.463262
679.500098	0.463700
679.838842	0.466169
680.177535	0.465303
680.516179	0.464151
680.854771	0.463022
681.193314	0.456212
681.531805	0.447633
681.870247	0.436149
682.208638	0.428770
682.546978	0.427296
682.885268	0.429664
683.223508	0.436168
683.561697	0.439579
683.899836	0.441947
684.237925	0.445132
684.575963	0.447459
684.913951	0.451214
685.251889	0.446844
685.589776	0.448662
685.927614	0.451280
686.265401	0.445574
686.603137	0.447017
686.940824	0.440946
687.278460	0.439050
687.616046	0.437807
687.953582	0.433794
688.291068	0.434489
688.628504	0.430029
688.965889	0.433019
689.303224	0.436584
689.640510	0.441023
689.977745	0.446411
690.314930	0.454197
690.652065	0.458689
690.989150	0.466787
691.326185	0.473146
691.663170	0.478147
692.000105	0.484553
692.336990	0.491718
692.673825	0.493778
693.010610	0.500789
693.347345	0.506482
693.684030	0.507267
694.020665	0.512994
694.357251	0.521597
694.693786	0.521364
695.030272	0.525391
695.366707	0.529327
695.703093	0.532369
696.039429	0.530455
696.375716	0.531099
696.711952	0.534625
697.048139	0.535651
697.384276	0.538313
697.720363	0.536524
698.056400	0.535814
698.392388	0.541666
698.728326	0.544273
699.064214	0.546898
699.400053	0.547422
699.735842	0.551723
700.071581	0.554401
700.407270	0.557069
700.742910	0.559802
701.078501	0.566259
701.414042	0.566510
701.749533	0.568973
702.084974	0.578251
702.420366	0.570562
702.755709	0.578094
703.091002	0.585905
703.426246	0.579219
703.761440	0.585309
704.096584	0.590017
704.431679	0.586736
704.766725	0.589133
705.101721	0.590987
705.436668	0.587098
705.771565	0.593892
706.106413	0.590603
706.441212	0.586331
706.775961	0.584705
707.110661	0.587714
707.445311	0.584029
707.779913	0.581630
708.114465	0.579838
708.448967	0.577031
708.783421	0.568147
709.117825	0.563135
709.452180	0.563448
709.786485	0.556749
710.120742	0.546962
710.454949	0.548869
710.789107	0.540845
711.123216	0.532159
711.457275	0.533989
711.791286	0.524837
712.125247	0.523584
712.459159	0.534523
712.793023	0.526801
713.126837	0.530236
713.460602	0.531492
713.794318	0.541223
714.127985	0.538570
714.461602	0.549398
714.795171	0.552751
715.128691	0.560524
715.462162	0.567490
715.795584	0.574021
716.128957	0.577268
716.462281	0.582944
716.795556	0.587051
717.128782	0.591494
717.461960	0.601776
717.795088	0.599402
718.128167	0.605161
718.461198	0.614384
718.794180	0.615496
719.127113	0.617427
719.459997	0.621918
719.792833	0.628011
720.125619	0.629490
720.458357	0.635114
720.791046	0.634769
721.123686	0.637756
721.456278	0.645465
721.788821	0.641969
722.121315	0.645877
722.453761	0.650824
722.786158	0.648732
723.118506	0.645281
723.450805	0.653338
723.783056	0.648934
724.115259	0.645510
724.447412	0.645129
724.779518	0.647321
725.111574	0.646327
725.443582	0.641854
725.775542	0.643502
726.107453	0.636435
726.439315	0.635179
726.771129	0.634511
727.102895	0.627523
727.434612	0.620236
727.766281	0.618787
728.097901	0.617902
728.429473	0.616417
728.760996	0.615604
729.092471	0.615830
729.423897	0.619791
729.755276	0.618254
730.086606	0.618359
730.417887	0.613494
730.749120	0.604599
731.080305	0.594829
731.411442	0.591122
731.742530	0.596349
732.073570	0.595160
732.404562	0.587594
732.735506	0.588688
733.066401	0.593223
733.397249	0.602362
733.728048	0.614375
734.058798	0.627553
734.389501	0.636995
734.720156	0.646134
735.050762	0.654778
735.381320	0.656653
735.711831	0.665456
736.042293	0.670468
736.372707	0.665778
736.703073	0.670978
737.033391	0.672666
737.363661	0.668779
737.693883	0.664757
738.024056	0.663249
738.354182	0.663607
738.684260	0.653871
739.014290	0.649499
739.344272	0.650275
739.674207	0.643572
740.004093	0.642914
740.333931	0.643460
740.663722	0.643047
740.993464	0.644370
741.323159	0.648063
741.652806	0.652715
741.982405	0.657072
742.311956	0.662534
742.641460	0.664555
742.970915	0.667868
743.300323	0.676624
743.629683	0.682598
743.958996	0.684157
744.288260	0.688555
744.617477	0.694253
744.946647	0.695898
745.275768	0.701751
745.604842	0.701548
745.933869	0.711093
746.262847	0.711109
746.591778	0.705566
746.920662	0.711940
747.249498	0.718307
747.578286	0.709194
747.907027	0.704455
748.235720	0.706510
748.564365	0.700710
748.892963	0.700409
749.221514	0.703404
749.550017	0.708579
749.878473	0.708442
750.206881	0.713668
750.535242	0.716228
750.863555	0.715966
751.191821	0.717026
751.520039	0.719770
751.848210	0.725803
752.176334	0.716671
752.504411	0.716830
752.832440	0.724149
753.160421	0.729515
753.488356	0.725887
753.816243	0.724808
754.144082	0.733501
754.471875	0.736236
754.799620	0.731443
755.127318	0.733135
755.454969	0.732153
755.782572	0.732991
756.110129	0.737254
756.437638	0.740052
756.765100	0.736342
757.092515	0.735186
757.419882	0.733314
757.747203	0.738648
758.074477	0.737891
758.401703	0.735029
758.728882	0.731207
759.056014	0.728278
759.383099	0.728541
759.710138	0.729136
760.037129	0.725701
760.364073	0.719948
760.690970	0.721563
761.017820	0.727656
761.344623	0.723471
761.671379	0.713644
761.998088	0.702799
762.324751	0.679735
762.651366	0.638122
762.977935	0.571694
763.304456	0.518770
763.630931	0.509829
763.957359	0.549406
764.283740	0.593651
764.610074	0.620888
764.936362	0.651889
765.262602	0.677566
765.588796	0.700286
765.914943	0.718383
766.241044	0.735029
766.567097	0.742402
766.893104	0.752526
767.219064	0.758495
767.544978	0.764466
767.870845	0.778619
768.196665	0.782044
768.522438	0.780468
768.848165	0.781697
769.173846	0.790159
769.499479	0.794575
769.825066	0.797836
770.150607	0.802636
770.476101	0.797674
770.801548	0.798577
771.126949	0.810618
771.452303	0.814456
771.777611	0.814913
772.102872	0.812778
772.428087	0.817377
772.753256	0.820517
773.078378	0.822355
773.403453	0.832988
773.728482	0.836038
774.053465	0.830461
774.378401	0.833555
774.703291	0.842459
775.028135	0.841039
775.352932	0.843363
775.677683	0.846674
776.002388	0.847799
776.327046	0.845805
776.651658	0.849050
776.976224	0.852880
777.300743	0.853535
777.625216	0.854728
777.949643	0.856848
778.274024	0.856897
778.598359	0.858682
778.922647	0.857069
779.246889	0.858148
779.571086	0.861544
779.895236	0.864731
780.219339	0.861172
780.543397	0.858440
780.867409	0.856994
781.191374	0.860272
781.515294	0.860424
781.839167	0.858747
782.162995	0.863518
782.486776	0.859959
782.810511	0.859788
783.134201	0.864966
783.457844	0.862446
783.781441	0.864259
784.104993	0.871176
784.428498	0.870540
784.751958	0.868115
785.075372	0.868466
785.398739	0.873505
785.722061	0.869155
786.045337	0.864675
786.368568	0.870021
786.691752	0.871938
787.014891	0.857962
787.337983	0.848666
787.661030	0.842463
787.984031	0.824234
788.306987	0.811254
788.629897	0.813551
788.952760	0.816789
789.275579	0.820750
789.598351	0.836694
789.921078	0.849910
790.243759	0.852144
790.566395	0.856994
790.888984	0.863775
791.211529	0.869412
791.534027	0.872299
791.856480	0.873950
792.178888	0.878915
792.501249	0.882623
792.823566	0.882386
793.145836	0.883644
793.468062	0.885379
793.790241	0.885489
794.112375	0.883362
794.434464	0.878497
794.756507	0.877613
795.078505	0.878338
795.400457	0.872166
795.722364	0.859972
796.044226	0.853219
796.366042	0.852531
796.687812	0.855902
797.009538	0.851784
797.331218	0.855044
797.652852	0.860828
797.974442	0.864624
798.295986	0.865220
798.617484	0.866425
798.938938	0.872184
799.260346	0.875701
799.581709	0.877939
799.903026	0.880374
800.224299	0.881237
800.545526	0.885150
800.866708	0.889455
801.187845	0.893786
801.508936	0.892776
801.829983	0.890421
802.150984	0.892544
802.471940	0.897969
802.792851	0.896675
803.113717	0.898289
803.434538	0.895987
803.755314	0.898944
804.076045	0.900260
804.396731	0.900865
804.717372	0.899769
805.037967	0.902486
805.358518	0.900621
805.679024	0.897009
805.999485	0.896613
806.319901	0.897714
806.640272	0.899146
806.960598	0.897527
807.280879	0.894175
807.601115	0.893163
807.921306	0.896065
808.241453	0.896868
808.561554	0.894500
808.881611	0.894491
809.201623	0.896975
809.521590	0.896963
809.841513	0.897300
810.161390	0.897290
810.481223	0.897683
810.801011	0.901361
811.120755	0.903706
811.440453	0.901307
811.760107	0.900817
812.079716	0.901578
812.399281	0.904508
812.718801	0.905975
813.038276	0.906831
813.357707	0.908756
813.677093	0.904010
813.996434	0.907623
814.315731	0.908961
814.634983	0.909072
814.954191	0.908893
815.273354	0.906636
815.592473	0.901961
815.911547	0.901689
816.230577	0.899751
816.549562	0.896862
816.868502	0.897732
817.187399	0.893140
817.506250	0.888641
817.825058	0.890797
818.143821	0.887725
818.462539	0.881871
818.781213	0.873747
819.099843	0.862810
819.418429	0.846789
819.736970	0.830510
820.055466	0.810810
820.373919	0.784951
820.692327	0.751920
821.010691	0.716898
821.329011	0.640759
821.647286	0.524358
821.965517	0.411197
822.283704	0.368422
822.601847	0.370093
822.919945	0.405739
823.237999	0.439051
823.556010	0.485487
823.873976	0.541570
824.191897	0.592167
824.509775	0.634251
824.827609	0.680411
825.145398	0.702037
825.463144	0.705390
825.780845	0.687924
826.098502	0.669677
826.416116	0.624023
826.733685	0.579654
827.051210	0.571098
827.368692	0.585746
827.686129	0.623284
828.003522	0.676292
828.320872	0.724256
828.638177	0.768109
828.955439	0.800280
829.272656	0.822565
829.589830	0.838622
829.906960	0.855372
830.224046	0.867639
830.541088	0.878099
830.858086	0.882150
831.175041	0.888082
831.491952	0.886427
831.808819	0.883961
832.125642	0.876957
832.442421	0.863194
832.759157	0.841504
833.075849	0.794834
833.392497	0.730921
833.709101	0.690653
834.025662	0.699241
834.342179	0.731355
834.658653	0.770441
834.975083	0.806031
835.291469	0.832276
835.607811	0.855255
835.924110	0.870819
836.240366	0.888783
836.556578	0.902251
836.872746	0.910446
837.188871	0.915611
837.504952	0.922057
837.820990	0.925181
838.136984	0.927716
838.452935	0.930198
838.768842	0.932173
839.084706	0.925906
839.400526	0.899373
839.716303	0.859889
840.032037	0.836768
840.347727	0.839950
840.663373	0.860042
840.978977	0.881517
841.294537	0.902100
841.610054	0.918896
841.925527	0.927600
842.240957	0.933669
842.556344	0.939772
842.871687	0.946626
843.186987	0.951002
843.502244	0.951488
843.817458	0.952680
844.132629	0.956178
844.447756	0.961402
844.762840	0.961512
845.077881	0.959719
845.392879	0.960473
845.707833	0.963608
846.022745	0.965181
846.337613	0.966048
846.652438	0.966685
846.967221	0.964822
847.281960	0.965910
847.596656	0.967592
847.911309	0.967558
848.225919	0.969120
848.540485	0.968439
848.855009	0.969610
849.169490	0.969049
849.483928	0.970027
849.798323	0.970903
850.112675	0.971533
850.426984	0.969578
850.741251	0.970740
851.055474	0.971178
851.369654	0.968353
851.683792	0.969089
851.997887	0.969943
852.311938	0.972491
852.625947	0.970751
852.939914	0.968654
853.253837	0.970179
853.567718	0.971475
853.881555	0.971481
854.195350	0.968037
854.509103	0.970755
854.822812	0.971301
855.136479	0.971477
855.450103	0.969986
855.763685	0.969583
856.077224	0.969661
856.390720	0.970869
856.704173	0.970422
857.017584	0.970443
857.330953	0.968379
857.644278	0.968156
857.957561	0.968556
858.270802	0.969223
858.584000	0.967851
858.897155	0.967183
859.210268	0.967674
859.523339	0.969408
859.836367	0.970627
860.149352	0.971068
860.462295	0.968818
860.775195	0.969782
861.088054	0.970468
861.400869	0.969431
861.713642	0.971299
862.026373	0.971004
862.339062	0.971553
862.651708	0.968693
862.964312	0.968436
863.276873	0.970438
863.589392	0.968804
863.901869	0.967167
864.214303	0.966186
864.526696	0.964702
864.839045	0.964067
865.151353	0.962854
865.463619	0.963356
865.775842	0.963321
866.088023	0.964741
866.400162	0.962511
866.712258	0.963507
867.024313	0.963451
867.336325	0.962922
867.648296	0.964634
867.960224	0.963336
868.272110	0.963192
868.583954	0.965382
868.895755	0.963856
869.207515	0.962881
869.519233	0.959858
869.830909	0.960897
870.142542	0.962785
870.454134	0.963045
870.765684	0.961240
871.077191	0.958935
871.388657	0.960355
871.700081	0.958803
872.011463	0.959642
872.322803	0.958388
872.634101	0.956573
872.945357	0.955372
873.256571	0.953021
873.567744	0.954139
873.878874	0.954223
874.189963	0.952705
874.501010	0.951013
874.812015	0.949991
875.122979	0.951997
875.433900	0.953777
875.744780	0.954391
876.055618	0.952148
876.366415	0.951498
876.677169	0.951069
876.987882	0.952153
877.298554	0.951188
877.609183	0.948383
877.919771	0.945506
878.230317	0.943838
878.540822	0.941022
878.851285	0.935800
879.161707	0.928137
879.472087	0.916428
879.782425	0.900743
880.092722	0.866218
880.402977	0.813639
880.713191	0.752901
881.023363	0.694494
881.333494	0.660961
881.643583	0.633280
881.953631	0.632223
882.263637	0.661553
882.573602	0.700449
882.883526	0.725660
883.193408	0.749511
883.503248	0.771322
883.813048	0.799045
884.122806	0.828073
884.432522	0.852304
884.742197	0.871892
885.051831	0.883128
885.361424	0.892686
885.670975	0.903480
885.980485	0.913544
886.289954	0.920375
886.599382	0.926126
886.908768	0.929262
887.218113	0.934837
887.527417	0.939941
887.836680	0.943430
888.145901	0.943764
888.455082	0.946441
888.764221	0.951627
889.073319	0.953836
889.382376	0.953831
889.691392	0.954822
890.000366	0.953528
890.309300	0.954302
890.618193	0.953652
890.927044	0.952304
891.235855	0.952355
891.544625	0.952821
891.853353	0.952191
892.162041	0.949798
892.470687	0.943475
892.779293	0.939272
893.087858	0.935427
893.396381	0.927627
893.704864	0.913426
894.013306	0.890604
894.321707	0.863182
894.630068	0.848897
894.938387	0.845822
895.246665	0.846839
895.554903	0.859577
895.863100	0.871269
896.171256	0.887604
896.479371	0.907256
896.787446	0.920743
897.095480	0.926181
897.403473	0.928177
897.711425	0.932876
898.019336	0.941783
898.327207	0.943618
898.635038	0.946183
898.942827	0.947006
899.250576	0.948800
899.558284	0.953143
899.865952	0.955130
900.173579	0.955800
900.481165	0.955550
900.788711	0.960781
901.096216	0.961779
901.403681	0.962667
901.711105	0.963828
902.018489	0.964766
902.325832	0.963361
902.633135	0.962366
902.940397	0.956196
903.247619	0.945256
903.554800	0.918960
903.861941	0.880752
904.169041	0.844391
904.476101	0.827210
904.783121	0.827580
905.090100	0.844687
905.397039	0.864216
905.703938	0.888084
906.010796	0.907741
906.317614	0.923713
906.624391	0.935861
906.931129	0.945497
907.237826	0.952457
907.544483	0.959385
907.851099	0.964573
908.157675	0.968398
908.464211	0.970375
908.770707	0.973639
909.077163	0.974364
909.383578	0.975175
909.689954	0.975134
909.996289	0.976805
910.302584	0.978597
910.608839	0.980069
910.915054	0.978630
911.221229	0.978625
911.527363	0.976881
911.833458	0.977788
912.139513	0.977207
912.445527	0.975993
912.751502	0.974356
913.057436	0.972954
913.363331	0.971127
913.669186	0.966655
913.975000	0.962518
914.280775	0.955933
914.586510	0.949010
914.892205	0.935564
915.197859	0.916014
915.503475	0.887558
915.809050	0.868392
916.114585	0.863315
916.420081	0.860580
916.725536	0.856984
917.030952	0.865667
917.336328	0.877723
917.641665	0.892759
917.946961	0.908340
918.252218	0.920501
918.557435	0.929247
918.862612	0.937240
919.167750	0.942775
919.472848	0.947672
919.777906	0.954196
920.082925	0.957869
920.387904	0.962627
920.692843	0.963473
920.997743	0.964920
921.302603	0.967327
921.607423	0.969801
921.912204	0.971872
922.216946	0.972956
922.521647	0.973421
922.826310	0.975153
923.130932	0.977402
923.435516	0.979203
923.740059	0.979808
924.044564	0.980329
924.349028	0.981181
924.653454	0.982609
924.957840	0.985269
925.262186	0.982710
925.566493	0.984437
925.870761	0.985806
926.174989	0.985865
926.479178	0.989123
926.783328	0.988408
927.087438	0.989327
927.391509	0.988326
927.695541	0.990460
927.999533	0.990788
928.303486	0.990096
928.607400	0.991392
928.911275	0.990459
929.215110	0.991073
929.518906	0.990924
929.822663	0.990734
930.126381	0.991530
930.430060	0.990770
930.733699	0.992062
931.037299	0.990025
931.340861	0.990006
931.644383	0.990767
931.947866	0.990284
932.251309	0.990593
932.554714	0.990035
932.858080	0.990691
933.161407	0.992133
933.464694	0.991940
933.767943	0.989417
934.071153	0.992015
934.374323	0.991873
934.677455	0.992611
934.980548	0.992583
935.283602	0.991128
935.586617	0.991300
935.889593	0.990658
936.192530	0.990702
936.495428	0.991191
936.798287	0.991804
937.101108	0.990785
937.403890	0.989476
937.706632	0.989871
938.009336	0.987914
938.312002	0.987290
938.614628	0.985011
938.917216	0.983564
939.219765	0.982546
939.522275	0.983334
939.824747	0.983159
940.127179	0.984618
940.429573	0.985269
940.731929	0.983081
941.034246	0.985473
941.336524	0.987011
941.638763	0.986644
941.940964	0.986634
942.243126	0.986630
942.545250	0.988883
942.847335	0.989275
943.149381	0.988967
943.451389	0.988638
943.753359	0.989532
944.055290	0.992503
944.357182	0.990971
944.659036	0.990419
944.960851	0.989957
945.262628	0.990699
945.564367	0.991187
945.866067	0.991069
946.167729	0.991537
946.469352	0.990931
946.770937	0.989678
947.072484	0.991211
947.373992	0.990515
947.675462	0.989867
947.976893	0.989803
948.278286	0.991915
948.579641	0.991493
948.880958	0.991114
949.182236	0.992809
949.483476	0.992279
949.784678	0.991663
950.085841	0.991453
950.386967	0.991214
950.688054	0.991811
950.989103	0.990921
951.290114	0.991158
951.591087	0.990068
951.892021	0.990583
952.192917	0.989313
952.493776	0.988964
952.794596	0.988620
953.095378	0.988608
953.396122	0.988520
953.696828	0.988854
953.997496	0.989592
954.298126	0.991307
954.598718	0.990485
954.899272	0.991870
955.199788	0.991190
955.500266	0.992298
955.800706	0.993479
956.101108	0.993414
956.401472	0.994182
956.701798	0.993972
957.002087	0.993585
957.302337	0.994927
957.602550	0.995353
957.902724	0.994875
958.202861	0.994443
958.502960	0.995795
958.803022	0.993703
959.103045	0.996746
959.403031	0.997291
959.702979	0.996179
960.002889	0.996875
960.302762	0.995076
960.602596	0.996352
960.902393	0.994684
961.202153	0.997801
961.501875	0.997382
961.801559	0.995770
962.101205	0.996709
962.400814	0.996338
962.700385	0.998123
962.999918	0.996966
963.299414	0.998126
963.598873	0.996206
963.898293	0.996415
964.197677	0.997141
964.497022	0.996088
964.796331	0.999478
965.095601	0.997071
965.394835	0.996733
965.694030	0.997500
965.993189	0.998246
966.292309	0.996548
966.591393	0.997907
966.890439	0.997070
967.189447	0.997009
967.488419	0.997232
967.787353	0.996344
968.086249	0.996778
968.385108	0.997564
968.683930	0.997585
968.982714	0.998131
969.281462	0.998079
969.580172	0.996341
969.878844	0.997438
970.177480	0.997668
970.476078	0.997036
970.774639	0.998135
971.073162	0.998041
971.371649	0.997206
971.670098	0.996811
971.968510	0.997424
972.266885	0.994952
972.565223	0.997637
972.863524	0.995749
973.161788	0.996528
973.460014	0.999007
973.758204	0.996435
974.056356	0.996490
974.354471	0.994967
974.652550	0.996952
974.950591	0.997703
975.248595	0.996319
975.546563	0.996890
975.844493	0.998707
976.142386	0.997851
976.440243	0.999573
976.738062	0.997648
977.035845	0.999357
977.333590	0.996708
977.631299	0.998377
977.928971	0.997717
978.226606	0.996964
978.524204	0.996613
978.821765	0.998161
979.119290	0.998116
979.416777	0.997231
979.714228	0.998593
980.011642	0.996743
980.309020	0.997734
980.606360	0.997537
980.903664	0.999134
981.200931	0.997019
981.498162	0.995015
981.795356	0.994739
982.092513	0.995594
982.389633	0.995743
982.686717	0.992224
982.983764	0.992103
983.280775	0.990433
983.577749	0.990825
983.874686	0.992492
984.171587	0.992494
984.468451	0.995252
984.765279	0.995747
985.062070	0.995114
985.358824	0.995535
985.655543	0.995283
985.952224	0.996207
986.248869	0.996429
986.545478	0.996983
986.842050	0.998578
987.138586	0.996809
987.435086	0.998562
987.731549	0.999288
988.027975	0.998823
988.324366	0.998138
988.620719	0.997736
988.917037	0.996723
989.213318	0.999235
989.509563	0.999940
989.805772	0.999236
990.101944	0.998448
990.398080	0.997530
990.694180	0.999158
990.990244	0.998672
991.286271	0.999252
991.582262	0.998720
991.878217	0.998518
992.174136	0.999026
992.470019	0.999326
992.765865	0.999070
993.061676	0.998233
993.357450	0.998722
993.653188	0.998289
993.948890	0.998680
994.244556	0.998658
994.540186	0.997672
994.835780	0.996107
995.131337	0.997831
995.426859	0.997783
995.722345	0.998624
996.017795	0.997048
996.313208	0.996016
996.608586	0.995833
996.903928	0.997813
997.199234	0.996046
997.494504	0.997867
997.789738	0.996617
998.084936	0.997784
998.380099	0.997566
998.675225	0.997945
998.970316	0.998083
999.265371	0.998902
999.560390	0.997999
999.855373	0.998595
1000.150320	0.997873
1000.445232	0.998226
1000.740108	0.998395
1001.034948	0.998244
1001.329752	1.000707
1001.624521	0.999625
1001.919254	0.998798
1002.213951	0.998547
1002.508613	0.999458
1002.803239	0.999982
1003.097829	0.999215
1003.392384	1.000043
1003.686903	0.999100
1003.981386	0.999607
1004.275834	0.999199
1004.570246	0.999151
1004.864623	0.998462
1005.158964	1.001231
1005.453270	0.998037
1005.747540	0.998482
1006.041775	0.999216
1006.335974	1.000091
1006.630138	1.001000
1006.924266	0.999822
1007.218359	1.000573
1007.512416	0.999500
1007.806438	1.000074
1008.100425	1.000353
1008.394376	0.999912
1008.688292	0.998032
1008.982172	1.001253
1009.276017	0.999514
1009.569827	0.998924
1009.863602	0.998980
1010.157341	0.999616
1010.451045	0.999315
1010.744714	0.998995
1011.038347	1.000715
1011.331945	0.999039
1011.625508	0.998518
1011.919036	0.999358
1012.212528	0.999803
1012.505986	0.997618
1012.799408	0.999395
1013.092795	1.000178
1013.386147	0.999304
1013.679464	0.999303
1013.972745	0.999161
1014.265992	0.997986
1014.559204	0.998647
1014.852380	1.001158
1015.145521	1.000597
1015.438628	0.999403
1015.731699	0.999283
1016.024736	0.999114
1016.317737	0.999650
1016.610703	1.000642
1016.903635	1.001401
1017.196531	0.999846
1017.489393	1.000308
1017.782219	0.999925
1018.075011	0.999477
1018.367768	1.000382
1018.660490	1.000018
1018.953177	1.000018
1019.245829	1.000018
