Dividing Wavelength (nm)	Counts (n)	Blue Motor Position (mm): 0.000000	Red Motor Position (mm): 30.600000	
326.493990	1.001325
326.888308	1.001325
327.282561	1.001325
327.676750	0.999539
328.070874	0.999836
328.464933	1.001262
328.858929	0.999093
329.252859	1.000898
329.646726	1.000041
330.040528	1.000881
330.434265	1.000244
330.827938	1.001488
331.221547	1.001085
331.615091	1.000572
332.008571	0.999975
332.401986	1.000416
332.795338	1.001032
333.188625	0.998195
333.581847	1.000895
333.975006	1.000526
334.368100	0.999690
334.761129	1.000380
335.154095	1.000945
335.546996	0.997857
335.939833	0.995498
336.332606	0.996092
336.725315	0.996592
337.117960	0.997106
337.510540	0.995436
337.903056	0.997489
338.295508	0.994846
338.687896	0.996682
339.080220	0.995176
339.472480	0.997663
339.864676	0.994886
340.256807	0.995859
340.648875	0.996470
341.040879	0.995678
341.432818	0.997042
341.824694	0.994798
342.216506	0.997095
342.608253	0.995370
342.999937	0.995687
343.391557	0.995623
343.783113	0.995376
344.174605	0.995732
344.566033	0.996926
344.957397	0.995817
345.348697	0.995912
345.739934	0.995925
346.131106	0.996204
346.522215	0.994561
346.913260	0.995041
347.304241	0.996157
347.695159	0.996764
348.086012	0.995942
348.476802	0.995460
348.867528	0.996020
349.258191	0.995313
349.648789	0.996999
350.039324	0.996832
350.429796	0.996312
350.820203	0.995700
351.210548	0.995382
351.600828	0.996043
351.991045	0.996773
352.381198	0.995530
352.771288	0.996156
353.161314	0.996632
353.551276	0.997814
353.941175	0.995873
354.331010	0.996695
354.720782	0.996071
355.110490	0.995975
355.500135	0.996697
355.889717	0.996366
356.279235	0.996092
356.668689	0.996572
357.058080	0.996514
357.447408	0.996743
357.836672	0.997087
358.225873	0.996820
358.615010	0.996684
359.004084	0.996625
359.393095	0.995418
359.782043	0.996603
360.170927	0.996197
360.559748	0.996820
360.948505	0.995711
361.337199	0.996342
361.725830	0.995651
362.114398	0.996152
362.502903	0.995508
362.891344	0.997009
363.279722	0.996729
363.668037	0.997478
364.056289	0.997177
364.444478	0.996227
364.832603	0.997461
365.220665	0.994765
365.608665	0.995701
365.996601	0.995841
366.384474	0.995789
366.772284	0.996547
367.160031	0.995451
367.547715	0.995009
367.935336	0.996125
368.322893	0.995433
368.710388	0.995768
369.097820	0.994831
369.485189	0.995589
369.872495	0.995227
370.259738	0.994115
370.646918	0.997703
371.034035	0.996441
371.421090	0.996601
371.808081	0.995892
372.195010	0.996098
372.581875	0.996303
372.968678	0.995910
373.355418	0.996111
373.742096	0.996037
374.128710	0.997956
374.515262	0.995080
374.901751	0.997166
375.288177	0.996186
375.674540	0.996545
376.060841	0.995103
376.447079	0.997347
376.833254	0.996030
377.219367	0.997125
377.605417	0.996239
377.991404	0.996520
378.377329	0.995944
378.763191	0.996413
379.148991	0.997505
379.534727	0.998028
379.920402	0.996679
380.306013	0.996977
380.691563	0.997084
381.077049	0.996611
381.462474	0.996659
381.847835	0.997209
382.233134	0.996671
382.618371	0.997150
383.003545	0.997453
383.388657	0.996665
383.773706	0.997433
384.158693	0.996328
384.543618	0.996242
384.928480	0.996963
385.313280	0.997964
385.698017	0.998050
386.082692	0.998049
386.467305	0.998402
386.851856	0.996763
387.236344	0.996549
387.620770	0.996341
388.005133	0.998129
388.389435	0.997536
388.773674	0.996322
389.157851	0.996691
389.541965	0.997956
389.926018	0.996466
390.310008	0.997832
390.693936	0.997694
391.077802	0.998238
391.461606	0.997460
391.845348	0.997638
392.229027	0.998322
392.612645	0.997320
392.996200	0.998538
393.379694	0.997881
393.763125	0.998596
394.146494	0.997775
394.529801	0.997185
394.913047	0.998591
395.296230	0.997130
395.679351	0.997275
396.062410	0.998012
396.445408	0.996900
396.828343	0.998562
397.211217	0.998115
397.594028	0.998039
397.976778	0.997170
398.359466	0.998431
398.742092	0.997342
399.124656	0.997243
399.507158	0.997397
399.889598	0.998361
400.271977	0.998077
400.654294	0.997676
401.036549	0.997613
401.418742	0.998087
401.800874	0.996439
402.182944	0.997272
402.564952	0.996305
402.946898	0.998500
403.328783	0.997939
403.710606	0.998758
404.092367	0.997986
404.474067	0.997593
404.855705	0.997469
405.237282	0.998898
405.618797	0.998549
406.000250	0.997338
406.381642	0.998477
406.762972	0.998193
407.144240	0.998402
407.525447	0.998171
407.906593	0.998028
408.287677	0.997634
408.668700	0.997764
409.049661	0.996181
409.430560	0.998189
409.811399	0.997542
410.192176	0.997902
410.572891	0.998418
410.953545	0.997857
411.334138	0.997472
411.714669	0.998511
412.095139	0.997737
412.475547	0.999089
412.855894	0.998142
413.236180	0.998523
413.616405	0.998546
413.996568	0.998971
414.376670	0.998642
414.756711	0.998387
415.136691	0.998844
415.516609	0.998636
415.896466	0.997663
416.276262	0.996476
416.655997	0.998911
417.035670	0.998819
417.415283	0.998100
417.794834	0.998221
418.174324	0.997852
418.553753	0.998617
418.933121	0.998125
419.312428	0.997494
419.691674	0.997875
420.070859	0.999345
420.449983	0.998139
420.829045	0.998270
421.208047	0.998727
421.586988	1.000019
421.965867	0.998629
422.344686	0.999381
422.723444	0.998150
423.102141	0.998249
423.480777	0.998331
423.859352	0.998080
424.237866	0.997535
424.616319	0.999102
424.994712	0.998887
425.373044	0.999008
425.751314	0.998418
426.129524	0.998066
426.507673	0.998721
426.885762	0.998906
427.263789	0.997813
427.641756	0.997799
428.019662	0.998549
428.397508	0.997794
428.775292	0.997718
429.153016	0.998632
429.530679	0.998763
429.908282	0.999153
430.285824	0.998670
430.663305	0.998181
431.040726	0.998590
431.418086	0.999457
431.795385	0.998989
432.172624	0.998107
432.549802	0.998869
432.926920	0.998818
433.303977	0.998096
433.680974	0.998682
434.057910	0.998583
434.434786	0.998440
434.811601	0.998443
435.188355	0.998028
435.565050	0.998271
435.941683	0.998513
436.318257	0.999154
436.694770	0.998046
437.071222	0.998525
437.447614	0.997946
437.823946	0.998163
438.200218	0.999462
438.576429	0.998442
438.952580	0.999561
439.328670	0.998176
439.704700	0.998530
440.080670	0.999109
440.456580	0.997872
440.832429	0.997281
441.208218	0.998322
441.583947	0.998294
441.959616	0.999167
442.335224	0.998196
442.710773	0.998568
443.086261	0.998566
443.461689	0.998207
443.837057	0.998340
444.212365	0.998670
444.587612	0.998335
444.962800	0.997780
445.337927	0.998562
445.712995	0.999157
446.088002	0.999108
446.462949	0.998536
446.837837	0.998661
447.212664	0.998449
447.587431	0.998263
447.962139	0.998841
448.336786	0.999226
448.711374	0.998870
449.085901	0.998561
449.460369	0.999164
449.834776	0.998236
450.209124	0.999143
450.583412	0.999040
450.957640	0.998575
451.331808	0.998392
451.705917	0.997735
452.079965	0.998138
452.453954	0.998345
452.827883	0.997793
453.201752	0.998890
453.575562	0.999557
453.949311	0.998631
454.323001	0.999023
454.696632	0.997883
455.070202	0.998480
455.443713	0.998251
455.817164	0.999174
456.190556	0.998027
456.563888	0.998284
456.937160	0.998782
457.310373	0.997183
457.683526	0.997999
458.056619	0.998077
458.429653	0.998185
458.802628	0.997257
459.175542	0.997599
459.548398	0.998164
459.921194	0.997565
460.293930	0.998262
460.666607	0.997586
461.039224	0.997186
461.411782	0.998008
461.784280	0.997889
462.156719	0.998550
462.529099	0.998249
462.901419	0.997296
463.273680	0.997651
463.645882	0.997790
464.018024	0.997550
464.390106	0.997107
464.762130	0.997677
465.134094	0.997779
465.505999	0.997494
465.877845	0.997130
466.249631	0.996284
466.621358	0.996220
466.993026	0.995673
467.364634	0.995974
467.736184	0.994989
468.107674	0.994502
468.479105	0.993835
468.850477	0.993984
469.221790	0.993250
469.593043	0.993170
469.964238	0.993139
470.335373	0.990942
470.706449	0.990745
471.077467	0.990692
471.448425	0.988660
471.819324	0.988830
472.190164	0.986835
472.560945	0.986708
472.931667	0.985711
473.302330	0.984864
473.672934	0.984437
474.043479	0.983258
474.413965	0.980955
474.784393	0.980944
475.154761	0.978627
475.525070	0.977544
475.895321	0.976567
476.265513	0.975324
476.635645	0.973410
477.005719	0.971819
477.375734	0.969283
477.745691	0.968451
478.115588	0.966122
478.485427	0.963787
478.855207	0.960320
479.224928	0.955668
479.594591	0.953140
479.964194	0.951937
480.333739	0.949587
480.703226	0.947222
481.072653	0.945262
481.442022	0.940583
481.811333	0.936050
482.180584	0.935418
482.549777	0.931453
482.918912	0.929059
483.287988	0.925392
483.657005	0.923025
484.025964	0.919394
484.394864	0.916187
484.763706	0.912928
485.132489	0.909730
485.501213	0.905315
485.869879	0.901659
486.238487	0.896985
486.607036	0.893803
486.975527	0.887907
487.343959	0.884261
487.712333	0.878990
488.080648	0.875061
488.448905	0.868702
488.817104	0.865150
489.185244	0.859144
489.553326	0.852808
489.921350	0.843943
490.289315	0.831772
490.657222	0.826042
491.025070	0.819993
491.392861	0.815808
491.760593	0.812470
492.128267	0.808637
492.495883	0.804444
492.863440	0.800323
493.230939	0.795483
493.598380	0.789311
493.965763	0.782518
494.333088	0.778780
494.700354	0.770882
495.067563	0.766250
495.434713	0.759234
495.801805	0.752827
496.168839	0.746171
496.535815	0.738856
496.902733	0.733669
497.269593	0.726334
497.636395	0.720302
498.003139	0.711724
498.369825	0.707619
498.736453	0.697758
499.103023	0.692115
499.469535	0.685090
499.835989	0.678556
500.202385	0.671983
500.568723	0.666232
500.935003	0.658384
501.301226	0.650777
501.667390	0.642780
502.033497	0.634955
502.399546	0.630279
502.765537	0.623399
503.131470	0.615240
503.497345	0.606447
503.863163	0.605125
504.228923	0.593761
504.594625	0.586976
504.960269	0.582895
505.325856	0.573364
505.691385	0.568498
506.056856	0.560245
506.422270	0.553211
506.787625	0.549218
507.152924	0.540238
507.518164	0.534273
507.883347	0.528542
508.248472	0.523638
508.613540	0.514014
508.978550	0.508880
509.343503	0.502805
509.708398	0.495161
510.073236	0.487448
510.438016	0.481054
510.802738	0.475498
511.167403	0.468763
511.532010	0.464140
511.896561	0.456162
512.261053	0.449631
512.625488	0.444709
512.989866	0.439228
513.354186	0.433729
513.718449	0.429237
514.082655	0.421968
514.446803	0.418101
514.810894	0.411211
515.174927	0.407738
515.538904	0.402691
515.902822	0.395053
516.266684	0.392417
516.630488	0.388315
516.994235	0.383139
517.357925	0.376563
517.721558	0.371035
518.085133	0.365929
518.448651	0.362092
518.812112	0.360163
519.175516	0.354827
519.538863	0.349100
519.902152	0.346476
520.265385	0.339416
520.628560	0.337681
520.991678	0.333815
521.354739	0.329419
521.717743	0.327040
522.080690	0.324137
522.443580	0.317775
522.806413	0.315298
523.169189	0.311310
523.531908	0.307346
523.894569	0.307528
524.257174	0.304475
524.619722	0.299166
524.982213	0.298044
525.344647	0.293820
525.707025	0.291935
526.069345	0.287594
526.431608	0.286629
526.793815	0.282367
527.155964	0.283755
527.518057	0.280525
527.880093	0.279411
528.242072	0.275992
528.603995	0.275752
528.965860	0.275504
529.327669	0.272292
529.689421	0.271472
530.051117	0.270714
530.412755	0.266232
530.774337	0.267315
531.135862	0.265793
531.497331	0.264033
531.858743	0.265038
532.220098	0.260552
532.581396	0.261657
532.942638	0.261087
533.303824	0.260486
533.664953	0.259205
534.026025	0.259422
534.387040	0.256412
534.747999	0.255488
535.108902	0.253394
535.469748	0.257424
535.830537	0.254381
536.191270	0.254093
536.551947	0.252808
536.912567	0.252157
537.273131	0.253520
537.633638	0.252696
537.994089	0.252440
538.354483	0.252780
538.714821	0.249388
539.075103	0.248458
539.435328	0.248848
539.795497	0.252218
540.155609	0.248413
540.515665	0.245949
540.875665	0.251421
541.235609	0.249391
541.595496	0.249002
541.955328	0.245002
542.315102	0.247476
542.674821	0.248389
543.034483	0.247932
543.394090	0.247367
543.753640	0.248845
544.113134	0.243765
544.472571	0.246814
544.831953	0.243748
545.191278	0.247364
545.550548	0.246672
545.909761	0.243307
546.268918	0.243867
546.628019	0.241907
546.987064	0.244612
547.346053	0.246269
547.704986	0.243799
548.063863	0.244213
548.422684	0.243918
548.781449	0.245958
549.140158	0.243601
549.498811	0.246249
549.857408	0.248922
550.215949	0.243932
550.574434	0.246780
550.932864	0.244828
551.291237	0.243163
551.649555	0.244500
552.007817	0.244076
552.366022	0.244620
552.724173	0.245162
553.082267	0.245180
553.440305	0.242170
553.798288	0.246647
554.156215	0.242970
554.514086	0.243675
554.871902	0.247034
555.229661	0.245802
555.587365	0.246450
555.945014	0.248912
556.302606	0.245752
556.660143	0.248208
557.017625	0.244737
557.375050	0.246693
557.732421	0.243828
558.089735	0.245924
558.446994	0.245596
558.804197	0.245095
559.161345	0.244969
559.518437	0.248468
559.875474	0.246020
560.232455	0.245436
560.589381	0.246794
560.946251	0.246531
561.303065	0.244065
561.659825	0.245761
562.016528	0.247154
562.373177	0.250119
562.729770	0.247099
563.086307	0.249256
563.442789	0.247062
563.799216	0.249843
564.155587	0.248655
564.511904	0.249680
564.868164	0.249512
565.224370	0.249445
565.580520	0.251434
565.936615	0.251367
566.292654	0.254019
566.648638	0.250978
567.004567	0.251877
567.360441	0.252567
567.716260	0.254412
568.072023	0.252343
568.427732	0.253001
568.783385	0.255742
569.138982	0.253552
569.494525	0.253222
569.850013	0.255870
570.205445	0.254443
570.560823	0.256744
570.916145	0.258931
571.271412	0.257206
571.626625	0.258530
571.981782	0.259062
572.336884	0.259896
572.691931	0.259546
573.046923	0.260843
573.401860	0.262121
573.756743	0.263710
574.111570	0.262504
574.466342	0.263216
574.821059	0.262211
575.175722	0.264943
575.530330	0.264756
575.884882	0.265021
576.239380	0.266901
576.593823	0.267590
576.948211	0.266895
577.302544	0.270368
577.656823	0.269783
578.011047	0.269909
578.365216	0.270521
578.719330	0.272678
579.073389	0.272414
579.427394	0.273783
579.781344	0.274467
580.135239	0.275938
580.489080	0.275494
580.842866	0.278270
581.196597	0.278231
581.550273	0.277073
581.903895	0.278181
582.257463	0.276151
582.610975	0.279665
582.964434	0.278938
583.317837	0.281191
583.671186	0.281838
584.024481	0.281822
584.377721	0.284544
584.730906	0.284919
585.084037	0.284242
585.437113	0.285914
585.790135	0.285156
586.143103	0.288299
586.496016	0.289617
586.848874	0.287071
587.201679	0.287463
587.554428	0.290643
587.907124	0.290118
588.259765	0.290622
588.612352	0.290937
588.964884	0.294691
589.317362	0.294066
589.669786	0.294000
590.022155	0.293039
590.374470	0.291986
590.726731	0.294175
591.078937	0.298781
591.431090	0.295180
591.783188	0.299484
592.135232	0.299692
592.487222	0.299692
592.839157	0.298136
593.191038	0.300304
593.542866	0.301930
593.894639	0.305623
594.246358	0.303880
594.598022	0.303197
594.949633	0.306957
595.301190	0.307637
595.652692	0.306798
596.004141	0.302898
596.355535	0.310701
596.706876	0.311330
597.058162	0.313936
597.409395	0.311013
597.760573	0.308879
598.111698	0.312069
598.462768	0.312479
598.813785	0.313649
599.164748	0.315061
599.515657	0.315327
599.866511	0.318917
600.217312	0.313713
600.568060	0.319348
600.918753	0.315830
601.269392	0.316681
601.619978	0.320019
601.970510	0.317597
602.320988	0.317769
602.671412	0.315573
603.021783	0.317706
603.372100	0.319324
603.722363	0.318550
604.072572	0.319724
604.422728	0.319519
604.772830	0.321486
605.122878	0.320972
605.472872	0.321934
605.822813	0.319999
606.172701	0.322772
606.522534	0.319879
606.872314	0.319978
607.222041	0.320976
607.571714	0.319427
607.921333	0.320648
608.270899	0.320512
608.620411	0.317316
608.969870	0.320904
609.319276	0.321165
609.668627	0.321130
610.017926	0.319716
610.367171	0.318159
610.716362	0.318706
611.065500	0.319096
611.414585	0.317872
611.763616	0.318437
612.112594	0.318971
612.461518	0.318098
612.810389	0.316004
613.159207	0.318174
613.507971	0.320201
613.856682	0.315908
614.205340	0.317522
614.553945	0.314139
614.902496	0.318244
615.250994	0.316016
615.599439	0.316710
615.947830	0.316078
616.296169	0.317254
616.644454	0.316749
616.992686	0.316654
617.340864	0.314592
617.688990	0.318225
618.037063	0.314846
618.385082	0.316595
618.733048	0.313539
619.080961	0.315998
619.428821	0.315261
619.776628	0.314584
620.124382	0.317130
620.472083	0.317375
620.819731	0.316735
621.167326	0.320257
621.514868	0.320051
621.862357	0.324668
622.209793	0.323903
622.557176	0.326065
622.904506	0.327285
623.251783	0.329524
623.599007	0.331713
623.946179	0.331330
624.293297	0.333506
624.640363	0.337265
624.987376	0.338279
625.334336	0.340179
625.681243	0.342546
626.028097	0.343283
626.374899	0.344083
626.721647	0.344447
627.068343	0.347742
627.414987	0.348775
627.761577	0.350860
628.108115	0.349260
628.454600	0.354443
628.801032	0.351661
629.147412	0.353793
629.493739	0.354228
629.840014	0.357458
630.186236	0.354491
630.532405	0.360098
630.878521	0.357692
631.224585	0.359936
631.570597	0.363284
631.916556	0.361758
632.262462	0.361972
632.608316	0.363787
632.954117	0.364810
633.299866	0.365675
633.645562	0.366233
633.991206	0.370446
634.336797	0.373119
634.682336	0.375446
635.027823	0.377119
635.373257	0.378257
635.718639	0.381057
636.063968	0.380698
636.409245	0.386986
636.754470	0.386747
637.099642	0.389438
637.444762	0.392153
637.789829	0.391271
638.134845	0.394981
638.479808	0.396677
638.824719	0.395568
639.169577	0.399949
639.514383	0.398617
639.859137	0.402872
640.203839	0.403098
640.548489	0.403425
640.893086	0.404857
641.237632	0.405774
641.582125	0.404792
641.926566	0.406381
642.270955	0.406596
642.615292	0.406369
642.959576	0.405578
643.303809	0.406556
643.647990	0.405834
643.992118	0.406730
644.336195	0.410295
644.680219	0.408552
645.024192	0.409316
645.368112	0.402794
645.711981	0.402109
646.055797	0.396993
646.399562	0.399967
646.743274	0.391440
647.086935	0.388880
647.430544	0.389323
647.774101	0.387901
648.117606	0.387754
648.461059	0.387791
648.804460	0.390493
649.147810	0.395531
649.491108	0.397956
649.834354	0.399062
650.177548	0.404269
650.520690	0.410202
650.863781	0.410659
651.206820	0.410076
651.549807	0.415243
651.892742	0.418824
652.235626	0.418419
652.578458	0.419759
652.921238	0.425603
653.263967	0.423066
653.606644	0.427195
653.949269	0.426858
654.291843	0.430690
654.634365	0.426996
654.976836	0.430649
655.319255	0.430773
655.661622	0.432082
656.003938	0.432557
656.346203	0.435450
656.688416	0.432959
657.030577	0.436612
657.372687	0.438548
657.714746	0.439262
658.056753	0.436409
658.398708	0.440307
658.740612	0.441273
659.082465	0.437828
659.424266	0.438075
659.766016	0.437708
660.107715	0.439874
660.449362	0.439553
660.790958	0.439895
661.132503	0.440376
661.473996	0.437694
661.815438	0.439392
662.156829	0.438756
662.498168	0.439643
662.839456	0.441333
663.180693	0.438954
663.521879	0.439039
663.863013	0.439852
664.204097	0.438198
664.545129	0.435234
664.886110	0.435737
665.227040	0.432863
665.567918	0.435448
665.908746	0.433495
666.249522	0.433235
666.590248	0.434191
666.930922	0.432305
667.271545	0.430775
667.612118	0.431407
667.952639	0.433165
668.293109	0.431405
668.633528	0.434431
668.973896	0.434161
669.314213	0.434880
669.654480	0.436091
669.994695	0.436805
670.334859	0.437245
670.674973	0.437668
671.015035	0.437982
671.355047	0.438040
671.695008	0.438387
672.034918	0.440484
672.374777	0.439673
672.714585	0.441636
673.054342	0.441289
673.394049	0.441503
673.733705	0.438782
674.073310	0.440067
674.412864	0.442951
674.752368	0.443790
675.091820	0.443548
675.431223	0.448178
675.770574	0.448278
676.109875	0.451240
676.449125	0.450664
676.788324	0.453650
677.127473	0.458645
677.466571	0.458538
677.805619	0.460008
678.144616	0.461188
678.483562	0.463369
678.822458	0.465332
679.161303	0.466214
679.500098	0.466764
679.838842	0.469258
680.177535	0.467983
680.516179	0.466792
680.854771	0.465551
681.193314	0.459567
681.531805	0.450705
681.870247	0.438904
682.208638	0.431327
682.546978	0.430768
682.885268	0.432322
683.223508	0.438609
683.561697	0.442030
683.899836	0.445069
684.237925	0.448649
684.575963	0.451186
684.913951	0.454011
685.251889	0.449578
685.589776	0.451338
685.927614	0.453903
686.265401	0.448533
686.603137	0.449700
686.940824	0.443731
687.278460	0.442208
687.616046	0.441538
687.953582	0.435765
688.291068	0.438053
688.628504	0.433882
688.965889	0.435532
689.303224	0.439836
689.640510	0.443578
689.977745	0.449192
690.314930	0.457163
690.652065	0.461174
690.989150	0.468854
691.326185	0.475432
691.663170	0.480352
692.000105	0.487379
692.336990	0.494335
692.673825	0.496754
693.010610	0.503607
693.347345	0.509162
693.684030	0.510548
694.020665	0.515651
694.357251	0.524900
694.693786	0.523962
695.030272	0.528797
695.366707	0.531398
695.703093	0.535200
696.039429	0.532855
696.375716	0.534466
696.711952	0.536794
697.048139	0.539041
697.384276	0.541133
697.720363	0.538986
698.056400	0.538632
698.392388	0.544139
698.728326	0.546735
699.064214	0.549604
699.400053	0.550541
699.735842	0.553913
700.071581	0.556171
700.407270	0.559751
700.742910	0.561840
701.078501	0.569257
701.414042	0.569204
701.749533	0.572106
702.084974	0.580225
702.420366	0.573239
702.755709	0.580759
703.091002	0.589024
703.426246	0.581994
703.761440	0.587988
704.096584	0.592698
704.431679	0.589353
704.766725	0.591602
705.101721	0.592623
705.436668	0.589795
705.771565	0.596479
706.106413	0.593240
706.441212	0.588497
706.775961	0.586954
707.110661	0.589992
707.445311	0.586373
707.779913	0.582857
708.114465	0.582002
708.448967	0.578891
708.783421	0.570502
709.117825	0.565018
709.452180	0.565826
709.786485	0.559809
710.120742	0.548931
710.454949	0.551410
710.789107	0.543566
711.123216	0.534558
711.457275	0.536848
711.791286	0.527148
712.125247	0.526328
712.459159	0.536907
712.793023	0.529315
713.126837	0.533526
713.460602	0.533706
713.794318	0.543590
714.127985	0.542341
714.461602	0.551783
714.795171	0.556044
715.128691	0.563111
715.462162	0.570712
715.795584	0.575737
716.128957	0.578987
716.462281	0.585972
716.795556	0.589432
717.128782	0.593711
717.461960	0.603768
717.795088	0.602556
718.128167	0.608260
718.461198	0.616700
718.794180	0.617626
719.127113	0.620492
719.459997	0.623849
719.792833	0.630252
720.125619	0.630992
720.458357	0.637434
720.791046	0.636871
721.123686	0.639751
721.456278	0.647295
721.788821	0.644940
722.121315	0.648849
722.453761	0.653258
722.786158	0.650396
723.118506	0.646803
723.450805	0.654896
723.783056	0.650305
724.115259	0.647915
724.447412	0.648388
724.779518	0.650440
725.111574	0.647810
725.443582	0.644481
725.775542	0.645878
726.107453	0.638027
726.439315	0.638073
726.771129	0.636371
727.102895	0.630587
727.434612	0.623141
727.766281	0.620596
728.097901	0.620441
728.429473	0.620383
728.760996	0.618241
729.092471	0.618148
729.423897	0.622392
729.755276	0.621007
730.086606	0.622134
730.417887	0.615908
730.749120	0.607439
731.080305	0.598054
731.411442	0.594047
731.742530	0.598196
732.073570	0.597612
732.404562	0.590794
732.735506	0.591535
733.066401	0.596400
733.397249	0.605385
733.728048	0.617244
734.058798	0.628639
734.389501	0.639587
734.720156	0.649228
735.050762	0.657336
735.381320	0.658293
735.711831	0.668352
736.042293	0.672444
736.372707	0.667715
736.703073	0.672777
737.033391	0.674903
737.363661	0.671427
737.693883	0.667353
738.024056	0.666130
738.354182	0.666585
738.684260	0.655612
739.014290	0.651673
739.344272	0.653105
739.674207	0.646444
740.004093	0.645516
740.333931	0.646221
740.663722	0.646479
740.993464	0.646637
741.323159	0.650547
741.652806	0.654837
741.982405	0.660020
742.311956	0.664576
742.641460	0.666624
742.970915	0.670694
743.300323	0.677555
743.629683	0.684503
743.958996	0.686285
744.288260	0.691288
744.617477	0.696776
744.946647	0.697926
745.275768	0.703279
745.604842	0.703472
745.933869	0.713489
746.262847	0.714352
746.591778	0.707618
746.920662	0.712925
747.249498	0.719917
747.578286	0.711139
747.907027	0.707005
748.235720	0.708132
748.564365	0.703729
748.892963	0.702783
749.221514	0.706372
749.550017	0.711376
749.878473	0.710507
750.206881	0.717203
750.535242	0.719048
750.863555	0.718374
751.191821	0.718875
751.520039	0.722491
751.848210	0.727142
752.176334	0.719481
752.504411	0.718779
752.832440	0.726719
753.160421	0.730874
753.488356	0.728681
753.816243	0.727101
754.144082	0.734943
754.471875	0.737973
754.799620	0.733990
755.127318	0.734986
755.454969	0.735090
755.782572	0.733970
756.110129	0.739672
756.437638	0.742652
756.765100	0.738754
757.092515	0.736769
757.419882	0.735165
757.747203	0.741482
758.074477	0.740738
758.401703	0.737080
758.728882	0.731812
759.056014	0.731496
759.383099	0.730265
759.710138	0.732155
760.037129	0.727950
760.364073	0.721648
760.690970	0.724769
761.017820	0.730046
761.344623	0.725540
761.671379	0.717528
761.998088	0.706025
762.324751	0.683065
762.651366	0.640907
762.977935	0.575083
763.304456	0.523694
763.630931	0.514052
763.957359	0.552254
764.283740	0.597393
764.610074	0.623734
764.936362	0.653817
765.262602	0.680877
765.588796	0.702781
765.914943	0.720098
766.241044	0.738113
766.567097	0.744085
766.893104	0.753612
767.219064	0.760424
767.544978	0.767105
767.870845	0.780223
768.196665	0.784128
768.522438	0.781422
768.848165	0.783154
769.173846	0.792192
769.499479	0.797202
769.825066	0.799676
770.150607	0.805013
770.476101	0.800695
770.801548	0.801392
771.126949	0.812493
771.452303	0.815735
771.777611	0.815853
772.102872	0.814902
772.428087	0.820868
772.753256	0.822957
773.078378	0.826249
773.403453	0.834677
773.728482	0.838327
774.053465	0.831736
774.378401	0.835581
774.703291	0.842937
775.028135	0.843062
775.352932	0.845109
775.677683	0.848032
776.002388	0.849044
776.327046	0.847265
776.651658	0.851705
776.976224	0.853971
777.300743	0.854468
777.625216	0.856825
777.949643	0.858857
778.274024	0.859217
778.598359	0.859755
778.922647	0.859294
779.246889	0.859622
779.571086	0.863371
779.895236	0.865900
780.219339	0.862214
780.543397	0.860441
780.867409	0.856972
781.191374	0.860262
781.515294	0.862310
781.839167	0.861372
782.162995	0.863466
782.486776	0.861866
782.810511	0.861822
783.134201	0.865455
783.457844	0.862101
783.781441	0.865508
784.104993	0.873420
784.428498	0.872670
784.751958	0.868722
785.075372	0.870033
785.398739	0.874594
785.722061	0.871177
786.045337	0.866257
786.368568	0.871663
786.691752	0.872464
787.014891	0.859371
787.337983	0.850469
787.661030	0.842706
787.984031	0.826128
788.306987	0.812428
788.629897	0.816696
788.952760	0.819141
789.275579	0.824496
789.598351	0.838032
789.921078	0.851477
790.243759	0.853500
790.566395	0.859684
790.888984	0.865576
791.211529	0.870484
791.534027	0.873246
791.856480	0.876117
792.178888	0.881182
792.501249	0.882625
792.823566	0.884517
793.145836	0.884487
793.468062	0.886663
793.790241	0.886758
794.112375	0.884502
794.434464	0.879810
794.756507	0.879829
795.078505	0.879892
795.400457	0.874289
795.722364	0.861581
796.044226	0.855447
796.366042	0.855330
796.687812	0.857537
797.009538	0.854401
797.331218	0.857303
797.652852	0.861904
797.974442	0.865515
798.295986	0.866801
798.617484	0.869342
798.938938	0.873132
799.260346	0.876938
799.581709	0.879990
799.903026	0.881905
800.224299	0.883037
800.545526	0.885513
800.866708	0.891000
801.187845	0.893855
801.508936	0.893649
801.829983	0.891053
802.150984	0.894788
802.471940	0.900189
802.792851	0.898819
803.113717	0.899281
803.434538	0.898139
803.755314	0.900164
804.076045	0.901164
804.396731	0.902318
804.717372	0.902071
805.037967	0.902768
805.358518	0.901591
805.679024	0.898032
805.999485	0.899037
806.319901	0.898930
806.640272	0.899617
806.960598	0.898664
807.280879	0.895559
807.601115	0.893775
807.921306	0.898357
808.241453	0.898032
808.561554	0.895689
808.881611	0.896115
809.201623	0.898268
809.521590	0.897657
809.841513	0.898820
810.161390	0.897864
810.481223	0.899543
810.801011	0.901654
811.120755	0.905853
811.440453	0.903436
811.760107	0.902699
812.079716	0.900761
812.399281	0.905566
812.718801	0.908457
813.038276	0.909360
813.357707	0.908661
813.677093	0.905528
813.996434	0.908220
814.315731	0.910237
814.634983	0.910992
814.954191	0.909868
815.273354	0.906529
815.592473	0.904298
815.911547	0.902812
816.230577	0.900600
816.549562	0.898172
816.868502	0.899094
817.187399	0.895580
817.506250	0.889716
817.825058	0.891978
818.143821	0.888447
818.462539	0.884122
818.781213	0.875238
819.099843	0.865002
819.418429	0.848841
819.736970	0.833382
820.055466	0.813039
820.373919	0.788585
820.692327	0.755346
821.010691	0.721748
821.329011	0.645166
821.647286	0.531262
821.965517	0.418920
822.283704	0.376652
822.601847	0.378327
822.919945	0.414051
823.237999	0.447262
823.556010	0.493132
823.873976	0.548449
824.191897	0.597647
824.509775	0.639409
824.827609	0.684285
825.145398	0.707318
825.463144	0.709132
825.780845	0.692514
826.098502	0.673899
826.416116	0.628837
826.733685	0.585902
827.051210	0.578251
827.368692	0.592565
827.686129	0.629095
828.003522	0.681011
828.320872	0.728380
828.638177	0.770771
828.955439	0.804207
829.272656	0.824409
829.589830	0.841706
829.906960	0.857467
830.224046	0.870056
830.541088	0.879810
830.858086	0.883993
831.175041	0.889951
831.491952	0.889614
831.808819	0.886172
832.125642	0.879115
832.442421	0.864084
832.759157	0.843887
833.075849	0.797857
833.392497	0.735797
833.709101	0.695296
834.025662	0.704670
834.342179	0.735726
834.658653	0.773366
834.975083	0.809983
835.291469	0.835891
835.607811	0.856012
835.924110	0.873728
836.240366	0.889704
836.556578	0.903277
836.872746	0.910709
837.188871	0.916964
837.504952	0.921721
837.820990	0.926779
838.136984	0.929946
838.452935	0.932359
838.768842	0.933278
839.084706	0.927297
839.400526	0.902253
839.716303	0.861438
840.032037	0.840010
840.347727	0.843344
840.663373	0.860518
840.978977	0.882226
841.294537	0.904397
841.610054	0.920202
841.925527	0.927645
842.240957	0.935422
842.556344	0.942014
842.871687	0.947378
843.186987	0.952781
843.502244	0.951618
843.817458	0.952442
844.132629	0.957951
844.447756	0.961860
844.762840	0.961840
845.077881	0.961707
845.392879	0.960148
845.707833	0.963778
846.022745	0.966233
846.337613	0.966225
846.652438	0.968126
846.967221	0.966447
847.281960	0.966496
847.596656	0.968961
847.911309	0.967050
848.225919	0.969104
848.540485	0.968979
848.855009	0.970777
849.169490	0.969495
849.483928	0.971136
849.798323	0.970372
850.112675	0.969932
850.426984	0.970972
850.741251	0.971584
851.055474	0.971842
851.369654	0.969575
851.683792	0.972199
851.997887	0.971155
852.311938	0.971644
852.625947	0.970546
852.939914	0.969835
853.253837	0.970482
853.567718	0.972552
853.881555	0.972145
854.195350	0.969690
854.509103	0.971659
854.822812	0.970839
855.136479	0.971783
855.450103	0.971378
855.763685	0.969523
856.077224	0.969657
856.390720	0.971820
856.704173	0.973199
857.017584	0.969902
857.330953	0.968491
857.644278	0.969723
857.957561	0.969994
858.270802	0.969826
858.584000	0.969892
858.897155	0.967115
859.210268	0.967212
859.523339	0.969350
859.836367	0.971403
860.149352	0.972251
860.462295	0.970397
860.775195	0.970235
861.088054	0.970328
861.400869	0.971104
861.713642	0.972304
862.026373	0.970570
862.339062	0.972839
862.651708	0.969405
862.964312	0.970143
863.276873	0.970100
863.589392	0.970338
863.901869	0.968131
864.214303	0.965905
864.526696	0.965264
864.839045	0.965669
865.151353	0.963967
865.463619	0.963532
865.775842	0.964102
866.088023	0.963765
866.400162	0.965127
866.712258	0.963965
867.024313	0.964947
867.336325	0.964797
867.648296	0.964808
867.960224	0.964762
868.272110	0.962660
868.583954	0.965375
868.895755	0.964563
869.207515	0.963098
869.519233	0.960005
869.830909	0.962601
870.142542	0.964258
870.454134	0.963624
870.765684	0.962451
871.077191	0.958885
871.388657	0.961330
871.700081	0.959408
872.011463	0.959521
872.322803	0.959401
872.634101	0.957985
872.945357	0.955968
873.256571	0.954620
873.567744	0.955436
873.878874	0.956141
874.189963	0.954381
874.501010	0.953302
874.812015	0.951111
875.122979	0.952551
875.433900	0.955034
875.744780	0.956193
876.055618	0.953482
876.366415	0.952710
876.677169	0.952638
876.987882	0.953706
877.298554	0.953546
877.609183	0.949425
877.919771	0.947398
878.230317	0.944410
878.540822	0.942730
878.851285	0.937826
879.161707	0.929621
879.472087	0.917938
879.782425	0.902826
880.092722	0.868957
880.402977	0.818715
880.713191	0.760218
881.023363	0.702567
881.333494	0.669553
881.643583	0.641453
881.953631	0.640954
882.263637	0.669997
882.573602	0.708517
882.883526	0.733669
883.193408	0.757116
883.503248	0.778561
883.813048	0.804373
884.122806	0.833793
884.432522	0.856688
884.742197	0.875721
885.051831	0.885625
885.361424	0.895509
885.670975	0.907811
885.980485	0.917240
886.289954	0.921868
886.599382	0.927797
886.908768	0.931454
887.218113	0.937334
887.527417	0.941492
887.836680	0.944891
888.145901	0.945566
888.455082	0.948745
888.764221	0.952918
889.073319	0.955633
889.382376	0.955552
889.691392	0.955298
890.000366	0.955619
890.309300	0.956032
890.618193	0.955751
890.927044	0.953322
891.235855	0.953587
891.544625	0.953644
891.853353	0.954648
892.162041	0.952066
892.470687	0.945734
892.779293	0.940761
893.087858	0.936428
893.396381	0.929514
893.704864	0.917313
894.013306	0.893975
894.321707	0.868189
894.630068	0.854112
894.938387	0.849400
895.246665	0.850638
895.554903	0.863593
895.863100	0.875288
896.171256	0.890687
896.479371	0.911645
896.787446	0.922879
897.095480	0.928976
897.403473	0.931313
897.711425	0.936497
898.019336	0.942952
898.327207	0.946031
898.635038	0.948127
898.942827	0.947775
899.250576	0.950654
899.558284	0.954828
899.865952	0.955220
900.173579	0.956278
900.481165	0.957192
900.788711	0.962177
901.096216	0.962177
901.403681	0.963398
901.711105	0.964115
902.018489	0.964712
902.325832	0.963980
902.633135	0.963669
902.940397	0.958685
903.247619	0.946259
903.554800	0.921079
903.861941	0.883303
904.169041	0.850761
904.476101	0.833746
904.783121	0.835003
905.090100	0.850144
905.397039	0.870325
905.703938	0.891568
906.010796	0.910004
906.317614	0.927270
906.624391	0.937656
906.931129	0.947378
907.237826	0.954634
907.544483	0.961987
907.851099	0.965076
908.157675	0.969534
908.464211	0.972063
908.770707	0.974938
909.077163	0.976456
909.383578	0.976951
909.689954	0.976883
909.996289	0.977584
910.302584	0.980198
910.608839	0.980355
910.915054	0.979423
911.221229	0.979515
911.527363	0.978996
911.833458	0.978137
912.139513	0.977531
912.445527	0.977298
912.751502	0.975914
913.057436	0.974613
913.363331	0.972183
913.669186	0.968804
913.975000	0.963316
914.280775	0.957764
914.586510	0.951603
914.892205	0.939257
915.197859	0.918392
915.503475	0.891635
915.809050	0.872881
916.114585	0.868786
916.420081	0.866255
916.725536	0.862557
917.030952	0.870745
917.336328	0.883173
917.641665	0.897064
917.946961	0.912315
918.252218	0.922869
918.557435	0.930867
918.862612	0.940205
919.167750	0.946339
919.472848	0.950609
919.777906	0.954935
920.082925	0.961624
920.387904	0.965056
920.692843	0.964432
920.997743	0.965914
921.302603	0.969919
921.607423	0.971214
921.912204	0.973746
922.216946	0.973536
922.521647	0.975754
922.826310	0.977067
923.130932	0.978991
923.435516	0.980288
923.740059	0.980865
924.044564	0.980589
924.349028	0.981756
924.653454	0.983866
924.957840	0.986052
925.262186	0.985353
925.566493	0.984450
925.870761	0.986516
926.174989	0.987350
926.479178	0.989117
926.783328	0.989767
927.087438	0.988733
927.391509	0.989356
927.695541	0.991675
927.999533	0.989522
928.303486	0.989491
928.607400	0.991985
928.911275	0.990710
929.215110	0.990463
929.518906	0.991800
929.822663	0.990123
930.126381	0.992752
930.430060	0.991693
930.733699	0.991723
931.037299	0.990453
931.340861	0.991847
931.644383	0.991410
931.947866	0.990315
932.251309	0.991288
932.554714	0.990842
932.858080	0.991128
933.161407	0.990886
933.464694	0.992169
933.767943	0.990890
934.071153	0.992445
934.374323	0.993387
934.677455	0.992260
934.980548	0.993071
935.283602	0.991642
935.586617	0.992673
935.889593	0.991162
936.192530	0.991777
936.495428	0.992005
936.798287	0.992062
937.101108	0.990555
937.403890	0.990407
937.706632	0.989423
938.009336	0.988454
938.312002	0.987183
938.614628	0.986183
938.917216	0.985164
939.219765	0.983230
939.522275	0.984699
939.824747	0.984075
940.127179	0.984188
940.429573	0.986809
940.731929	0.985185
941.034246	0.985106
941.336524	0.986861
941.638763	0.986424
941.940964	0.987819
942.243126	0.986787
942.545250	0.989046
942.847335	0.989906
943.149381	0.989202
943.451389	0.989751
943.753359	0.989534
944.055290	0.991519
944.357182	0.990998
944.659036	0.988959
944.960851	0.989426
945.262628	0.991366
945.564367	0.992956
945.866067	0.990969
946.167729	0.991093
946.469352	0.989831
946.770937	0.989727
947.072484	0.991756
947.373992	0.991695
947.675462	0.990933
947.976893	0.991524
948.278286	0.991483
948.579641	0.993236
948.880958	0.992412
949.182236	0.991807
949.483476	0.992389
949.784678	0.990716
950.085841	0.992726
950.386967	0.992012
950.688054	0.991205
950.989103	0.992539
951.290114	0.989532
951.591087	0.991092
951.892021	0.990867
952.192917	0.990026
952.493776	0.988873
952.794596	0.989699
953.095378	0.989873
953.396122	0.989906
953.696828	0.988011
953.997496	0.990853
954.298126	0.992440
954.598718	0.992099
954.899272	0.992296
955.199788	0.991065
955.500266	0.992219
955.800706	0.994313
956.101108	0.994037
956.401472	0.994277
956.701798	0.994789
957.002087	0.994584
957.302337	0.994262
957.602550	0.995953
957.902724	0.995203
958.202861	0.995463
958.502960	0.997286
958.803022	0.993834
959.103045	0.998046
959.403031	0.996451
959.702979	0.996283
960.002889	0.995510
960.302762	0.995824
960.602596	0.997354
960.902393	0.995665
961.202153	0.996517
961.501875	0.997648
961.801559	0.997196
962.101205	0.996038
962.400814	0.997501
962.700385	0.997055
962.999918	0.997485
963.299414	0.997785
963.598873	0.996362
963.898293	0.996742
964.197677	0.995959
964.497022	0.996340
964.796331	0.997271
965.095601	0.998126
965.394835	0.997459
965.694030	0.997737
965.993189	0.997434
966.292309	0.996984
966.591393	0.996693
966.890439	0.997645
967.189447	0.996554
967.488419	0.998176
967.787353	0.997206
968.086249	0.996770
968.385108	0.996672
968.683930	0.997600
968.982714	0.997107
969.281462	0.998141
969.580172	0.997252
969.878844	0.996939
970.177480	0.997554
970.476078	0.997602
970.774639	0.996770
971.073162	0.997858
971.371649	0.995668
971.670098	0.997628
971.968510	0.998232
972.266885	0.996490
972.565223	0.997142
972.863524	0.996896
973.161788	0.996885
973.460014	0.997719
973.758204	0.996853
974.056356	0.998227
974.354471	0.994679
974.652550	0.996111
974.950591	0.998393
975.248595	0.997177
975.546563	0.996935
975.844493	0.998937
976.142386	0.997751
976.440243	0.998730
976.738062	0.998029
977.035845	0.998475
977.333590	0.997520
977.631299	0.998987
977.928971	0.997062
978.226606	0.996749
978.524204	0.996690
978.821765	0.998894
979.119290	0.996980
979.416777	0.996851
979.714228	0.997378
980.011642	0.997031
980.309020	0.998083
980.606360	0.997076
980.903664	0.998611
981.200931	0.997056
981.498162	0.996445
981.795356	0.996394
982.092513	0.994280
982.389633	0.995410
982.686717	0.991733
982.983764	0.992663
983.280775	0.991715
983.577749	0.991317
983.874686	0.992410
984.171587	0.991265
984.468451	0.994956
984.765279	0.994634
985.062070	0.994866
985.358824	0.995849
985.655543	0.995161
985.952224	0.996903
986.248869	0.996074
986.545478	0.996942
986.842050	0.999711
987.138586	0.996345
987.435086	0.997776
987.731549	0.999264
988.027975	0.999203
988.324366	0.998265
988.620719	0.997182
988.917037	0.996990
989.213318	0.997695
989.509563	0.999271
989.805772	0.999593
990.101944	0.998544
990.398080	0.998005
990.694180	0.998359
990.990244	0.997475
991.286271	0.998591
991.582262	0.999064
991.878217	0.997454
992.174136	0.999056
992.470019	0.999686
992.765865	0.998835
993.061676	0.997984
993.357450	0.998689
993.653188	0.997429
993.948890	0.997947
994.244556	0.998225
994.540186	0.997077
994.835780	0.997107
995.131337	0.997669
995.426859	0.996513
995.722345	0.997370
996.017795	0.997004
996.313208	0.996868
996.608586	0.996648
996.903928	0.997800
997.199234	0.995559
997.494504	0.997987
997.789738	0.997463
998.084936	0.997835
998.380099	0.999081
998.675225	0.998068
998.970316	0.996892
999.265371	0.998583
999.560390	0.999176
999.855373	0.998315
1000.150320	0.997197
1000.445232	0.998545
1000.740108	0.999516
1001.034948	0.998759
1001.329752	0.998893
1001.624521	0.998512
1001.919254	0.998194
1002.213951	0.998248
1002.508613	0.998732
1002.803239	0.999579
1003.097829	0.999283
1003.392384	0.999610
1003.686903	0.999095
1003.981386	0.998343
1004.275834	0.999736
1004.570246	0.999728
1004.864623	0.998500
1005.158964	0.999756
1005.453270	0.998285
1005.747540	0.997619
1006.041775	0.998783
1006.335974	1.000920
1006.630138	1.000672
1006.924266	1.001006
1007.218359	1.001244
1007.512416	0.999201
1007.806438	0.998867
1008.100425	0.999208
1008.394376	0.999781
1008.688292	0.998616
1008.982172	1.000880
1009.276017	1.000044
1009.569827	0.999496
1009.863602	0.998048
1010.157341	1.000836
1010.451045	0.999399
1010.744714	1.000068
1011.038347	0.998934
1011.331945	0.999301
1011.625508	0.997894
1011.919036	0.998646
1012.212528	0.998553
1012.505986	0.998617
1012.799408	0.999793
1013.092795	1.000178
1013.386147	0.999228
1013.679464	1.000125
1013.972745	0.997979
1014.265992	0.998392
1014.559204	0.999597
1014.852380	0.999488
1015.145521	0.999875
1015.438628	0.999518
1015.731699	0.998958
1016.024736	0.999578
1016.317737	0.998867
1016.610703	0.999528
1016.903635	1.000141
1017.196531	0.999134
1017.489393	0.999598
1017.782219	0.999521
1018.075011	0.999242
1018.367768	0.999754
1018.660490	0.999385
1018.953177	0.999385
1019.245829	0.999385
