Dividing Wavelength (nm)	Counts (n)	Blue Motor Position (mm): 0.000000	Red Motor Position (mm): 43.600000	
326.493990	1.001892
326.888308	1.001892
327.282561	1.001892
327.676750	1.000520
328.070874	0.999030
328.464933	0.999701
328.858929	0.999163
329.252859	0.999708
329.646726	0.999602
330.040528	0.999947
330.434265	0.999353
330.827938	1.000069
331.221547	0.999540
331.615091	1.000849
332.008571	0.999278
332.401986	0.999036
332.795338	0.999413
333.188625	0.997765
333.581847	1.000579
333.975006	0.999881
334.368100	0.999334
334.761129	1.000119
335.154095	1.000571
335.546996	0.998526
335.939833	0.997620
336.332606	0.998795
336.725315	0.998934
337.117960	0.999485
337.510540	0.998063
337.903056	0.998579
338.295508	0.997538
338.687896	0.998107
339.080220	0.998156
339.472480	0.998690
339.864676	0.998972
340.256807	0.997727
340.648875	0.998841
341.040879	0.999070
341.432818	0.999174
341.824694	0.998134
342.216506	0.999855
342.608253	0.999637
342.999937	0.998723
343.391557	0.999141
343.783113	0.999463
344.174605	0.999391
344.566033	0.998994
344.957397	0.997263
345.348697	0.998054
345.739934	0.998646
346.131106	0.997932
346.522215	0.998023
346.913260	0.997439
347.304241	0.998910
347.695159	0.998478
348.086012	0.997986
348.476802	0.998525
348.867528	0.999114
349.258191	0.997469
349.648789	0.999075
350.039324	0.998258
350.429796	0.999715
350.820203	0.998298
351.210548	0.998417
351.600828	0.997324
351.991045	0.999440
352.381198	0.997592
352.771288	0.999579
353.161314	0.998879
353.551276	0.999052
353.941175	0.998767
354.331010	0.998140
354.720782	0.998561
355.110490	0.998133
355.500135	0.999781
355.889717	0.999156
356.279235	0.998038
356.668689	0.997206
357.058080	0.998165
357.447408	0.998644
357.836672	0.999102
358.225873	0.999161
358.615010	0.999018
359.004084	1.000403
359.393095	0.998859
359.782043	0.998528
360.170927	0.999248
360.559748	0.999652
360.948505	0.997885
361.337199	0.999571
361.725830	0.998820
362.114398	0.999117
362.502903	0.999587
362.891344	0.999863
363.279722	0.999110
363.668037	0.999259
364.056289	0.999268
364.444478	0.999255
364.832603	0.998884
365.220665	0.999576
365.608665	0.998471
365.996601	0.998340
366.384474	0.998919
366.772284	0.999208
367.160031	0.997327
367.547715	0.998343
367.935336	0.999038
368.322893	0.998185
368.710388	0.997516
369.097820	0.998484
369.485189	0.998009
369.872495	0.999140
370.259738	0.997238
370.646918	1.000144
371.034035	0.999459
371.421090	0.999410
371.808081	0.998160
372.195010	0.998227
372.581875	0.998694
372.968678	0.999043
373.355418	0.998135
373.742096	0.997310
374.128710	0.998681
374.515262	0.998577
374.901751	0.997811
375.288177	0.998502
375.674540	0.998898
376.060841	0.997715
376.447079	0.998669
376.833254	0.998199
377.219367	0.999308
377.605417	0.998622
377.991404	0.999279
378.377329	0.998223
378.763191	0.998097
379.148991	0.999347
379.534727	0.999502
379.920402	0.998750
380.306013	0.998669
380.691563	0.998418
381.077049	0.998492
381.462474	0.999122
381.847835	0.998972
382.233134	0.998058
382.618371	0.998854
383.003545	0.998749
383.388657	0.999521
383.773706	0.999351
384.158693	0.998607
384.543618	0.998478
384.928480	0.998618
385.313280	0.999178
385.698017	0.999603
386.082692	0.999540
386.467305	0.998894
386.851856	0.998988
387.236344	0.998014
387.620770	0.997436
388.005133	0.999907
388.389435	0.999200
388.773674	0.998754
389.157851	0.999034
389.541965	0.999809
389.926018	0.998433
390.310008	0.999110
390.693936	0.998191
391.077802	0.999455
391.461606	0.998950
391.845348	0.999186
392.229027	0.999909
392.612645	0.999664
392.996200	0.999398
393.379694	0.999326
393.763125	1.000093
394.146494	0.999593
394.529801	0.998313
394.913047	0.999434
395.296230	0.998931
395.679351	0.999634
396.062410	0.999078
396.445408	0.999465
396.828343	0.998815
397.211217	0.998604
397.594028	0.999522
397.976778	0.998648
398.359466	0.999486
398.742092	0.998443
399.124656	0.999035
399.507158	0.999182
399.889598	0.999031
400.271977	0.998697
400.654294	0.999279
401.036549	0.999780
401.418742	1.000787
401.800874	0.999886
402.182944	0.998916
402.564952	0.998582
402.946898	1.000382
403.328783	0.998900
403.710606	0.999400
404.092367	0.998115
404.474067	0.999613
404.855705	0.998539
405.237282	0.998467
405.618797	0.998957
406.000250	0.997776
406.381642	0.999401
406.762972	0.998680
407.144240	1.000224
407.525447	1.000009
407.906593	0.999000
408.287677	0.999331
408.668700	1.000053
409.049661	0.997854
409.430560	0.999229
409.811399	0.999061
410.192176	0.998671
410.572891	0.997760
410.953545	0.999923
411.334138	0.998077
411.714669	0.999834
412.095139	0.998482
412.475547	0.999786
412.855894	0.999115
413.236180	1.000174
413.616405	0.999247
413.996568	0.999799
414.376670	0.999669
414.756711	0.998596
415.136691	0.999126
415.516609	0.999119
415.896466	0.999006
416.276262	0.998323
416.655997	0.999622
417.035670	0.999203
417.415283	0.999441
417.794834	0.999431
418.174324	0.999522
418.553753	0.999586
418.933121	0.998872
419.312428	0.999762
419.691674	0.998974
420.070859	0.999887
420.449983	0.999886
420.829045	0.999084
421.208047	0.999947
421.586988	1.000718
421.965867	1.000325
422.344686	0.999613
422.723444	0.998670
423.102141	0.999833
423.480777	0.999169
423.859352	0.998929
424.237866	0.999752
424.616319	0.999608
424.994712	0.999898
425.373044	0.999774
425.751314	0.999773
426.129524	0.999575
426.507673	1.000472
426.885762	1.000037
427.263789	1.000045
427.641756	0.999541
428.019662	1.000521
428.397508	0.999159
428.775292	0.998312
429.153016	0.999042
429.530679	1.000473
429.908282	1.000401
430.285824	0.999681
430.663305	0.999521
431.040726	0.999435
431.418086	1.001187
431.795385	0.999758
432.172624	0.999060
432.549802	0.999518
432.926920	1.000199
433.303977	0.999411
433.680974	1.000482
434.057910	0.999894
434.434786	1.000806
434.811601	0.999352
435.188355	0.998512
435.565050	0.998859
435.941683	0.999825
436.318257	1.000143
436.694770	0.999156
437.071222	1.000211
437.447614	1.000090
437.823946	0.999568
438.200218	0.999763
438.576429	0.999862
438.952580	1.000512
439.328670	0.999083
439.704700	1.000230
440.080670	0.999998
440.456580	0.999735
440.832429	0.998654
441.208218	0.999903
441.583947	0.999682
441.959616	0.999273
442.335224	0.999177
442.710773	1.000885
443.086261	1.000203
443.461689	0.999439
443.837057	0.999567
444.212365	0.999394
444.587612	0.999788
444.962800	1.000166
445.337927	1.000716
445.712995	0.999856
446.088002	1.000843
446.462949	0.999195
446.837837	0.999976
447.212664	1.000218
447.587431	1.000130
447.962139	0.999817
448.336786	0.999945
448.711374	0.999547
449.085901	0.999424
449.460369	1.000788
449.834776	1.000053
450.209124	0.999916
450.583412	1.000024
450.957640	1.000405
451.331808	0.999890
451.705917	0.999358
452.079965	0.999668
452.453954	1.000649
452.827883	1.000522
453.201752	1.000717
453.575562	1.000119
453.949311	0.999397
454.323001	1.000092
454.696632	0.999411
455.070202	0.999705
455.443713	0.999843
455.817164	0.999909
456.190556	0.999191
456.563888	0.999591
456.937160	1.000128
457.310373	0.998935
457.683526	0.999665
458.056619	0.999910
458.429653	1.000351
458.802628	0.999411
459.175542	0.999147
459.548398	1.000218
459.921194	0.999418
460.293930	1.000167
460.666607	0.999681
461.039224	0.998976
461.411782	1.000262
461.784280	0.999884
462.156719	1.000457
462.529099	0.999959
462.901419	0.999876
463.273680	0.999387
463.645882	0.999828
464.018024	0.999536
464.390106	0.999812
464.762130	1.000692
465.134094	0.999597
465.505999	1.000927
465.877845	1.000307
466.249631	1.000616
466.621358	1.000323
466.993026	1.000972
467.364634	0.999914
467.736184	1.000587
468.107674	0.999505
468.479105	0.999409
468.850477	0.999884
469.221790	0.999683
469.593043	0.999533
469.964238	1.000576
470.335373	0.999669
470.706449	0.999699
471.077467	1.000635
471.448425	1.000613
471.819324	1.000960
472.190164	0.999636
472.560945	1.000284
472.931667	0.999345
473.302330	0.999744
473.672934	1.000239
474.043479	0.999755
474.413965	0.999757
474.784393	0.999919
475.154761	0.999636
475.525070	0.999454
475.895321	1.000700
476.265513	0.999730
476.635645	1.000539
477.005719	1.000200
477.375734	0.999633
477.745691	0.999947
478.115588	1.000311
478.485427	1.000078
478.855207	0.999863
479.224928	1.000423
479.594591	1.000618
479.964194	1.001038
480.333739	1.000373
480.703226	0.999865
481.072653	1.000526
481.442022	1.001328
481.811333	0.999770
482.180584	1.001020
482.549777	0.999947
482.918912	0.999601
483.287988	1.000128
483.657005	0.999819
484.025964	1.000536
484.394864	1.000216
484.763706	1.000019
485.132489	1.000025
485.501213	1.000383
485.869879	0.999916
486.238487	1.000698
486.607036	1.000409
486.975527	0.999374
487.343959	0.999465
487.712333	1.000155
488.080648	0.999776
488.448905	1.000507
488.817104	1.000287
489.185244	1.000258
489.553326	1.000126
489.921350	1.000654
490.289315	1.000040
490.657222	1.000768
491.025070	1.000816
491.392861	1.000527
491.760593	1.000544
492.128267	0.999805
492.495883	0.999612
492.863440	1.000248
493.230939	1.000174
493.598380	0.999861
493.965763	0.999533
494.333088	1.000225
494.700354	1.000199
495.067563	1.000018
495.434713	1.000031
495.801805	1.000891
496.168839	1.000014
496.535815	1.000008
496.902733	0.999802
497.269593	0.999917
497.636395	0.999920
498.003139	1.000025
498.369825	1.000232
498.736453	1.000060
499.103023	0.999519
499.469535	0.999735
499.835989	0.999820
500.202385	1.000361
500.568723	0.999944
500.935003	0.999986
501.301226	1.000289
501.667390	0.999992
502.033497	1.000295
502.399546	1.000568
502.765537	0.999688
503.131470	0.999762
503.497345	0.999626
503.863163	1.000962
504.228923	1.000413
504.594625	1.000726
504.960269	1.000447
505.325856	1.000448
505.691385	1.000042
506.056856	0.999812
506.422270	1.000665
506.787625	1.000203
507.152924	0.999836
507.518164	0.999767
507.883347	1.000311
508.248472	0.999848
508.613540	1.000335
508.978550	1.000312
509.343503	0.999827
509.708398	0.999617
510.073236	1.000208
510.438016	1.000315
510.802738	0.999779
511.167403	0.999752
511.532010	0.999502
511.896561	1.000553
512.261053	1.000824
512.625488	1.000324
512.989866	0.999490
513.354186	0.999938
513.718449	0.999634
514.082655	0.999730
514.446803	0.999684
514.810894	1.000052
515.174927	0.999488
515.538904	0.999589
515.902822	1.000167
516.266684	1.000554
516.630488	1.000846
516.994235	0.999554
517.357925	0.999991
517.721558	1.000701
518.085133	0.999783
518.448651	1.000729
518.812112	1.000056
519.175516	0.999863
519.538863	0.999788
519.902152	0.998986
520.265385	0.999963
520.628560	0.999775
520.991678	0.999823
521.354739	1.000319
521.717743	1.000097
522.080690	1.000198
522.443580	0.999610
522.806413	0.999990
523.169189	0.999823
523.531908	0.999385
523.894569	0.999980
524.257174	0.999978
524.619722	1.000550
524.982213	0.999838
525.344647	1.000832
525.707025	0.999438
526.069345	0.999118
526.431608	0.999849
526.793815	1.000536
527.155964	0.999492
527.518057	1.000240
527.880093	1.000379
528.242072	0.999947
528.603995	0.999498
528.965860	1.000702
529.327669	0.999750
529.689421	1.000189
530.051117	0.999841
530.412755	0.999319
530.774337	0.999553
531.135862	0.999909
531.497331	0.999677
531.858743	0.999995
532.220098	1.000051
532.581396	0.999840
532.942638	0.999887
533.303824	0.999491
533.664953	0.999920
534.026025	0.998901
534.387040	0.999429
534.747999	0.999589
535.108902	1.000130
535.469748	0.998865
535.830537	0.999351
536.191270	1.000131
536.551947	0.999804
536.912567	0.999124
537.273131	0.999693
537.633638	0.998942
537.994089	0.999745
538.354483	0.999272
538.714821	0.999901
539.075103	0.999285
539.435328	0.999565
539.795497	0.999615
540.155609	0.998650
540.515665	0.999170
540.875665	0.999315
541.235609	0.998816
541.595496	0.998943
541.955328	0.998823
542.315102	0.999310
542.674821	0.999892
543.034483	0.998572
543.394090	0.998724
543.753640	0.999917
544.113134	0.999233
544.472571	0.999218
544.831953	0.999132
545.191278	0.999569
545.550548	0.999280
545.909761	0.998829
546.268918	0.998676
546.628019	0.998874
546.987064	0.999175
547.346053	0.999151
547.704986	0.998760
548.063863	0.998967
548.422684	0.999406
548.781449	0.999387
549.140158	0.998531
549.498811	0.998611
549.857408	0.998941
550.215949	0.998674
550.574434	0.998932
550.932864	0.998869
551.291237	0.999208
551.649555	0.999112
552.007817	0.998556
552.366022	0.997874
552.724173	0.999169
553.082267	0.998802
553.440305	0.998532
553.798288	0.998623
554.156215	0.999361
554.514086	0.999013
554.871902	0.998440
555.229661	0.999124
555.587365	0.998574
555.945014	0.999366
556.302606	0.998991
556.660143	0.999053
557.017625	0.999224
557.375050	0.998891
557.732421	0.998650
558.089735	0.999095
558.446994	0.999533
558.804197	0.999148
559.161345	1.000315
559.518437	0.999610
559.875474	0.998795
560.232455	0.998695
560.589381	0.999111
560.946251	0.998029
561.303065	0.998525
561.659825	0.998883
562.016528	0.998499
562.373177	0.998868
562.729770	0.998482
563.086307	0.998889
563.442789	0.998706
563.799216	0.998772
564.155587	0.998828
564.511904	0.997835
564.868164	0.998346
565.224370	0.998766
565.580520	0.998763
565.936615	0.998125
566.292654	0.998360
566.648638	0.999080
567.004567	0.998662
567.360441	0.999485
567.716260	0.999326
568.072023	0.998902
568.427732	0.998767
568.783385	0.998939
569.138982	0.999124
569.494525	0.998737
569.850013	0.998870
570.205445	0.999469
570.560823	0.998972
570.916145	0.998537
571.271412	0.999155
571.626625	0.998662
571.981782	0.998417
572.336884	0.999580
572.691931	0.998843
573.046923	0.997919
573.401860	0.999173
573.756743	0.999317
574.111570	0.998865
574.466342	0.999230
574.821059	0.998928
575.175722	0.999094
575.530330	0.999431
575.884882	0.998660
576.239380	0.999864
576.593823	0.998941
576.948211	0.998486
577.302544	0.998466
577.656823	0.998576
578.011047	0.998882
578.365216	0.998908
578.719330	0.998829
579.073389	0.999274
579.427394	0.998696
579.781344	0.999420
580.135239	0.999189
580.489080	0.998791
580.842866	0.999604
581.196597	0.999003
581.550273	0.997920
581.903895	0.998909
582.257463	0.999021
582.610975	0.999000
582.964434	0.998951
583.317837	0.999300
583.671186	0.998589
584.024481	0.999310
584.377721	0.998852
584.730906	0.998917
585.084037	0.998752
585.437113	0.998933
585.790135	0.998649
586.143103	0.998105
586.496016	0.999951
586.848874	0.998733
587.201679	0.998936
587.554428	0.998698
587.907124	0.998985
588.259765	0.998926
588.612352	0.999721
588.964884	0.999702
589.317362	0.999641
589.669786	0.998850
590.022155	0.999285
590.374470	0.998905
590.726731	0.998464
591.078937	0.998010
591.431090	0.998837
591.783188	0.998910
592.135232	0.999312
592.487222	0.999477
592.839157	0.998467
593.191038	0.998796
593.542866	0.998926
593.894639	0.999814
594.246358	0.998482
594.598022	0.998026
594.949633	0.998858
595.301190	0.998348
595.652692	0.999090
596.004141	0.999048
596.355535	0.998300
596.706876	0.998325
597.058162	0.998839
597.409395	0.998442
597.760573	0.998917
598.111698	0.998022
598.462768	0.998030
598.813785	0.997905
599.164748	0.998368
599.515657	0.997805
599.866511	0.997941
600.217312	0.998468
600.568060	0.998134
600.918753	0.998526
601.269392	0.998397
601.619978	0.998389
601.970510	0.998208
602.320988	0.998442
602.671412	0.997771
603.021783	0.998771
603.372100	0.998909
603.722363	0.998548
604.072572	0.997771
604.422728	0.998434
604.772830	0.997838
605.122878	0.997281
605.472872	0.997789
605.822813	0.997913
606.172701	0.998306
606.522534	0.998514
606.872314	0.998079
607.222041	0.997574
607.571714	0.998393
607.921333	0.997212
608.270899	0.997692
608.620411	0.998253
608.969870	0.998156
609.319276	0.997327
609.668627	0.997967
610.017926	0.996922
610.367171	0.998434
610.716362	0.997364
611.065500	0.997146
611.414585	0.997314
611.763616	0.998052
612.112594	0.997553
612.461518	0.997047
612.810389	0.996928
613.159207	0.998373
613.507971	0.996490
613.856682	0.997552
614.205340	0.997960
614.553945	0.996651
614.902496	0.997010
615.250994	0.996989
615.599439	0.997469
615.947830	0.997065
616.296169	0.996591
616.644454	0.996977
616.992686	0.997202
617.340864	0.996579
617.688990	0.997043
618.037063	0.997106
618.385082	0.996966
618.733048	0.996327
619.080961	0.996930
619.428821	0.997162
619.776628	0.996289
620.124382	0.995987
620.472083	0.995464
620.819731	0.996170
621.167326	0.995873
621.514868	0.996459
621.862357	0.996185
622.209793	0.996476
622.557176	0.995164
622.904506	0.996006
623.251783	0.994860
623.599007	0.996119
623.946179	0.995684
624.293297	0.995907
624.640363	0.995475
624.987376	0.994218
625.334336	0.994901
625.681243	0.994976
626.028097	0.995578
626.374899	0.994948
626.721647	0.994946
627.068343	0.995222
627.414987	0.994890
627.761577	0.994398
628.108115	0.994268
628.454600	0.994348
628.801032	0.993429
629.147412	0.995016
629.493739	0.993187
629.840014	0.993336
630.186236	0.994591
630.532405	0.992959
630.878521	0.993146
631.224585	0.992311
631.570597	0.992983
631.916556	0.992349
632.262462	0.992748
632.608316	0.991883
632.954117	0.991696
633.299866	0.990479
633.645562	0.991271
633.991206	0.991845
634.336797	0.992230
634.682336	0.991689
635.027823	0.991506
635.373257	0.990986
635.718639	0.991231
636.063968	0.990785
636.409245	0.990977
636.754470	0.990039
637.099642	0.990208
637.444762	0.989790
637.789829	0.990127
638.134845	0.988989
638.479808	0.989145
638.824719	0.989442
639.169577	0.987987
639.514383	0.987894
639.859137	0.987735
640.203839	0.987698
640.548489	0.987241
640.893086	0.987460
641.237632	0.987211
641.582125	0.985774
641.926566	0.985357
642.270955	0.985846
642.615292	0.986356
642.959576	0.984831
643.303809	0.984980
643.647990	0.983949
643.992118	0.984893
644.336195	0.985040
644.680219	0.983969
645.024192	0.984119
645.368112	0.982510
645.711981	0.982385
646.055797	0.980834
646.399562	0.980673
646.743274	0.978213
647.086935	0.978946
647.430544	0.978478
647.774101	0.977443
648.117606	0.977779
648.461059	0.976599
648.804460	0.975362
649.147810	0.976147
649.491108	0.976499
649.834354	0.975305
650.177548	0.975513
650.520690	0.975107
650.863781	0.974559
651.206820	0.974571
651.549807	0.974111
651.892742	0.973301
652.235626	0.973366
652.578458	0.972771
652.921238	0.971863
653.263967	0.972661
653.606644	0.971933
653.949269	0.970140
654.291843	0.970429
654.634365	0.969213
654.976836	0.968865
655.319255	0.968195
655.661622	0.967562
656.003938	0.967285
656.346203	0.966901
656.688416	0.966334
657.030577	0.965786
657.372687	0.965042
657.714746	0.964707
658.056753	0.964562
658.398708	0.963464
658.740612	0.963859
659.082465	0.961727
659.424266	0.961573
659.766016	0.960291
660.107715	0.959208
660.449362	0.958787
660.790958	0.958992
661.132503	0.956237
661.473996	0.956019
661.815438	0.955749
662.156829	0.955341
662.498168	0.954875
662.839456	0.953829
663.180693	0.953218
663.521879	0.953606
663.863013	0.951982
664.204097	0.951118
664.545129	0.950516
664.886110	0.949117
665.227040	0.947219
665.567918	0.947444
665.908746	0.945869
666.249522	0.944770
666.590248	0.944932
666.930922	0.944073
667.271545	0.942433
667.612118	0.941288
667.952639	0.941563
668.293109	0.939700
668.633528	0.939999
668.973896	0.939363
669.314213	0.938555
669.654480	0.937002
669.994695	0.936700
670.334859	0.937351
670.674973	0.934423
671.015035	0.935006
671.355047	0.932612
671.695008	0.932458
672.034918	0.932306
672.374777	0.931477
672.714585	0.931065
673.054342	0.929853
673.394049	0.928039
673.733705	0.926204
674.073310	0.924877
674.412864	0.926389
674.752368	0.924562
675.091820	0.923536
675.431223	0.925380
675.770574	0.922862
676.109875	0.922358
676.449125	0.922053
676.788324	0.921694
677.127473	0.921545
677.466571	0.921129
677.805619	0.919629
678.144616	0.918271
678.483562	0.917633
678.822458	0.918298
679.161303	0.917628
679.500098	0.916369
679.838842	0.916700
680.177535	0.915406
680.516179	0.913652
680.854771	0.913934
681.193314	0.910718
681.531805	0.907384
681.870247	0.902724
682.208638	0.899616
682.546978	0.899419
682.885268	0.899103
683.223508	0.899138
683.561697	0.897979
683.899836	0.898079
684.237925	0.897895
684.575963	0.896372
684.913951	0.896989
685.251889	0.893714
685.589776	0.894534
685.927614	0.894452
686.265401	0.890796
686.603137	0.890487
686.940824	0.886972
687.278460	0.885407
687.616046	0.883315
687.953582	0.881532
688.291068	0.881529
688.628504	0.878207
688.965889	0.877702
689.303224	0.878462
689.640510	0.877989
689.977745	0.878082
690.314930	0.879967
690.652065	0.880000
690.989150	0.881751
691.326185	0.881704
691.663170	0.880671
692.000105	0.882493
692.336990	0.884619
692.673825	0.882224
693.010610	0.884365
693.347345	0.886468
693.684030	0.882401
694.020665	0.884061
694.357251	0.886069
694.693786	0.883917
695.030272	0.885987
695.366707	0.884287
695.703093	0.885173
696.039429	0.882916
696.375716	0.880691
696.711952	0.882097
697.048139	0.882674
697.384276	0.881661
697.720363	0.879363
698.056400	0.877198
698.392388	0.878839
698.728326	0.880292
699.064214	0.881321
699.400053	0.879977
699.735842	0.878016
700.071581	0.877894
700.407270	0.877838
700.742910	0.879074
701.078501	0.880137
701.414042	0.878368
701.749533	0.876950
702.084974	0.881518
702.420366	0.876356
702.755709	0.878984
703.091002	0.880646
703.426246	0.874909
703.761440	0.879877
704.096584	0.880551
704.431679	0.876773
704.766725	0.876393
705.101721	0.876508
705.436668	0.873273
705.771565	0.876396
706.106413	0.875057
706.441212	0.869726
706.775961	0.867515
707.110661	0.871299
707.445311	0.870358
707.779913	0.866150
708.114465	0.865676
708.448967	0.865332
708.783421	0.859938
709.117825	0.856828
709.452180	0.858033
709.786485	0.855724
710.120742	0.850861
710.454949	0.852062
710.789107	0.847789
711.123216	0.843707
711.457275	0.844648
711.791286	0.838783
712.125247	0.837116
712.459159	0.843767
712.793023	0.841789
713.126837	0.836950
713.460602	0.836647
713.794318	0.843875
714.127985	0.839991
714.461602	0.840696
714.795171	0.842940
715.128691	0.843870
715.462162	0.844573
715.795584	0.845436
716.128957	0.846261
716.462281	0.848786
716.795556	0.848824
717.128782	0.848556
717.461960	0.851483
717.795088	0.849969
718.128167	0.851599
718.461198	0.855711
718.794180	0.854436
719.127113	0.853820
719.459997	0.854971
719.792833	0.856741
720.125619	0.857489
720.458357	0.858736
720.791046	0.856702
721.123686	0.857255
721.456278	0.860817
721.788821	0.858421
722.121315	0.858804
722.453761	0.861822
722.786158	0.857523
723.118506	0.856182
723.450805	0.861058
723.783056	0.858347
724.115259	0.853536
724.447412	0.853456
724.779518	0.855602
725.111574	0.853298
725.443582	0.850645
725.775542	0.850982
726.107453	0.847366
726.439315	0.845825
726.771129	0.847324
727.102895	0.843684
727.434612	0.838423
727.766281	0.838021
728.097901	0.838498
728.429473	0.838500
728.760996	0.835630
729.092471	0.835764
729.423897	0.836035
729.755276	0.833630
730.086606	0.832240
730.417887	0.832120
730.749120	0.827026
731.080305	0.819140
731.411442	0.818022
731.742530	0.821490
732.073570	0.819626
732.404562	0.813852
732.735506	0.814044
733.066401	0.816247
733.397249	0.819311
733.728048	0.824092
734.058798	0.826616
734.389501	0.829921
734.720156	0.835257
735.050762	0.838638
735.381320	0.835674
735.711831	0.843030
736.042293	0.844300
736.372707	0.839618
736.703073	0.841644
737.033391	0.845285
737.363661	0.842717
737.693883	0.837994
738.024056	0.837514
738.354182	0.839699
738.684260	0.832247
739.014290	0.830614
739.344272	0.831737
739.674207	0.828327
740.004093	0.828167
740.333931	0.827771
740.663722	0.826539
740.993464	0.826103
741.323159	0.827840
741.652806	0.828927
741.982405	0.830953
742.311956	0.831761
742.641460	0.832048
742.970915	0.831672
743.300323	0.836058
743.629683	0.839358
743.958996	0.838803
744.288260	0.839819
744.617477	0.841365
744.946647	0.841391
745.275768	0.843621
745.604842	0.842085
745.933869	0.849125
746.262847	0.848741
746.591778	0.840350
746.920662	0.845319
747.249498	0.850500
747.578286	0.843205
747.907027	0.841925
748.235720	0.844925
748.564365	0.839637
748.892963	0.837982
749.221514	0.839197
749.550017	0.843680
749.878473	0.840587
750.206881	0.844540
750.535242	0.844666
750.863555	0.843939
751.191821	0.844210
751.520039	0.846790
751.848210	0.850074
752.176334	0.841951
752.504411	0.841086
752.832440	0.846787
753.160421	0.849637
753.488356	0.847105
753.816243	0.843779
754.144082	0.849961
754.471875	0.852759
754.799620	0.847940
755.127318	0.848528
755.454969	0.847793
755.782572	0.846841
756.110129	0.851254
756.437638	0.853383
756.765100	0.848158
757.092515	0.847174
757.419882	0.846933
757.747203	0.850366
758.074477	0.849679
758.401703	0.847000
758.728882	0.843672
759.056014	0.843157
759.383099	0.842362
759.710138	0.843699
760.037129	0.841888
760.364073	0.835362
760.690970	0.837145
761.017820	0.841992
761.344623	0.838428
761.671379	0.831472
761.998088	0.823579
762.324751	0.808534
762.651366	0.788121
762.977935	0.754314
763.304456	0.721213
763.630931	0.709521
763.957359	0.731623
764.283740	0.757712
764.610074	0.770203
764.936362	0.786601
765.262602	0.803982
765.588796	0.816316
765.914943	0.827128
766.241044	0.837784
766.567097	0.840963
766.893104	0.846860
767.219064	0.849454
767.544978	0.852945
767.870845	0.862385
768.196665	0.864608
768.522438	0.862208
768.848165	0.861211
769.173846	0.867820
769.499479	0.870690
769.825066	0.872676
770.150607	0.875288
770.476101	0.870326
770.801548	0.871042
771.126949	0.878398
771.452303	0.880851
771.777611	0.879411
772.102872	0.878494
772.428087	0.882102
772.753256	0.883060
773.078378	0.883931
773.403453	0.891083
773.728482	0.894157
774.053465	0.888318
774.378401	0.890212
774.703291	0.896129
775.028135	0.894739
775.352932	0.896940
775.677683	0.898336
776.002388	0.898440
776.327046	0.896316
776.651658	0.899899
776.976224	0.901369
777.300743	0.901576
777.625216	0.903805
777.949643	0.904430
778.274024	0.903729
778.598359	0.904240
778.922647	0.904510
779.246889	0.902862
779.571086	0.906377
779.895236	0.909071
780.219339	0.907062
780.543397	0.902923
780.867409	0.902790
781.191374	0.903981
781.515294	0.905186
781.839167	0.904933
782.162995	0.906944
782.486776	0.903257
782.810511	0.903788
783.134201	0.906500
783.457844	0.903734
783.781441	0.906047
784.104993	0.910335
784.428498	0.910873
784.751958	0.907148
785.075372	0.908293
785.398739	0.911630
785.722061	0.907796
786.045337	0.904102
786.368568	0.908160
786.691752	0.911323
787.014891	0.899748
787.337983	0.893330
787.661030	0.891455
787.984031	0.879170
788.306987	0.867435
788.629897	0.869568
788.952760	0.870854
789.275579	0.872154
789.598351	0.882492
789.921078	0.892926
790.243759	0.892504
790.566395	0.896355
790.888984	0.901325
791.211529	0.904815
791.534027	0.906826
791.856480	0.908376
792.178888	0.912802
792.501249	0.913767
792.823566	0.914376
793.145836	0.914015
793.468062	0.915666
793.790241	0.916110
794.112375	0.913205
794.434464	0.909847
794.756507	0.909609
795.078505	0.910628
795.400457	0.907471
795.722364	0.899358
796.044226	0.894310
796.366042	0.894186
796.687812	0.895234
797.009538	0.891656
797.331218	0.892869
797.652852	0.896936
797.974442	0.901073
798.295986	0.899253
798.617484	0.900512
798.938938	0.904894
799.260346	0.908320
799.581709	0.908497
799.903026	0.910930
800.224299	0.911495
800.545526	0.913903
800.866708	0.917256
801.187845	0.919483
801.508936	0.919666
801.829983	0.917512
802.150984	0.918239
802.471940	0.922464
802.792851	0.923070
803.113717	0.922986
803.434538	0.922097
803.755314	0.922216
804.076045	0.924648
804.396731	0.924231
804.717372	0.925152
805.037967	0.927410
805.358518	0.923964
805.679024	0.922729
805.999485	0.922900
806.319901	0.923591
806.640272	0.924145
806.960598	0.922229
807.280879	0.920168
807.601115	0.919247
807.921306	0.921777
808.241453	0.922615
808.561554	0.919179
808.881611	0.919634
809.201623	0.920659
809.521590	0.921363
809.841513	0.921152
810.161390	0.921746
810.481223	0.922494
810.801011	0.924324
811.120755	0.925980
811.440453	0.925884
811.760107	0.922685
812.079716	0.921638
812.399281	0.925656
812.718801	0.926929
813.038276	0.928264
813.357707	0.928081
813.677093	0.924657
813.996434	0.927838
814.315731	0.929135
814.634983	0.930007
814.954191	0.928455
815.273354	0.926118
815.592473	0.921669
815.911547	0.923394
816.230577	0.921286
816.549562	0.918181
816.868502	0.919862
817.187399	0.915913
817.506250	0.911252
817.825058	0.912847
818.143821	0.909640
818.462539	0.905025
818.781213	0.898669
819.099843	0.889997
819.418429	0.877067
819.736970	0.863956
820.055466	0.848798
820.373919	0.826446
820.692327	0.799330
821.010691	0.771185
821.329011	0.716413
821.647286	0.642233
821.965517	0.570163
822.283704	0.541644
822.601847	0.537465
822.919945	0.553180
823.237999	0.565892
823.556010	0.594654
823.873976	0.635399
824.191897	0.673034
824.509775	0.705262
824.827609	0.740947
825.145398	0.759333
825.463144	0.761123
825.780845	0.747632
826.098502	0.733730
826.416116	0.700353
826.733685	0.667544
827.051210	0.660214
827.368692	0.668318
827.686129	0.694160
828.003522	0.736561
828.320872	0.774738
828.638177	0.811036
828.955439	0.837650
829.272656	0.854505
829.589830	0.868533
829.906960	0.881203
830.224046	0.891300
830.541088	0.900257
830.858086	0.902974
831.175041	0.907940
831.491952	0.907066
831.808819	0.904028
832.125642	0.899137
832.442421	0.885990
832.759157	0.869298
833.075849	0.832104
833.392497	0.779364
833.709101	0.746686
834.025662	0.753589
834.342179	0.779397
834.658653	0.809591
834.975083	0.840157
835.291469	0.859654
835.607811	0.879419
835.924110	0.891660
836.240366	0.907632
836.556578	0.919551
836.872746	0.924929
837.188871	0.929581
837.504952	0.934417
837.820990	0.936203
838.136984	0.939649
838.452935	0.942288
838.768842	0.944241
839.084706	0.938866
839.400526	0.917660
839.716303	0.885013
840.032037	0.868031
840.347727	0.868858
840.663373	0.883966
840.978977	0.900036
841.294537	0.918164
841.610054	0.933122
841.925527	0.939159
842.240957	0.945545
842.556344	0.951266
842.871687	0.956626
843.186987	0.960136
843.502244	0.959160
843.817458	0.959546
844.132629	0.962914
844.447756	0.968076
844.762840	0.967962
845.077881	0.965968
845.392879	0.967036
845.707833	0.970106
846.022745	0.971498
846.337613	0.972279
846.652438	0.973409
846.967221	0.971653
847.281960	0.971365
847.596656	0.974139
847.911309	0.971944
848.225919	0.974387
848.540485	0.975068
848.855009	0.975638
849.169490	0.974603
849.483928	0.974904
849.798323	0.975428
850.112675	0.975906
850.426984	0.976012
850.741251	0.975608
851.055474	0.975457
851.369654	0.973633
851.683792	0.974758
851.997887	0.975396
852.311938	0.976412
852.625947	0.976269
852.939914	0.975030
853.253837	0.975515
853.567718	0.976627
853.881555	0.977544
854.195350	0.974644
854.509103	0.976819
854.822812	0.975648
855.136479	0.975458
855.450103	0.975191
855.763685	0.974090
856.077224	0.973766
856.390720	0.976874
856.704173	0.975961
857.017584	0.974985
857.330953	0.973545
857.644278	0.973666
857.957561	0.975062
858.270802	0.974310
858.584000	0.973825
858.897155	0.973084
859.210268	0.973775
859.523339	0.974278
859.836367	0.976072
860.149352	0.976333
860.462295	0.974892
860.775195	0.975022
861.088054	0.975774
861.400869	0.975017
861.713642	0.976057
862.026373	0.975399
862.339062	0.975263
862.651708	0.974016
862.964312	0.974053
863.276873	0.975384
863.589392	0.974443
863.901869	0.973684
864.214303	0.972013
864.526696	0.971519
864.839045	0.971594
865.151353	0.968938
865.463619	0.969116
865.775842	0.970447
866.088023	0.968923
866.400162	0.969108
866.712258	0.970178
867.024313	0.970214
867.336325	0.970255
867.648296	0.970618
867.960224	0.968577
868.272110	0.968284
868.583954	0.969822
868.895755	0.970937
869.207515	0.968619
869.519233	0.967098
869.830909	0.968435
870.142542	0.969470
870.454134	0.969275
870.765684	0.969439
871.077191	0.965592
871.388657	0.966583
871.700081	0.966160
872.011463	0.966143
872.322803	0.965729
872.634101	0.964820
872.945357	0.962493
873.256571	0.961847
873.567744	0.961151
873.878874	0.961919
874.189963	0.959938
874.501010	0.960480
874.812015	0.957167
875.122979	0.959233
875.433900	0.962407
875.744780	0.962800
876.055618	0.959877
876.366415	0.958924
876.677169	0.958467
876.987882	0.960132
877.298554	0.959441
877.609183	0.956618
877.919771	0.953897
878.230317	0.952114
878.540822	0.950505
878.851285	0.944994
879.161707	0.938908
879.472087	0.928705
879.782425	0.914887
880.092722	0.884617
880.402977	0.840658
880.713191	0.793481
881.023363	0.750490
881.333494	0.725500
881.643583	0.699873
881.953631	0.695950
882.263637	0.718901
882.573602	0.751117
882.883526	0.771183
883.193408	0.788161
883.503248	0.806211
883.813048	0.830559
884.122806	0.855116
884.432522	0.874914
884.742197	0.892652
885.051831	0.900067
885.361424	0.908343
885.670975	0.918431
885.980485	0.928040
886.289954	0.933227
886.599382	0.938406
886.908768	0.939528
887.218113	0.944887
887.527417	0.949235
887.836680	0.952402
888.145901	0.952758
888.455082	0.956271
888.764221	0.959095
889.073319	0.960667
889.382376	0.962179
889.691392	0.961006
890.000366	0.960895
890.309300	0.963213
890.618193	0.962438
890.927044	0.960028
891.235855	0.960286
891.544625	0.960031
891.853353	0.961561
892.162041	0.957755
892.470687	0.951918
892.779293	0.949090
893.087858	0.945779
893.396381	0.937526
893.704864	0.927175
894.013306	0.907169
894.321707	0.884083
894.630068	0.872724
894.938387	0.868960
895.246665	0.868081
895.554903	0.879448
895.863100	0.890112
896.171256	0.904606
896.479371	0.921713
896.787446	0.932464
897.095480	0.938605
897.403473	0.941115
897.711425	0.943088
898.019336	0.950356
898.327207	0.952235
898.635038	0.955468
898.942827	0.955011
899.250576	0.956170
899.558284	0.961617
899.865952	0.962366
900.173579	0.963665
900.481165	0.964043
900.788711	0.967758
901.096216	0.969336
901.403681	0.968769
901.711105	0.970383
902.018489	0.971391
902.325832	0.970285
902.633135	0.969320
902.940397	0.964425
903.247619	0.954487
903.554800	0.932239
903.861941	0.899355
904.169041	0.869706
904.476101	0.855763
904.783121	0.856116
905.090100	0.869304
905.397039	0.886922
905.703938	0.905569
906.010796	0.922145
906.317614	0.936884
906.624391	0.946929
906.931129	0.954785
907.237826	0.960742
907.544483	0.968162
907.851099	0.970534
908.157675	0.975191
908.464211	0.976851
908.770707	0.979108
909.077163	0.980898
909.383578	0.980763
909.689954	0.980920
909.996289	0.980629
910.302584	0.982587
910.608839	0.985112
910.915054	0.983987
911.221229	0.983188
911.527363	0.982701
911.833458	0.982446
912.139513	0.982923
912.445527	0.981078
912.751502	0.979234
913.057436	0.978549
913.363331	0.976230
913.669186	0.972723
913.975000	0.969087
914.280775	0.963748
914.586510	0.960148
914.892205	0.947887
915.197859	0.929642
915.503475	0.906185
915.809050	0.890080
916.114585	0.885871
916.420081	0.884208
916.725536	0.880121
917.030952	0.887239
917.336328	0.897207
917.641665	0.910490
917.946961	0.924449
918.252218	0.933061
918.557435	0.940519
918.862612	0.948089
919.167750	0.953915
919.472848	0.956373
919.777906	0.961447
920.082925	0.966217
920.387904	0.969905
920.692843	0.970559
920.997743	0.971368
921.302603	0.975256
921.607423	0.976671
921.912204	0.978000
922.216946	0.977697
922.521647	0.979297
922.826310	0.980221
923.130932	0.982780
923.435516	0.983543
923.740059	0.985258
924.044564	0.983422
924.349028	0.986083
924.653454	0.987537
924.957840	0.989482
925.262186	0.989988
925.566493	0.988092
925.870761	0.989215
926.174989	0.990708
926.479178	0.994169
926.783328	0.992749
927.087438	0.992199
927.391509	0.990980
927.695541	0.993499
927.999533	0.992770
928.303486	0.993734
928.607400	0.995114
928.911275	0.992953
929.215110	0.993425
929.518906	0.993890
929.822663	0.993018
930.126381	0.994155
930.430060	0.993527
930.733699	0.993009
931.037299	0.994031
931.340861	0.994256
931.644383	0.992656
931.947866	0.993278
932.251309	0.994666
932.554714	0.994205
932.858080	0.992756
933.161407	0.994484
933.464694	0.993903
933.767943	0.993837
934.071153	0.993997
934.374323	0.995389
934.677455	0.993456
934.980548	0.995645
935.283602	0.994354
935.586617	0.994729
935.889593	0.994373
936.192530	0.992657
936.495428	0.994269
936.798287	0.994845
937.101108	0.994122
937.403890	0.993369
937.706632	0.993034
938.009336	0.990064
938.312002	0.991335
938.614628	0.988365
938.917216	0.989117
939.219765	0.986217
939.522275	0.986987
939.824747	0.987777
940.127179	0.988138
940.429573	0.989495
940.731929	0.988292
941.034246	0.989218
941.336524	0.990152
941.638763	0.989698
941.940964	0.989740
942.243126	0.991332
942.545250	0.991604
942.847335	0.992980
943.149381	0.992217
943.451389	0.993142
943.753359	0.992333
944.055290	0.993936
944.357182	0.993288
944.659036	0.992192
944.960851	0.992793
945.262628	0.992675
945.564367	0.994980
945.866067	0.994037
946.167729	0.994374
946.469352	0.993272
946.770937	0.992300
947.072484	0.994431
947.373992	0.993869
947.675462	0.993933
947.976893	0.993817
948.278286	0.994704
948.579641	0.995848
948.880958	0.993497
949.182236	0.994685
949.483476	0.994717
949.784678	0.993220
950.085841	0.994350
950.386967	0.994561
950.688054	0.994597
950.989103	0.994402
951.290114	0.992910
951.591087	0.992719
951.892021	0.993736
952.192917	0.992447
952.493776	0.991461
952.794596	0.991227
953.095378	0.991620
953.396122	0.991844
953.696828	0.991667
953.997496	0.993697
954.298126	0.993780
954.598718	0.993921
954.899272	0.995180
955.199788	0.993230
955.500266	0.995065
955.800706	0.995851
956.101108	0.995157
956.401472	0.995844
956.701798	0.996753
957.002087	0.995948
957.302337	0.996272
957.602550	0.999226
957.902724	0.997702
958.202861	0.998556
958.502960	0.998409
958.803022	0.996361
959.103045	0.998813
959.403031	0.998789
959.702979	0.998285
960.002889	0.998870
960.302762	0.996225
960.602596	0.998641
960.902393	0.997177
961.202153	0.999085
961.501875	0.999403
961.801559	0.997154
962.101205	0.997894
962.400814	0.998338
962.700385	0.999067
962.999918	0.997289
963.299414	0.998518
963.598873	0.997336
963.898293	0.997902
964.197677	0.998207
964.497022	0.998473
964.796331	0.998967
965.095601	0.998446
965.394835	0.998129
965.694030	0.998473
965.993189	0.999317
966.292309	0.999019
966.591393	0.998214
966.890439	0.998334
967.189447	0.997777
967.488419	0.998578
967.787353	0.998446
968.086249	0.997699
968.385108	0.998283
968.683930	0.999016
968.982714	0.999725
969.281462	0.999034
969.580172	0.998457
969.878844	0.999493
970.177480	0.998173
970.476078	0.999983
970.774639	0.998485
971.073162	0.998716
971.371649	0.998551
971.670098	0.997269
971.968510	0.999625
972.266885	0.997681
972.565223	0.998164
972.863524	0.998404
973.161788	0.998123
973.460014	0.998973
973.758204	0.998287
974.056356	0.997500
974.354471	0.996508
974.652550	0.997656
974.950591	0.998730
975.248595	0.998063
975.546563	0.999166
975.844493	0.998497
976.142386	0.998660
976.440243	0.999107
976.738062	0.998466
977.035845	0.999164
977.333590	0.998695
977.631299	1.000188
977.928971	0.998493
978.226606	0.998226
978.524204	0.998492
978.821765	0.999669
979.119290	0.998346
979.416777	0.998557
979.714228	0.998623
980.011642	0.997363
980.309020	0.998995
980.606360	0.999285
980.903664	0.999983
981.200931	0.996887
981.498162	0.996641
981.795356	0.996624
982.092513	0.995326
982.389633	0.996742
982.686717	0.994718
982.983764	0.994186
983.280775	0.992846
983.577749	0.994297
983.874686	0.995063
984.171587	0.994909
984.468451	0.996629
984.765279	0.997625
985.062070	0.995892
985.358824	0.997244
985.655543	0.996126
985.952224	0.997255
986.248869	0.998052
986.545478	0.999135
986.842050	0.999715
987.138586	0.996923
987.435086	0.999296
987.731549	1.000181
988.027975	0.999663
988.324366	0.999794
988.620719	0.998287
988.917037	0.998326
989.213318	0.998836
989.509563	0.998829
989.805772	0.999348
990.101944	1.000282
990.398080	0.999434
990.694180	0.998507
990.990244	0.998042
991.286271	0.999016
991.582262	1.000220
991.878217	0.999775
992.174136	0.999779
992.470019	1.001050
992.765865	0.998497
993.061676	0.999157
993.357450	0.998677
993.653188	0.997246
993.948890	0.999143
994.244556	0.999001
994.540186	0.999954
994.835780	0.998761
995.131337	0.998928
995.426859	0.997931
995.722345	0.999550
996.017795	0.997565
996.313208	0.998046
996.608586	0.998049
996.903928	0.998451
997.199234	0.997881
997.494504	0.997495
997.789738	0.998015
998.084936	0.998980
998.380099	0.999707
998.675225	0.999393
998.970316	0.998633
999.265371	0.999365
999.560390	0.999191
999.855373	0.999832
1000.150320	0.999589
1000.445232	1.000356
1000.740108	0.998962
1001.034948	0.999095
1001.329752	0.999983
1001.624521	1.000263
1001.919254	0.998728
1002.213951	0.999805
1002.508613	1.000365
1002.803239	0.999617
1003.097829	1.000335
1003.392384	1.000180
1003.686903	0.999334
1003.981386	0.999515
1004.275834	0.998928
1004.570246	0.999831
1004.864623	1.000757
1005.158964	1.001216
1005.453270	1.000065
1005.747540	0.998435
1006.041775	0.999215
1006.335974	1.000183
1006.630138	1.000597
1006.924266	0.999893
1007.218359	1.000722
1007.512416	0.999539
1007.806438	1.000046
1008.100425	1.000116
1008.394376	1.000752
1008.688292	0.999824
1008.982172	1.001368
1009.276017	1.000232
1009.569827	1.000335
1009.863602	1.000061
1010.157341	1.000821
1010.451045	0.999473
1010.744714	0.999705
1011.038347	0.999544
1011.331945	0.998808
1011.625508	0.998873
1011.919036	1.000156
1012.212528	0.999431
1012.505986	0.999585
1012.799408	1.000268
1013.092795	1.000326
1013.386147	0.998962
1013.679464	1.000208
1013.972745	0.999630
1014.265992	0.997767
1014.559204	0.998959
1014.852380	0.999735
1015.145521	0.999728
1015.438628	1.000423
1015.731699	0.999279
1016.024736	0.998699
1016.317737	1.000826
1016.610703	0.998511
1016.903635	1.000708
1017.196531	0.998208
1017.489393	1.000230
1017.782219	0.998523
1018.075011	0.999474
1018.367768	0.999717
1018.660490	0.998964
1018.953177	0.998964
1019.245829	0.998964
