Dividing Wavelength (nm)	Counts (n)	Blue Motor Position (mm): 0.000000	Red Motor Position (mm): 19.500000	
326.493990	1.000473
326.888308	1.000473
327.282561	1.000473
327.676750	0.999799
328.070874	0.999174
328.464933	0.999760
328.858929	0.998601
329.252859	0.999736
329.646726	0.999386
330.040528	1.000452
330.434265	0.999454
330.827938	1.001023
331.221547	1.001143
331.615091	1.000464
332.008571	1.000059
332.401986	1.000952
332.795338	0.999888
333.188625	0.997949
333.581847	1.000205
333.975006	0.999680
334.368100	0.999408
334.761129	0.998025
335.154095	1.000782
335.546996	0.997996
335.939833	0.992694
336.332606	0.994161
336.725315	0.995233
337.117960	0.995518
337.510540	0.994528
337.903056	0.995288
338.295508	0.993690
338.687896	0.993770
339.080220	0.994767
339.472480	0.995358
339.864676	0.993826
340.256807	0.993971
340.648875	0.994669
341.040879	0.995660
341.432818	0.994548
341.824694	0.994552
342.216506	0.994656
342.608253	0.994830
342.999937	0.994892
343.391557	0.994793
343.783113	0.993693
344.174605	0.994612
344.566033	0.994886
344.957397	0.993962
345.348697	0.994137
345.739934	0.994936
346.131106	0.992904
346.522215	0.994025
346.913260	0.993931
347.304241	0.993845
347.695159	0.993351
348.086012	0.992485
348.476802	0.995385
348.867528	0.993566
349.258191	0.993953
349.648789	0.993801
350.039324	0.993701
350.429796	0.995212
350.820203	0.993918
351.210548	0.994749
351.600828	0.994276
351.991045	0.994917
352.381198	0.993969
352.771288	0.995166
353.161314	0.993506
353.551276	0.995687
353.941175	0.994208
354.331010	0.994942
354.720782	0.994863
355.110490	0.993372
355.500135	0.995168
355.889717	0.994309
356.279235	0.995537
356.668689	0.993478
357.058080	0.994007
357.447408	0.995361
357.836672	0.995333
358.225873	0.993983
358.615010	0.995206
359.004084	0.995883
359.393095	0.994049
359.782043	0.994547
360.170927	0.996609
360.559748	0.994927
360.948505	0.993698
361.337199	0.993058
361.725830	0.994816
362.114398	0.994300
362.502903	0.994549
362.891344	0.994930
363.279722	0.994474
363.668037	0.994766
364.056289	0.994665
364.444478	0.995207
364.832603	0.995245
365.220665	0.993346
365.608665	0.993287
365.996601	0.994058
366.384474	0.994565
366.772284	0.993746
367.160031	0.992776
367.547715	0.993361
367.935336	0.994846
368.322893	0.994234
368.710388	0.993729
369.097820	0.994152
369.485189	0.994111
369.872495	0.992383
370.259738	0.993002
370.646918	0.995406
371.034035	0.994915
371.421090	0.993129
371.808081	0.994187
372.195010	0.994740
372.581875	0.993969
372.968678	0.993950
373.355418	0.994494
373.742096	0.994082
374.128710	0.994675
374.515262	0.994122
374.901751	0.995344
375.288177	0.994421
375.674540	0.994493
376.060841	0.994434
376.447079	0.995312
376.833254	0.995011
377.219367	0.995191
377.605417	0.995001
377.991404	0.995707
378.377329	0.994036
378.763191	0.994342
379.148991	0.995593
379.534727	0.995665
379.920402	0.995143
380.306013	0.994735
380.691563	0.995202
381.077049	0.994995
381.462474	0.995755
381.847835	0.995304
382.233134	0.995146
382.618371	0.995171
383.003545	0.994569
383.388657	0.995567
383.773706	0.996015
384.158693	0.996363
384.543618	0.996420
384.928480	0.996138
385.313280	0.994755
385.698017	0.996214
386.082692	0.996214
386.467305	0.995518
386.851856	0.995237
387.236344	0.996170
387.620770	0.994519
388.005133	0.996447
388.389435	0.995352
388.773674	0.995558
389.157851	0.996052
389.541965	0.996016
389.926018	0.995287
390.310008	0.996659
390.693936	0.995883
391.077802	0.995924
391.461606	0.995665
391.845348	0.996343
392.229027	0.997943
392.612645	0.996045
392.996200	0.997074
393.379694	0.996211
393.763125	0.996357
394.146494	0.996895
394.529801	0.995028
394.913047	0.996321
395.296230	0.995652
395.679351	0.995995
396.062410	0.995904
396.445408	0.995940
396.828343	0.995714
397.211217	0.994783
397.594028	0.996296
397.976778	0.994976
398.359466	0.995349
398.742092	0.995414
399.124656	0.994859
399.507158	0.995577
399.889598	0.996636
400.271977	0.995517
400.654294	0.996464
401.036549	0.996713
401.418742	0.996169
401.800874	0.995077
402.182944	0.995633
402.564952	0.994563
402.946898	0.995683
403.328783	0.995045
403.710606	0.994937
404.092367	0.995346
404.474067	0.995630
404.855705	0.994693
405.237282	0.994554
405.618797	0.994808
406.000250	0.993571
406.381642	0.995690
406.762972	0.994193
407.144240	0.995069
407.525447	0.994189
407.906593	0.992546
408.287677	0.991638
408.668700	0.992396
409.049661	0.990117
409.430560	0.991550
409.811399	0.988061
410.192176	0.987800
410.572891	0.986880
410.953545	0.984941
411.334138	0.982502
411.714669	0.981595
412.095139	0.979102
412.475547	0.977695
412.855894	0.975918
413.236180	0.973437
413.616405	0.969955
413.996568	0.967015
414.376670	0.963533
414.756711	0.960231
415.136691	0.957770
415.516609	0.952463
415.896466	0.948185
416.276262	0.943810
416.655997	0.940439
417.035670	0.933870
417.415283	0.927726
417.794834	0.922873
418.174324	0.918672
418.553753	0.915255
418.933121	0.906619
419.312428	0.900002
419.691674	0.894981
420.070859	0.887094
420.449983	0.881326
420.829045	0.872831
421.208047	0.868955
421.586988	0.859843
421.965867	0.850679
422.344686	0.839901
422.723444	0.837009
423.102141	0.833772
423.480777	0.818223
423.859352	0.816070
424.237866	0.798519
424.616319	0.791741
424.994712	0.779165
425.373044	0.774999
425.751314	0.760068
426.129524	0.758652
426.507673	0.742796
426.885762	0.731920
427.263789	0.724072
427.641756	0.721405
428.019662	0.707163
428.397508	0.696792
428.775292	0.689809
429.153016	0.677226
429.530679	0.672915
429.908282	0.660421
430.285824	0.657780
430.663305	0.635253
431.040726	0.640236
431.418086	0.633644
431.795385	0.619262
432.172624	0.610172
432.549802	0.603517
432.926920	0.594980
433.303977	0.586678
433.680974	0.578402
434.057910	0.569627
434.434786	0.562625
434.811601	0.558222
435.188355	0.537177
435.565050	0.538989
435.941683	0.533695
436.318257	0.515522
436.694770	0.509419
437.071222	0.502745
437.447614	0.501497
437.823946	0.501711
438.200218	0.487645
438.576429	0.491870
438.952580	0.481056
439.328670	0.473762
439.704700	0.476096
440.080670	0.473903
440.456580	0.452131
440.832429	0.455847
441.208218	0.463157
441.583947	0.449975
441.959616	0.447271
442.335224	0.449916
442.710773	0.438468
443.086261	0.433837
443.461689	0.445416
443.837057	0.434039
444.212365	0.422817
444.587612	0.427435
444.962800	0.416006
445.337927	0.416375
445.712995	0.440256
446.088002	0.402817
446.462949	0.411556
446.837837	0.415556
447.212664	0.403451
447.587431	0.394340
447.962139	0.364941
448.336786	0.323720
448.711374	0.333780
449.085901	0.376645
449.460369	0.380601
449.834776	0.383030
450.209124	0.362339
450.583412	0.355061
450.957640	0.347811
451.331808	0.358243
451.705917	0.381246
452.079965	0.386212
452.453954	0.373898
452.827883	0.380729
453.201752	0.375456
453.575562	0.386521
453.949311	0.375403
454.323001	0.380878
454.696632	0.376598
455.070202	0.369288
455.443713	0.361035
455.817164	0.355905
456.190556	0.351514
456.563888	0.348216
456.937160	0.346304
457.310373	0.362962
457.683526	0.361085
458.056619	0.367422
458.429653	0.367833
458.802628	0.371122
459.175542	0.365444
459.548398	0.348527
459.921194	0.340952
460.293930	0.340739
460.666607	0.317901
461.039224	0.306513
461.411782	0.302332
461.784280	0.301682
462.156719	0.305328
462.529099	0.310316
462.901419	0.325832
463.273680	0.330142
463.645882	0.329918
464.018024	0.335744
464.390106	0.328693
464.762130	0.313444
465.134094	0.296707
465.505999	0.265906
465.877845	0.236186
466.249631	0.223393
466.621358	0.230986
466.993026	0.244516
467.364634	0.250738
467.736184	0.259637
468.107674	0.268534
468.479105	0.267281
468.850477	0.274202
469.221790	0.280746
469.593043	0.291304
469.964238	0.295895
470.335373	0.295232
470.706449	0.293307
471.077467	0.294450
471.448425	0.256341
471.819324	0.232200
472.190164	0.231458
472.560945	0.260193
472.931667	0.282524
473.302330	0.286306
473.672934	0.298028
474.043479	0.286633
474.413965	0.288317
474.784393	0.291868
475.154761	0.287184
475.525070	0.283929
475.895321	0.289602
476.265513	0.283917
476.635645	0.279550
477.005719	0.279364
477.375734	0.275890
477.745691	0.269209
478.115588	0.265633
478.485427	0.259346
478.855207	0.246131
479.224928	0.228908
479.594591	0.217017
479.964194	0.220321
480.333739	0.221579
480.703226	0.222966
481.072653	0.221488
481.442022	0.217044
481.811333	0.213760
482.180584	0.217211
482.549777	0.222438
482.918912	0.225781
483.287988	0.225398
483.657005	0.225113
484.025964	0.231492
484.394864	0.228974
484.763706	0.229652
485.132489	0.234459
485.501213	0.235068
485.869879	0.233271
486.238487	0.237090
486.607036	0.234706
486.975527	0.239181
487.343959	0.234921
487.712333	0.234271
488.080648	0.235595
488.448905	0.234649
488.817104	0.236121
489.185244	0.230450
489.553326	0.227414
489.921350	0.217462
490.289315	0.199720
490.657222	0.194598
491.025070	0.196083
491.392861	0.198257
491.760593	0.203837
492.128267	0.208985
492.495883	0.214626
492.863440	0.221079
493.230939	0.227287
493.598380	0.228455
493.965763	0.230823
494.333088	0.232957
494.700354	0.234493
495.067563	0.233271
495.434713	0.236674
495.801805	0.234823
496.168839	0.236101
496.535815	0.237326
496.902733	0.237374
497.269593	0.238800
497.636395	0.236876
498.003139	0.236761
498.369825	0.239915
498.736453	0.236493
499.103023	0.237934
499.469535	0.237401
499.835989	0.237500
500.202385	0.238516
500.568723	0.241578
500.935003	0.237111
501.301226	0.241242
501.667390	0.235447
502.033497	0.233447
502.399546	0.236561
502.765537	0.237956
503.131470	0.236771
503.497345	0.232808
503.863163	0.241878
504.228923	0.234732
504.594625	0.233435
504.960269	0.238998
505.325856	0.234171
505.691385	0.238499
506.056856	0.235393
506.422270	0.234625
506.787625	0.237134
507.152924	0.234514
507.518164	0.234867
507.883347	0.236502
508.248472	0.238527
508.613540	0.233572
508.978550	0.235932
509.343503	0.236414
509.708398	0.234057
510.073236	0.231944
510.438016	0.231967
510.802738	0.232940
511.167403	0.231626
511.532010	0.233828
511.896561	0.229187
512.261053	0.228017
512.625488	0.229919
512.989866	0.229926
513.354186	0.230540
513.718449	0.232474
514.082655	0.228661
514.446803	0.230911
514.810894	0.228750
515.174927	0.231268
515.538904	0.230694
515.902822	0.227663
516.266684	0.230297
516.630488	0.231189
516.994235	0.230092
517.357925	0.228726
517.721558	0.227057
518.085133	0.226557
518.448651	0.226927
518.812112	0.229005
519.175516	0.228787
519.538863	0.226178
519.902152	0.227877
520.265385	0.224519
520.628560	0.226506
520.991678	0.226937
521.354739	0.225799
521.717743	0.227135
522.080690	0.227730
522.443580	0.224833
522.806413	0.225779
523.169189	0.224994
523.531908	0.223893
523.894569	0.227651
524.257174	0.227382
524.619722	0.225245
524.982213	0.226545
525.344647	0.225222
525.707025	0.225980
526.069345	0.224027
526.431608	0.225889
526.793815	0.223769
527.155964	0.227738
527.518057	0.226819
527.880093	0.228052
528.242072	0.226485
528.603995	0.228317
528.965860	0.229924
529.327669	0.228676
529.689421	0.229877
530.051117	0.230622
530.412755	0.228281
530.774337	0.230753
531.135862	0.230925
531.497331	0.230471
531.858743	0.233513
532.220098	0.229917
532.581396	0.232790
532.942638	0.232958
533.303824	0.234018
533.664953	0.233785
534.026025	0.235353
534.387040	0.233163
534.747999	0.233504
535.108902	0.232202
535.469748	0.237306
535.830537	0.234914
536.191270	0.235556
536.551947	0.234864
536.912567	0.235142
537.273131	0.236815
537.633638	0.236936
537.994089	0.237215
538.354483	0.238452
538.714821	0.235497
539.075103	0.234937
539.435328	0.235787
539.795497	0.239430
540.155609	0.236178
540.515665	0.234218
540.875665	0.239828
541.235609	0.238510
541.595496	0.238761
541.955328	0.235115
542.315102	0.237797
542.674821	0.238879
543.034483	0.238918
543.394090	0.238574
543.753640	0.240598
544.113134	0.235534
544.472571	0.238695
544.831953	0.235607
545.191278	0.239703
545.550548	0.239051
545.909761	0.235891
546.268918	0.236510
546.628019	0.235316
546.987064	0.237670
547.346053	0.239361
547.704986	0.237666
548.063863	0.237785
548.422684	0.237694
548.781449	0.239630
549.140158	0.237220
549.498811	0.239935
549.857408	0.243551
550.215949	0.238249
550.574434	0.241214
550.932864	0.239143
551.291237	0.237616
551.649555	0.239128
552.007817	0.239059
552.366022	0.239603
552.724173	0.239575
553.082267	0.240181
553.440305	0.237160
553.798288	0.241767
554.156215	0.238322
554.514086	0.238793
554.871902	0.241979
555.229661	0.241213
555.587365	0.241782
555.945014	0.244364
556.302606	0.241140
556.660143	0.243574
557.017625	0.240177
557.375050	0.242513
557.732421	0.239489
558.089735	0.241474
558.446994	0.241615
558.804197	0.240744
559.161345	0.240635
559.518437	0.244134
559.875474	0.241724
560.232455	0.241151
560.589381	0.242715
560.946251	0.242550
561.303065	0.240092
561.659825	0.241579
562.016528	0.243026
562.373177	0.246085
562.729770	0.243287
563.086307	0.245245
563.442789	0.242913
563.799216	0.246022
564.155587	0.244671
564.511904	0.245642
564.868164	0.245884
565.224370	0.245609
565.580520	0.247233
565.936615	0.247336
566.292654	0.250217
566.648638	0.247350
567.004567	0.248491
567.360441	0.248566
567.716260	0.251021
568.072023	0.248565
568.427732	0.249185
568.783385	0.251775
569.138982	0.249757
569.494525	0.249489
569.850013	0.252409
570.205445	0.250822
570.560823	0.253268
570.916145	0.255108
571.271412	0.253649
571.626625	0.255218
571.981782	0.255125
572.336884	0.256185
572.691931	0.256313
573.046923	0.257215
573.401860	0.258333
573.756743	0.259883
574.111570	0.258940
574.466342	0.259534
574.821059	0.258680
575.175722	0.261259
575.530330	0.261083
575.884882	0.261402
576.239380	0.263412
576.593823	0.264242
576.948211	0.263311
577.302544	0.266873
577.656823	0.266088
578.011047	0.266492
578.365216	0.266837
578.719330	0.268996
579.073389	0.268799
579.427394	0.270231
579.781344	0.271079
580.135239	0.272371
580.489080	0.272241
580.842866	0.275282
581.196597	0.274689
581.550273	0.273469
581.903895	0.274664
582.257463	0.272544
582.610975	0.275952
582.964434	0.275345
583.317837	0.277763
583.671186	0.278081
584.024481	0.278183
584.377721	0.280431
584.730906	0.281553
585.084037	0.280490
585.437113	0.282591
585.790135	0.281773
586.143103	0.284803
586.496016	0.285951
586.848874	0.283494
587.201679	0.284152
587.554428	0.287442
587.907124	0.286074
588.259765	0.286806
588.612352	0.287217
588.964884	0.291450
589.317362	0.290734
589.669786	0.290631
590.022155	0.289302
590.374470	0.288547
590.726731	0.290482
591.078937	0.295288
591.431090	0.291834
591.783188	0.295928
592.135232	0.296227
592.487222	0.296531
592.839157	0.294655
593.191038	0.297105
593.542866	0.298707
593.894639	0.302632
594.246358	0.300252
594.598022	0.299859
594.949633	0.303712
595.301190	0.304102
595.652692	0.303080
596.004141	0.299333
596.355535	0.307326
596.706876	0.307969
597.058162	0.310384
597.409395	0.307837
597.760573	0.305436
598.111698	0.308502
598.462768	0.309033
598.813785	0.310245
599.164748	0.311545
599.515657	0.311801
599.866511	0.315132
600.217312	0.310487
600.568060	0.316264
600.918753	0.312562
601.269392	0.313268
601.619978	0.316447
601.970510	0.314270
602.320988	0.314395
602.671412	0.311999
603.021783	0.314469
603.372100	0.315524
603.722363	0.315256
604.072572	0.316280
604.422728	0.316416
604.772830	0.317948
605.122878	0.318027
605.472872	0.318051
605.822813	0.316877
606.172701	0.319591
606.522534	0.316572
606.872314	0.316843
607.222041	0.317882
607.571714	0.315540
607.921333	0.317246
608.270899	0.316748
608.620411	0.313685
608.969870	0.317475
609.319276	0.317460
609.668627	0.317120
610.017926	0.315840
610.367171	0.314572
610.716362	0.315554
611.065500	0.315565
611.414585	0.314401
611.763616	0.314864
612.112594	0.315045
612.461518	0.314866
612.810389	0.312573
613.159207	0.314585
613.507971	0.316575
613.856682	0.312473
614.205340	0.313698
614.553945	0.310313
614.902496	0.314386
615.250994	0.312812
615.599439	0.313157
615.947830	0.312653
616.296169	0.313731
616.644454	0.313105
616.992686	0.313375
617.340864	0.311211
617.688990	0.314759
618.037063	0.311609
618.385082	0.313494
618.733048	0.310082
619.080961	0.312469
619.428821	0.311807
619.776628	0.311322
620.124382	0.313586
620.472083	0.313884
620.819731	0.313154
621.167326	0.316671
621.514868	0.316713
621.862357	0.320815
622.209793	0.320439
622.557176	0.322444
622.904506	0.323813
623.251783	0.326298
623.599007	0.328412
623.946179	0.327768
624.293297	0.329944
624.640363	0.333694
624.987376	0.334308
625.334336	0.336869
625.681243	0.339127
626.028097	0.339646
626.374899	0.340701
626.721647	0.340753
627.068343	0.344335
627.414987	0.345121
627.761577	0.347297
628.108115	0.345729
628.454600	0.350899
628.801032	0.348212
629.147412	0.350312
629.493739	0.350445
629.840014	0.353425
630.186236	0.351005
630.532405	0.356312
630.878521	0.354157
631.224585	0.356228
631.570597	0.359984
631.916556	0.358248
632.262462	0.358713
632.608316	0.360246
632.954117	0.361549
633.299866	0.362514
633.645562	0.362469
633.991206	0.366959
634.336797	0.369614
634.682336	0.371850
635.027823	0.373990
635.373257	0.374429
635.718639	0.377990
636.063968	0.377280
636.409245	0.383185
636.754470	0.383454
637.099642	0.386190
637.444762	0.389472
637.789829	0.387739
638.134845	0.391951
638.479808	0.392703
638.824719	0.392388
639.169577	0.396491
639.514383	0.395172
639.859137	0.399513
640.203839	0.399274
640.548489	0.399890
640.893086	0.401220
641.237632	0.402429
641.582125	0.401329
641.926566	0.402761
642.270955	0.402960
642.615292	0.403194
642.959576	0.402303
643.303809	0.403111
643.647990	0.402410
643.992118	0.402998
644.336195	0.406375
644.680219	0.404651
645.024192	0.405578
645.368112	0.399531
645.711981	0.398308
646.055797	0.393715
646.399562	0.396275
646.743274	0.388308
647.086935	0.385802
647.430544	0.385773
647.774101	0.384404
648.117606	0.384211
648.461059	0.384635
648.804460	0.387223
649.147810	0.391998
649.491108	0.394594
649.834354	0.395353
650.177548	0.401120
650.520690	0.406289
650.863781	0.407395
651.206820	0.406715
651.549807	0.411537
651.892742	0.415104
652.235626	0.414614
652.578458	0.415737
652.921238	0.421963
653.263967	0.419709
653.606644	0.423624
653.949269	0.423554
654.291843	0.427701
654.634365	0.424261
654.976836	0.427098
655.319255	0.427106
655.661622	0.429062
656.003938	0.429223
656.346203	0.431736
656.688416	0.430354
657.030577	0.432944
657.372687	0.435377
657.714746	0.435425
658.056753	0.433019
658.398708	0.436736
658.740612	0.437960
659.082465	0.434066
659.424266	0.435030
659.766016	0.434184
660.107715	0.436910
660.449362	0.435490
660.790958	0.436174
661.132503	0.436691
661.473996	0.434478
661.815438	0.435350
662.156829	0.435497
662.498168	0.436107
662.839456	0.437931
663.180693	0.434931
663.521879	0.435406
663.863013	0.436015
664.204097	0.434799
664.545129	0.431913
664.886110	0.431880
665.227040	0.429663
665.567918	0.431863
665.908746	0.430024
666.249522	0.429943
666.590248	0.431311
666.930922	0.428783
667.271545	0.428236
667.612118	0.428180
667.952639	0.429639
668.293109	0.427522
668.633528	0.431200
668.973896	0.431261
669.314213	0.431603
669.654480	0.432907
669.994695	0.433117
670.334859	0.433828
670.674973	0.434516
671.015035	0.434585
671.355047	0.434628
671.695008	0.435426
672.034918	0.437230
672.374777	0.436727
672.714585	0.437530
673.054342	0.437273
673.394049	0.437796
673.733705	0.435121
674.073310	0.436671
674.412864	0.439952
674.752368	0.440042
675.091820	0.440392
675.431223	0.445175
675.770574	0.444605
676.109875	0.447333
676.449125	0.447676
676.788324	0.450089
677.127473	0.454701
677.466571	0.455429
677.805619	0.456364
678.144616	0.457687
678.483562	0.459797
678.822458	0.461589
679.161303	0.463366
679.500098	0.463750
679.838842	0.465035
680.177535	0.464851
680.516179	0.463302
680.854771	0.462274
681.193314	0.455440
681.531805	0.447556
681.870247	0.435059
682.208638	0.428057
682.546978	0.427565
682.885268	0.428782
683.223508	0.434857
683.561697	0.438371
683.899836	0.441341
684.237925	0.444620
684.575963	0.447157
684.913951	0.450914
685.251889	0.446315
685.589776	0.448144
685.927614	0.451350
686.265401	0.444864
686.603137	0.446104
686.940824	0.440244
687.278460	0.438290
687.616046	0.437999
687.953582	0.432432
688.291068	0.434565
688.628504	0.429780
688.965889	0.432220
689.303224	0.436173
689.640510	0.440068
689.977745	0.445458
690.314930	0.453828
690.652065	0.458263
690.989150	0.466034
691.326185	0.472144
691.663170	0.476699
692.000105	0.484580
692.336990	0.491336
692.673825	0.493597
693.010610	0.499981
693.347345	0.505586
693.684030	0.507248
694.020665	0.512382
694.357251	0.521109
694.693786	0.521153
695.030272	0.524850
695.366707	0.528030
695.703093	0.531769
696.039429	0.529727
696.375716	0.531039
696.711952	0.534040
697.048139	0.536002
697.384276	0.537422
697.720363	0.536440
698.056400	0.535605
698.392388	0.540969
698.728326	0.544151
699.064214	0.546226
699.400053	0.546815
699.735842	0.550773
700.071581	0.553521
700.407270	0.556543
700.742910	0.559211
701.078501	0.565896
701.414042	0.566077
701.749533	0.568428
702.084974	0.577663
702.420366	0.569753
702.755709	0.577875
703.091002	0.585603
703.426246	0.578343
703.761440	0.585007
704.096584	0.589505
704.431679	0.586353
704.766725	0.589182
705.101721	0.589604
705.436668	0.586271
705.771565	0.593416
706.106413	0.590034
706.441212	0.584936
706.775961	0.584169
707.110661	0.587163
707.445311	0.583355
707.779913	0.579970
708.114465	0.579375
708.448967	0.575916
708.783421	0.567713
709.117825	0.562898
709.452180	0.562786
709.786485	0.555834
710.120742	0.546235
710.454949	0.548229
710.789107	0.540150
711.123216	0.531141
711.457275	0.532834
711.791286	0.523498
712.125247	0.523103
712.459159	0.532832
712.793023	0.526137
713.126837	0.530577
713.460602	0.530389
713.794318	0.539640
714.127985	0.538406
714.461602	0.549118
714.795171	0.551848
715.128691	0.559873
715.462162	0.567533
715.795584	0.572774
716.128957	0.575690
716.462281	0.582259
716.795556	0.586355
717.128782	0.591234
717.461960	0.600615
717.795088	0.598165
718.128167	0.604676
718.461198	0.614122
718.794180	0.615135
719.127113	0.617357
719.459997	0.621159
719.792833	0.627546
720.125619	0.627889
720.458357	0.633912
720.791046	0.634004
721.123686	0.637675
721.456278	0.644334
721.788821	0.641741
722.121315	0.645467
722.453761	0.650080
722.786158	0.647485
723.118506	0.644272
723.450805	0.651819
723.783056	0.648628
724.115259	0.645106
724.447412	0.644458
724.779518	0.646071
725.111574	0.645873
725.443582	0.641007
725.775542	0.642482
726.107453	0.634831
726.439315	0.635062
726.771129	0.633065
727.102895	0.626206
727.434612	0.619621
727.766281	0.617537
728.097901	0.616380
728.429473	0.616622
728.760996	0.615126
729.092471	0.615057
729.423897	0.618959
729.755276	0.618022
730.086606	0.618234
730.417887	0.612554
730.749120	0.603556
731.080305	0.594557
731.411442	0.590301
731.742530	0.595157
732.073570	0.594418
732.404562	0.586316
732.735506	0.588553
733.066401	0.593113
733.397249	0.602247
733.728048	0.613275
734.058798	0.625525
734.389501	0.636853
734.720156	0.647239
735.050762	0.653961
735.381320	0.655436
735.711831	0.664480
736.042293	0.669941
736.372707	0.664879
736.703073	0.670304
737.033391	0.672229
737.363661	0.668551
737.693883	0.664042
738.024056	0.663279
738.354182	0.663999
738.684260	0.652685
739.014290	0.648522
739.344272	0.649917
739.674207	0.643580
740.004093	0.641982
740.333931	0.643597
740.663722	0.642766
740.993464	0.643379
741.323159	0.647361
741.652806	0.652211
741.982405	0.657160
742.311956	0.661527
742.641460	0.663812
742.970915	0.667309
743.300323	0.674923
743.629683	0.680684
743.958996	0.683205
744.288260	0.688351
744.617477	0.693276
744.946647	0.696216
745.275768	0.699761
745.604842	0.700240
745.933869	0.710832
746.262847	0.711276
746.591778	0.704688
746.920662	0.710670
747.249498	0.717123
747.578286	0.707920
747.907027	0.703423
748.235720	0.705982
748.564365	0.699995
748.892963	0.700214
749.221514	0.703106
749.550017	0.707333
749.878473	0.707168
750.206881	0.714834
750.535242	0.714637
750.863555	0.715127
751.191821	0.716581
751.520039	0.718988
751.848210	0.725611
752.176334	0.716535
752.504411	0.716619
752.832440	0.723904
753.160421	0.728123
753.488356	0.726386
753.816243	0.723788
754.144082	0.732495
754.471875	0.735592
754.799620	0.730834
755.127318	0.732549
755.454969	0.731822
755.782572	0.730941
756.110129	0.737210
756.437638	0.739338
756.765100	0.735947
757.092515	0.733636
757.419882	0.732351
757.747203	0.738560
758.074477	0.737217
758.401703	0.734652
758.728882	0.729831
759.056014	0.728704
759.383099	0.727995
759.710138	0.728674
760.037129	0.725304
760.364073	0.718444
760.690970	0.721242
761.017820	0.727436
761.344623	0.723359
761.671379	0.713296
761.998088	0.701926
762.324751	0.679567
762.651366	0.637776
762.977935	0.570144
763.304456	0.518053
763.630931	0.509403
763.957359	0.548147
764.283740	0.593404
764.610074	0.620099
764.936362	0.651194
765.262602	0.678029
765.588796	0.698566
765.914943	0.717520
766.241044	0.734625
766.567097	0.741088
766.893104	0.751012
767.219064	0.757345
767.544978	0.764561
767.870845	0.776970
768.196665	0.782025
768.522438	0.779109
768.848165	0.780669
769.173846	0.789121
769.499479	0.793101
769.825066	0.798145
770.150607	0.802811
770.476101	0.796921
770.801548	0.799690
771.126949	0.810364
771.452303	0.814224
771.777611	0.812506
772.102872	0.812441
772.428087	0.817646
772.753256	0.821266
773.078378	0.823064
773.403453	0.832585
773.728482	0.835314
774.053465	0.830258
774.378401	0.833025
774.703291	0.840668
775.028135	0.840970
775.352932	0.843280
775.677683	0.845730
776.002388	0.847163
776.327046	0.845160
776.651658	0.849060
776.976224	0.852795
777.300743	0.852352
777.625216	0.855139
777.949643	0.857319
778.274024	0.857047
778.598359	0.858122
778.922647	0.857502
779.246889	0.857277
779.571086	0.861828
779.895236	0.864695
780.219339	0.860636
780.543397	0.858291
780.867409	0.855863
781.191374	0.859446
781.515294	0.860184
781.839167	0.857761
782.162995	0.862910
782.486776	0.859516
782.810511	0.859759
783.134201	0.864735
783.457844	0.861784
783.781441	0.864537
784.104993	0.869182
784.428498	0.870508
784.751958	0.864982
785.075372	0.868282
785.398739	0.871991
785.722061	0.869263
786.045337	0.864080
786.368568	0.869454
786.691752	0.871620
787.014891	0.857397
787.337983	0.848944
787.661030	0.840321
787.984031	0.824077
788.306987	0.810919
788.629897	0.812586
788.952760	0.817673
789.275579	0.819953
789.598351	0.835475
789.921078	0.849087
790.243759	0.850851
790.566395	0.855316
790.888984	0.863611
791.211529	0.868020
791.534027	0.871244
791.856480	0.873999
792.178888	0.879126
792.501249	0.881477
792.823566	0.882153
793.145836	0.882573
793.468062	0.885547
793.790241	0.885387
794.112375	0.883782
794.434464	0.878067
794.756507	0.877211
795.078505	0.877679
795.400457	0.872509
795.722364	0.859955
796.044226	0.853114
796.366042	0.851968
796.687812	0.854650
797.009538	0.851503
797.331218	0.855355
797.652852	0.859402
797.974442	0.863772
798.295986	0.863266
798.617484	0.866577
798.938938	0.871324
799.260346	0.874868
799.581709	0.877906
799.903026	0.879766
800.224299	0.880566
800.545526	0.884988
800.866708	0.887932
801.187845	0.892666
801.508936	0.890704
801.829983	0.890173
802.150984	0.891971
802.471940	0.897569
802.792851	0.897071
803.113717	0.897962
803.434538	0.895186
803.755314	0.898264
804.076045	0.898938
804.396731	0.899692
804.717372	0.899937
805.037967	0.902020
805.358518	0.898749
805.679024	0.896528
805.999485	0.896996
806.319901	0.897700
806.640272	0.898619
806.960598	0.896651
807.280879	0.893616
807.601115	0.891999
807.921306	0.895573
808.241453	0.895172
808.561554	0.893802
808.881611	0.893210
809.201623	0.896288
809.521590	0.895863
809.841513	0.896623
810.161390	0.896680
810.481223	0.896899
810.801011	0.901188
811.120755	0.902399
811.440453	0.901027
811.760107	0.900017
812.079716	0.900824
812.399281	0.903895
812.718801	0.906191
813.038276	0.907597
813.357707	0.906328
813.677093	0.903139
813.996434	0.906890
814.315731	0.908373
814.634983	0.909655
814.954191	0.907849
815.273354	0.905910
815.592473	0.901708
815.911547	0.901172
816.230577	0.898983
816.549562	0.896451
816.868502	0.896600
817.187399	0.892828
817.506250	0.887588
817.825058	0.889106
818.143821	0.887967
818.462539	0.881239
818.781213	0.872868
819.099843	0.861342
819.418429	0.846330
819.736970	0.830090
820.055466	0.809783
820.373919	0.784101
820.692327	0.750909
821.010691	0.716883
821.329011	0.638944
821.647286	0.523246
821.965517	0.410127
822.283704	0.367139
822.601847	0.368853
822.919945	0.404108
823.237999	0.438046
823.556010	0.484703
823.873976	0.540643
824.191897	0.590813
824.509775	0.634178
824.827609	0.678147
825.145398	0.701368
825.463144	0.703584
825.780845	0.687737
826.098502	0.668400
826.416116	0.622635
826.733685	0.579194
827.051210	0.569545
827.368692	0.584452
827.686129	0.622684
828.003522	0.676352
828.320872	0.722560
828.638177	0.766754
828.955439	0.800028
829.272656	0.821123
829.589830	0.838477
829.906960	0.854514
830.224046	0.866799
830.541088	0.877362
830.858086	0.880307
831.175041	0.887963
831.491952	0.887099
831.808819	0.884088
832.125642	0.876174
832.442421	0.861609
832.759157	0.839934
833.075849	0.794416
833.392497	0.729899
833.709101	0.689643
834.025662	0.699099
834.342179	0.730681
834.658653	0.769821
834.975083	0.806007
835.291469	0.830894
835.607811	0.853863
835.924110	0.870910
836.240366	0.887109
836.556578	0.901616
836.872746	0.908429
837.188871	0.915562
837.504952	0.919809
837.820990	0.924101
838.136984	0.926921
838.452935	0.930131
838.768842	0.931232
839.084706	0.925496
839.400526	0.898964
839.716303	0.858499
840.032037	0.836823
840.347727	0.839809
840.663373	0.859447
840.978977	0.880417
841.294537	0.902508
841.610054	0.917856
841.925527	0.926715
842.240957	0.932596
842.556344	0.940011
842.871687	0.946842
843.186987	0.949417
843.502244	0.949720
843.817458	0.951533
844.132629	0.955585
844.447756	0.959915
844.762840	0.960749
845.077881	0.960635
845.392879	0.960009
845.707833	0.962735
846.022745	0.964773
846.337613	0.965405
846.652438	0.965590
846.967221	0.965160
847.281960	0.965644
847.596656	0.967760
847.911309	0.965739
848.225919	0.967717
848.540485	0.968012
848.855009	0.968952
849.169490	0.968330
849.483928	0.969932
849.798323	0.969675
850.112675	0.970276
850.426984	0.969964
850.741251	0.970304
851.055474	0.969704
851.369654	0.967578
851.683792	0.969477
851.997887	0.968863
852.311938	0.970355
852.625947	0.970236
852.939914	0.968664
853.253837	0.969334
853.567718	0.970999
853.881555	0.970381
854.195350	0.968012
854.509103	0.969802
854.822812	0.970451
855.136479	0.970027
855.450103	0.970463
855.763685	0.968427
856.077224	0.969068
856.390720	0.970566
856.704173	0.970897
857.017584	0.968795
857.330953	0.966838
857.644278	0.968469
857.957561	0.968267
858.270802	0.969538
858.584000	0.967493
858.897155	0.967705
859.210268	0.968931
859.523339	0.967912
859.836367	0.969950
860.149352	0.970168
860.462295	0.969288
860.775195	0.970482
861.088054	0.968974
861.400869	0.969402
861.713642	0.971038
862.026373	0.969265
862.339062	0.970877
862.651708	0.967706
862.964312	0.966593
863.276873	0.969658
863.589392	0.967928
863.901869	0.966094
864.214303	0.964550
864.526696	0.963536
864.839045	0.963775
865.151353	0.962158
865.463619	0.962676
865.775842	0.962188
866.088023	0.961958
866.400162	0.961438
866.712258	0.963917
867.024313	0.963283
867.336325	0.964391
867.648296	0.963448
867.960224	0.962437
868.272110	0.962229
868.583954	0.963402
868.895755	0.965059
869.207515	0.961763
869.519233	0.960216
869.830909	0.961634
870.142542	0.962266
870.454134	0.961888
870.765684	0.959529
871.077191	0.957660
871.388657	0.959150
871.700081	0.958472
872.011463	0.957866
872.322803	0.957760
872.634101	0.957123
872.945357	0.955142
873.256571	0.953887
873.567744	0.951745
873.878874	0.953732
874.189963	0.951980
874.501010	0.951003
874.812015	0.949844
875.122979	0.950825
875.433900	0.953680
875.744780	0.954892
876.055618	0.951001
876.366415	0.949676
876.677169	0.950440
876.987882	0.951846
877.298554	0.952013
877.609183	0.948028
877.919771	0.945672
878.230317	0.943202
878.540822	0.941470
878.851285	0.935543
879.161707	0.927950
879.472087	0.914968
879.782425	0.898530
880.092722	0.864385
880.402977	0.812698
880.713191	0.751588
881.023363	0.692679
881.333494	0.659402
881.643583	0.630863
881.953631	0.631233
882.263637	0.659494
882.573602	0.698719
882.883526	0.724681
883.193408	0.748100
883.503248	0.770866
883.813048	0.797544
884.122806	0.827860
884.432522	0.851110
884.742197	0.869862
885.051831	0.881136
885.361424	0.891645
885.670975	0.903721
885.980485	0.913698
886.289954	0.919205
886.599382	0.924952
886.908768	0.928750
887.218113	0.934248
887.527417	0.939225
887.836680	0.942526
888.145901	0.942891
888.455082	0.946570
888.764221	0.948985
889.073319	0.953929
889.382376	0.952680
889.691392	0.952678
890.000366	0.952929
890.309300	0.954556
890.618193	0.953637
890.927044	0.951328
891.235855	0.951878
891.544625	0.951728
891.853353	0.951777
892.162041	0.949865
892.470687	0.942793
892.779293	0.938246
893.087858	0.933334
893.396381	0.926329
893.704864	0.913280
894.013306	0.888616
894.321707	0.862939
894.630068	0.848791
894.938387	0.843214
895.246665	0.844737
895.554903	0.856078
895.863100	0.869045
896.171256	0.886830
896.479371	0.905819
896.787446	0.918309
897.095480	0.926323
897.403473	0.928164
897.711425	0.932604
898.019336	0.940293
898.327207	0.942409
898.635038	0.945752
898.942827	0.945388
899.250576	0.948525
899.558284	0.952458
899.865952	0.955086
900.173579	0.955167
900.481165	0.955121
900.788711	0.959781
901.096216	0.961925
901.403681	0.960924
901.711105	0.963367
902.018489	0.964051
902.325832	0.962439
902.633135	0.961088
902.940397	0.955851
903.247619	0.943674
903.554800	0.918715
903.861941	0.878464
904.169041	0.843477
904.476101	0.825702
904.783121	0.826645
905.090100	0.843024
905.397039	0.864075
905.703938	0.886352
906.010796	0.906537
906.317614	0.923679
906.624391	0.934560
906.931129	0.943984
907.237826	0.952879
907.544483	0.959440
907.851099	0.962966
908.157675	0.968431
908.464211	0.970023
908.770707	0.972255
909.077163	0.975571
909.383578	0.974527
909.689954	0.974807
909.996289	0.975476
910.302584	0.978199
910.608839	0.978829
910.915054	0.979705
911.221229	0.978283
911.527363	0.977162
911.833458	0.977914
912.139513	0.976740
912.445527	0.974814
912.751502	0.975040
913.057436	0.972429
913.363331	0.970276
913.669186	0.966560
913.975000	0.962102
914.280775	0.955768
914.586510	0.949243
914.892205	0.935725
915.197859	0.913700
915.503475	0.886247
915.809050	0.867933
916.114585	0.860733
916.420081	0.859598
916.725536	0.856049
917.030952	0.863724
917.336328	0.876954
917.641665	0.892493
917.946961	0.907477
918.252218	0.920106
918.557435	0.928071
918.862612	0.936714
919.167750	0.941187
919.472848	0.947602
919.777906	0.953936
920.082925	0.958541
920.387904	0.960675
920.692843	0.963619
920.997743	0.963816
921.302603	0.966291
921.607423	0.969179
921.912204	0.971750
922.216946	0.972411
922.521647	0.973392
922.826310	0.975159
923.130932	0.976624
923.435516	0.978034
923.740059	0.980281
924.044564	0.978850
924.349028	0.981826
924.653454	0.983991
924.957840	0.985073
925.262186	0.984622
925.566493	0.984093
925.870761	0.984996
926.174989	0.987122
926.479178	0.988647
926.783328	0.989485
927.087438	0.987775
927.391509	0.986589
927.695541	0.990623
927.999533	0.989067
928.303486	0.989851
928.607400	0.991672
928.911275	0.989518
929.215110	0.991559
929.518906	0.990339
929.822663	0.989794
930.126381	0.991444
930.430060	0.990179
930.733699	0.991287
931.037299	0.990075
931.340861	0.990716
931.644383	0.989766
931.947866	0.990042
932.251309	0.990445
932.554714	0.989806
932.858080	0.990188
933.161407	0.989478
933.464694	0.991699
933.767943	0.989706
934.071153	0.991259
934.374323	0.991294
934.677455	0.991435
934.980548	0.991880
935.283602	0.990539
935.586617	0.991025
935.889593	0.991605
936.192530	0.991108
936.495428	0.990262
936.798287	0.991025
937.101108	0.990249
937.403890	0.989295
937.706632	0.988361
938.009336	0.988185
938.312002	0.986121
938.614628	0.983519
938.917216	0.984351
939.219765	0.981395
939.522275	0.983708
939.824747	0.982461
940.127179	0.983216
940.429573	0.985065
940.731929	0.984324
941.034246	0.984746
941.336524	0.984891
941.638763	0.985848
941.940964	0.986674
942.243126	0.986601
942.545250	0.987652
942.847335	0.987916
943.149381	0.988647
943.451389	0.988573
943.753359	0.988132
944.055290	0.991498
944.357182	0.990630
944.659036	0.988608
944.960851	0.989643
945.262628	0.989578
945.564367	0.991007
945.866067	0.989583
946.167729	0.991028
946.469352	0.989381
946.770937	0.989023
947.072484	0.991293
947.373992	0.990873
947.675462	0.990716
947.976893	0.990784
948.278286	0.990183
948.579641	0.992695
948.880958	0.989876
949.182236	0.991354
949.483476	0.991565
949.784678	0.991026
950.085841	0.991368
950.386967	0.991453
950.688054	0.990715
950.989103	0.991338
951.290114	0.989880
951.591087	0.988898
951.892021	0.990026
952.192917	0.989675
952.493776	0.988193
952.794596	0.987369
953.095378	0.988715
953.396122	0.987252
953.696828	0.987455
953.997496	0.989277
954.298126	0.991464
954.598718	0.990501
954.899272	0.990528
955.199788	0.990873
955.500266	0.993191
955.800706	0.993102
956.101108	0.992767
956.401472	0.993278
956.701798	0.993550
957.002087	0.992844
957.302337	0.994133
957.602550	0.995353
957.902724	0.996025
958.202861	0.995967
958.502960	0.995964
958.803022	0.994105
959.103045	0.995682
959.403031	0.995394
959.702979	0.995922
960.002889	0.995817
960.302762	0.994543
960.602596	0.996359
960.902393	0.994524
961.202153	0.997440
961.501875	0.997474
961.801559	0.994986
962.101205	0.995435
962.400814	0.996138
962.700385	0.995919
962.999918	0.996917
963.299414	0.996810
963.598873	0.995816
963.898293	0.996303
964.197677	0.996107
964.497022	0.996525
964.796331	0.996940
965.095601	0.996741
965.394835	0.995964
965.694030	0.996904
965.993189	0.996595
966.292309	0.996562
966.591393	0.998709
966.890439	0.997261
967.189447	0.996194
967.488419	0.996713
967.787353	0.997245
968.086249	0.996518
968.385108	0.997617
968.683930	0.996768
968.982714	0.997850
969.281462	0.997316
969.580172	0.996440
969.878844	0.997556
970.177480	0.996690
970.476078	0.996573
970.774639	0.997293
971.073162	0.997338
971.371649	0.995991
971.670098	0.995781
971.968510	0.996824
972.266885	0.996251
972.565223	0.995748
972.863524	0.996671
973.161788	0.996646
973.460014	0.997358
973.758204	0.996087
974.056356	0.996768
974.354471	0.993742
974.652550	0.996154
974.950591	0.996442
975.248595	0.997324
975.546563	0.996999
975.844493	0.998578
976.142386	0.996741
976.440243	0.996159
976.738062	0.997761
977.035845	0.996746
977.333590	0.997456
977.631299	0.997263
977.928971	0.995906
978.226606	0.997133
978.524204	0.996753
978.821765	0.998581
979.119290	0.996021
979.416777	0.997239
979.714228	0.997517
980.011642	0.995692
980.309020	0.997122
980.606360	0.996597
980.903664	0.998696
981.200931	0.995399
981.498162	0.995609
981.795356	0.995080
982.092513	0.993212
982.389633	0.994460
982.686717	0.991887
982.983764	0.991737
983.280775	0.989549
983.577749	0.990885
983.874686	0.991727
984.171587	0.992187
984.468451	0.995756
984.765279	0.995134
985.062070	0.994873
985.358824	0.996397
985.655543	0.995311
985.952224	0.996812
986.248869	0.996738
986.545478	0.997507
986.842050	0.998883
987.138586	0.996459
987.435086	0.998090
987.731549	0.999335
988.027975	0.998345
988.324366	0.997661
988.620719	0.996723
988.917037	0.995951
989.213318	0.998792
989.509563	0.998128
989.805772	0.999103
990.101944	0.997908
990.398080	0.997668
990.694180	0.997659
990.990244	0.998084
991.286271	0.998089
991.582262	0.999246
991.878217	0.997513
992.174136	0.998761
992.470019	0.999879
992.765865	0.998162
993.061676	0.998106
993.357450	0.998383
993.653188	0.997439
993.948890	0.997800
994.244556	0.997842
994.540186	0.997206
994.835780	0.996484
995.131337	0.998011
995.426859	0.996741
995.722345	0.997837
996.017795	0.995855
996.313208	0.996201
996.608586	0.996204
996.903928	0.996368
997.199234	0.996591
997.494504	0.996315
997.789738	0.996566
998.084936	0.996738
998.380099	0.998588
998.675225	0.998564
998.970316	0.998066
999.265371	0.997401
999.560390	0.997764
999.855373	0.998647
1000.150320	0.999744
1000.445232	0.997555
1000.740108	0.997393
1001.034948	0.997480
1001.329752	0.998536
1001.624521	0.998334
1001.919254	0.998796
1002.213951	0.998679
1002.508613	0.999325
1002.803239	0.999200
1003.097829	0.999071
1003.392384	0.999873
1003.686903	0.998454
1003.981386	0.998559
1004.275834	0.998712
1004.570246	0.998602
1004.864623	0.999426
1005.158964	0.999880
1005.453270	0.999428
1005.747540	0.997934
1006.041775	0.998462
1006.335974	0.999326
1006.630138	0.999660
1006.924266	1.000107
1007.218359	1.000986
1007.512416	0.999752
1007.806438	0.999497
1008.100425	0.999836
1008.394376	0.998601
1008.688292	0.998535
1008.982172	1.001247
1009.276017	0.999231
1009.569827	0.997934
1009.863602	0.998372
1010.157341	0.999186
1010.451045	0.999814
1010.744714	0.998855
1011.038347	0.998923
1011.331945	0.999748
1011.625508	0.998559
1011.919036	0.998148
1012.212528	0.998985
1012.505986	0.996684
1012.799408	0.998304
1013.092795	0.999975
1013.386147	0.999338
1013.679464	0.998454
1013.972745	0.998719
1014.265992	0.998082
1014.559204	0.998870
1014.852380	1.000828
1015.145521	0.999641
1015.438628	0.999387
1015.731699	0.999984
1016.024736	0.999086
1016.317737	0.998030
1016.610703	0.998945
1016.903635	0.999840
1017.196531	0.997991
1017.489393	0.999427
1017.782219	0.999621
1018.075011	0.998170
1018.367768	0.998865
1018.660490	0.999121
1018.953177	0.999121
1019.245829	0.999121
