Dividing Wavelength (nm)	Counts (n)	Blue Motor Position (mm): 0.000000	Red Motor Position (mm): 31.200000	
326.493990	0.999104
326.888308	0.999104
327.282561	0.999104
327.676750	0.999479
328.070874	0.999690
328.464933	1.000131
328.858929	0.999006
329.252859	0.999282
329.646726	0.998388
330.040528	0.999993
330.434265	0.999154
330.827938	0.999045
331.221547	1.000348
331.615091	0.998879
332.008571	0.999723
332.401986	0.998768
332.795338	1.000677
333.188625	0.997671
333.581847	1.001081
333.975006	0.999358
334.368100	0.999278
334.761129	0.998558
335.154095	1.000653
335.546996	0.998018
335.939833	0.993331
336.332606	0.994906
336.725315	0.995267
337.117960	0.997028
337.510540	0.995396
337.903056	0.995768
338.295508	0.995209
338.687896	0.995577
339.080220	0.995669
339.472480	0.994024
339.864676	0.995697
340.256807	0.995901
340.648875	0.995790
341.040879	0.995806
341.432818	0.995000
341.824694	0.994657
342.216506	0.996435
342.608253	0.994155
342.999937	0.993744
343.391557	0.994881
343.783113	0.995565
344.174605	0.996033
344.566033	0.995828
344.957397	0.995023
345.348697	0.994521
345.739934	0.995494
346.131106	0.995675
346.522215	0.994915
346.913260	0.995584
347.304241	0.996076
347.695159	0.994866
348.086012	0.994393
348.476802	0.995238
348.867528	0.994634
349.258191	0.993948
349.648789	0.996344
350.039324	0.995464
350.429796	0.995811
350.820203	0.995682
351.210548	0.995729
351.600828	0.995359
351.991045	0.995687
352.381198	0.994647
352.771288	0.994786
353.161314	0.995559
353.551276	0.996532
353.941175	0.994870
354.331010	0.996197
354.720782	0.995511
355.110490	0.995370
355.500135	0.996532
355.889717	0.995132
356.279235	0.995151
356.668689	0.994314
357.058080	0.996125
357.447408	0.995854
357.836672	0.996521
358.225873	0.995626
358.615010	0.994872
359.004084	0.996687
359.393095	0.996645
359.782043	0.995638
360.170927	0.996325
360.559748	0.994730
360.948505	0.995311
361.337199	0.994632
361.725830	0.996377
362.114398	0.995348
362.502903	0.995698
362.891344	0.997072
363.279722	0.995498
363.668037	0.995392
364.056289	0.995238
364.444478	0.995828
364.832603	0.995179
365.220665	0.995402
365.608665	0.994689
365.996601	0.995590
366.384474	0.994874
366.772284	0.995370
367.160031	0.995560
367.547715	0.994561
367.935336	0.995816
368.322893	0.995095
368.710388	0.993788
369.097820	0.995473
369.485189	0.995150
369.872495	0.995517
370.259738	0.994872
370.646918	0.996707
371.034035	0.996205
371.421090	0.994965
371.808081	0.995668
372.195010	0.996630
372.581875	0.995186
372.968678	0.996289
373.355418	0.995629
373.742096	0.995401
374.128710	0.997197
374.515262	0.995264
374.901751	0.995968
375.288177	0.995589
375.674540	0.997027
376.060841	0.996119
376.447079	0.996132
376.833254	0.996509
377.219367	0.996423
377.605417	0.996837
377.991404	0.996616
378.377329	0.995757
378.763191	0.996917
379.148991	0.996399
379.534727	0.996209
379.920402	0.996804
380.306013	0.996326
380.691563	0.997168
381.077049	0.996458
381.462474	0.996758
381.847835	0.996374
382.233134	0.996513
382.618371	0.996935
383.003545	0.997768
383.388657	0.996918
383.773706	0.997210
384.158693	0.997990
384.543618	0.997100
384.928480	0.997344
385.313280	0.997402
385.698017	0.998343
386.082692	0.998188
386.467305	0.997744
386.851856	0.997016
387.236344	0.996174
387.620770	0.996999
388.005133	0.998692
388.389435	0.997887
388.773674	0.998248
389.157851	0.996944
389.541965	0.997642
389.926018	0.997921
390.310008	0.998871
390.693936	0.997356
391.077802	0.998419
391.461606	0.997942
391.845348	0.998533
392.229027	0.998645
392.612645	0.998010
392.996200	0.999024
393.379694	0.997588
393.763125	0.999168
394.146494	0.998040
394.529801	0.997660
394.913047	0.997946
395.296230	0.998222
395.679351	0.998959
396.062410	0.998180
396.445408	0.999074
396.828343	0.997911
397.211217	0.997219
397.594028	0.998826
397.976778	0.998277
398.359466	0.998648
398.742092	0.998260
399.124656	0.998467
399.507158	0.998263
399.889598	0.997741
400.271977	0.998905
400.654294	0.998525
401.036549	0.999069
401.418742	0.999029
401.800874	0.997628
402.182944	0.997888
402.564952	0.998436
402.946898	0.999396
403.328783	0.998196
403.710606	0.998427
404.092367	0.998371
404.474067	0.997527
404.855705	0.997843
405.237282	0.999206
405.618797	0.998626
406.000250	0.998343
406.381642	0.998862
406.762972	0.998325
407.144240	0.999277
407.525447	0.998859
407.906593	0.998787
408.287677	0.999741
408.668700	0.999186
409.049661	0.997934
409.430560	0.998568
409.811399	0.997743
410.192176	0.999177
410.572891	0.998832
410.953545	0.998883
411.334138	0.998004
411.714669	0.998406
412.095139	0.998555
412.475547	0.999282
412.855894	0.999215
413.236180	0.999240
413.616405	0.999354
413.996568	0.999543
414.376670	0.998794
414.756711	0.997836
415.136691	0.998062
415.516609	0.998725
415.896466	0.998048
416.276262	0.997715
416.655997	0.999192
417.035670	0.998309
417.415283	0.999367
417.794834	0.999285
418.174324	0.998637
418.553753	0.998817
418.933121	0.999135
419.312428	0.998984
419.691674	0.998357
420.070859	0.999530
420.449983	0.999327
420.829045	0.998820
421.208047	0.999382
421.586988	1.000783
421.965867	0.998728
422.344686	0.999324
422.723444	0.998799
423.102141	0.999114
423.480777	0.999024
423.859352	0.998243
424.237866	0.998766
424.616319	0.999097
424.994712	0.998833
425.373044	0.999522
425.751314	0.999309
426.129524	0.999452
426.507673	0.999251
426.885762	0.999689
427.263789	0.999744
427.641756	0.999186
428.019662	0.999819
428.397508	0.998157
428.775292	0.998607
429.153016	0.998820
429.530679	1.000275
429.908282	0.999039
430.285824	0.998960
430.663305	0.999362
431.040726	0.998749
431.418086	1.000432
431.795385	0.999467
432.172624	0.998500
432.549802	0.998935
432.926920	0.998952
433.303977	0.999111
433.680974	1.000028
434.057910	0.998670
434.434786	0.999489
434.811601	0.999353
435.188355	0.999183
435.565050	0.998381
435.941683	0.999122
436.318257	1.000053
436.694770	0.998318
437.071222	0.999882
437.447614	0.999245
437.823946	0.999406
438.200218	0.999388
438.576429	0.999976
438.952580	0.999667
439.328670	0.998384
439.704700	0.999901
440.080670	0.999861
440.456580	0.999314
440.832429	0.998632
441.208218	0.998674
441.583947	0.999018
441.959616	0.999274
442.335224	0.998848
442.710773	0.999412
443.086261	0.998865
443.461689	0.999077
443.837057	0.999100
444.212365	0.999343
444.587612	0.999133
444.962800	0.998071
445.337927	0.999205
445.712995	0.999620
446.088002	0.999594
446.462949	0.999077
446.837837	0.998762
447.212664	0.999323
447.587431	0.999452
447.962139	0.998530
448.336786	0.999045
448.711374	1.000078
449.085901	0.998534
449.460369	0.999739
449.834776	0.998909
450.209124	0.999596
450.583412	0.998973
450.957640	0.998686
451.331808	0.998823
451.705917	0.998979
452.079965	0.998325
452.453954	0.999803
452.827883	0.999428
453.201752	0.999323
453.575562	0.999229
453.949311	0.998944
454.323001	0.997710
454.696632	0.999080
455.070202	0.998723
455.443713	0.998716
455.817164	0.999016
456.190556	0.999376
456.563888	0.999411
456.937160	0.999655
457.310373	0.999075
457.683526	0.998377
458.056619	0.998805
458.429653	0.999052
458.802628	0.998450
459.175542	0.999573
459.548398	0.998712
459.921194	0.999369
460.293930	0.999026
460.666607	0.998583
461.039224	0.998383
461.411782	0.998652
461.784280	0.998042
462.156719	0.999857
462.529099	0.999210
462.901419	0.999090
463.273680	0.998751
463.645882	0.999029
464.018024	0.998523
464.390106	0.998715
464.762130	0.999998
465.134094	0.999194
465.505999	0.999020
465.877845	0.998176
466.249631	0.999306
466.621358	0.999226
466.993026	0.999122
467.364634	0.998326
467.736184	0.999194
468.107674	0.997900
468.479105	0.998004
468.850477	0.998117
469.221790	0.998433
469.593043	0.997924
469.964238	0.998769
470.335373	0.997492
470.706449	0.997447
471.077467	0.997830
471.448425	0.997224
471.819324	0.996576
472.190164	0.996087
472.560945	0.996206
472.931667	0.995014
473.302330	0.993558
473.672934	0.994641
474.043479	0.993337
474.413965	0.993583
474.784393	0.993631
475.154761	0.991634
475.525070	0.990956
475.895321	0.991466
476.265513	0.989952
476.635645	0.989408
477.005719	0.988772
477.375734	0.987462
477.745691	0.986804
478.115588	0.985759
478.485427	0.984428
478.855207	0.982538
479.224928	0.980615
479.594591	0.979098
479.964194	0.978411
480.333739	0.977469
480.703226	0.975799
481.072653	0.974506
481.442022	0.972143
481.811333	0.969771
482.180584	0.969075
482.549777	0.966301
482.918912	0.965367
483.287988	0.963162
483.657005	0.960830
484.025964	0.959803
484.394864	0.958500
484.763706	0.954892
485.132489	0.954163
485.501213	0.950470
485.869879	0.948875
486.238487	0.945910
486.607036	0.944235
486.975527	0.939820
487.343959	0.937444
487.712333	0.933836
488.080648	0.931543
488.448905	0.927600
488.817104	0.924989
489.185244	0.921743
489.553326	0.917272
489.921350	0.910755
490.289315	0.901680
490.657222	0.897919
491.025070	0.893718
491.392861	0.890689
491.760593	0.889357
492.128267	0.886542
492.495883	0.883546
492.863440	0.880571
493.230939	0.876631
493.598380	0.872134
493.965763	0.867124
494.333088	0.864265
494.700354	0.858053
495.067563	0.853596
495.434713	0.848647
495.801805	0.843778
496.168839	0.838540
496.535815	0.832935
496.902733	0.827984
497.269593	0.821882
497.636395	0.817396
498.003139	0.811053
498.369825	0.806985
498.736453	0.798515
499.103023	0.793615
499.469535	0.787065
499.835989	0.781988
500.202385	0.775865
500.568723	0.771212
500.935003	0.764237
501.301226	0.756636
501.667390	0.749938
502.033497	0.742911
502.399546	0.737880
502.765537	0.731267
503.131470	0.724415
503.497345	0.715922
503.863163	0.713781
504.228923	0.703818
504.594625	0.697150
504.960269	0.692392
505.325856	0.683697
505.691385	0.677843
506.056856	0.670090
506.422270	0.662935
506.787625	0.658662
507.152924	0.649386
507.518164	0.644115
507.883347	0.637887
508.248472	0.632912
508.613540	0.623472
508.978550	0.617872
509.343503	0.611253
509.708398	0.603930
510.073236	0.595836
510.438016	0.589564
510.802738	0.583116
511.167403	0.576134
511.532010	0.570133
511.896561	0.561838
512.261053	0.555283
512.625488	0.549069
512.989866	0.542617
513.354186	0.536233
513.718449	0.530959
514.082655	0.523087
514.446803	0.518136
514.810894	0.510140
515.174927	0.505471
515.538904	0.499937
515.902822	0.491204
516.266684	0.487306
516.630488	0.481795
516.994235	0.475488
517.357925	0.467845
517.721558	0.461349
518.085133	0.454761
518.448651	0.450690
518.812112	0.445920
519.175516	0.439278
519.538863	0.432925
519.902152	0.429249
520.265385	0.420528
520.628560	0.417970
520.991678	0.412550
521.354739	0.406786
521.717743	0.403381
522.080690	0.398784
522.443580	0.391373
522.806413	0.387192
523.169189	0.382335
523.531908	0.377251
523.894569	0.375628
524.257174	0.370740
524.619722	0.364306
524.982213	0.362001
525.344647	0.356222
525.707025	0.353353
526.069345	0.347600
526.431608	0.344944
526.793815	0.339525
527.155964	0.339015
527.518057	0.335254
527.880093	0.332600
528.242072	0.327770
528.603995	0.325665
528.965860	0.324391
529.327669	0.319990
529.689421	0.317958
530.051117	0.315320
530.412755	0.309927
530.774337	0.309877
531.135862	0.306920
531.497331	0.303941
531.858743	0.303945
532.220098	0.298446
532.581396	0.298143
532.942638	0.296441
533.303824	0.295044
533.664953	0.292180
534.026025	0.291786
534.387040	0.287623
534.747999	0.285699
535.108902	0.282241
535.469748	0.285080
535.830537	0.280987
536.191270	0.279688
536.551947	0.277307
536.912567	0.275790
537.273131	0.276270
537.633638	0.274696
537.994089	0.273492
538.354483	0.273259
538.714821	0.268641
539.075103	0.267163
539.435328	0.266632
539.795497	0.269070
540.155609	0.264567
540.515665	0.261605
540.875665	0.265859
541.235609	0.263259
541.595496	0.262507
541.955328	0.257921
542.315102	0.259605
542.674821	0.259733
543.034483	0.258679
543.394090	0.257951
543.753640	0.258777
544.113134	0.253176
544.472571	0.255782
544.831953	0.252024
545.191278	0.255243
545.550548	0.254144
545.909761	0.250622
546.268918	0.250397
546.628019	0.248697
546.987064	0.250875
547.346053	0.251995
547.704986	0.249399
548.063863	0.249408
548.422684	0.249136
548.781449	0.250938
549.140158	0.248008
549.498811	0.250435
549.857408	0.253213
550.215949	0.247618
550.574434	0.250233
550.932864	0.248095
551.291237	0.246651
551.649555	0.247656
552.007817	0.247436
552.366022	0.248016
552.724173	0.248060
553.082267	0.248125
553.440305	0.244650
553.798288	0.249226
554.156215	0.245497
554.514086	0.245952
554.871902	0.248865
555.229661	0.248065
555.587365	0.248255
555.945014	0.250691
556.302606	0.247601
556.660143	0.249936
557.017625	0.246445
557.375050	0.248621
557.732421	0.245564
558.089735	0.247334
558.446994	0.247402
558.804197	0.246697
559.161345	0.246392
559.518437	0.249610
559.875474	0.247331
560.232455	0.247027
560.589381	0.247895
560.946251	0.247782
561.303065	0.245193
561.659825	0.246686
562.016528	0.247928
562.373177	0.250909
562.729770	0.248246
563.086307	0.250094
563.442789	0.247744
563.799216	0.250823
564.155587	0.249461
564.511904	0.250493
564.868164	0.250502
565.224370	0.250377
565.580520	0.251907
565.936615	0.251926
566.292654	0.254657
566.648638	0.251623
567.004567	0.252450
567.360441	0.253140
567.716260	0.255112
568.072023	0.252616
568.427732	0.253465
568.783385	0.255833
569.138982	0.254247
569.494525	0.253543
569.850013	0.256471
570.205445	0.254794
570.560823	0.257389
570.916145	0.259291
571.271412	0.257327
571.626625	0.258849
571.981782	0.259364
572.336884	0.260393
572.691931	0.260112
573.046923	0.261360
573.401860	0.262281
573.756743	0.263903
574.111570	0.262890
574.466342	0.263196
574.821059	0.262442
575.175722	0.265211
575.530330	0.265027
575.884882	0.265133
576.239380	0.267161
576.593823	0.267711
576.948211	0.267203
577.302544	0.270562
577.656823	0.269877
578.011047	0.270120
578.365216	0.270634
578.719330	0.272642
579.073389	0.272509
579.427394	0.274050
579.781344	0.274658
580.135239	0.276304
580.489080	0.275553
580.842866	0.278528
581.196597	0.278278
581.550273	0.277009
581.903895	0.278409
582.257463	0.276408
582.610975	0.279602
582.964434	0.278921
583.317837	0.281565
583.671186	0.281618
584.024481	0.282074
584.377721	0.284414
584.730906	0.285008
585.084037	0.284092
585.437113	0.286492
585.790135	0.285487
586.143103	0.288072
586.496016	0.289707
586.848874	0.287188
587.201679	0.287579
587.554428	0.291074
587.907124	0.290107
588.259765	0.290465
588.612352	0.291066
588.964884	0.294502
589.317362	0.294310
589.669786	0.294007
590.022155	0.292619
590.374470	0.291878
590.726731	0.294370
591.078937	0.299022
591.431090	0.295137
591.783188	0.299484
592.135232	0.300112
592.487222	0.300106
592.839157	0.297704
593.191038	0.300507
593.542866	0.301817
593.894639	0.305645
594.246358	0.303957
594.598022	0.303056
594.949633	0.307108
595.301190	0.307614
595.652692	0.306742
596.004141	0.302868
596.355535	0.311031
596.706876	0.310804
597.058162	0.313545
597.409395	0.310926
597.760573	0.308940
598.111698	0.311849
598.462768	0.312533
598.813785	0.313875
599.164748	0.315105
599.515657	0.315142
599.866511	0.318651
600.217312	0.314136
600.568060	0.319319
600.918753	0.315784
601.269392	0.316741
601.619978	0.320134
601.970510	0.317362
602.320988	0.317639
602.671412	0.315155
603.021783	0.317623
603.372100	0.319379
603.722363	0.319140
604.072572	0.319786
604.422728	0.319647
604.772830	0.321327
605.122878	0.321080
605.472872	0.321883
605.822813	0.320044
606.172701	0.322481
606.522534	0.319896
606.872314	0.319726
607.222041	0.321105
607.571714	0.319000
607.921333	0.320463
608.270899	0.320232
608.620411	0.316996
608.969870	0.320822
609.319276	0.320751
609.668627	0.321106
610.017926	0.319292
610.367171	0.317922
610.716362	0.318753
611.065500	0.319094
611.414585	0.317814
611.763616	0.318315
612.112594	0.318826
612.461518	0.318519
612.810389	0.315951
613.159207	0.318026
613.507971	0.319997
613.856682	0.315559
614.205340	0.317285
614.553945	0.314298
614.902496	0.318135
615.250994	0.315934
615.599439	0.316722
615.947830	0.316156
616.296169	0.317267
616.644454	0.316645
616.992686	0.316667
617.340864	0.314608
617.688990	0.318281
618.037063	0.315148
618.385082	0.316661
618.733048	0.313839
619.080961	0.315864
619.428821	0.315365
619.776628	0.314648
620.124382	0.316490
620.472083	0.317167
620.819731	0.316492
621.167326	0.320294
621.514868	0.319988
621.862357	0.324332
622.209793	0.323988
622.557176	0.326239
622.904506	0.327100
623.251783	0.329621
623.599007	0.331421
623.946179	0.331308
624.293297	0.333115
624.640363	0.337521
624.987376	0.337791
625.334336	0.340216
625.681243	0.342406
626.028097	0.343146
626.374899	0.344094
626.721647	0.343908
627.068343	0.347455
627.414987	0.348700
627.761577	0.350574
628.108115	0.348995
628.454600	0.354111
628.801032	0.351580
629.147412	0.354019
629.493739	0.354415
629.840014	0.357149
630.186236	0.354590
630.532405	0.360051
630.878521	0.357503
631.224585	0.359330
631.570597	0.363733
631.916556	0.361706
632.262462	0.361870
632.608316	0.363818
632.954117	0.364327
633.299866	0.365590
633.645562	0.366386
633.991206	0.370628
634.336797	0.373347
634.682336	0.375627
635.027823	0.377304
635.373257	0.377814
635.718639	0.380885
636.063968	0.380201
636.409245	0.385746
636.754470	0.386523
637.099642	0.388980
637.444762	0.392318
637.789829	0.391308
638.134845	0.394711
638.479808	0.395887
638.824719	0.395789
639.169577	0.399725
639.514383	0.398733
639.859137	0.403021
640.203839	0.402670
640.548489	0.403286
640.893086	0.404894
641.237632	0.405947
641.582125	0.404744
641.926566	0.406348
642.270955	0.405800
642.615292	0.406979
642.959576	0.405389
643.303809	0.406692
643.647990	0.405898
643.992118	0.406462
644.336195	0.410451
644.680219	0.408171
645.024192	0.409082
645.368112	0.402860
645.711981	0.401304
646.055797	0.396796
646.399562	0.399594
646.743274	0.391404
647.086935	0.388533
647.430544	0.389117
647.774101	0.388087
648.117606	0.387191
648.461059	0.387959
648.804460	0.390277
649.147810	0.395481
649.491108	0.397379
649.834354	0.398866
650.177548	0.404487
650.520690	0.408848
650.863781	0.410742
651.206820	0.410059
651.549807	0.414755
651.892742	0.418418
652.235626	0.417838
652.578458	0.418837
652.921238	0.424985
653.263967	0.423043
653.606644	0.426875
653.949269	0.426474
654.291843	0.430586
654.634365	0.427435
654.976836	0.430550
655.319255	0.430701
655.661622	0.432488
656.003938	0.432092
656.346203	0.435532
656.688416	0.432686
657.030577	0.436472
657.372687	0.438578
657.714746	0.439199
658.056753	0.436367
658.398708	0.439611
658.740612	0.440962
659.082465	0.437008
659.424266	0.437943
659.766016	0.437309
660.107715	0.439897
660.449362	0.438756
660.790958	0.439518
661.132503	0.440016
661.473996	0.437744
661.815438	0.438583
662.156829	0.438692
662.498168	0.439699
662.839456	0.441073
663.180693	0.438507
663.521879	0.438493
663.863013	0.440099
664.204097	0.438398
664.545129	0.435117
664.886110	0.435812
665.227040	0.432895
665.567918	0.435185
665.908746	0.433407
666.249522	0.433086
666.590248	0.434113
666.930922	0.431996
667.271545	0.431047
667.612118	0.431244
667.952639	0.432960
668.293109	0.431620
668.633528	0.434511
668.973896	0.433962
669.314213	0.434767
669.654480	0.436267
669.994695	0.436371
670.334859	0.437270
670.674973	0.437428
671.015035	0.437579
671.355047	0.437469
671.695008	0.438584
672.034918	0.440560
672.374777	0.439946
672.714585	0.440866
673.054342	0.441360
673.394049	0.441226
673.733705	0.438351
674.073310	0.439990
674.412864	0.442813
674.752368	0.443675
675.091820	0.443997
675.431223	0.448103
675.770574	0.447778
676.109875	0.450469
676.449125	0.450821
676.788324	0.452850
677.127473	0.458313
677.466571	0.458021
677.805619	0.459600
678.144616	0.461058
678.483562	0.462203
678.822458	0.465730
679.161303	0.466103
679.500098	0.466747
679.838842	0.468295
680.177535	0.468003
680.516179	0.466676
680.854771	0.465611
681.193314	0.458860
681.531805	0.450485
681.870247	0.438822
682.208638	0.431566
682.546978	0.430059
682.885268	0.431763
683.223508	0.438165
683.561697	0.441882
683.899836	0.444961
684.237925	0.448577
684.575963	0.450431
684.913951	0.454121
685.251889	0.449437
685.589776	0.451598
685.927614	0.453920
686.265401	0.448307
686.603137	0.449370
686.940824	0.443543
687.278460	0.442126
687.616046	0.441352
687.953582	0.436003
688.291068	0.437846
688.628504	0.433373
688.965889	0.435514
689.303224	0.439964
689.640510	0.444051
689.977745	0.449130
690.314930	0.457316
690.652065	0.461516
690.989150	0.469328
691.326185	0.475559
691.663170	0.479656
692.000105	0.487799
692.336990	0.494111
692.673825	0.496751
693.010610	0.504064
693.347345	0.509439
693.684030	0.509655
694.020665	0.515404
694.357251	0.523928
694.693786	0.524033
695.030272	0.527720
695.366707	0.531060
695.703093	0.534443
696.039429	0.532038
696.375716	0.534006
696.711952	0.537018
697.048139	0.538826
697.384276	0.540900
697.720363	0.539189
698.056400	0.538459
698.392388	0.543648
698.728326	0.546743
699.064214	0.549794
699.400053	0.549773
699.735842	0.553485
700.071581	0.556571
700.407270	0.559348
700.742910	0.561996
701.078501	0.568158
701.414042	0.568124
701.749533	0.572109
702.084974	0.581088
702.420366	0.573481
702.755709	0.580924
703.091002	0.588533
703.426246	0.581025
703.761440	0.587560
704.096584	0.592322
704.431679	0.589489
704.766725	0.591171
705.101721	0.592626
705.436668	0.589097
705.771565	0.596718
706.106413	0.593086
706.441212	0.588184
706.775961	0.586954
707.110661	0.590799
707.445311	0.585604
707.779913	0.583260
708.114465	0.581725
708.448967	0.578680
708.783421	0.570439
709.117825	0.565098
709.452180	0.565713
709.786485	0.559044
710.120742	0.548823
710.454949	0.551237
710.789107	0.543487
711.123216	0.534208
711.457275	0.535512
711.791286	0.526288
712.125247	0.525773
712.459159	0.536599
712.793023	0.530048
713.126837	0.533205
713.460602	0.533973
713.794318	0.543218
714.127985	0.541951
714.461602	0.552058
714.795171	0.555523
715.128691	0.562908
715.462162	0.570524
715.795584	0.575552
716.128957	0.578759
716.462281	0.585057
716.795556	0.588797
717.128782	0.593945
717.461960	0.603557
717.795088	0.601561
718.128167	0.607766
718.461198	0.616424
718.794180	0.617042
719.127113	0.619703
719.459997	0.623754
719.792833	0.630182
720.125619	0.631627
720.458357	0.636870
720.791046	0.636716
721.123686	0.639833
721.456278	0.646739
721.788821	0.643995
722.121315	0.648556
722.453761	0.652671
722.786158	0.651000
723.118506	0.646827
723.450805	0.654798
723.783056	0.650941
724.115259	0.647780
724.447412	0.647849
724.779518	0.649113
725.111574	0.648324
725.443582	0.643770
725.775542	0.645293
726.107453	0.638022
726.439315	0.637177
726.771129	0.635973
727.102895	0.629858
727.434612	0.622504
727.766281	0.620421
728.097901	0.619895
728.429473	0.619387
728.760996	0.618244
729.092471	0.617955
729.423897	0.621932
729.755276	0.621017
730.086606	0.620764
730.417887	0.615974
730.749120	0.606685
731.080305	0.596741
731.411442	0.593055
731.742530	0.598045
732.073570	0.596880
732.404562	0.589579
732.735506	0.590497
733.066401	0.596041
733.397249	0.605343
733.728048	0.616482
734.058798	0.628341
734.389501	0.639410
734.720156	0.648536
735.050762	0.657140
735.381320	0.657517
735.711831	0.667452
736.042293	0.671675
736.372707	0.667568
736.703073	0.672145
737.033391	0.673814
737.363661	0.671865
737.693883	0.667306
738.024056	0.665839
738.354182	0.666478
738.684260	0.655076
739.014290	0.651175
739.344272	0.652496
739.674207	0.645836
740.004093	0.645862
740.333931	0.645651
740.663722	0.645648
740.993464	0.647090
741.323159	0.650145
741.652806	0.655171
741.982405	0.659382
742.311956	0.663991
742.641460	0.666289
742.970915	0.670227
743.300323	0.678034
743.629683	0.684419
743.958996	0.686770
744.288260	0.690607
744.617477	0.695820
744.946647	0.697409
745.275768	0.702128
745.604842	0.702425
745.933869	0.713203
746.262847	0.713037
746.591778	0.707313
746.920662	0.712748
747.249498	0.720172
747.578286	0.710188
747.907027	0.707162
748.235720	0.707682
748.564365	0.702249
748.892963	0.702113
749.221514	0.705149
749.550017	0.710203
749.878473	0.710281
750.206881	0.717397
750.535242	0.718400
750.863555	0.717667
751.191821	0.718727
751.520039	0.721325
751.848210	0.726184
752.176334	0.719764
752.504411	0.718508
752.832440	0.726618
753.160421	0.730429
753.488356	0.728607
753.816243	0.726346
754.144082	0.734488
754.471875	0.738188
754.799620	0.733424
755.127318	0.734947
755.454969	0.734621
755.782572	0.734506
756.110129	0.739937
756.437638	0.741650
756.765100	0.738084
757.092515	0.736635
757.419882	0.734992
757.747203	0.740994
758.074477	0.740112
758.401703	0.737259
758.728882	0.732584
759.056014	0.730694
759.383099	0.730575
759.710138	0.731348
760.037129	0.728136
760.364073	0.721541
760.690970	0.724159
761.017820	0.729813
761.344623	0.724470
761.671379	0.716919
761.998088	0.704887
762.324751	0.682584
762.651366	0.641101
762.977935	0.575065
763.304456	0.523094
763.630931	0.513701
763.957359	0.552997
764.283740	0.596793
764.610074	0.623137
764.936362	0.654796
765.262602	0.680796
765.588796	0.701652
765.914943	0.719147
766.241044	0.737149
766.567097	0.744026
766.893104	0.753152
767.219064	0.760237
767.544978	0.766706
767.870845	0.779570
768.196665	0.783540
768.522438	0.781820
768.848165	0.782295
769.173846	0.791080
769.499479	0.795373
769.825066	0.798976
770.150607	0.804361
770.476101	0.799057
770.801548	0.800735
771.126949	0.812071
771.452303	0.816660
771.777611	0.815645
772.102872	0.813489
772.428087	0.820397
772.753256	0.823325
773.078378	0.824570
773.403453	0.833436
773.728482	0.838025
774.053465	0.830935
774.378401	0.835105
774.703291	0.843932
775.028135	0.842416
775.352932	0.844760
775.677683	0.847882
776.002388	0.848544
776.327046	0.846998
776.651658	0.851447
776.976224	0.853614
777.300743	0.854374
777.625216	0.856082
777.949643	0.857603
778.274024	0.858362
778.598359	0.860194
778.922647	0.858318
779.246889	0.858514
779.571086	0.863309
779.895236	0.865269
780.219339	0.862471
780.543397	0.859734
780.867409	0.858145
781.191374	0.859833
781.515294	0.860628
781.839167	0.860479
782.162995	0.863898
782.486776	0.860852
782.810511	0.861582
783.134201	0.865927
783.457844	0.862480
783.781441	0.865856
784.104993	0.872450
784.428498	0.872437
784.751958	0.867711
785.075372	0.870443
785.398739	0.874395
785.722061	0.870795
786.045337	0.865942
786.368568	0.870685
786.691752	0.873122
787.014891	0.857990
787.337983	0.850223
787.661030	0.843192
787.984031	0.825047
788.306987	0.812907
788.629897	0.814875
788.952760	0.818641
789.275579	0.823091
789.598351	0.838880
789.921078	0.850439
790.243759	0.852891
790.566395	0.857859
790.888984	0.865084
791.211529	0.869684
791.534027	0.872844
791.856480	0.874651
792.178888	0.880233
792.501249	0.882673
792.823566	0.883205
793.145836	0.883393
793.468062	0.885607
793.790241	0.886552
794.112375	0.884841
794.434464	0.879716
794.756507	0.878809
795.078505	0.878924
795.400457	0.873637
795.722364	0.861535
796.044226	0.855715
796.366042	0.854718
796.687812	0.857539
797.009538	0.854151
797.331218	0.856560
797.652852	0.861599
797.974442	0.865549
798.295986	0.865652
798.617484	0.867700
798.938938	0.872352
799.260346	0.875961
799.581709	0.879690
799.903026	0.881771
800.224299	0.881825
800.545526	0.885943
800.866708	0.890176
801.187845	0.894001
801.508936	0.894241
801.829983	0.891748
802.150984	0.894017
802.471940	0.899018
802.792851	0.898570
803.113717	0.898658
803.434538	0.896614
803.755314	0.899657
804.076045	0.901095
804.396731	0.901932
804.717372	0.900449
805.037967	0.902304
805.358518	0.900222
805.679024	0.897696
805.999485	0.898576
806.319901	0.898129
806.640272	0.899615
806.960598	0.896409
807.280879	0.894436
807.601115	0.892934
807.921306	0.895990
808.241453	0.897679
808.561554	0.894981
808.881611	0.895061
809.201623	0.896120
809.521590	0.897903
809.841513	0.898375
810.161390	0.897532
810.481223	0.899834
810.801011	0.903088
811.120755	0.903918
811.440453	0.902239
811.760107	0.901447
812.079716	0.900711
812.399281	0.905209
812.718801	0.907715
813.038276	0.907774
813.357707	0.908042
813.677093	0.904409
813.996434	0.909290
814.315731	0.909407
814.634983	0.910900
814.954191	0.909015
815.273354	0.906075
815.592473	0.902983
815.911547	0.901874
816.230577	0.900804
816.549562	0.896191
816.868502	0.898785
817.187399	0.894978
817.506250	0.889185
817.825058	0.891650
818.143821	0.888562
818.462539	0.882928
818.781213	0.875300
819.099843	0.863942
819.418429	0.848917
819.736970	0.832029
820.055466	0.812318
820.373919	0.787675
820.692327	0.755209
821.010691	0.720878
821.329011	0.645143
821.647286	0.531898
821.965517	0.419271
822.283704	0.377223
822.601847	0.378725
822.919945	0.414652
823.237999	0.447148
823.556010	0.492496
823.873976	0.548526
824.191897	0.598443
824.509775	0.639811
824.827609	0.684669
825.145398	0.707025
825.463144	0.709488
825.780845	0.692624
826.098502	0.674623
826.416116	0.628616
826.733685	0.585351
827.051210	0.577556
827.368692	0.591889
827.686129	0.628502
828.003522	0.680576
828.320872	0.727371
828.638177	0.770042
828.955439	0.804161
829.272656	0.824200
829.589830	0.840495
829.906960	0.857118
830.224046	0.868166
830.541088	0.878795
830.858086	0.884306
831.175041	0.889812
831.491952	0.888715
831.808819	0.885536
832.125642	0.879193
832.442421	0.864005
832.759157	0.843453
833.075849	0.797168
833.392497	0.735178
833.709101	0.694321
834.025662	0.704005
834.342179	0.735630
834.658653	0.774280
834.975083	0.808496
835.291469	0.834455
835.607811	0.857655
835.924110	0.872713
836.240366	0.888641
836.556578	0.902551
836.872746	0.910951
837.188871	0.915606
837.504952	0.920241
837.820990	0.924728
838.136984	0.928933
838.452935	0.930824
838.768842	0.933089
839.084706	0.926464
839.400526	0.900533
839.716303	0.862221
840.032037	0.838981
840.347727	0.842445
840.663373	0.860546
840.978977	0.882273
841.294537	0.904548
841.610054	0.919585
841.925527	0.927157
842.240957	0.934744
842.556344	0.942163
842.871687	0.947113
843.186987	0.950860
843.502244	0.951008
843.817458	0.953763
844.132629	0.956117
844.447756	0.962508
844.762840	0.961600
845.077881	0.959461
845.392879	0.960671
845.707833	0.964071
846.022745	0.964311
846.337613	0.965257
846.652438	0.967174
846.967221	0.964412
847.281960	0.965197
847.596656	0.968143
847.911309	0.966865
848.225919	0.968343
848.540485	0.969001
848.855009	0.969554
849.169490	0.969278
849.483928	0.969266
849.798323	0.969762
850.112675	0.970220
850.426984	0.969491
850.741251	0.970432
851.055474	0.970724
851.369654	0.968827
851.683792	0.970068
851.997887	0.969675
852.311938	0.971401
852.625947	0.970504
852.939914	0.968951
853.253837	0.970990
853.567718	0.970758
853.881555	0.971078
854.195350	0.967484
854.509103	0.970009
854.822812	0.970937
855.136479	0.970938
855.450103	0.969748
855.763685	0.968878
856.077224	0.969786
856.390720	0.971812
856.704173	0.970956
857.017584	0.969045
857.330953	0.967577
857.644278	0.969028
857.957561	0.969784
858.270802	0.969042
858.584000	0.968249
858.897155	0.966796
859.210268	0.968736
859.523339	0.969569
859.836367	0.971058
860.149352	0.970912
860.462295	0.970155
860.775195	0.970636
861.088054	0.970220
861.400869	0.969627
861.713642	0.970417
862.026373	0.970173
862.339062	0.972370
862.651708	0.969041
862.964312	0.968929
863.276873	0.969645
863.589392	0.968906
863.901869	0.968053
864.214303	0.965639
864.526696	0.965138
864.839045	0.964692
865.151353	0.962292
865.463619	0.962680
865.775842	0.962855
866.088023	0.963628
866.400162	0.963567
866.712258	0.963364
867.024313	0.963374
867.336325	0.964175
867.648296	0.964704
867.960224	0.962342
868.272110	0.961788
868.583954	0.963816
868.895755	0.965402
869.207515	0.962910
869.519233	0.961183
869.830909	0.962662
870.142542	0.962753
870.454134	0.962696
870.765684	0.961546
871.077191	0.957540
871.388657	0.960089
871.700081	0.958549
872.011463	0.959453
872.322803	0.959433
872.634101	0.958653
872.945357	0.955709
873.256571	0.954565
873.567744	0.954251
873.878874	0.955556
874.189963	0.952028
874.501010	0.951627
874.812015	0.951286
875.122979	0.952053
875.433900	0.954826
875.744780	0.955986
876.055618	0.952721
876.366415	0.952205
876.677169	0.951511
876.987882	0.951658
877.298554	0.952297
877.609183	0.948386
877.919771	0.946104
878.230317	0.945316
878.540822	0.942308
878.851285	0.936948
879.161707	0.930515
879.472087	0.918095
879.782425	0.902185
880.092722	0.867960
880.402977	0.818939
880.713191	0.760510
881.023363	0.702703
881.333494	0.670327
881.643583	0.642429
881.953631	0.641566
882.263637	0.669968
882.573602	0.709755
882.883526	0.733522
883.193408	0.755985
883.503248	0.777405
883.813048	0.805050
884.122806	0.833843
884.432522	0.856072
884.742197	0.875575
885.051831	0.885120
885.361424	0.894407
885.670975	0.906546
885.980485	0.915984
886.289954	0.922049
886.599382	0.927604
886.908768	0.930450
887.218113	0.936349
887.527417	0.940956
887.836680	0.943128
888.145901	0.945316
888.455082	0.947884
888.764221	0.951606
889.073319	0.954338
889.382376	0.954603
889.691392	0.954435
890.000366	0.953675
890.309300	0.955081
890.618193	0.955082
890.927044	0.953310
891.235855	0.953648
891.544625	0.953434
891.853353	0.955110
892.162041	0.951396
892.470687	0.944290
892.779293	0.939765
893.087858	0.936616
893.396381	0.929973
893.704864	0.916030
894.013306	0.893808
894.321707	0.867464
894.630068	0.854533
894.938387	0.849411
895.246665	0.850167
895.554903	0.862342
895.863100	0.874873
896.171256	0.890187
896.479371	0.910667
896.787446	0.922621
897.095480	0.927995
897.403473	0.930471
897.711425	0.935316
898.019336	0.942493
898.327207	0.944913
898.635038	0.946905
898.942827	0.946636
899.250576	0.950679
899.558284	0.954549
899.865952	0.954522
900.173579	0.956082
900.481165	0.957045
900.788711	0.962371
901.096216	0.963155
901.403681	0.963572
901.711105	0.964588
902.018489	0.964632
902.325832	0.964331
902.633135	0.963644
902.940397	0.957113
903.247619	0.945224
903.554800	0.922446
903.861941	0.883396
904.169041	0.850762
904.476101	0.832976
904.783121	0.833879
905.090100	0.849580
905.397039	0.869840
905.703938	0.891355
906.010796	0.909525
906.317614	0.925789
906.624391	0.936926
906.931129	0.946648
907.237826	0.954047
907.544483	0.960203
907.851099	0.964411
908.157675	0.969250
908.464211	0.970134
908.770707	0.973445
909.077163	0.975323
909.383578	0.976520
909.689954	0.974706
909.996289	0.977094
910.302584	0.978907
910.608839	0.979881
910.915054	0.979326
911.221229	0.978719
911.527363	0.977454
911.833458	0.978869
912.139513	0.978163
912.445527	0.976391
912.751502	0.975676
913.057436	0.973524
913.363331	0.972108
913.669186	0.967967
913.975000	0.963232
914.280775	0.957000
914.586510	0.951258
914.892205	0.937876
915.197859	0.917868
915.503475	0.891307
915.809050	0.873642
916.114585	0.868874
916.420081	0.866729
916.725536	0.863564
917.030952	0.869784
917.336328	0.881913
917.641665	0.897977
917.946961	0.911662
918.252218	0.923269
918.557435	0.930916
918.862612	0.939450
919.167750	0.945161
919.472848	0.949157
919.777906	0.954586
920.082925	0.960293
920.387904	0.962957
920.692843	0.964909
920.997743	0.965749
921.302603	0.969526
921.607423	0.970154
921.912204	0.973696
922.216946	0.972364
922.521647	0.974163
922.826310	0.975866
923.130932	0.978139
923.435516	0.979338
923.740059	0.980377
924.044564	0.979725
924.349028	0.980399
924.653454	0.984421
924.957840	0.985479
925.262186	0.985767
925.566493	0.984185
925.870761	0.985568
926.174989	0.986927
926.479178	0.988568
926.783328	0.988984
927.087438	0.988649
927.391509	0.988405
927.695541	0.990438
927.999533	0.989475
928.303486	0.989402
928.607400	0.991187
928.911275	0.989186
929.215110	0.990505
929.518906	0.990578
929.822663	0.989844
930.126381	0.991491
930.430060	0.991039
930.733699	0.990240
931.037299	0.991084
931.340861	0.990838
931.644383	0.990146
931.947866	0.990250
932.251309	0.991554
932.554714	0.990077
932.858080	0.990604
933.161407	0.990510
933.464694	0.991745
933.767943	0.989392
934.071153	0.991675
934.374323	0.991468
934.677455	0.990862
934.980548	0.991559
935.283602	0.991136
935.586617	0.991097
935.889593	0.991001
936.192530	0.989920
936.495428	0.991257
936.798287	0.990035
937.101108	0.991197
937.403890	0.989163
937.706632	0.990127
938.009336	0.987343
938.312002	0.987504
938.614628	0.984963
938.917216	0.985005
939.219765	0.982650
939.522275	0.984367
939.824747	0.984166
940.127179	0.983303
940.429573	0.985634
940.731929	0.984287
941.034246	0.985168
941.336524	0.986177
941.638763	0.986331
941.940964	0.987184
942.243126	0.987033
942.545250	0.988021
942.847335	0.989222
943.149381	0.989037
943.451389	0.987995
943.753359	0.989023
944.055290	0.990756
944.357182	0.990740
944.659036	0.988726
944.960851	0.990592
945.262628	0.989859
945.564367	0.990278
945.866067	0.989795
946.167729	0.989825
946.469352	0.989941
946.770937	0.990065
947.072484	0.991996
947.373992	0.991054
947.675462	0.991274
947.976893	0.990096
948.278286	0.990684
948.579641	0.991865
948.880958	0.991312
949.182236	0.991166
949.483476	0.991837
949.784678	0.991108
950.085841	0.991577
950.386967	0.991600
950.688054	0.991155
950.989103	0.991477
951.290114	0.989371
951.591087	0.989225
951.892021	0.990467
952.192917	0.988761
952.493776	0.987786
952.794596	0.989449
953.095378	0.988546
953.396122	0.988127
953.696828	0.987946
953.997496	0.990005
954.298126	0.991127
954.598718	0.991201
954.899272	0.991381
955.199788	0.991157
955.500266	0.991961
955.800706	0.993957
956.101108	0.992904
956.401472	0.993265
956.701798	0.994509
957.002087	0.993026
957.302337	0.993380
957.602550	0.995473
957.902724	0.994910
958.202861	0.995163
958.502960	0.994866
958.803022	0.993903
959.103045	0.995641
959.403031	0.995753
959.702979	0.995392
960.002889	0.994610
960.302762	0.993986
960.602596	0.995340
960.902393	0.994824
961.202153	0.998027
961.501875	0.996542
961.801559	0.995455
962.101205	0.995791
962.400814	0.995868
962.700385	0.995813
962.999918	0.996574
963.299414	0.996574
963.598873	0.995936
963.898293	0.997089
964.197677	0.996654
964.497022	0.996222
964.796331	0.998504
965.095601	0.996157
965.394835	0.996302
965.694030	0.997178
965.993189	0.997705
966.292309	0.996517
966.591393	0.996980
966.890439	0.997549
967.189447	0.997057
967.488419	0.997135
967.787353	0.996094
968.086249	0.995444
968.385108	0.997114
968.683930	0.996522
968.982714	0.996297
969.281462	0.998547
969.580172	0.995952
969.878844	0.996927
970.177480	0.996326
970.476078	0.997299
970.774639	0.996307
971.073162	0.998074
971.371649	0.997153
971.670098	0.995948
971.968510	0.997396
972.266885	0.995030
972.565223	0.995780
972.863524	0.995873
973.161788	0.996728
973.460014	0.997077
973.758204	0.995749
974.056356	0.996267
974.354471	0.994254
974.652550	0.996805
974.950591	0.995584
975.248595	0.996033
975.546563	0.995544
975.844493	0.997922
976.142386	0.997576
976.440243	0.997591
976.738062	0.996887
977.035845	0.997482
977.333590	0.996643
977.631299	0.998348
977.928971	0.995041
978.226606	0.996801
978.524204	0.996229
978.821765	0.997736
979.119290	0.996812
979.416777	0.996473
979.714228	0.997452
980.011642	0.995639
980.309020	0.997725
980.606360	0.996358
980.903664	0.998904
981.200931	0.996029
981.498162	0.996314
981.795356	0.994537
982.092513	0.994628
982.389633	0.994406
982.686717	0.992246
982.983764	0.991814
983.280775	0.990322
983.577749	0.991005
983.874686	0.992760
984.171587	0.991065
984.468451	0.994312
984.765279	0.994359
985.062070	0.993980
985.358824	0.995371
985.655543	0.995377
985.952224	0.996538
986.248869	0.996473
986.545478	0.997169
986.842050	0.997941
987.138586	0.995044
987.435086	0.996370
987.731549	0.997562
988.027975	0.997181
988.324366	0.997894
988.620719	0.997809
988.917037	0.995863
989.213318	0.997831
989.509563	0.998286
989.805772	0.997845
990.101944	0.998520
990.398080	0.996924
990.694180	0.997690
990.990244	0.997100
991.286271	0.997625
991.582262	0.997777
991.878217	0.998515
992.174136	0.998963
992.470019	0.997414
992.765865	0.997291
993.061676	0.998471
993.357450	0.997534
993.653188	0.995629
993.948890	0.998219
994.244556	0.997862
994.540186	0.996476
994.835780	0.996421
995.131337	0.997599
995.426859	0.995485
995.722345	0.997737
996.017795	0.995674
996.313208	0.995881
996.608586	0.995300
996.903928	0.995664
997.199234	0.995216
997.494504	0.996081
997.789738	0.996370
998.084936	0.996420
998.380099	0.997440
998.675225	0.997562
998.970316	0.997707
999.265371	0.997633
999.560390	0.997588
999.855373	0.997849
1000.150320	0.997884
1000.445232	0.997454
1000.740108	0.998221
1001.034948	0.998537
1001.329752	0.999039
1001.624521	0.997412
1001.919254	0.998098
1002.213951	0.997038
1002.508613	0.998012
1002.803239	0.999586
1003.097829	0.998712
1003.392384	0.998536
1003.686903	0.997677
1003.981386	0.998249
1004.275834	0.998507
1004.570246	0.997795
1004.864623	0.998451
1005.158964	0.999809
1005.453270	0.999499
1005.747540	0.997080
1006.041775	0.998001
1006.335974	0.998774
1006.630138	0.998710
1006.924266	0.998384
1007.218359	0.999245
1007.512416	0.998676
1007.806438	0.998810
1008.100425	1.000109
1008.394376	0.998191
1008.688292	0.998548
1008.982172	0.999002
1009.276017	0.999451
1009.569827	0.997487
1009.863602	0.998862
1010.157341	0.999309
1010.451045	0.999033
1010.744714	0.998237
1011.038347	0.999135
1011.331945	0.998046
1011.625508	0.997610
1011.919036	0.998119
1012.212528	0.998858
1012.505986	0.997074
1012.799408	0.998293
1013.092795	0.999088
1013.386147	0.999004
1013.679464	0.999124
1013.972745	0.997743
1014.265992	0.997037
1014.559204	0.998397
1014.852380	0.998800
1015.145521	0.999221
1015.438628	0.999035
1015.731699	0.999460
1016.024736	0.998784
1016.317737	0.998438
1016.610703	0.998593
1016.903635	0.999861
1017.196531	0.998812
1017.489393	0.999276
1017.782219	0.999183
1018.075011	0.997650
1018.367768	0.998601
1018.660490	0.997989
1018.953177	0.997989
1019.245829	0.997989
