Dividing Wavelength (nm)	Counts (n)	Blue Motor Position (mm): 0.000000	Red Motor Position (mm): 21.900000	
326.493990	1.001909
326.888308	1.001909
327.282561	1.001909
327.676750	1.000455
328.070874	0.998742
328.464933	1.000931
328.858929	0.999060
329.252859	1.000539
329.646726	0.999455
330.040528	0.999941
330.434265	0.999280
330.827938	1.001616
331.221547	1.000252
331.615091	1.000762
332.008571	0.999525
332.401986	0.998927
332.795338	1.000667
333.188625	0.999531
333.581847	1.000548
333.975006	1.000423
334.368100	0.999491
334.761129	1.000197
335.154095	1.001335
335.546996	0.997919
335.939833	0.994438
336.332606	0.994481
336.725315	0.995868
337.117960	0.995884
337.510540	0.994650
337.903056	0.995564
338.295508	0.992718
338.687896	0.994469
339.080220	0.994688
339.472480	0.994165
339.864676	0.994335
340.256807	0.994482
340.648875	0.995714
341.040879	0.994005
341.432818	0.994137
341.824694	0.993498
342.216506	0.995472
342.608253	0.995359
342.999937	0.993326
343.391557	0.994210
343.783113	0.994035
344.174605	0.995550
344.566033	0.995297
344.957397	0.993940
345.348697	0.995196
345.739934	0.995292
346.131106	0.994465
346.522215	0.993998
346.913260	0.994139
347.304241	0.994130
347.695159	0.994053
348.086012	0.993679
348.476802	0.994227
348.867528	0.994274
349.258191	0.993414
349.648789	0.993987
350.039324	0.994668
350.429796	0.994371
350.820203	0.994972
351.210548	0.994353
351.600828	0.994467
351.991045	0.994886
352.381198	0.993456
352.771288	0.994924
353.161314	0.994924
353.551276	0.995500
353.941175	0.994440
354.331010	0.994147
354.720782	0.995144
355.110490	0.994590
355.500135	0.995571
355.889717	0.993863
356.279235	0.994055
356.668689	0.993392
357.058080	0.993951
357.447408	0.995333
357.836672	0.995639
358.225873	0.995050
358.615010	0.993779
359.004084	0.996063
359.393095	0.995112
359.782043	0.993747
360.170927	0.995286
360.559748	0.995155
360.948505	0.992949
361.337199	0.994311
361.725830	0.994045
362.114398	0.993838
362.502903	0.995215
362.891344	0.995700
363.279722	0.994156
363.668037	0.994220
364.056289	0.994214
364.444478	0.995008
364.832603	0.993921
365.220665	0.993768
365.608665	0.994016
365.996601	0.994294
366.384474	0.994959
366.772284	0.994362
367.160031	0.993187
367.547715	0.994348
367.935336	0.994527
368.322893	0.994426
368.710388	0.993189
369.097820	0.993909
369.485189	0.994269
369.872495	0.993696
370.259738	0.992731
370.646918	0.993921
371.034035	0.994601
371.421090	0.995851
371.808081	0.993609
372.195010	0.994844
372.581875	0.995055
372.968678	0.994268
373.355418	0.995303
373.742096	0.994888
374.128710	0.996031
374.515262	0.993874
374.901751	0.995590
375.288177	0.994152
375.674540	0.995487
376.060841	0.993608
376.447079	0.994510
376.833254	0.994935
377.219367	0.994463
377.605417	0.995043
377.991404	0.995125
378.377329	0.993138
378.763191	0.994693
379.148991	0.995664
379.534727	0.995287
379.920402	0.995183
380.306013	0.994662
380.691563	0.995540
381.077049	0.994553
381.462474	0.995135
381.847835	0.994972
382.233134	0.995046
382.618371	0.995567
383.003545	0.995104
383.388657	0.995264
383.773706	0.995622
384.158693	0.995506
384.543618	0.994944
384.928480	0.996314
385.313280	0.995403
385.698017	0.995484
386.082692	0.996120
386.467305	0.996396
386.851856	0.995477
387.236344	0.995118
387.620770	0.994863
388.005133	0.996242
388.389435	0.996972
388.773674	0.996072
389.157851	0.995747
389.541965	0.996177
389.926018	0.995093
390.310008	0.997193
390.693936	0.994738
391.077802	0.995675
391.461606	0.995243
391.845348	0.995877
392.229027	0.996583
392.612645	0.995750
392.996200	0.996130
393.379694	0.995591
393.763125	0.996095
394.146494	0.995833
394.529801	0.996434
394.913047	0.995845
395.296230	0.996474
395.679351	0.996643
396.062410	0.995146
396.445408	0.995832
396.828343	0.995671
397.211217	0.994990
397.594028	0.995826
397.976778	0.995186
398.359466	0.995881
398.742092	0.995716
399.124656	0.994497
399.507158	0.995673
399.889598	0.995642
400.271977	0.996125
400.654294	0.995062
401.036549	0.995643
401.418742	0.996544
401.800874	0.995320
402.182944	0.996493
402.564952	0.994841
402.946898	0.996359
403.328783	0.996057
403.710606	0.994865
404.092367	0.995967
404.474067	0.996315
404.855705	0.995174
405.237282	0.995669
405.618797	0.995493
406.000250	0.995399
406.381642	0.995712
406.762972	0.995904
407.144240	0.995713
407.525447	0.996075
407.906593	0.996532
408.287677	0.995983
408.668700	0.996241
409.049661	0.994463
409.430560	0.995589
409.811399	0.994359
410.192176	0.995290
410.572891	0.994815
410.953545	0.995301
411.334138	0.994135
411.714669	0.995191
412.095139	0.994714
412.475547	0.995588
412.855894	0.995874
413.236180	0.995619
413.616405	0.995328
413.996568	0.995235
414.376670	0.994625
414.756711	0.994236
415.136691	0.994151
415.516609	0.994147
415.896466	0.994639
416.276262	0.993183
416.655997	0.994163
417.035670	0.992911
417.415283	0.993649
417.794834	0.992338
418.174324	0.992077
418.553753	0.992406
418.933121	0.991467
419.312428	0.990000
419.691674	0.989272
420.070859	0.989184
420.449983	0.987884
420.829045	0.985685
421.208047	0.985242
421.586988	0.983406
421.965867	0.980870
422.344686	0.979400
422.723444	0.977424
423.102141	0.976450
423.480777	0.973500
423.859352	0.971106
424.237866	0.966031
424.616319	0.965322
424.994712	0.961726
425.373044	0.959464
425.751314	0.955073
426.129524	0.952946
426.507673	0.948348
426.885762	0.945725
427.263789	0.941495
427.641756	0.938554
428.019662	0.933218
428.397508	0.927939
428.775292	0.922513
429.153016	0.918559
429.530679	0.914309
429.908282	0.908622
430.285824	0.904718
430.663305	0.895025
431.040726	0.892046
431.418086	0.888125
431.795385	0.880000
432.172624	0.872296
432.549802	0.866836
432.926920	0.859385
433.303977	0.852411
433.680974	0.845169
434.057910	0.836835
434.434786	0.829007
434.811601	0.822309
435.188355	0.809188
435.565050	0.804961
435.941683	0.797480
436.318257	0.784049
436.694770	0.774800
437.071222	0.765879
437.447614	0.759100
437.823946	0.754587
438.200218	0.741400
438.576429	0.737289
438.952580	0.725054
439.328670	0.715485
439.704700	0.709957
440.080670	0.702418
440.456580	0.682897
440.832429	0.678085
441.208218	0.676710
441.583947	0.662255
441.959616	0.653524
442.335224	0.647552
442.710773	0.634735
443.086261	0.624023
443.461689	0.625436
443.837057	0.610805
444.212365	0.595336
444.587612	0.593672
444.962800	0.578653
445.337927	0.572327
445.712995	0.583788
446.088002	0.548708
446.462949	0.550077
446.837837	0.546135
447.212664	0.531409
447.587431	0.517401
447.962139	0.488237
448.336786	0.449615
448.711374	0.452847
449.085901	0.481520
449.460369	0.477961
449.834776	0.474988
450.209124	0.452562
450.583412	0.440456
450.957640	0.430644
451.331808	0.434682
451.705917	0.450526
452.079965	0.449851
452.453954	0.435069
452.827883	0.437324
453.201752	0.428279
453.575562	0.435856
453.949311	0.420806
454.323001	0.424066
454.696632	0.416814
455.070202	0.407044
455.443713	0.396399
455.817164	0.389150
456.190556	0.382372
456.563888	0.376473
456.937160	0.372427
457.310373	0.386840
457.683526	0.383655
458.056619	0.387206
458.429653	0.386094
458.802628	0.387844
459.175542	0.381437
459.548398	0.362967
459.921194	0.354223
460.293930	0.353597
460.666607	0.330812
461.039224	0.318359
461.411782	0.313046
461.784280	0.311032
462.156719	0.314427
462.529099	0.317947
462.901419	0.332977
463.273680	0.336838
463.645882	0.335862
464.018024	0.341085
464.390106	0.333579
464.762130	0.318393
465.134094	0.301167
465.505999	0.270116
465.877845	0.240714
466.249631	0.227667
466.621358	0.234594
466.993026	0.248161
467.364634	0.253785
467.736184	0.262369
468.107674	0.271161
468.479105	0.270047
468.850477	0.276772
469.221790	0.283032
469.593043	0.293335
469.964238	0.297830
470.335373	0.297121
470.706449	0.295262
471.077467	0.296083
471.448425	0.258214
471.819324	0.234049
472.190164	0.232964
472.560945	0.261851
472.931667	0.283937
473.302330	0.287911
473.672934	0.299706
474.043479	0.287808
474.413965	0.289637
474.784393	0.293246
475.154761	0.288384
475.525070	0.285264
475.895321	0.290974
476.265513	0.285018
476.635645	0.280635
477.005719	0.280514
477.375734	0.276844
477.745691	0.270151
478.115588	0.266574
478.485427	0.260442
478.855207	0.247111
479.224928	0.229840
479.594591	0.218035
479.964194	0.221521
480.333739	0.222731
480.703226	0.224218
481.072653	0.222487
481.442022	0.218248
481.811333	0.214549
482.180584	0.217938
482.549777	0.223333
482.918912	0.226519
483.287988	0.226463
483.657005	0.226038
484.025964	0.232523
484.394864	0.229811
484.763706	0.230626
485.132489	0.235236
485.501213	0.235877
485.869879	0.234406
486.238487	0.237808
486.607036	0.235560
486.975527	0.239944
487.343959	0.236058
487.712333	0.235079
488.080648	0.236505
488.448905	0.235433
488.817104	0.236864
489.185244	0.231336
489.553326	0.228162
489.921350	0.218169
490.289315	0.200918
490.657222	0.195731
491.025070	0.196877
491.392861	0.198813
491.760593	0.204532
492.128267	0.210134
492.495883	0.215828
492.863440	0.221888
493.230939	0.228084
493.598380	0.229588
493.965763	0.231963
494.333088	0.233986
494.700354	0.235217
495.067563	0.234307
495.434713	0.237550
495.801805	0.235506
496.168839	0.237047
496.535815	0.238110
496.902733	0.238286
497.269593	0.239941
497.636395	0.237683
498.003139	0.237789
498.369825	0.240896
498.736453	0.237134
499.103023	0.238640
499.469535	0.238104
499.835989	0.238092
500.202385	0.239328
500.568723	0.242248
500.935003	0.237598
501.301226	0.241726
501.667390	0.236376
502.033497	0.234416
502.399546	0.237192
502.765537	0.239037
503.131470	0.237257
503.497345	0.233782
503.863163	0.242598
504.228923	0.235346
504.594625	0.234172
504.960269	0.239396
505.325856	0.234741
505.691385	0.239023
506.056856	0.235952
506.422270	0.235446
506.787625	0.237598
507.152924	0.235272
507.518164	0.235554
507.883347	0.237494
508.248472	0.239086
508.613540	0.234134
508.978550	0.236806
509.343503	0.236946
509.708398	0.234733
510.073236	0.232250
510.438016	0.232293
510.802738	0.233426
511.167403	0.232234
511.532010	0.234131
511.896561	0.229468
512.261053	0.228498
512.625488	0.230397
512.989866	0.230937
513.354186	0.230819
513.718449	0.232963
514.082655	0.229258
514.446803	0.231403
514.810894	0.229076
515.174927	0.231969
515.538904	0.231220
515.902822	0.228214
516.266684	0.230572
516.630488	0.231711
516.994235	0.230410
517.357925	0.229482
517.721558	0.227663
518.085133	0.227152
518.448651	0.227199
518.812112	0.229308
519.175516	0.228826
519.538863	0.226858
519.902152	0.228420
520.265385	0.225267
520.628560	0.226959
520.991678	0.227582
521.354739	0.226238
521.717743	0.227680
522.080690	0.227984
522.443580	0.225443
522.806413	0.226183
523.169189	0.225503
523.531908	0.224595
523.894569	0.227751
524.257174	0.228009
524.619722	0.225831
524.982213	0.226924
525.344647	0.225681
525.707025	0.226638
526.069345	0.224718
526.431608	0.226156
526.793815	0.224513
527.155964	0.228456
527.518057	0.227491
527.880093	0.228437
528.242072	0.227049
528.603995	0.228802
528.965860	0.230596
529.327669	0.229256
529.689421	0.230435
530.051117	0.231385
530.412755	0.229059
530.774337	0.231364
531.135862	0.231687
531.497331	0.230863
531.858743	0.233824
532.220098	0.230800
532.581396	0.233163
532.942638	0.233631
533.303824	0.234354
533.664953	0.234284
534.026025	0.235932
534.387040	0.233954
534.747999	0.233855
535.108902	0.232908
535.469748	0.237671
535.830537	0.235735
536.191270	0.236035
536.551947	0.235696
536.912567	0.235588
537.273131	0.237283
537.633638	0.237561
537.994089	0.238095
538.354483	0.238944
538.714821	0.236113
539.075103	0.235902
539.435328	0.236500
539.795497	0.240521
540.155609	0.236749
540.515665	0.234758
540.875665	0.240588
541.235609	0.239473
541.595496	0.239179
541.955328	0.236050
542.315102	0.238331
542.674821	0.239595
543.034483	0.239538
543.394090	0.239212
543.753640	0.241082
544.113134	0.236174
544.472571	0.239356
544.831953	0.236137
545.191278	0.240365
545.550548	0.239892
545.909761	0.236635
546.268918	0.237287
546.628019	0.235844
546.987064	0.238628
547.346053	0.240369
547.704986	0.238188
548.063863	0.238335
548.422684	0.238753
548.781449	0.240471
549.140158	0.238264
549.498811	0.240874
549.857408	0.244193
550.215949	0.238829
550.574434	0.242049
550.932864	0.240020
551.291237	0.238554
551.649555	0.240097
552.007817	0.239678
552.366022	0.240734
552.724173	0.240992
553.082267	0.240717
553.440305	0.238072
553.798288	0.242488
554.156215	0.238908
554.514086	0.239562
554.871902	0.242855
555.229661	0.241800
555.587365	0.242631
555.945014	0.244992
556.302606	0.241716
556.660143	0.244364
557.017625	0.240996
557.375050	0.243219
557.732421	0.240293
558.089735	0.242369
558.446994	0.242379
558.804197	0.241512
559.161345	0.241549
559.518437	0.244921
559.875474	0.242500
560.232455	0.242185
560.589381	0.243270
560.946251	0.243533
561.303065	0.240864
561.659825	0.242544
562.016528	0.244054
562.373177	0.246722
562.729770	0.243997
563.086307	0.245893
563.442789	0.243679
563.799216	0.246542
564.155587	0.245353
564.511904	0.246692
564.868164	0.246826
565.224370	0.246735
565.580520	0.248347
565.936615	0.247982
566.292654	0.251165
566.648638	0.248140
567.004567	0.248988
567.360441	0.249850
567.716260	0.251763
568.072023	0.249518
568.427732	0.250148
568.783385	0.252577
569.138982	0.250628
569.494525	0.250483
569.850013	0.253176
570.205445	0.251671
570.560823	0.254104
570.916145	0.256330
571.271412	0.254394
571.626625	0.255930
571.981782	0.256428
572.336884	0.257167
572.691931	0.256904
573.046923	0.258127
573.401860	0.259414
573.756743	0.261076
574.111570	0.260062
574.466342	0.260352
574.821059	0.259527
575.175722	0.262509
575.530330	0.262223
575.884882	0.262180
576.239380	0.264455
576.593823	0.264920
576.948211	0.264567
577.302544	0.267627
577.656823	0.267219
578.011047	0.267440
578.365216	0.267996
578.719330	0.269988
579.073389	0.269779
579.427394	0.271179
579.781344	0.272127
580.135239	0.273487
580.489080	0.272818
580.842866	0.275966
581.196597	0.276150
581.550273	0.274550
581.903895	0.275544
582.257463	0.273397
582.610975	0.277007
582.964434	0.276128
583.317837	0.278956
583.671186	0.279410
584.024481	0.279223
584.377721	0.281794
584.730906	0.282412
585.084037	0.281415
585.437113	0.283368
585.790135	0.282598
586.143103	0.285716
586.496016	0.286770
586.848874	0.284349
587.201679	0.285101
587.554428	0.288572
587.907124	0.287162
588.259765	0.287720
588.612352	0.288599
588.964884	0.292200
589.317362	0.291603
589.669786	0.291697
590.022155	0.290267
590.374470	0.289550
590.726731	0.291715
591.078937	0.296493
591.431090	0.292647
591.783188	0.297013
592.135232	0.297471
592.487222	0.297404
592.839157	0.295489
593.191038	0.297778
593.542866	0.299485
593.894639	0.303297
594.246358	0.300823
594.598022	0.300654
594.949633	0.303919
595.301190	0.304904
595.652692	0.304212
596.004141	0.300259
596.355535	0.308322
596.706876	0.308714
597.058162	0.311473
597.409395	0.308403
597.760573	0.306250
598.111698	0.309665
598.462768	0.309819
598.813785	0.311496
599.164748	0.312472
599.515657	0.312501
599.866511	0.316002
600.217312	0.311215
600.568060	0.316398
600.918753	0.313176
601.269392	0.313865
601.619978	0.317663
601.970510	0.314883
602.320988	0.315212
602.671412	0.312675
603.021783	0.315207
603.372100	0.316680
603.722363	0.316122
604.072572	0.317523
604.422728	0.317029
604.772830	0.318884
605.122878	0.318863
605.472872	0.318981
605.822813	0.317673
606.172701	0.320299
606.522534	0.317541
606.872314	0.317777
607.222041	0.318220
607.571714	0.316495
607.921333	0.318114
608.270899	0.317981
608.620411	0.314298
608.969870	0.318428
609.319276	0.318449
609.668627	0.318397
610.017926	0.316616
610.367171	0.315390
610.716362	0.316172
611.065500	0.316379
611.414585	0.314942
611.763616	0.316038
612.112594	0.316342
612.461518	0.315698
612.810389	0.313358
613.159207	0.315639
613.507971	0.317406
613.856682	0.313360
614.205340	0.314853
614.553945	0.311514
614.902496	0.315088
615.250994	0.313140
615.599439	0.314189
615.947830	0.313526
616.296169	0.314369
616.644454	0.313946
616.992686	0.314144
617.340864	0.311776
617.688990	0.315285
618.037063	0.312301
618.385082	0.314232
618.733048	0.310951
619.080961	0.313132
619.428821	0.312510
619.776628	0.311984
620.124382	0.314336
620.472083	0.314421
620.819731	0.314013
621.167326	0.317722
621.514868	0.317401
621.862357	0.321801
622.209793	0.321076
622.557176	0.323595
622.904506	0.324379
623.251783	0.326872
623.599007	0.328819
623.946179	0.328881
624.293297	0.330323
624.640363	0.334572
624.987376	0.334941
625.334336	0.337365
625.681243	0.339847
626.028097	0.340335
626.374899	0.341939
626.721647	0.341846
627.068343	0.344984
627.414987	0.345761
627.761577	0.348255
628.108115	0.346544
628.454600	0.351255
628.801032	0.349144
629.147412	0.350967
629.493739	0.351171
629.840014	0.354598
630.186236	0.351958
630.532405	0.357151
630.878521	0.354498
631.224585	0.357171
631.570597	0.360841
631.916556	0.359122
632.262462	0.359217
632.608316	0.361339
632.954117	0.362285
633.299866	0.363172
633.645562	0.363596
633.991206	0.367961
634.336797	0.370786
634.682336	0.372785
635.027823	0.374723
635.373257	0.375106
635.718639	0.378361
636.063968	0.377786
636.409245	0.383695
636.754470	0.384303
637.099642	0.386248
637.444762	0.389529
637.789829	0.388957
638.134845	0.392309
638.479808	0.393305
638.824719	0.393180
639.169577	0.396960
639.514383	0.395786
639.859137	0.400024
640.203839	0.399804
640.548489	0.400497
640.893086	0.401794
641.237632	0.403701
641.582125	0.401736
641.926566	0.403659
642.270955	0.403684
642.615292	0.403696
642.959576	0.403120
643.303809	0.403754
643.647990	0.403069
643.992118	0.403859
644.336195	0.407365
644.680219	0.405884
645.024192	0.406263
645.368112	0.399990
645.711981	0.398542
646.055797	0.394644
646.399562	0.396176
646.743274	0.389349
647.086935	0.386584
647.430544	0.386590
647.774101	0.385254
648.117606	0.384993
648.461059	0.385357
648.804460	0.388051
649.147810	0.392797
649.491108	0.394679
649.834354	0.396175
650.177548	0.401646
650.520690	0.406754
650.863781	0.408184
651.206820	0.407284
651.549807	0.411932
651.892742	0.416236
652.235626	0.415521
652.578458	0.416832
652.921238	0.422681
653.263967	0.420465
653.606644	0.424776
653.949269	0.423806
654.291843	0.428118
654.634365	0.424850
654.976836	0.427705
655.319255	0.427751
655.661622	0.430236
656.003938	0.430015
656.346203	0.432818
656.688416	0.430793
657.030577	0.433796
657.372687	0.436005
657.714746	0.436735
658.056753	0.433545
658.398708	0.437963
658.740612	0.438614
659.082465	0.434498
659.424266	0.435484
659.766016	0.434956
660.107715	0.437413
660.449362	0.435886
660.790958	0.436700
661.132503	0.437289
661.473996	0.435058
661.815438	0.435974
662.156829	0.436419
662.498168	0.437056
662.839456	0.438239
663.180693	0.436332
663.521879	0.436152
663.863013	0.436640
664.204097	0.435770
664.545129	0.432564
664.886110	0.433388
665.227040	0.429991
665.567918	0.432705
665.908746	0.430683
666.249522	0.430235
666.590248	0.430751
666.930922	0.429958
667.271545	0.428598
667.612118	0.428682
667.952639	0.430721
668.293109	0.428848
668.633528	0.432279
668.973896	0.431462
669.314213	0.432393
669.654480	0.433263
669.994695	0.434024
670.334859	0.434680
670.674973	0.434933
671.015035	0.435577
671.355047	0.434681
671.695008	0.436375
672.034918	0.437960
672.374777	0.437173
672.714585	0.438418
673.054342	0.438439
673.394049	0.438875
673.733705	0.436003
674.073310	0.437275
674.412864	0.440455
674.752368	0.440820
675.091820	0.441201
675.431223	0.445548
675.770574	0.445624
676.109875	0.448381
676.449125	0.448032
676.788324	0.450786
677.127473	0.455898
677.466571	0.455590
677.805619	0.457623
678.144616	0.458334
678.483562	0.460058
678.822458	0.462717
679.161303	0.464041
679.500098	0.464005
679.838842	0.465781
680.177535	0.465618
680.516179	0.463671
680.854771	0.462696
681.193314	0.456499
681.531805	0.447550
681.870247	0.436234
682.208638	0.428340
682.546978	0.427661
682.885268	0.429047
683.223508	0.435629
683.561697	0.439507
683.899836	0.442177
684.237925	0.445510
684.575963	0.447773
684.913951	0.451102
685.251889	0.446856
685.589776	0.448776
685.927614	0.451464
686.265401	0.445591
686.603137	0.446422
686.940824	0.441159
687.278460	0.439304
687.616046	0.438686
687.953582	0.433729
688.291068	0.435243
688.628504	0.430833
688.965889	0.432956
689.303224	0.436919
689.640510	0.441047
689.977745	0.446544
690.314930	0.454603
690.652065	0.458723
690.989150	0.466360
691.326185	0.473078
691.663170	0.477628
692.000105	0.484618
692.336990	0.491437
692.673825	0.494272
693.010610	0.501094
693.347345	0.505985
693.684030	0.508024
694.020665	0.513110
694.357251	0.520808
694.693786	0.521181
695.030272	0.525157
695.366707	0.528340
695.703093	0.532012
696.039429	0.530265
696.375716	0.531923
696.711952	0.534532
697.048139	0.536611
697.384276	0.538324
697.720363	0.536500
698.056400	0.535459
698.392388	0.540883
698.728326	0.544542
699.064214	0.546955
699.400053	0.547842
699.735842	0.551015
700.071581	0.554211
700.407270	0.557222
700.742910	0.559738
701.078501	0.565734
701.414042	0.566486
701.749533	0.569653
702.084974	0.578260
702.420366	0.570451
702.755709	0.578056
703.091002	0.585992
703.426246	0.579807
703.761440	0.585316
704.096584	0.590218
704.431679	0.587053
704.766725	0.589005
705.101721	0.590220
705.436668	0.587516
705.771565	0.593409
706.106413	0.590466
706.441212	0.585945
706.775961	0.584726
707.110661	0.587147
707.445311	0.583473
707.779913	0.581050
708.114465	0.579890
708.448967	0.576347
708.783421	0.568365
709.117825	0.563265
709.452180	0.563142
709.786485	0.556822
710.120742	0.546854
710.454949	0.548314
710.789107	0.540775
711.123216	0.532289
711.457275	0.533698
711.791286	0.524945
712.125247	0.523769
712.459159	0.534502
712.793023	0.526588
713.126837	0.530547
713.460602	0.531392
713.794318	0.540429
714.127985	0.539576
714.461602	0.549733
714.795171	0.553133
715.128691	0.560451
715.462162	0.568240
715.795584	0.573073
716.128957	0.576435
716.462281	0.583129
716.795556	0.586368
717.128782	0.591657
717.461960	0.601766
717.795088	0.598931
718.128167	0.605956
718.461198	0.614153
718.794180	0.614796
719.127113	0.617253
719.459997	0.621284
719.792833	0.627341
720.125619	0.629165
720.458357	0.634572
720.791046	0.634291
721.123686	0.637766
721.456278	0.645095
721.788821	0.642095
722.121315	0.646497
722.453761	0.650771
722.786158	0.648305
723.118506	0.644687
723.450805	0.652679
723.783056	0.649009
724.115259	0.645036
724.447412	0.645825
724.779518	0.646585
725.111574	0.645964
725.443582	0.641502
725.775542	0.642953
726.107453	0.635813
726.439315	0.635548
726.771129	0.633938
727.102895	0.627099
727.434612	0.620235
727.766281	0.618125
728.097901	0.617525
728.429473	0.616939
728.760996	0.616182
729.092471	0.615965
729.423897	0.619425
729.755276	0.618567
730.086606	0.618433
730.417887	0.613023
730.749120	0.603950
731.080305	0.595116
731.411442	0.590737
731.742530	0.595737
732.073570	0.594357
732.404562	0.587104
732.735506	0.588411
733.066401	0.593568
733.397249	0.602659
733.728048	0.613754
734.058798	0.626102
734.389501	0.636888
734.720156	0.646951
735.050762	0.654863
735.381320	0.655225
735.711831	0.665193
736.042293	0.669945
736.372707	0.665944
736.703073	0.669839
737.033391	0.673157
737.363661	0.668999
737.693883	0.664515
738.024056	0.663404
738.354182	0.663778
738.684260	0.653858
739.014290	0.649433
739.344272	0.649874
739.674207	0.643643
740.004093	0.642964
740.333931	0.643587
740.663722	0.643375
740.993464	0.643824
741.323159	0.648242
741.652806	0.651939
741.982405	0.657538
742.311956	0.661632
742.641460	0.664010
742.970915	0.668634
743.300323	0.675424
743.629683	0.682236
743.958996	0.683941
744.288260	0.688189
744.617477	0.693818
744.946647	0.695915
745.275768	0.700374
745.604842	0.700507
745.933869	0.711237
746.262847	0.711246
746.591778	0.704531
746.920662	0.711240
747.249498	0.717525
747.578286	0.708877
747.907027	0.704603
748.235720	0.705848
748.564365	0.700179
748.892963	0.699981
749.221514	0.703162
749.550017	0.709097
749.878473	0.708661
750.206881	0.715169
750.535242	0.715725
750.863555	0.715850
751.191821	0.716484
751.520039	0.719795
751.848210	0.724781
752.176334	0.717146
752.504411	0.716905
752.832440	0.724080
753.160421	0.727887
753.488356	0.726652
753.816243	0.724426
754.144082	0.731657
754.471875	0.735773
754.799620	0.731397
755.127318	0.732405
755.454969	0.732912
755.782572	0.732534
756.110129	0.737604
756.437638	0.740051
756.765100	0.736126
757.092515	0.734202
757.419882	0.733282
757.747203	0.738514
758.074477	0.738218
758.401703	0.735212
758.728882	0.729934
759.056014	0.728362
759.383099	0.727933
759.710138	0.729168
760.037129	0.725984
760.364073	0.719395
760.690970	0.722113
761.017820	0.727085
761.344623	0.722691
761.671379	0.713198
761.998088	0.702219
762.324751	0.679826
762.651366	0.638629
762.977935	0.571338
763.304456	0.519254
763.630931	0.510290
763.957359	0.548452
764.283740	0.593207
764.610074	0.620820
764.936362	0.651425
765.262602	0.677858
765.588796	0.699585
765.914943	0.717813
766.241044	0.735405
766.567097	0.742095
766.893104	0.752300
767.219064	0.758027
767.544978	0.764364
767.870845	0.778037
768.196665	0.782051
768.522438	0.779999
768.848165	0.781224
769.173846	0.789090
769.499479	0.794654
769.825066	0.796764
770.150607	0.803151
770.476101	0.798307
770.801548	0.798511
771.126949	0.810322
771.452303	0.814815
771.777611	0.813678
772.102872	0.812566
772.428087	0.818746
772.753256	0.821740
773.078378	0.823128
773.403453	0.831888
773.728482	0.836145
774.053465	0.830181
774.378401	0.833443
774.703291	0.840455
775.028135	0.841253
775.352932	0.843722
775.677683	0.846817
776.002388	0.845981
776.327046	0.846393
776.651658	0.849406
776.976224	0.852966
777.300743	0.853390
777.625216	0.853973
777.949643	0.857294
778.274024	0.857284
778.598359	0.858367
778.922647	0.856927
779.246889	0.857857
779.571086	0.861950
779.895236	0.864561
780.219339	0.860642
780.543397	0.858003
780.867409	0.856572
781.191374	0.858628
781.515294	0.860860
781.839167	0.858345
782.162995	0.862624
782.486776	0.859186
782.810511	0.860347
783.134201	0.863659
783.457844	0.861698
783.781441	0.863851
784.104993	0.870976
784.428498	0.870999
784.751958	0.866619
785.075372	0.868822
785.398739	0.873035
785.722061	0.868517
786.045337	0.864710
786.368568	0.869556
786.691752	0.872786
787.014891	0.857085
787.337983	0.848210
787.661030	0.840719
787.984031	0.823723
788.306987	0.811291
788.629897	0.813416
788.952760	0.817537
789.275579	0.821258
789.598351	0.836130
789.921078	0.848817
790.243759	0.850017
790.566395	0.856367
790.888984	0.863267
791.211529	0.868184
791.534027	0.871721
791.856480	0.874712
792.178888	0.879856
792.501249	0.880903
792.823566	0.883060
793.145836	0.882638
793.468062	0.884789
793.790241	0.884408
794.112375	0.882440
794.434464	0.878002
794.756507	0.878523
795.078505	0.877132
795.400457	0.871700
795.722364	0.860453
796.044226	0.853153
796.366042	0.852552
796.687812	0.855354
797.009538	0.851269
797.331218	0.854449
797.652852	0.859687
797.974442	0.864122
798.295986	0.863694
798.617484	0.866596
798.938938	0.870261
799.260346	0.876024
799.581709	0.877442
799.903026	0.880339
800.224299	0.880431
800.545526	0.884988
800.866708	0.888300
801.187845	0.891945
801.508936	0.892013
801.829983	0.890662
802.150984	0.893379
802.471940	0.897410
802.792851	0.897372
803.113717	0.897728
803.434538	0.896366
803.755314	0.898791
804.076045	0.900905
804.396731	0.899795
804.717372	0.900040
805.037967	0.902328
805.358518	0.899225
805.679024	0.896344
805.999485	0.896836
806.319901	0.897632
806.640272	0.897653
806.960598	0.896921
807.280879	0.894121
807.601115	0.892083
807.921306	0.895100
808.241453	0.895846
808.561554	0.893951
808.881611	0.894543
809.201623	0.895987
809.521590	0.896519
809.841513	0.897631
810.161390	0.896614
810.481223	0.897543
810.801011	0.901199
811.120755	0.902554
811.440453	0.901595
811.760107	0.900024
812.079716	0.900257
812.399281	0.903951
812.718801	0.905888
813.038276	0.908164
813.357707	0.906540
813.677093	0.903444
813.996434	0.907216
814.315731	0.908109
814.634983	0.910232
814.954191	0.907411
815.273354	0.905741
815.592473	0.901840
815.911547	0.901042
816.230577	0.898608
816.549562	0.896073
816.868502	0.897570
817.187399	0.893573
817.506250	0.888215
817.825058	0.890504
818.143821	0.885822
818.462539	0.882043
818.781213	0.873367
819.099843	0.862564
819.418429	0.846718
819.736970	0.829888
820.055466	0.809210
820.373919	0.784063
820.692327	0.751673
821.010691	0.716808
821.329011	0.640051
821.647286	0.525093
821.965517	0.411684
822.283704	0.369146
822.601847	0.370367
822.919945	0.405951
823.237999	0.439191
823.556010	0.486030
823.873976	0.541625
824.191897	0.592741
824.509775	0.634527
824.827609	0.679185
825.145398	0.702327
825.463144	0.705974
825.780845	0.688399
826.098502	0.669360
826.416116	0.623391
826.733685	0.580192
827.051210	0.571961
827.368692	0.585810
827.686129	0.623142
828.003522	0.676383
828.320872	0.723652
828.638177	0.767310
828.955439	0.799690
829.272656	0.821340
829.589830	0.839507
829.906960	0.854324
830.224046	0.866670
830.541088	0.877033
830.858086	0.881814
831.175041	0.887872
831.491952	0.886926
831.808819	0.883803
832.125642	0.876438
832.442421	0.862014
832.759157	0.840963
833.075849	0.794654
833.392497	0.730285
833.709101	0.690043
834.025662	0.699208
834.342179	0.731115
834.658653	0.769534
834.975083	0.806619
835.291469	0.831443
835.607811	0.855475
835.924110	0.870822
836.240366	0.887576
836.556578	0.901318
836.872746	0.908896
837.188871	0.915316
837.504952	0.921021
837.820990	0.923184
838.136984	0.927728
838.452935	0.930918
838.768842	0.932129
839.084706	0.925364
839.400526	0.899300
839.716303	0.860405
840.032037	0.837171
840.347727	0.840996
840.663373	0.859288
840.978977	0.880740
841.294537	0.901991
841.610054	0.918040
841.925527	0.926140
842.240957	0.933528
842.556344	0.940180
842.871687	0.946169
843.186987	0.950614
843.502244	0.950080
843.817458	0.952598
844.132629	0.955203
844.447756	0.960343
844.762840	0.960682
845.077881	0.959641
845.392879	0.961195
845.707833	0.962404
846.022745	0.964496
846.337613	0.965781
846.652438	0.966401
846.967221	0.964845
847.281960	0.965130
847.596656	0.967662
847.911309	0.965708
848.225919	0.967230
848.540485	0.968239
848.855009	0.968275
849.169490	0.968462
849.483928	0.968578
849.798323	0.969010
850.112675	0.969783
850.426984	0.969873
850.741251	0.969651
851.055474	0.969890
851.369654	0.967882
851.683792	0.970123
851.997887	0.970249
852.311938	0.971655
852.625947	0.970132
852.939914	0.968991
853.253837	0.969412
853.567718	0.970779
853.881555	0.970053
854.195350	0.968413
854.509103	0.969175
854.822812	0.969928
855.136479	0.970457
855.450103	0.970350
855.763685	0.968235
856.077224	0.968578
856.390720	0.969725
856.704173	0.970622
857.017584	0.969230
857.330953	0.966985
857.644278	0.968328
857.957561	0.968855
858.270802	0.968563
858.584000	0.968220
858.897155	0.966743
859.210268	0.967998
859.523339	0.968484
859.836367	0.970538
860.149352	0.970882
860.462295	0.968520
860.775195	0.970867
861.088054	0.968539
861.400869	0.969960
861.713642	0.970833
862.026373	0.970193
862.339062	0.971969
862.651708	0.967872
862.964312	0.967487
863.276873	0.969213
863.589392	0.968663
863.901869	0.966392
864.214303	0.965143
864.526696	0.964638
864.839045	0.964053
865.151353	0.961668
865.463619	0.962694
865.775842	0.963476
866.088023	0.963182
866.400162	0.962372
866.712258	0.963107
867.024313	0.963012
867.336325	0.963182
867.648296	0.963920
867.960224	0.962500
868.272110	0.962581
868.583954	0.964742
868.895755	0.964778
869.207515	0.961988
869.519233	0.960583
869.830909	0.961085
870.142542	0.963431
870.454134	0.961692
870.765684	0.960477
871.077191	0.958753
871.388657	0.959205
871.700081	0.958410
872.011463	0.957987
872.322803	0.958448
872.634101	0.957961
872.945357	0.954910
873.256571	0.953878
873.567744	0.953479
873.878874	0.954491
874.189963	0.952020
874.501010	0.952140
874.812015	0.949867
875.122979	0.951458
875.433900	0.954072
875.744780	0.954090
876.055618	0.951058
876.366415	0.950073
876.677169	0.950922
876.987882	0.951664
877.298554	0.950762
877.609183	0.948126
877.919771	0.944666
878.230317	0.942684
878.540822	0.941065
878.851285	0.936380
879.161707	0.927162
879.472087	0.916754
879.782425	0.899420
880.092722	0.865391
880.402977	0.814113
880.713191	0.753895
881.023363	0.694612
881.333494	0.661494
881.643583	0.633121
881.953631	0.632526
882.263637	0.661016
882.573602	0.701098
882.883526	0.726029
883.193408	0.749570
883.503248	0.771430
883.813048	0.799433
884.122806	0.827770
884.432522	0.851453
884.742197	0.871377
885.051831	0.881336
885.361424	0.893128
885.670975	0.903923
885.980485	0.913781
886.289954	0.920164
886.599382	0.924897
886.908768	0.929012
887.218113	0.934074
887.527417	0.939626
887.836680	0.943175
888.145901	0.943723
888.455082	0.946444
888.764221	0.951248
889.073319	0.952034
889.382376	0.952660
889.691392	0.954586
890.000366	0.952578
890.309300	0.953860
890.618193	0.952682
890.927044	0.953121
891.235855	0.951712
891.544625	0.951891
891.853353	0.952637
892.162041	0.948750
892.470687	0.943608
892.779293	0.938013
893.087858	0.934934
893.396381	0.925785
893.704864	0.913426
894.013306	0.890100
894.321707	0.863224
894.630068	0.849817
894.938387	0.844158
895.246665	0.844630
895.554903	0.858140
895.863100	0.871086
896.171256	0.888370
896.479371	0.906394
896.787446	0.919791
897.095480	0.925151
897.403473	0.929220
897.711425	0.933294
898.019336	0.941299
898.327207	0.942635
898.635038	0.946074
898.942827	0.945980
899.250576	0.949622
899.558284	0.952612
899.865952	0.954310
900.173579	0.956145
900.481165	0.956576
900.788711	0.960881
901.096216	0.961792
901.403681	0.962769
901.711105	0.963478
902.018489	0.964452
902.325832	0.962823
902.633135	0.961312
902.940397	0.956841
903.247619	0.943627
903.554800	0.918993
903.861941	0.879473
904.169041	0.844462
904.476101	0.827349
904.783121	0.827611
905.090100	0.844494
905.397039	0.865642
905.703938	0.887376
906.010796	0.906968
906.317614	0.923964
906.624391	0.935467
906.931129	0.944389
907.237826	0.952047
907.544483	0.958659
907.851099	0.962004
908.157675	0.967822
908.464211	0.970400
908.770707	0.973243
909.077163	0.974677
909.383578	0.974730
909.689954	0.976428
909.996289	0.976183
910.302584	0.977542
910.608839	0.980302
910.915054	0.978111
911.221229	0.979562
911.527363	0.977581
911.833458	0.977722
912.139513	0.977019
912.445527	0.976947
912.751502	0.974275
913.057436	0.973553
913.363331	0.970553
913.669186	0.967064
913.975000	0.961611
914.280775	0.955865
914.586510	0.949219
914.892205	0.935680
915.197859	0.915465
915.503475	0.887223
915.809050	0.867920
916.114585	0.863522
916.420081	0.859793
916.725536	0.857374
917.030952	0.864831
917.336328	0.878656
917.641665	0.892607
917.946961	0.909296
918.252218	0.920217
918.557435	0.929310
918.862612	0.936342
919.167750	0.942784
919.472848	0.948099
919.777906	0.952966
920.082925	0.958582
920.387904	0.961534
920.692843	0.963224
920.997743	0.964212
921.302603	0.968001
921.607423	0.968723
921.912204	0.972329
922.216946	0.971673
922.521647	0.973859
922.826310	0.975407
923.130932	0.976911
923.435516	0.978337
923.740059	0.980314
924.044564	0.979201
924.349028	0.980706
924.653454	0.982006
924.957840	0.985685
925.262186	0.984529
925.566493	0.983715
925.870761	0.984919
926.174989	0.985287
926.479178	0.989260
926.783328	0.989070
927.087438	0.988483
927.391509	0.988318
927.695541	0.989409
927.999533	0.989441
928.303486	0.988825
928.607400	0.992235
928.911275	0.990225
929.215110	0.990080
929.518906	0.990404
929.822663	0.989444
930.126381	0.991682
930.430060	0.989929
930.733699	0.990026
931.037299	0.990235
931.340861	0.991269
931.644383	0.990290
931.947866	0.990409
932.251309	0.990539
932.554714	0.990490
932.858080	0.990007
933.161407	0.990257
933.464694	0.990678
933.767943	0.990020
934.071153	0.992301
934.374323	0.991002
934.677455	0.990327
934.980548	0.991193
935.283602	0.991132
935.586617	0.990616
935.889593	0.990291
936.192530	0.991416
936.495428	0.990201
936.798287	0.990545
937.101108	0.991259
937.403890	0.988011
937.706632	0.989375
938.009336	0.986847
938.312002	0.986482
938.614628	0.983543
938.917216	0.984034
939.219765	0.981886
939.522275	0.983830
939.824747	0.981938
940.127179	0.983774
940.429573	0.984329
940.731929	0.984270
941.034246	0.984509
941.336524	0.985591
941.638763	0.986238
941.940964	0.986144
942.243126	0.987663
942.545250	0.987498
942.847335	0.988567
943.149381	0.988456
943.451389	0.987589
943.753359	0.987843
944.055290	0.991007
944.357182	0.990001
944.659036	0.988521
944.960851	0.989342
945.262628	0.989768
945.564367	0.989950
945.866067	0.990775
946.167729	0.990120
946.469352	0.991081
946.770937	0.988571
947.072484	0.990328
947.373992	0.991600
947.675462	0.990464
947.976893	0.990868
948.278286	0.990096
948.579641	0.991299
948.880958	0.991865
949.182236	0.990248
949.483476	0.991168
949.784678	0.990436
950.085841	0.990817
950.386967	0.990844
950.688054	0.991536
950.989103	0.991784
951.290114	0.990160
951.591087	0.989410
951.892021	0.990140
952.192917	0.989960
952.493776	0.988092
952.794596	0.987947
953.095378	0.988403
953.396122	0.988309
953.696828	0.987445
953.997496	0.990136
954.298126	0.991524
954.598718	0.990751
954.899272	0.991354
955.199788	0.990623
955.500266	0.990827
955.800706	0.992667
956.101108	0.992828
956.401472	0.993613
956.701798	0.994419
957.002087	0.993095
957.302337	0.994166
957.602550	0.995533
957.902724	0.994081
958.202861	0.995697
958.502960	0.995111
958.803022	0.994802
959.103045	0.996878
959.403031	0.994955
959.702979	0.994662
960.002889	0.996001
960.302762	0.994709
960.602596	0.995948
960.902393	0.995029
961.202153	0.996277
961.501875	0.997230
961.801559	0.996487
962.101205	0.995832
962.400814	0.996451
962.700385	0.996940
962.999918	0.996232
963.299414	0.995410
963.598873	0.995563
963.898293	0.996386
964.197677	0.996625
964.497022	0.996724
964.796331	0.997409
965.095601	0.996387
965.394835	0.996805
965.694030	0.996461
965.993189	0.997683
966.292309	0.996562
966.591393	0.997645
966.890439	0.996350
967.189447	0.995848
967.488419	0.996980
967.787353	0.997105
968.086249	0.997149
968.385108	0.996216
968.683930	0.997193
968.982714	0.997370
969.281462	0.996846
969.580172	0.996691
969.878844	0.997255
970.177480	0.996732
970.476078	0.998101
970.774639	0.996414
971.073162	0.997383
971.371649	0.996943
971.670098	0.996129
971.968510	0.997525
972.266885	0.995791
972.565223	0.996293
972.863524	0.995864
973.161788	0.995679
973.460014	0.997884
973.758204	0.996145
974.056356	0.996447
974.354471	0.995050
974.652550	0.996736
974.950591	0.996061
975.248595	0.996819
975.546563	0.996618
975.844493	0.997732
976.142386	0.996613
976.440243	0.998028
976.738062	0.996612
977.035845	0.998514
977.333590	0.996307
977.631299	0.998727
977.928971	0.997272
978.226606	0.996518
978.524204	0.995756
978.821765	0.998383
979.119290	0.995885
979.416777	0.996632
979.714228	0.996887
980.011642	0.995399
980.309020	0.997848
980.606360	0.996456
980.903664	0.997603
981.200931	0.995781
981.498162	0.995536
981.795356	0.994943
982.092513	0.994677
982.389633	0.994293
982.686717	0.990957
982.983764	0.990633
983.280775	0.991636
983.577749	0.989649
983.874686	0.991348
984.171587	0.992535
984.468451	0.995070
984.765279	0.995758
985.062070	0.993727
985.358824	0.995519
985.655543	0.995260
985.952224	0.995974
986.248869	0.997254
986.545478	0.997590
986.842050	0.998816
987.138586	0.995915
987.435086	0.998196
987.731549	0.998679
988.027975	0.997877
988.324366	0.997499
988.620719	0.997982
988.917037	0.996664
989.213318	0.997218
989.509563	0.998148
989.805772	0.998449
990.101944	0.998422
990.398080	0.997544
990.694180	0.998493
990.990244	0.998262
991.286271	0.998066
991.582262	0.997708
991.878217	0.997809
992.174136	0.998139
992.470019	0.998842
992.765865	0.998505
993.061676	0.998320
993.357450	0.997265
993.653188	0.998257
993.948890	0.997146
994.244556	0.998278
994.540186	0.997315
994.835780	0.996867
995.131337	0.996633
995.426859	0.995936
995.722345	0.997541
996.017795	0.995790
996.313208	0.997038
996.608586	0.995851
996.903928	0.998134
997.199234	0.995380
997.494504	0.995839
997.789738	0.996557
998.084936	0.997143
998.380099	0.997666
998.675225	0.997458
998.970316	0.997156
999.265371	0.998256
999.560390	0.997514
999.855373	0.997761
1000.150320	0.997947
1000.445232	0.998173
1000.740108	0.997584
1001.034948	0.998105
1001.329752	0.998825
1001.624521	0.997948
1001.919254	0.997753
1002.213951	0.999082
1002.508613	0.998268
1002.803239	0.998312
1003.097829	0.998962
1003.392384	0.999147
1003.686903	0.997886
1003.981386	0.998403
1004.275834	0.999722
1004.570246	0.999150
1004.864623	0.999169
1005.158964	0.999733
1005.453270	0.999645
1005.747540	0.998038
1006.041775	0.999361
1006.335974	0.999412
1006.630138	0.999207
1006.924266	0.999118
1007.218359	0.999996
1007.512416	0.999311
1007.806438	0.999934
1008.100425	0.998995
1008.394376	0.999068
1008.688292	0.998408
1008.982172	1.000732
1009.276017	0.999739
1009.569827	0.997715
1009.863602	0.998903
1010.157341	1.000044
1010.451045	0.998880
1010.744714	0.998408
1011.038347	0.999050
1011.331945	0.999595
1011.625508	0.996603
1011.919036	0.999116
1012.212528	0.998401
1012.505986	0.998132
1012.799408	0.999213
1013.092795	0.999414
1013.386147	0.998671
1013.679464	0.999858
1013.972745	0.998048
1014.265992	0.996932
1014.559204	0.998079
1014.852380	0.999691
1015.145521	0.998451
1015.438628	0.999532
1015.731699	0.998594
1016.024736	0.999323
1016.317737	0.999647
1016.610703	0.997834
1016.903635	0.999035
1017.196531	0.998890
1017.489393	0.999693
1017.782219	0.998202
1018.075011	0.998295
1018.367768	0.998769
1018.660490	0.999589
1018.953177	0.999589
1019.245829	0.999589
