Dividing Wavelength (nm)	Counts (n)	Blue Motor Position (mm): 0.000000	Red Motor Position (mm): 30.500000	
326.493990	1.001660
326.888308	1.001660
327.282561	1.001660
327.676750	1.000037
328.070874	1.000052
328.464933	0.999512
328.858929	1.000224
329.252859	1.000748
329.646726	0.999015
330.040528	1.000362
330.434265	0.999950
330.827938	1.000843
331.221547	1.000255
331.615091	1.000426
332.008571	0.999829
332.401986	0.998952
332.795338	1.000458
333.188625	0.998842
333.581847	0.999474
333.975006	0.999975
334.368100	0.999398
334.761129	0.999480
335.154095	0.999211
335.546996	0.999140
335.939833	0.994216
336.332606	0.994532
336.725315	0.995807
337.117960	0.996833
337.510540	0.996443
337.903056	0.995932
338.295508	0.995055
338.687896	0.995929
339.080220	0.996100
339.472480	0.995419
339.864676	0.995916
340.256807	0.995731
340.648875	0.996776
341.040879	0.996177
341.432818	0.995809
341.824694	0.995186
342.216506	0.996614
342.608253	0.995451
342.999937	0.994895
343.391557	0.994919
343.783113	0.994158
344.174605	0.995964
344.566033	0.996322
344.957397	0.995147
345.348697	0.995792
345.739934	0.996176
346.131106	0.995596
346.522215	0.995607
346.913260	0.996298
347.304241	0.994854
347.695159	0.996371
348.086012	0.994502
348.476802	0.995105
348.867528	0.995859
349.258191	0.994934
349.648789	0.996107
350.039324	0.995527
350.429796	0.996559
350.820203	0.996111
351.210548	0.995118
351.600828	0.996868
351.991045	0.995448
352.381198	0.994662
352.771288	0.995469
353.161314	0.995373
353.551276	0.996620
353.941175	0.996476
354.331010	0.994938
354.720782	0.996975
355.110490	0.994871
355.500135	0.995702
355.889717	0.995526
356.279235	0.994897
356.668689	0.995418
357.058080	0.995924
357.447408	0.996566
357.836672	0.996230
358.225873	0.996051
358.615010	0.995538
359.004084	0.997429
359.393095	0.995125
359.782043	0.996420
360.170927	0.995779
360.559748	0.996263
360.948505	0.995696
361.337199	0.996315
361.725830	0.996002
362.114398	0.995085
362.502903	0.996307
362.891344	0.996400
363.279722	0.994925
363.668037	0.997129
364.056289	0.995963
364.444478	0.996976
364.832603	0.996717
365.220665	0.994640
365.608665	0.995718
365.996601	0.995343
366.384474	0.995971
366.772284	0.995091
367.160031	0.993746
367.547715	0.995507
367.935336	0.994741
368.322893	0.995699
368.710388	0.996562
369.097820	0.995379
369.485189	0.995525
369.872495	0.994884
370.259738	0.993996
370.646918	0.996826
371.034035	0.996098
371.421090	0.995758
371.808081	0.995656
372.195010	0.996290
372.581875	0.995992
372.968678	0.994965
373.355418	0.996071
373.742096	0.994919
374.128710	0.997372
374.515262	0.995350
374.901751	0.996518
375.288177	0.996670
375.674540	0.996437
376.060841	0.995383
376.447079	0.996415
376.833254	0.995437
377.219367	0.996323
377.605417	0.995985
377.991404	0.997278
378.377329	0.995641
378.763191	0.995708
379.148991	0.998096
379.534727	0.997474
379.920402	0.997084
380.306013	0.996310
380.691563	0.996678
381.077049	0.996508
381.462474	0.997742
381.847835	0.997133
382.233134	0.996667
382.618371	0.997135
383.003545	0.996702
383.388657	0.996899
383.773706	0.997556
384.158693	0.997449
384.543618	0.997020
384.928480	0.998164
385.313280	0.997788
385.698017	0.997364
386.082692	0.997464
386.467305	0.997503
386.851856	0.996811
387.236344	0.996966
387.620770	0.996732
388.005133	0.997464
388.389435	0.998080
388.773674	0.997580
389.157851	0.996989
389.541965	0.997268
389.926018	0.997566
390.310008	0.998701
390.693936	0.997564
391.077802	0.998146
391.461606	0.997130
391.845348	0.998230
392.229027	0.999410
392.612645	0.997648
392.996200	0.998989
393.379694	0.997542
393.763125	0.998747
394.146494	0.997392
394.529801	0.997529
394.913047	0.998448
395.296230	0.998784
395.679351	0.997674
396.062410	0.997665
396.445408	0.997527
396.828343	0.998124
397.211217	0.997172
397.594028	0.998711
397.976778	0.998208
398.359466	0.997328
398.742092	0.997813
399.124656	0.997552
399.507158	0.998107
399.889598	0.997747
400.271977	0.997549
400.654294	0.997837
401.036549	0.997959
401.418742	0.997876
401.800874	0.997303
402.182944	0.997560
402.564952	0.996740
402.946898	0.998893
403.328783	0.997183
403.710606	0.997849
404.092367	0.998447
404.474067	0.997859
404.855705	0.998159
405.237282	0.999028
405.618797	0.998183
406.000250	0.997444
406.381642	0.997817
406.762972	0.998236
407.144240	0.998265
407.525447	0.998257
407.906593	0.998708
408.287677	0.998289
408.668700	0.998676
409.049661	0.997485
409.430560	0.998979
409.811399	0.997398
410.192176	0.997456
410.572891	0.998406
410.953545	0.998275
411.334138	0.997684
411.714669	0.998174
412.095139	0.997740
412.475547	0.999934
412.855894	0.999062
413.236180	0.998940
413.616405	0.998959
413.996568	0.998916
414.376670	0.998438
414.756711	0.997815
415.136691	0.998777
415.516609	0.998321
415.896466	0.998507
416.276262	0.996820
416.655997	0.998666
417.035670	0.997480
417.415283	0.998330
417.794834	0.998330
418.174324	0.997825
418.553753	0.998355
418.933121	0.998816
419.312428	0.998104
419.691674	0.998772
420.070859	0.998143
420.449983	0.998136
420.829045	0.997765
421.208047	0.999089
421.586988	0.999950
421.965867	0.998979
422.344686	0.999480
422.723444	0.998449
423.102141	0.999309
423.480777	0.998886
423.859352	0.999192
424.237866	0.998650
424.616319	0.997697
424.994712	0.998756
425.373044	0.998646
425.751314	0.999029
426.129524	0.998355
426.507673	0.997996
426.885762	0.999887
427.263789	0.998590
427.641756	0.998243
428.019662	0.999643
428.397508	0.998376
428.775292	0.997832
429.153016	0.997599
429.530679	0.999208
429.908282	0.999473
430.285824	0.998060
430.663305	0.998446
431.040726	0.998361
431.418086	1.000361
431.795385	0.999300
432.172624	0.998514
432.549802	0.999671
432.926920	0.999400
433.303977	0.998210
433.680974	0.998776
434.057910	0.998317
434.434786	0.999363
434.811601	0.998019
435.188355	0.998447
435.565050	0.997903
435.941683	0.998173
436.318257	0.999551
436.694770	0.998302
437.071222	0.998963
437.447614	0.998746
437.823946	0.998960
438.200218	0.998735
438.576429	0.998870
438.952580	0.999349
439.328670	0.998183
439.704700	0.998550
440.080670	0.998923
440.456580	0.998353
440.832429	0.998259
441.208218	0.998772
441.583947	0.998756
441.959616	0.999158
442.335224	0.998456
442.710773	0.999513
443.086261	0.998961
443.461689	0.999162
443.837057	0.998000
444.212365	0.998574
444.587612	0.997992
444.962800	0.998353
445.337927	0.998330
445.712995	0.999052
446.088002	0.999055
446.462949	0.998856
446.837837	0.998904
447.212664	0.999398
447.587431	0.998847
447.962139	0.999689
448.336786	0.999594
448.711374	0.999166
449.085901	0.998301
449.460369	0.999267
449.834776	0.998869
450.209124	0.999077
450.583412	0.998960
450.957640	0.998705
451.331808	0.997980
451.705917	0.998651
452.079965	0.998452
452.453954	0.998835
452.827883	0.998577
453.201752	0.999127
453.575562	0.999033
453.949311	0.999196
454.323001	0.998845
454.696632	0.997875
455.070202	0.998809
455.443713	0.998723
455.817164	0.998894
456.190556	0.998464
456.563888	0.998265
456.937160	0.998590
457.310373	0.998290
457.683526	0.998173
458.056619	0.998019
458.429653	0.998568
458.802628	0.998460
459.175542	0.998022
459.548398	0.997949
459.921194	0.998450
460.293930	0.998067
460.666607	0.997289
461.039224	0.997324
461.411782	0.998043
461.784280	0.997413
462.156719	0.998621
462.529099	0.997878
462.901419	0.997787
463.273680	0.997461
463.645882	0.997592
464.018024	0.997133
464.390106	0.997392
464.762130	0.997787
465.134094	0.996672
465.505999	0.996220
465.877845	0.995867
466.249631	0.996370
466.621358	0.994990
466.993026	0.995727
467.364634	0.994883
467.736184	0.995064
468.107674	0.993955
468.479105	0.992753
468.850477	0.993574
469.221790	0.992171
469.593043	0.992236
469.964238	0.992176
470.335373	0.990319
470.706449	0.990031
471.077467	0.989419
471.448425	0.987774
471.819324	0.985963
472.190164	0.985464
472.560945	0.984882
472.931667	0.984303
473.302330	0.982823
473.672934	0.982456
474.043479	0.980265
474.413965	0.978674
474.784393	0.978345
475.154761	0.976139
475.525070	0.974401
475.895321	0.973180
476.265513	0.971834
476.635645	0.970180
477.005719	0.968302
477.375734	0.966254
477.745691	0.963585
478.115588	0.961171
478.485427	0.958959
478.855207	0.954752
479.224928	0.950576
479.594591	0.947484
479.964194	0.946120
480.333739	0.944349
480.703226	0.941140
481.072653	0.938837
481.442022	0.933614
481.811333	0.929648
482.180584	0.928283
482.549777	0.924148
482.918912	0.920992
483.287988	0.918233
483.657005	0.913943
484.025964	0.911727
484.394864	0.907879
484.763706	0.903220
485.132489	0.900935
485.501213	0.895952
485.869879	0.892349
486.238487	0.887254
486.607036	0.883922
486.975527	0.877965
487.343959	0.873459
487.712333	0.867979
488.080648	0.863835
488.448905	0.857601
488.817104	0.853275
489.185244	0.846487
489.553326	0.839946
489.921350	0.830844
490.289315	0.817588
490.657222	0.811831
491.025070	0.805752
491.392861	0.801674
491.760593	0.798309
492.128267	0.793748
492.495883	0.789781
492.863440	0.785156
493.230939	0.780887
493.598380	0.774267
493.965763	0.767571
494.333088	0.763693
494.700354	0.755955
495.067563	0.750350
495.434713	0.743825
495.801805	0.737125
496.168839	0.730368
496.535815	0.722536
496.902733	0.717616
497.269593	0.709844
497.636395	0.703691
498.003139	0.694756
498.369825	0.691038
498.736453	0.681387
499.103023	0.675237
499.469535	0.667412
499.835989	0.661778
500.202385	0.654536
500.568723	0.649004
500.935003	0.640987
501.301226	0.633562
501.667390	0.625614
502.033497	0.617125
502.399546	0.612752
502.765537	0.605998
503.131470	0.598308
503.497345	0.589131
503.863163	0.588510
504.228923	0.576089
504.594625	0.569603
504.960269	0.565745
505.325856	0.556332
505.691385	0.551799
506.056856	0.543998
506.422270	0.536314
506.787625	0.532103
507.152924	0.523149
507.518164	0.517588
507.883347	0.511467
508.248472	0.506733
508.613540	0.497052
508.978550	0.492350
509.343503	0.486130
509.708398	0.478930
510.073236	0.470608
510.438016	0.465238
510.802738	0.459476
511.167403	0.453272
511.532010	0.448469
511.896561	0.440417
512.261053	0.434130
512.625488	0.429405
512.989866	0.423808
513.354186	0.418545
513.718449	0.414792
514.082655	0.407303
514.446803	0.403687
514.810894	0.397049
515.174927	0.393702
515.538904	0.388942
515.902822	0.380843
516.266684	0.378931
516.630488	0.374856
516.994235	0.369788
517.357925	0.363788
517.721558	0.358443
518.085133	0.353229
518.448651	0.349584
518.812112	0.347551
519.175516	0.342817
519.538863	0.337092
519.902152	0.335154
520.265385	0.327858
520.628560	0.326561
520.991678	0.322548
521.354739	0.318460
521.717743	0.316398
522.080690	0.313689
522.443580	0.307897
522.806413	0.305508
523.169189	0.301828
523.531908	0.297836
523.894569	0.298525
524.257174	0.295354
524.619722	0.290473
524.982213	0.289282
525.344647	0.285385
525.707025	0.283989
526.069345	0.279675
526.431608	0.278897
526.793815	0.275038
527.155964	0.276623
527.518057	0.273730
527.880093	0.272692
528.242072	0.269367
528.603995	0.268966
528.965860	0.269366
529.327669	0.266588
529.689421	0.265901
530.051117	0.264909
530.412755	0.260804
530.774337	0.262130
531.135862	0.260782
531.497331	0.258781
531.858743	0.260152
532.220098	0.256044
532.581396	0.257257
532.942638	0.256878
533.303824	0.256561
533.664953	0.255303
534.026025	0.256026
534.387040	0.252970
534.747999	0.252251
535.108902	0.250351
535.469748	0.254222
535.830537	0.251739
536.191270	0.251369
536.551947	0.250135
536.912567	0.249674
537.273131	0.250928
537.633638	0.250439
537.994089	0.250041
538.354483	0.250739
538.714821	0.247553
539.075103	0.246888
539.435328	0.246950
539.795497	0.250223
540.155609	0.246639
540.515665	0.244289
540.875665	0.249662
541.235609	0.247691
541.595496	0.247796
541.955328	0.243837
542.315102	0.246364
542.674821	0.247280
543.034483	0.246585
543.394090	0.246439
543.753640	0.248021
544.113134	0.242548
544.472571	0.245849
544.831953	0.242633
545.191278	0.246614
545.550548	0.245665
545.909761	0.242298
546.268918	0.243268
546.628019	0.241419
546.987064	0.243794
547.346053	0.245429
547.704986	0.243060
548.063863	0.243421
548.422684	0.243679
548.781449	0.245207
549.140158	0.243017
549.498811	0.245637
549.857408	0.248732
550.215949	0.243655
550.574434	0.246287
550.932864	0.244162
551.291237	0.242755
551.649555	0.244237
552.007817	0.243960
552.366022	0.244251
552.724173	0.244634
553.082267	0.244873
553.440305	0.241852
553.798288	0.246231
554.156215	0.242466
554.514086	0.243228
554.871902	0.246291
555.229661	0.245513
555.587365	0.245998
555.945014	0.248708
556.302606	0.245327
556.660143	0.247698
557.017625	0.244252
557.375050	0.246572
557.732421	0.243266
558.089735	0.245606
558.446994	0.245426
558.804197	0.244874
559.161345	0.244858
559.518437	0.248071
559.875474	0.245623
560.232455	0.245159
560.589381	0.246332
560.946251	0.246412
561.303065	0.243830
561.659825	0.245424
562.016528	0.246814
562.373177	0.249585
562.729770	0.246771
563.086307	0.248788
563.442789	0.246596
563.799216	0.249678
564.155587	0.248386
564.511904	0.249278
564.868164	0.249615
565.224370	0.249335
565.580520	0.251071
565.936615	0.250685
566.292654	0.254048
566.648638	0.250894
567.004567	0.251867
567.360441	0.252773
567.716260	0.254415
568.072023	0.252133
568.427732	0.252618
568.783385	0.255130
569.138982	0.253278
569.494525	0.252943
569.850013	0.255844
570.205445	0.254236
570.560823	0.256526
570.916145	0.258709
571.271412	0.256948
571.626625	0.258708
571.981782	0.258647
572.336884	0.259532
572.691931	0.259463
573.046923	0.260650
573.401860	0.261688
573.756743	0.263245
574.111570	0.262266
574.466342	0.263007
574.821059	0.262256
575.175722	0.264812
575.530330	0.264665
575.884882	0.264673
576.239380	0.266884
576.593823	0.267440
576.948211	0.266845
577.302544	0.270127
577.656823	0.269774
578.011047	0.269599
578.365216	0.270373
578.719330	0.272424
579.073389	0.272288
579.427394	0.273894
579.781344	0.274165
580.135239	0.275830
580.489080	0.275280
580.842866	0.278474
581.196597	0.277781
581.550273	0.276933
581.903895	0.277757
582.257463	0.276005
582.610975	0.279265
582.964434	0.278458
583.317837	0.281014
583.671186	0.281662
584.024481	0.281823
584.377721	0.284331
584.730906	0.284903
585.084037	0.284111
585.437113	0.285839
585.790135	0.285304
586.143103	0.288396
586.496016	0.289277
586.848874	0.287020
587.201679	0.287660
587.554428	0.290824
587.907124	0.289461
588.259765	0.290051
588.612352	0.290693
588.964884	0.294589
589.317362	0.294061
589.669786	0.293684
590.022155	0.292857
590.374470	0.291857
590.726731	0.294268
591.078937	0.298703
591.431090	0.294943
591.783188	0.299257
592.135232	0.299447
592.487222	0.299641
592.839157	0.297929
593.191038	0.300269
593.542866	0.302135
593.894639	0.305478
594.246358	0.303507
594.598022	0.302960
594.949633	0.306362
595.301190	0.307483
595.652692	0.306672
596.004141	0.302829
596.355535	0.310581
596.706876	0.311212
597.058162	0.313700
597.409395	0.311005
597.760573	0.308423
598.111698	0.312100
598.462768	0.312527
598.813785	0.313384
599.164748	0.314700
599.515657	0.315232
599.866511	0.318454
600.217312	0.313857
600.568060	0.319257
600.918753	0.315453
601.269392	0.316198
601.619978	0.319194
601.970510	0.317452
602.320988	0.317624
602.671412	0.315598
603.021783	0.317507
603.372100	0.318978
603.722363	0.318948
604.072572	0.319866
604.422728	0.319571
604.772830	0.321618
605.122878	0.321107
605.472872	0.321637
605.822813	0.319682
606.172701	0.322477
606.522534	0.319792
606.872314	0.319559
607.222041	0.321014
607.571714	0.319495
607.921333	0.320097
608.270899	0.320288
608.620411	0.316951
608.969870	0.320785
609.319276	0.321249
609.668627	0.320560
610.017926	0.319469
610.367171	0.317691
610.716362	0.318525
611.065500	0.318878
611.414585	0.317760
611.763616	0.318406
612.112594	0.318548
612.461518	0.318249
612.810389	0.315559
613.159207	0.318044
613.507971	0.319792
613.856682	0.315803
614.205340	0.317461
614.553945	0.313986
614.902496	0.317762
615.250994	0.316065
615.599439	0.316592
615.947830	0.316172
616.296169	0.317442
616.644454	0.316452
616.992686	0.316584
617.340864	0.314413
617.688990	0.318125
618.037063	0.314722
618.385082	0.316513
618.733048	0.313544
619.080961	0.315500
619.428821	0.315288
619.776628	0.314505
620.124382	0.317005
620.472083	0.317042
620.819731	0.316369
621.167326	0.320398
621.514868	0.320086
621.862357	0.324306
622.209793	0.323861
622.557176	0.326024
622.904506	0.327212
623.251783	0.329356
623.599007	0.331559
623.946179	0.331270
624.293297	0.333246
624.640363	0.337283
624.987376	0.337831
625.334336	0.340484
625.681243	0.342093
626.028097	0.342806
626.374899	0.343837
626.721647	0.343907
627.068343	0.347730
627.414987	0.348398
627.761577	0.350369
628.108115	0.348558
628.454600	0.354504
628.801032	0.351290
629.147412	0.354251
629.493739	0.354057
629.840014	0.356905
630.186236	0.354245
630.532405	0.359818
630.878521	0.357316
631.224585	0.359934
631.570597	0.363005
631.916556	0.361310
632.262462	0.362044
632.608316	0.363868
632.954117	0.364366
633.299866	0.365291
633.645562	0.365629
633.991206	0.370076
634.336797	0.372828
634.682336	0.375858
635.027823	0.376958
635.373257	0.377776
635.718639	0.380860
636.063968	0.380690
636.409245	0.386470
636.754470	0.386483
637.099642	0.388699
637.444762	0.392458
637.789829	0.390981
638.134845	0.395008
638.479808	0.396019
638.824719	0.395454
639.169577	0.399493
639.514383	0.398641
639.859137	0.402956
640.203839	0.402283
640.548489	0.403219
640.893086	0.404434
641.237632	0.405970
641.582125	0.404773
641.926566	0.405872
642.270955	0.406301
642.615292	0.406915
642.959576	0.405961
643.303809	0.406248
643.647990	0.405543
643.992118	0.406811
644.336195	0.410140
644.680219	0.407987
645.024192	0.408745
645.368112	0.402426
645.711981	0.401627
646.055797	0.396673
646.399562	0.399485
646.743274	0.391554
647.086935	0.388695
647.430544	0.388919
647.774101	0.387751
648.117606	0.387612
648.461059	0.387749
648.804460	0.390288
649.147810	0.395931
649.491108	0.397429
649.834354	0.398716
650.177548	0.403957
650.520690	0.409399
650.863781	0.410432
651.206820	0.409801
651.549807	0.414653
651.892742	0.418660
652.235626	0.418026
652.578458	0.419087
652.921238	0.425125
653.263967	0.422628
653.606644	0.427365
653.949269	0.426690
654.291843	0.430307
654.634365	0.427427
654.976836	0.430749
655.319255	0.430466
655.661622	0.432658
656.003938	0.432521
656.346203	0.435053
656.688416	0.433081
657.030577	0.436406
657.372687	0.438231
657.714746	0.439155
658.056753	0.435867
658.398708	0.439887
658.740612	0.441149
659.082465	0.437406
659.424266	0.438043
659.766016	0.437551
660.107715	0.440305
660.449362	0.439259
660.790958	0.439773
661.132503	0.440417
661.473996	0.437750
661.815438	0.438879
662.156829	0.438620
662.498168	0.439644
662.839456	0.440921
663.180693	0.438398
663.521879	0.438897
663.863013	0.439826
664.204097	0.438372
664.545129	0.435184
664.886110	0.435233
665.227040	0.433194
665.567918	0.435498
665.908746	0.433170
666.249522	0.432194
666.590248	0.434063
666.930922	0.432491
667.271545	0.430813
667.612118	0.431139
667.952639	0.432858
668.293109	0.431778
668.633528	0.434087
668.973896	0.434261
669.314213	0.434140
669.654480	0.436206
669.994695	0.436749
670.334859	0.437518
670.674973	0.437395
671.015035	0.437743
671.355047	0.437400
671.695008	0.438763
672.034918	0.440622
672.374777	0.439583
672.714585	0.441341
673.054342	0.440840
673.394049	0.441335
673.733705	0.438639
674.073310	0.440065
674.412864	0.442842
674.752368	0.443796
675.091820	0.443614
675.431223	0.448140
675.770574	0.448025
676.109875	0.451066
676.449125	0.450672
676.788324	0.453069
677.127473	0.458630
677.466571	0.458628
677.805619	0.460185
678.144616	0.461207
678.483562	0.462638
678.822458	0.465450
679.161303	0.466467
679.500098	0.466241
679.838842	0.468382
680.177535	0.467823
680.516179	0.466265
680.854771	0.465506
681.193314	0.458833
681.531805	0.450252
681.870247	0.438815
682.208638	0.431110
682.546978	0.430390
682.885268	0.431793
683.223508	0.438535
683.561697	0.441646
683.899836	0.444523
684.237925	0.447831
684.575963	0.450615
684.913951	0.453800
685.251889	0.449775
685.589776	0.451313
685.927614	0.453775
686.265401	0.447833
686.603137	0.449598
686.940824	0.443326
687.278460	0.441573
687.616046	0.441434
687.953582	0.436045
688.291068	0.437326
688.628504	0.433137
688.965889	0.435590
689.303224	0.439263
689.640510	0.443577
689.977745	0.449334
690.314930	0.457634
690.652065	0.461750
690.989150	0.468860
691.326185	0.475873
691.663170	0.479679
692.000105	0.487070
692.336990	0.494137
692.673825	0.496421
693.010610	0.503460
693.347345	0.509305
693.684030	0.510642
694.020665	0.515198
694.357251	0.523787
694.693786	0.523807
695.030272	0.527617
695.366707	0.531548
695.703093	0.534631
696.039429	0.532790
696.375716	0.534224
696.711952	0.536768
697.048139	0.538945
697.384276	0.540965
697.720363	0.538652
698.056400	0.538511
698.392388	0.543483
698.728326	0.546741
699.064214	0.549200
699.400053	0.550512
699.735842	0.553672
700.071581	0.556421
700.407270	0.559026
700.742910	0.561905
701.078501	0.568554
701.414042	0.568752
701.749533	0.571831
702.084974	0.580537
702.420366	0.572511
702.755709	0.580735
703.091002	0.588746
703.426246	0.582103
703.761440	0.587417
704.096584	0.592244
704.431679	0.589294
704.766725	0.590963
705.101721	0.593319
705.436668	0.588817
705.771565	0.596167
706.106413	0.592646
706.441212	0.588269
706.775961	0.586460
707.110661	0.590454
707.445311	0.586064
707.779913	0.583749
708.114465	0.582093
708.448967	0.578476
708.783421	0.570822
709.117825	0.565454
709.452180	0.565332
709.786485	0.559223
710.120742	0.549737
710.454949	0.551461
710.789107	0.543234
711.123216	0.534259
711.457275	0.535837
711.791286	0.527672
712.125247	0.526109
712.459159	0.536586
712.793023	0.529717
713.126837	0.533356
713.460602	0.533892
713.794318	0.543183
714.127985	0.542098
714.461602	0.551889
714.795171	0.555607
715.128691	0.562497
715.462162	0.570619
715.795584	0.575840
716.128957	0.578219
716.462281	0.586146
716.795556	0.588443
717.128782	0.593644
717.461960	0.603357
717.795088	0.601530
718.128167	0.608373
718.461198	0.616502
718.794180	0.617745
719.127113	0.619886
719.459997	0.623225
719.792833	0.629269
720.125619	0.631592
720.458357	0.637104
720.791046	0.636762
721.123686	0.640310
721.456278	0.646850
721.788821	0.644809
722.121315	0.648880
722.453761	0.652856
722.786158	0.650666
723.118506	0.646951
723.450805	0.654947
723.783056	0.651296
724.115259	0.648401
724.447412	0.647694
724.779518	0.649497
725.111574	0.648020
725.443582	0.644090
725.775542	0.645039
726.107453	0.637947
726.439315	0.638077
726.771129	0.635614
727.102895	0.629994
727.434612	0.622802
727.766281	0.620249
728.097901	0.620172
728.429473	0.619718
728.760996	0.618231
729.092471	0.617743
729.423897	0.621833
729.755276	0.621159
730.086606	0.621259
730.417887	0.615144
730.749120	0.606013
731.080305	0.597406
731.411442	0.593876
731.742530	0.597443
732.073570	0.597476
732.404562	0.588671
732.735506	0.591264
733.066401	0.595943
733.397249	0.604927
733.728048	0.616457
734.058798	0.628542
734.389501	0.639364
734.720156	0.649096
735.050762	0.657667
735.381320	0.658073
735.711831	0.667554
736.042293	0.671952
736.372707	0.668218
736.703073	0.672759
737.033391	0.675255
737.363661	0.671344
737.693883	0.666935
738.024056	0.665712
738.354182	0.666066
738.684260	0.656299
739.014290	0.651182
739.344272	0.652517
739.674207	0.645860
740.004093	0.645508
740.333931	0.646282
740.663722	0.645931
740.993464	0.646339
741.323159	0.650455
741.652806	0.655394
741.982405	0.659267
742.311956	0.665013
742.641460	0.666891
742.970915	0.670083
743.300323	0.678325
743.629683	0.683878
743.958996	0.686150
744.288260	0.690538
744.617477	0.696226
744.946647	0.697916
745.275768	0.703434
745.604842	0.702796
745.933869	0.712943
746.262847	0.713730
746.591778	0.707087
746.920662	0.713667
747.249498	0.720033
747.578286	0.711389
747.907027	0.706464
748.235720	0.708021
748.564365	0.702353
748.892963	0.702379
749.221514	0.705853
749.550017	0.710469
749.878473	0.710505
750.206881	0.717044
750.535242	0.717593
750.863555	0.716984
751.191821	0.718433
751.520039	0.722868
751.848210	0.726977
752.176334	0.719319
752.504411	0.718876
752.832440	0.727248
753.160421	0.731179
753.488356	0.728842
753.816243	0.725889
754.144082	0.735411
754.471875	0.738164
754.799620	0.732771
755.127318	0.734805
755.454969	0.734821
755.782572	0.733972
756.110129	0.739815
756.437638	0.741238
756.765100	0.737470
757.092515	0.736171
757.419882	0.734551
757.747203	0.740908
758.074477	0.740345
758.401703	0.737852
758.728882	0.732116
759.056014	0.731354
759.383099	0.729832
759.710138	0.731053
760.037129	0.727428
760.364073	0.722172
760.690970	0.723731
761.017820	0.729796
761.344623	0.725277
761.671379	0.716451
761.998088	0.704384
762.324751	0.682878
762.651366	0.641550
762.977935	0.574776
763.304456	0.522707
763.630931	0.513205
763.957359	0.552828
764.283740	0.596608
764.610074	0.623064
764.936362	0.652789
765.262602	0.680821
765.588796	0.702183
765.914943	0.720263
766.241044	0.737546
766.567097	0.743676
766.893104	0.753812
767.219064	0.759061
767.544978	0.766613
767.870845	0.779444
768.196665	0.783715
768.522438	0.780837
768.848165	0.782593
769.173846	0.791101
769.499479	0.796776
769.825066	0.798663
770.150607	0.804003
770.476101	0.800055
770.801548	0.800891
771.126949	0.813145
771.452303	0.815969
771.777611	0.814615
772.102872	0.814259
772.428087	0.819558
772.753256	0.822443
773.078378	0.824113
773.403453	0.834814
773.728482	0.837382
774.053465	0.831612
774.378401	0.835197
774.703291	0.844299
775.028135	0.843054
775.352932	0.844817
775.677683	0.848358
776.002388	0.849356
776.327046	0.847733
776.651658	0.850604
776.976224	0.855011
777.300743	0.855012
777.625216	0.856542
777.949643	0.859314
778.274024	0.858338
778.598359	0.859681
778.922647	0.858352
779.246889	0.859266
779.571086	0.863948
779.895236	0.866515
780.219339	0.862870
780.543397	0.859570
780.867409	0.858452
781.191374	0.859605
781.515294	0.861873
781.839167	0.860621
782.162995	0.863141
782.486776	0.860512
782.810511	0.861911
783.134201	0.865379
783.457844	0.863477
783.781441	0.865668
784.104993	0.872674
784.428498	0.872236
784.751958	0.867380
785.075372	0.870391
785.398739	0.873464
785.722061	0.870911
786.045337	0.865707
786.368568	0.871894
786.691752	0.874200
787.014891	0.858050
787.337983	0.850572
787.661030	0.842133
787.984031	0.826110
788.306987	0.813033
788.629897	0.815110
788.952760	0.818703
789.275579	0.822723
789.598351	0.838771
789.921078	0.851069
790.243759	0.853022
790.566395	0.858484
790.888984	0.865897
791.211529	0.870918
791.534027	0.873560
791.856480	0.875263
792.178888	0.880695
792.501249	0.883700
792.823566	0.884378
793.145836	0.884984
793.468062	0.886020
793.790241	0.885195
794.112375	0.884957
794.434464	0.879252
794.756507	0.879769
795.078505	0.878447
795.400457	0.873896
795.722364	0.862546
796.044226	0.854704
796.366042	0.854728
796.687812	0.857600
797.009538	0.852531
797.331218	0.856242
797.652852	0.861047
797.974442	0.866621
798.295986	0.864819
798.617484	0.868782
798.938938	0.872430
799.260346	0.877495
799.581709	0.879319
799.903026	0.881035
800.224299	0.881930
800.545526	0.885760
800.866708	0.890679
801.187845	0.893610
801.508936	0.893987
801.829983	0.892853
802.150984	0.893277
802.471940	0.898892
802.792851	0.898673
803.113717	0.899512
803.434538	0.897285
803.755314	0.899689
804.076045	0.900776
804.396731	0.901979
804.717372	0.901930
805.037967	0.903188
805.358518	0.900962
805.679024	0.898167
805.999485	0.898650
806.319901	0.899339
806.640272	0.899675
806.960598	0.898089
807.280879	0.894801
807.601115	0.893240
807.921306	0.897880
808.241453	0.897524
808.561554	0.895515
808.881611	0.895210
809.201623	0.896475
809.521590	0.897665
809.841513	0.898746
810.161390	0.897498
810.481223	0.898263
810.801011	0.903258
811.120755	0.904025
811.440453	0.903486
811.760107	0.901155
812.079716	0.901641
812.399281	0.904967
812.718801	0.907741
813.038276	0.908167
813.357707	0.908421
813.677093	0.904953
813.996434	0.908820
814.315731	0.909623
814.634983	0.909931
814.954191	0.909439
815.273354	0.905685
815.592473	0.903204
815.911547	0.903845
816.230577	0.900501
816.549562	0.898083
816.868502	0.898269
817.187399	0.895111
817.506250	0.889968
817.825058	0.891087
818.143821	0.888401
818.462539	0.884128
818.781213	0.874917
819.099843	0.864468
819.418429	0.849697
819.736970	0.832774
820.055466	0.812041
820.373919	0.788187
820.692327	0.754876
821.010691	0.720911
821.329011	0.644715
821.647286	0.532071
821.965517	0.418866
822.283704	0.376514
822.601847	0.378516
822.919945	0.413510
823.237999	0.446932
823.556010	0.492906
823.873976	0.547846
824.191897	0.597472
824.509775	0.639281
824.827609	0.684208
825.145398	0.706683
825.463144	0.709375
825.780845	0.692805
826.098502	0.674168
826.416116	0.628091
826.733685	0.586275
827.051210	0.577131
827.368692	0.592213
827.686129	0.628173
828.003522	0.679746
828.320872	0.726815
828.638177	0.771356
828.955439	0.802482
829.272656	0.824445
829.589830	0.840413
829.906960	0.856441
830.224046	0.868667
830.541088	0.878925
830.858086	0.883811
831.175041	0.889375
831.491952	0.888797
831.808819	0.885270
832.125642	0.878747
832.442421	0.864879
832.759157	0.843147
833.075849	0.797567
833.392497	0.734586
833.709101	0.694858
834.025662	0.704106
834.342179	0.735267
834.658653	0.774042
834.975083	0.809568
835.291469	0.834053
835.607811	0.856646
835.924110	0.873709
836.240366	0.888501
836.556578	0.903292
836.872746	0.910566
837.188871	0.915420
837.504952	0.921201
837.820990	0.924291
838.136984	0.929306
838.452935	0.931740
838.768842	0.933326
839.084706	0.926916
839.400526	0.901420
839.716303	0.861776
840.032037	0.839865
840.347727	0.843985
840.663373	0.861074
840.978977	0.883027
841.294537	0.903954
841.610054	0.918783
841.925527	0.927523
842.240957	0.933279
842.556344	0.941585
842.871687	0.946946
843.186987	0.951812
843.502244	0.951552
843.817458	0.952901
844.132629	0.956636
844.447756	0.962078
844.762840	0.961828
845.077881	0.960532
845.392879	0.960552
845.707833	0.963932
846.022745	0.965350
846.337613	0.966153
846.652438	0.966268
846.967221	0.965501
847.281960	0.965810
847.596656	0.969290
847.911309	0.966541
848.225919	0.968568
848.540485	0.969657
848.855009	0.969900
849.169490	0.969422
849.483928	0.970088
849.798323	0.969843
850.112675	0.970427
850.426984	0.970208
850.741251	0.971004
851.055474	0.970099
851.369654	0.968676
851.683792	0.970083
851.997887	0.970522
852.311938	0.970828
852.625947	0.971004
852.939914	0.968471
853.253837	0.970024
853.567718	0.972837
853.881555	0.971452
854.195350	0.968858
854.509103	0.970242
854.822812	0.971919
855.136479	0.971212
855.450103	0.970565
855.763685	0.970115
856.077224	0.970884
856.390720	0.971150
856.704173	0.972067
857.017584	0.969488
857.330953	0.966794
857.644278	0.968756
857.957561	0.970485
858.270802	0.969202
858.584000	0.968518
858.897155	0.967819
859.210268	0.968350
859.523339	0.968664
859.836367	0.971862
860.149352	0.971514
860.462295	0.969668
860.775195	0.970672
861.088054	0.970090
861.400869	0.970718
861.713642	0.971951
862.026373	0.971253
862.339062	0.970979
862.651708	0.968187
862.964312	0.968285
863.276873	0.970036
863.589392	0.969500
863.901869	0.967962
864.214303	0.966039
864.526696	0.965251
864.839045	0.964491
865.151353	0.964087
865.463619	0.963561
865.775842	0.963388
866.088023	0.963400
866.400162	0.963426
866.712258	0.963911
867.024313	0.964375
867.336325	0.964572
867.648296	0.964381
867.960224	0.964090
868.272110	0.962612
868.583954	0.964185
868.895755	0.966232
869.207515	0.962483
869.519233	0.960131
869.830909	0.962366
870.142542	0.964562
870.454134	0.963010
870.765684	0.961689
871.077191	0.959513
871.388657	0.960286
871.700081	0.959479
872.011463	0.958901
872.322803	0.959870
872.634101	0.958400
872.945357	0.955227
873.256571	0.954462
873.567744	0.953890
873.878874	0.955633
874.189963	0.953431
874.501010	0.953984
874.812015	0.951164
875.122979	0.952737
875.433900	0.954659
875.744780	0.955497
876.055618	0.952880
876.366415	0.951997
876.677169	0.951279
876.987882	0.954003
877.298554	0.952606
877.609183	0.950767
877.919771	0.946648
878.230317	0.944415
878.540822	0.942760
878.851285	0.937372
879.161707	0.929598
879.472087	0.918205
879.782425	0.901778
880.092722	0.868135
880.402977	0.817945
880.713191	0.758953
881.023363	0.702549
881.333494	0.668877
881.643583	0.641435
881.953631	0.640568
882.263637	0.669280
882.573602	0.708892
882.883526	0.734133
883.193408	0.756263
883.503248	0.777449
883.813048	0.804366
884.122806	0.832471
884.432522	0.855841
884.742197	0.875289
885.051831	0.885612
885.361424	0.894458
885.670975	0.906775
885.980485	0.917152
886.289954	0.921671
886.599382	0.927584
886.908768	0.930724
887.218113	0.937341
887.527417	0.941815
887.836680	0.944346
888.145901	0.945879
888.455082	0.948073
888.764221	0.952491
889.073319	0.953776
889.382376	0.955351
889.691392	0.955446
890.000366	0.954843
890.309300	0.956288
890.618193	0.954850
890.927044	0.952833
891.235855	0.953420
891.544625	0.953324
891.853353	0.954026
892.162041	0.951369
892.470687	0.944453
892.779293	0.940140
893.087858	0.936510
893.396381	0.929130
893.704864	0.916386
894.013306	0.893786
894.321707	0.867068
894.630068	0.852817
894.938387	0.849884
895.246665	0.849905
895.554903	0.862305
895.863100	0.875150
896.171256	0.890506
896.479371	0.910188
896.787446	0.922786
897.095480	0.927799
897.403473	0.930768
897.711425	0.935002
898.019336	0.943544
898.327207	0.945042
898.635038	0.947673
898.942827	0.947506
899.250576	0.951001
899.558284	0.952959
899.865952	0.956497
900.173579	0.957473
900.481165	0.957910
900.788711	0.961425
901.096216	0.962890
901.403681	0.963047
901.711105	0.964258
902.018489	0.966645
902.325832	0.963887
902.633135	0.963227
902.940397	0.957840
903.247619	0.945729
903.554800	0.920717
903.861941	0.883278
904.169041	0.850217
904.476101	0.833166
904.783121	0.833704
905.090100	0.848737
905.397039	0.869311
905.703938	0.890880
906.010796	0.909323
906.317614	0.926004
906.624391	0.937147
906.931129	0.946331
907.237826	0.953780
907.544483	0.962126
907.851099	0.964080
908.157675	0.968664
908.464211	0.971673
908.770707	0.974843
909.077163	0.975321
909.383578	0.975266
909.689954	0.975485
909.996289	0.976200
910.302584	0.979166
910.608839	0.979594
910.915054	0.979927
911.221229	0.977732
911.527363	0.977258
911.833458	0.978390
912.139513	0.978602
912.445527	0.976162
912.751502	0.975382
913.057436	0.973205
913.363331	0.972081
913.669186	0.967875
913.975000	0.963089
914.280775	0.957476
914.586510	0.950651
914.892205	0.938277
915.197859	0.919026
915.503475	0.891717
915.809050	0.873001
916.114585	0.868673
916.420081	0.866705
916.725536	0.862970
917.030952	0.869986
917.336328	0.882850
917.641665	0.897130
917.946961	0.911740
918.252218	0.923703
918.557435	0.931720
918.862612	0.939290
919.167750	0.945767
919.472848	0.949680
919.777906	0.954144
920.082925	0.960406
920.387904	0.963814
920.692843	0.965425
920.997743	0.965127
921.302603	0.969120
921.607423	0.970345
921.912204	0.974236
922.216946	0.972899
922.521647	0.975316
922.826310	0.976080
923.130932	0.978181
923.435516	0.979135
923.740059	0.981409
924.044564	0.979590
924.349028	0.982260
924.653454	0.982731
924.957840	0.986282
925.262186	0.986266
925.566493	0.984220
925.870761	0.985442
926.174989	0.986467
926.479178	0.989101
926.783328	0.989026
927.087438	0.988738
927.391509	0.987737
927.695541	0.991161
927.999533	0.989313
928.303486	0.990235
928.607400	0.992476
928.911275	0.989387
929.215110	0.990390
929.518906	0.991687
929.822663	0.989640
930.126381	0.991839
930.430060	0.990705
930.733699	0.990944
931.037299	0.990049
931.340861	0.990567
931.644383	0.991303
931.947866	0.989049
932.251309	0.991730
932.554714	0.991323
932.858080	0.990096
933.161407	0.989559
933.464694	0.991553
933.767943	0.990251
934.071153	0.990974
934.374323	0.992052
934.677455	0.991754
934.980548	0.991596
935.283602	0.991689
935.586617	0.991502
935.889593	0.990912
936.192530	0.990402
936.495428	0.992016
936.798287	0.991084
937.101108	0.990748
937.403890	0.988421
937.706632	0.990215
938.009336	0.987998
938.312002	0.986538
938.614628	0.985115
938.917216	0.984405
939.219765	0.983292
939.522275	0.984427
939.824747	0.983375
940.127179	0.984729
940.429573	0.986630
940.731929	0.984318
941.034246	0.984767
941.336524	0.986171
941.638763	0.988072
941.940964	0.986926
942.243126	0.986861
942.545250	0.987742
942.847335	0.988648
943.149381	0.988211
943.451389	0.989574
943.753359	0.988454
944.055290	0.991386
944.357182	0.989958
944.659036	0.989090
944.960851	0.990405
945.262628	0.991085
945.564367	0.991691
945.866067	0.991230
946.167729	0.990810
946.469352	0.990656
946.770937	0.990203
947.072484	0.991227
947.373992	0.990143
947.675462	0.990422
947.976893	0.991149
948.278286	0.990944
948.579641	0.991437
948.880958	0.991183
949.182236	0.991818
949.483476	0.992070
949.784678	0.990873
950.085841	0.991361
950.386967	0.992597
950.688054	0.991328
950.989103	0.991490
951.290114	0.990345
951.591087	0.989737
951.892021	0.990340
952.192917	0.988639
952.493776	0.988869
952.794596	0.988588
953.095378	0.988444
953.396122	0.988671
953.696828	0.988787
953.997496	0.989051
954.298126	0.991523
954.598718	0.990723
954.899272	0.992008
955.199788	0.990945
955.500266	0.993535
955.800706	0.993906
956.101108	0.993432
956.401472	0.994063
956.701798	0.993960
957.002087	0.993216
957.302337	0.993577
957.602550	0.996519
957.902724	0.995342
958.202861	0.995283
958.502960	0.995506
958.803022	0.993028
959.103045	0.995727
959.403031	0.996701
959.702979	0.994734
960.002889	0.996310
960.302762	0.995085
960.602596	0.996102
960.902393	0.994671
961.202153	0.996791
961.501875	0.996131
961.801559	0.995899
962.101205	0.995972
962.400814	0.997124
962.700385	0.996963
962.999918	0.996536
963.299414	0.996389
963.598873	0.995896
963.898293	0.996207
964.197677	0.995773
964.497022	0.997377
964.796331	0.998110
965.095601	0.997054
965.394835	0.996919
965.694030	0.995568
965.993189	0.996953
966.292309	0.996348
966.591393	0.997597
966.890439	0.996811
967.189447	0.996894
967.488419	0.996260
967.787353	0.996572
968.086249	0.996715
968.385108	0.996968
968.683930	0.996685
968.982714	0.997855
969.281462	0.997337
969.580172	0.996443
969.878844	0.997096
970.177480	0.996169
970.476078	0.997878
970.774639	0.997204
971.073162	0.996993
971.371649	0.995998
971.670098	0.997625
971.968510	0.997777
972.266885	0.995334
972.565223	0.995683
972.863524	0.995834
973.161788	0.995449
973.460014	0.998148
973.758204	0.995820
974.056356	0.996151
974.354471	0.994836
974.652550	0.996019
974.950591	0.996598
975.248595	0.995567
975.546563	0.995787
975.844493	0.998506
976.142386	0.996654
976.440243	0.997004
976.738062	0.998006
977.035845	0.998389
977.333590	0.997700
977.631299	0.997338
977.928971	0.995530
978.226606	0.996278
978.524204	0.995778
978.821765	0.997519
979.119290	0.997083
979.416777	0.996553
979.714228	0.997319
980.011642	0.995878
980.309020	0.997555
980.606360	0.996366
980.903664	0.998430
981.200931	0.996079
981.498162	0.995085
981.795356	0.995807
982.092513	0.994605
982.389633	0.994818
982.686717	0.991996
982.983764	0.991910
983.280775	0.990034
983.577749	0.991481
983.874686	0.991025
984.171587	0.991507
984.468451	0.994861
984.765279	0.995255
985.062070	0.993836
985.358824	0.995877
985.655543	0.995357
985.952224	0.996041
986.248869	0.995084
986.545478	0.997707
986.842050	0.999327
987.138586	0.996366
987.435086	0.997237
987.731549	0.998149
988.027975	0.997626
988.324366	0.997115
988.620719	0.997690
988.917037	0.996960
989.213318	0.998047
989.509563	0.999031
989.805772	0.998929
990.101944	0.998829
990.398080	0.997077
990.694180	0.997780
990.990244	0.998224
991.286271	0.997261
991.582262	0.998586
991.878217	0.997987
992.174136	0.998324
992.470019	0.997553
992.765865	0.998083
993.061676	0.998222
993.357450	0.997477
993.653188	0.997153
993.948890	0.996890
994.244556	0.997684
994.540186	0.997732
994.835780	0.996604
995.131337	0.998263
995.426859	0.995491
995.722345	0.998160
996.017795	0.996538
996.313208	0.996230
996.608586	0.995643
996.903928	0.996808
997.199234	0.996592
997.494504	0.996856
997.789738	0.996010
998.084936	0.996591
998.380099	0.998382
998.675225	0.997818
998.970316	0.997457
999.265371	0.998044
999.560390	0.998583
999.855373	0.998060
1000.150320	0.998624
1000.445232	0.997685
1000.740108	0.998314
1001.034948	0.997327
1001.329752	0.999864
1001.624521	0.998892
1001.919254	0.998768
1002.213951	0.997570
1002.508613	0.997858
1002.803239	0.998604
1003.097829	0.999234
1003.392384	0.998676
1003.686903	0.999119
1003.981386	0.998391
1004.275834	0.999396
1004.570246	0.998878
1004.864623	0.999891
1005.158964	0.998347
1005.453270	0.998505
1005.747540	0.997158
1006.041775	0.998920
1006.335974	1.000097
1006.630138	1.000213
1006.924266	0.998783
1007.218359	1.000569
1007.512416	0.998032
1007.806438	0.999134
1008.100425	0.999628
1008.394376	0.998705
1008.688292	0.998850
1008.982172	1.000264
1009.276017	0.998986
1009.569827	0.998843
1009.863602	0.998829
1010.157341	0.998853
1010.451045	0.999679
1010.744714	0.999322
1011.038347	0.999116
1011.331945	0.999095
1011.625508	0.997612
1011.919036	0.998530
1012.212528	0.999352
1012.505986	0.997393
1012.799408	0.998787
1013.092795	0.999185
1013.386147	0.998658
1013.679464	0.999070
1013.972745	0.998241
1014.265992	0.997614
1014.559204	0.999513
1014.852380	0.999365
1015.145521	0.998596
1015.438628	0.999606
1015.731699	0.998138
1016.024736	0.998761
1016.317737	0.998359
1016.610703	0.998478
1016.903635	0.999793
1017.196531	0.998691
1017.489393	0.999210
1017.782219	0.999491
1018.075011	0.998757
1018.367768	0.998249
1018.660490	0.999974
1018.953177	0.999974
1019.245829	0.999974
