Dividing Wavelength (nm)	Counts (n)	Blue Motor Position (mm): 0.000000	Red Motor Position (mm): 41.200000	
326.493990	1.001217
326.888308	1.001217
327.282561	1.001217
327.676750	1.000358
328.070874	0.998856
328.464933	1.000216
328.858929	0.998795
329.252859	1.000501
329.646726	0.999625
330.040528	0.999867
330.434265	0.999521
330.827938	1.001301
331.221547	1.000627
331.615091	1.000397
332.008571	1.000089
332.401986	1.001382
332.795338	1.000616
333.188625	0.998454
333.581847	1.000686
333.975006	0.999381
334.368100	0.999842
334.761129	1.000241
335.154095	1.001341
335.546996	0.999110
335.939833	0.998023
336.332606	0.997153
336.725315	0.997796
337.117960	0.998974
337.510540	0.997020
337.903056	0.998445
338.295508	0.996923
338.687896	0.998344
339.080220	0.997852
339.472480	0.997922
339.864676	0.997642
340.256807	0.997562
340.648875	0.997428
341.040879	0.997848
341.432818	0.998420
341.824694	0.998121
342.216506	0.998260
342.608253	0.998366
342.999937	0.997946
343.391557	0.997391
343.783113	0.996548
344.174605	0.998707
344.566033	0.997912
344.957397	0.996584
345.348697	0.997419
345.739934	0.998058
346.131106	0.997767
346.522215	0.997237
346.913260	0.997779
347.304241	0.998286
347.695159	0.997354
348.086012	0.995716
348.476802	0.998201
348.867528	0.997989
349.258191	0.997424
349.648789	0.997938
350.039324	0.998342
350.429796	0.999111
350.820203	0.998805
351.210548	0.997303
351.600828	0.997274
351.991045	0.997737
352.381198	0.996859
352.771288	0.997421
353.161314	0.996893
353.551276	0.998848
353.941175	0.996946
354.331010	0.997798
354.720782	0.997751
355.110490	0.997749
355.500135	0.998121
355.889717	0.995695
356.279235	0.998313
356.668689	0.997423
357.058080	0.998266
357.447408	0.998333
357.836672	0.999025
358.225873	0.998633
358.615010	0.999400
359.004084	0.999200
359.393095	0.999142
359.782043	0.998562
360.170927	0.999274
360.559748	0.998756
360.948505	0.997959
361.337199	0.997133
361.725830	0.998136
362.114398	0.997971
362.502903	0.998595
362.891344	0.998686
363.279722	0.997313
363.668037	0.999168
364.056289	0.998076
364.444478	0.998605
364.832603	0.998497
365.220665	0.997296
365.608665	0.999031
365.996601	0.997828
366.384474	0.998865
366.772284	0.997645
367.160031	0.997646
367.547715	0.995903
367.935336	0.998326
368.322893	0.999014
368.710388	0.997129
369.097820	0.997474
369.485189	0.997526
369.872495	0.997238
370.259738	0.996393
370.646918	0.998379
371.034035	0.998078
371.421090	0.997652
371.808081	0.997915
372.195010	0.997495
372.581875	0.997710
372.968678	0.997750
373.355418	0.998258
373.742096	0.997592
374.128710	0.998853
374.515262	0.997987
374.901751	0.998249
375.288177	0.997949
375.674540	0.999719
376.060841	0.997887
376.447079	0.997812
376.833254	0.998096
377.219367	0.998723
377.605417	0.998844
377.991404	0.999043
378.377329	0.998232
378.763191	0.998054
379.148991	0.999453
379.534727	0.998634
379.920402	0.998188
380.306013	0.998669
380.691563	0.998004
381.077049	0.997967
381.462474	0.998367
381.847835	0.999960
382.233134	0.998565
382.618371	0.999355
383.003545	0.997698
383.388657	0.997862
383.773706	0.999302
384.158693	0.998778
384.543618	0.998898
384.928480	0.999068
385.313280	0.998649
385.698017	0.999342
386.082692	0.998760
386.467305	0.998290
386.851856	0.998134
387.236344	0.998562
387.620770	0.998045
388.005133	0.998539
388.389435	0.999735
388.773674	0.998466
389.157851	0.998470
389.541965	0.999501
389.926018	0.998729
390.310008	1.000066
390.693936	0.998425
391.077802	0.999238
391.461606	0.999348
391.845348	0.999243
392.229027	0.999613
392.612645	0.998960
392.996200	0.999949
393.379694	0.999211
393.763125	0.999603
394.146494	1.000128
394.529801	0.998236
394.913047	1.000149
395.296230	1.000314
395.679351	0.999259
396.062410	0.997962
396.445408	0.999156
396.828343	0.998113
397.211217	0.999009
397.594028	0.999818
397.976778	0.998392
398.359466	0.999919
398.742092	0.998267
399.124656	0.999060
399.507158	0.998629
399.889598	0.999260
400.271977	0.999299
400.654294	0.999752
401.036549	1.000067
401.418742	1.000223
401.800874	0.998757
402.182944	0.998997
402.564952	0.997659
402.946898	0.999267
403.328783	0.999201
403.710606	0.999106
404.092367	0.999517
404.474067	0.999568
404.855705	0.999198
405.237282	0.999272
405.618797	0.999549
406.000250	0.998893
406.381642	0.999667
406.762972	0.999449
407.144240	0.999097
407.525447	0.999954
407.906593	0.999166
408.287677	0.999155
408.668700	0.999525
409.049661	0.998273
409.430560	1.000453
409.811399	0.999013
410.192176	0.998622
410.572891	0.999222
410.953545	0.999621
411.334138	0.998594
411.714669	1.000185
412.095139	0.999397
412.475547	1.000411
412.855894	0.998567
413.236180	0.999632
413.616405	0.999387
413.996568	1.000834
414.376670	0.999016
414.756711	0.999309
415.136691	1.000092
415.516609	0.999261
415.896466	0.999672
416.276262	0.998396
416.655997	0.999802
417.035670	0.999265
417.415283	0.999368
417.794834	0.999169
418.174324	0.998965
418.553753	0.999660
418.933121	0.999656
419.312428	0.999035
419.691674	0.998669
420.070859	1.000158
420.449983	0.999257
420.829045	1.000287
421.208047	0.999819
421.586988	1.000050
421.965867	0.999167
422.344686	1.000495
422.723444	0.999289
423.102141	0.999918
423.480777	0.999717
423.859352	0.998879
424.237866	0.998831
424.616319	0.999409
424.994712	0.999349
425.373044	0.999948
425.751314	0.999526
426.129524	0.999218
426.507673	0.999611
426.885762	1.000080
427.263789	0.999575
427.641756	0.999975
428.019662	1.000606
428.397508	0.999024
428.775292	0.998447
429.153016	0.999862
429.530679	1.000269
429.908282	0.999998
430.285824	0.999182
430.663305	0.999475
431.040726	0.999694
431.418086	1.001530
431.795385	1.000348
432.172624	0.998848
432.549802	0.999303
432.926920	0.999784
433.303977	0.999249
433.680974	0.999896
434.057910	0.999566
434.434786	1.000304
434.811601	0.999856
435.188355	0.999234
435.565050	0.999355
435.941683	0.998947
436.318257	0.999903
436.694770	0.998970
437.071222	1.000318
437.447614	0.999662
437.823946	1.000034
438.200218	0.999626
438.576429	1.000282
438.952580	1.000367
439.328670	0.998786
439.704700	1.000184
440.080670	0.999765
440.456580	0.998582
440.832429	0.998497
441.208218	0.999648
441.583947	0.999331
441.959616	1.000220
442.335224	1.000140
442.710773	1.000548
443.086261	0.999480
443.461689	0.998977
443.837057	0.999409
444.212365	1.000174
444.587612	0.999639
444.962800	0.999549
445.337927	0.999660
445.712995	1.000356
446.088002	1.000370
446.462949	1.000199
446.837837	0.999989
447.212664	1.000069
447.587431	1.000172
447.962139	0.999799
448.336786	0.999424
448.711374	1.000404
449.085901	0.999157
449.460369	1.000296
449.834776	0.999117
450.209124	1.000115
450.583412	0.999879
450.957640	1.000130
451.331808	0.999385
451.705917	0.999579
452.079965	0.999099
452.453954	0.999729
452.827883	0.999897
453.201752	0.999338
453.575562	0.999605
453.949311	0.999461
454.323001	0.999986
454.696632	1.000029
455.070202	1.000099
455.443713	0.999305
455.817164	0.999498
456.190556	0.999522
456.563888	0.999662
456.937160	0.999635
457.310373	0.998707
457.683526	0.999741
458.056619	0.999194
458.429653	0.999736
458.802628	0.999045
459.175542	0.999248
459.548398	0.999162
459.921194	0.999665
460.293930	0.999927
460.666607	0.999153
461.039224	0.998425
461.411782	1.000088
461.784280	0.999051
462.156719	1.000455
462.529099	0.999323
462.901419	1.000028
463.273680	0.998973
463.645882	0.999795
464.018024	1.000715
464.390106	0.999216
464.762130	0.999902
465.134094	0.999702
465.505999	1.000234
465.877845	0.999651
466.249631	1.000035
466.621358	0.999732
466.993026	0.998926
467.364634	1.000000
467.736184	1.000276
468.107674	0.999563
468.479105	0.999582
468.850477	0.999550
469.221790	0.999964
469.593043	0.999162
469.964238	1.000537
470.335373	0.999806
470.706449	0.999797
471.077467	1.000029
471.448425	0.999727
471.819324	0.999854
472.190164	0.999194
472.560945	0.999900
472.931667	0.999552
473.302330	0.999217
473.672934	0.999649
474.043479	0.999842
474.413965	0.999060
474.784393	1.000103
475.154761	0.999843
475.525070	0.999335
475.895321	0.999849
476.265513	1.000032
476.635645	0.999696
477.005719	1.000214
477.375734	0.999898
477.745691	1.000142
478.115588	0.999698
478.485427	1.000120
478.855207	0.999732
479.224928	0.999527
479.594591	0.999736
479.964194	1.000181
480.333739	1.000317
480.703226	0.999499
481.072653	1.000880
481.442022	1.000348
481.811333	0.999056
482.180584	0.999862
482.549777	0.999272
482.918912	1.000282
483.287988	0.999273
483.657005	0.999736
484.025964	1.000821
484.394864	1.000430
484.763706	1.000100
485.132489	1.000070
485.501213	0.999884
485.869879	1.000606
486.238487	1.000257
486.607036	0.999711
486.975527	0.999518
487.343959	0.999863
487.712333	0.999362
488.080648	1.000192
488.448905	0.999603
488.817104	1.000093
489.185244	1.000057
489.553326	1.000002
489.921350	0.999957
490.289315	0.999691
490.657222	0.999828
491.025070	1.000231
491.392861	1.000623
491.760593	1.000133
492.128267	0.999415
492.495883	0.999396
492.863440	0.999964
493.230939	1.000059
493.598380	0.999968
493.965763	0.999411
494.333088	1.000678
494.700354	0.999406
495.067563	0.999581
495.434713	0.999078
495.801805	0.999865
496.168839	1.000127
496.535815	0.999225
496.902733	0.999331
497.269593	0.999467
497.636395	1.000120
498.003139	1.000121
498.369825	1.000515
498.736453	0.999566
499.103023	0.998756
499.469535	0.999513
499.835989	1.000203
500.202385	1.000003
500.568723	1.000129
500.935003	1.000317
501.301226	1.000123
501.667390	0.999889
502.033497	0.999795
502.399546	1.000400
502.765537	0.999636
503.131470	1.000104
503.497345	0.999510
503.863163	1.000842
504.228923	0.999580
504.594625	0.999595
504.960269	0.999762
505.325856	0.999753
505.691385	0.999643
506.056856	0.999708
506.422270	0.999592
506.787625	1.000503
507.152924	0.999454
507.518164	0.999312
507.883347	0.999947
508.248472	0.999699
508.613540	0.999972
508.978550	1.000059
509.343503	0.999125
509.708398	0.999834
510.073236	0.999733
510.438016	1.000667
510.802738	0.999778
511.167403	1.000198
511.532010	0.999744
511.896561	0.999299
512.261053	1.000137
512.625488	0.999547
512.989866	0.999993
513.354186	0.999236
513.718449	0.999892
514.082655	0.999416
514.446803	0.999533
514.810894	0.999554
515.174927	0.999069
515.538904	0.999981
515.902822	0.999651
516.266684	0.999605
516.630488	1.000177
516.994235	0.999475
517.357925	0.999189
517.721558	0.999761
518.085133	0.998894
518.448651	1.000439
518.812112	0.999803
519.175516	0.998575
519.538863	0.999613
519.902152	0.998926
520.265385	0.999739
520.628560	0.999476
520.991678	1.000021
521.354739	0.999846
521.717743	0.999537
522.080690	0.999401
522.443580	0.999166
522.806413	0.999801
523.169189	0.999358
523.531908	0.998783
523.894569	0.999417
524.257174	0.999837
524.619722	0.999694
524.982213	0.999826
525.344647	0.999915
525.707025	0.999424
526.069345	0.998485
526.431608	0.998989
526.793815	0.999191
527.155964	0.999200
527.518057	0.999149
527.880093	0.999617
528.242072	0.998777
528.603995	0.999007
528.965860	0.999946
529.327669	0.998280
529.689421	0.998989
530.051117	0.999365
530.412755	0.998879
530.774337	0.999195
531.135862	0.999072
531.497331	0.999056
531.858743	0.999099
532.220098	0.999034
532.581396	0.999063
532.942638	0.999394
533.303824	0.998870
533.664953	0.998821
534.026025	0.998676
534.387040	0.998390
534.747999	0.998912
535.108902	0.999098
535.469748	0.998040
535.830537	0.998584
536.191270	0.998506
536.551947	0.998562
536.912567	0.998783
537.273131	0.999108
537.633638	0.998499
537.994089	0.998367
538.354483	0.998406
538.714821	0.998165
539.075103	0.998418
539.435328	0.999045
539.795497	0.998491
540.155609	0.997368
540.515665	0.998590
540.875665	0.998047
541.235609	0.998912
541.595496	0.998221
541.955328	0.997440
542.315102	0.998550
542.674821	0.998182
543.034483	0.997734
543.394090	0.997461
543.753640	0.998104
544.113134	0.998400
544.472571	0.998796
544.831953	0.998481
545.191278	0.998081
545.550548	0.998777
545.909761	0.997021
546.268918	0.998500
546.628019	0.998373
546.987064	0.997434
547.346053	0.998100
547.704986	0.998451
548.063863	0.998125
548.422684	0.997644
548.781449	0.998386
549.140158	0.997549
549.498811	0.998122
549.857408	0.997682
550.215949	0.997707
550.574434	0.997401
550.932864	0.997292
551.291237	0.998690
551.649555	0.998242
552.007817	0.997644
552.366022	0.997510
552.724173	0.998209
553.082267	0.998323
553.440305	0.997158
553.798288	0.998126
554.156215	0.997568
554.514086	0.998270
554.871902	0.998221
555.229661	0.998359
555.587365	0.997702
555.945014	0.998271
556.302606	0.997876
556.660143	0.997973
557.017625	0.997607
557.375050	0.997784
557.732421	0.998046
558.089735	0.998032
558.446994	0.998258
558.804197	0.998412
559.161345	0.998603
559.518437	0.998590
559.875474	0.997751
560.232455	0.997925
560.589381	0.998124
560.946251	0.997373
561.303065	0.998095
561.659825	0.997914
562.016528	0.997453
562.373177	0.997885
562.729770	0.997096
563.086307	0.997687
563.442789	0.997933
563.799216	0.997574
564.155587	0.997283
564.511904	0.997186
564.868164	0.997263
565.224370	0.997799
565.580520	0.997647
565.936615	0.997493
566.292654	0.997113
566.648638	0.997620
567.004567	0.996877
567.360441	0.998042
567.716260	0.998032
568.072023	0.997427
568.427732	0.996889
568.783385	0.997750
569.138982	0.997581
569.494525	0.997177
569.850013	0.997415
570.205445	0.997276
570.560823	0.997233
570.916145	0.996305
571.271412	0.996870
571.626625	0.996777
571.981782	0.996662
572.336884	0.997457
572.691931	0.997130
573.046923	0.996519
573.401860	0.997134
573.756743	0.996844
574.111570	0.996506
574.466342	0.996987
574.821059	0.997012
575.175722	0.996590
575.530330	0.996873
575.884882	0.995899
576.239380	0.996982
576.593823	0.996369
576.948211	0.996311
577.302544	0.996033
577.656823	0.996806
578.011047	0.996250
578.365216	0.995353
578.719330	0.995783
579.073389	0.995844
579.427394	0.995792
579.781344	0.996266
580.135239	0.995845
580.489080	0.995267
580.842866	0.995423
581.196597	0.995034
581.550273	0.994716
581.903895	0.994751
582.257463	0.994884
582.610975	0.994383
582.964434	0.994970
583.317837	0.994950
583.671186	0.994348
584.024481	0.994541
584.377721	0.993920
584.730906	0.993671
585.084037	0.993669
585.437113	0.994032
585.790135	0.993060
586.143103	0.992359
586.496016	0.994461
586.848874	0.992758
587.201679	0.993074
587.554428	0.992277
587.907124	0.991462
588.259765	0.991698
588.612352	0.992308
588.964884	0.991465
589.317362	0.992034
589.669786	0.991187
590.022155	0.991735
590.374470	0.990279
590.726731	0.990747
591.078937	0.989816
591.431090	0.989430
591.783188	0.989313
592.135232	0.990041
592.487222	0.989704
592.839157	0.988505
593.191038	0.989018
593.542866	0.988424
593.894639	0.987948
594.246358	0.987189
594.598022	0.987274
594.949633	0.986769
595.301190	0.986231
595.652692	0.986620
596.004141	0.986609
596.355535	0.985386
596.706876	0.984341
597.058162	0.984974
597.409395	0.985192
597.760573	0.984714
598.111698	0.983886
598.462768	0.983231
598.813785	0.982079
599.164748	0.982579
599.515657	0.981906
599.866511	0.981331
600.217312	0.980139
600.568060	0.980064
600.918753	0.979734
601.269392	0.979673
601.619978	0.978754
601.970510	0.978215
602.320988	0.977882
602.671412	0.976275
603.021783	0.976559
603.372100	0.976879
603.722363	0.975965
604.072572	0.974280
604.422728	0.974627
604.772830	0.972885
605.122878	0.973032
605.472872	0.971956
605.822813	0.969899
606.172701	0.969723
606.522534	0.969831
606.872314	0.969215
607.222041	0.967252
607.571714	0.966872
607.921333	0.965781
608.270899	0.964719
608.620411	0.964937
608.969870	0.963501
609.319276	0.961948
609.668627	0.961434
610.017926	0.960275
610.367171	0.958581
610.716362	0.957538
611.065500	0.956205
611.414585	0.955656
611.763616	0.953790
612.112594	0.953230
612.461518	0.952003
612.810389	0.951697
613.159207	0.951063
613.507971	0.949082
613.856682	0.947485
614.205340	0.946440
614.553945	0.943475
614.902496	0.942897
615.250994	0.941643
615.599439	0.940511
615.947830	0.939104
616.296169	0.937045
616.644454	0.935494
616.992686	0.934009
617.340864	0.932018
617.688990	0.930789
618.037063	0.929336
618.385082	0.927676
618.733048	0.925230
619.080961	0.924729
619.428821	0.923193
619.776628	0.920556
620.124382	0.919093
620.472083	0.916885
620.819731	0.916951
621.167326	0.915766
621.514868	0.914295
621.862357	0.913430
622.209793	0.912347
622.557176	0.910037
622.904506	0.909996
623.251783	0.908065
623.599007	0.907398
623.946179	0.906684
624.293297	0.904567
624.640363	0.904358
624.987376	0.902396
625.334336	0.902806
625.681243	0.900017
626.028097	0.899029
626.374899	0.897913
626.721647	0.895383
627.068343	0.895461
627.414987	0.892614
627.761577	0.891785
628.108115	0.889621
628.454600	0.889340
628.801032	0.885470
629.147412	0.885952
629.493739	0.882599
629.840014	0.881825
630.186236	0.880078
630.532405	0.878082
630.878521	0.875947
631.224585	0.874237
631.570597	0.874100
631.916556	0.871002
632.262462	0.869992
632.608316	0.867763
632.954117	0.865463
633.299866	0.864621
633.645562	0.862962
633.991206	0.861623
634.336797	0.861482
634.682336	0.859348
635.027823	0.858198
635.373257	0.857065
635.718639	0.855875
636.063968	0.853726
636.409245	0.853256
636.754470	0.851522
637.099642	0.850531
637.444762	0.848799
637.789829	0.847289
638.134845	0.845401
638.479808	0.844186
638.824719	0.842535
639.169577	0.841620
639.514383	0.839367
639.859137	0.838483
640.203839	0.837799
640.548489	0.834696
640.893086	0.833677
641.237632	0.832093
641.582125	0.829368
641.926566	0.828060
642.270955	0.826211
642.615292	0.824343
642.959576	0.821635
643.303809	0.820337
643.647990	0.817627
643.992118	0.816721
644.336195	0.815905
644.680219	0.812596
645.024192	0.812363
645.368112	0.807373
645.711981	0.805024
646.055797	0.801616
646.399562	0.799456
646.743274	0.794617
647.086935	0.792388
647.430544	0.790461
647.774101	0.787586
648.117606	0.786175
648.461059	0.783959
648.804460	0.782647
649.147810	0.783421
649.491108	0.781814
649.834354	0.780510
650.177548	0.780789
650.520690	0.780375
650.863781	0.778696
651.206820	0.777131
651.549807	0.776888
651.892742	0.776717
652.235626	0.774719
652.578458	0.772464
652.921238	0.773368
653.263967	0.771164
653.606644	0.771579
653.949269	0.768063
654.291843	0.768220
654.634365	0.765529
654.976836	0.764229
655.319255	0.762903
655.661622	0.761391
656.003938	0.758746
656.346203	0.760028
656.688416	0.756213
657.030577	0.756603
657.372687	0.754786
657.714746	0.753763
658.056753	0.750215
658.398708	0.749376
658.740612	0.749943
659.082465	0.745185
659.424266	0.744201
659.766016	0.741508
660.107715	0.739568
660.449362	0.738474
660.790958	0.736659
661.132503	0.734559
661.473996	0.730986
661.815438	0.730680
662.156829	0.729654
662.498168	0.727159
662.839456	0.726781
663.180693	0.723831
663.521879	0.722040
663.863013	0.721789
664.204097	0.717790
664.545129	0.714861
664.886110	0.712514
665.227040	0.709066
665.567918	0.710555
665.908746	0.706315
666.249522	0.704294
666.590248	0.705375
666.930922	0.702444
667.271545	0.699205
667.612118	0.697770
667.952639	0.697903
668.293109	0.694037
668.633528	0.694807
668.973896	0.693515
669.314213	0.691017
669.654480	0.689743
669.994695	0.688582
670.334859	0.687822
670.674973	0.685278
671.015035	0.683965
671.355047	0.682100
671.695008	0.681306
672.034918	0.681034
672.374777	0.678972
672.714585	0.678905
673.054342	0.677445
673.394049	0.675970
673.733705	0.672349
674.073310	0.670614
674.412864	0.673047
674.752368	0.670574
675.091820	0.669612
675.431223	0.670850
675.770574	0.668539
676.109875	0.669452
676.449125	0.666475
676.788324	0.666114
677.127473	0.668843
677.466571	0.666408
677.805619	0.665353
678.144616	0.664429
678.483562	0.663529
678.822458	0.664114
679.161303	0.663153
679.500098	0.661688
679.838842	0.662172
680.177535	0.660335
680.516179	0.658526
680.854771	0.656236
681.193314	0.650909
681.531805	0.644683
681.870247	0.635475
682.208638	0.629837
682.546978	0.627703
682.885268	0.626364
683.223508	0.629356
683.561697	0.630100
683.899836	0.630546
684.237925	0.631446
684.575963	0.632382
684.913951	0.633212
685.251889	0.628562
685.589776	0.630357
685.927614	0.630843
686.265401	0.624562
686.603137	0.625668
686.940824	0.620508
687.278460	0.618706
687.616046	0.617677
687.953582	0.613327
688.291068	0.613991
688.628504	0.608866
688.965889	0.610226
689.303224	0.611248
689.640510	0.612740
689.977745	0.614899
690.314930	0.618803
690.652065	0.620108
690.989150	0.624610
691.326185	0.625834
691.663170	0.627965
692.000105	0.631177
692.336990	0.634696
692.673825	0.634344
693.010610	0.638546
693.347345	0.641848
693.684030	0.640841
694.020665	0.643549
694.357251	0.648911
694.693786	0.647699
695.030272	0.650487
695.366707	0.650491
695.703093	0.653071
696.039429	0.650033
696.375716	0.649765
696.711952	0.650877
697.048139	0.652426
697.384276	0.653647
697.720363	0.650884
698.056400	0.648689
698.392388	0.652315
698.728326	0.654580
699.064214	0.655079
699.400053	0.655018
699.735842	0.656153
700.071581	0.656991
700.407270	0.657961
700.742910	0.659128
701.078501	0.663654
701.414042	0.662105
701.749533	0.663001
702.084974	0.670620
702.420366	0.662063
702.755709	0.668342
703.091002	0.673814
703.426246	0.666025
703.761440	0.671218
704.096584	0.674375
704.431679	0.670666
704.766725	0.671367
705.101721	0.672454
705.436668	0.667571
705.771565	0.673191
706.106413	0.669582
706.441212	0.664433
706.775961	0.663130
707.110661	0.665585
707.445311	0.661356
707.779913	0.657681
708.114465	0.656448
708.448967	0.654281
708.783421	0.646767
709.117825	0.642458
709.452180	0.642861
709.786485	0.636907
710.120742	0.628748
710.454949	0.631179
710.789107	0.624462
711.123216	0.616724
711.457275	0.618885
711.791286	0.611363
712.125247	0.610068
712.459159	0.619600
712.793023	0.613120
713.126837	0.613856
713.460602	0.613470
713.794318	0.621151
714.127985	0.617772
714.461602	0.624704
714.795171	0.626403
715.128691	0.630322
715.462162	0.635542
715.795584	0.639386
716.128957	0.641033
716.462281	0.646493
716.795556	0.647731
717.128782	0.651295
717.461960	0.658736
717.795088	0.655903
718.128167	0.661099
718.461198	0.668435
718.794180	0.668614
719.127113	0.670635
719.459997	0.672755
719.792833	0.677382
720.125619	0.677844
720.458357	0.682513
720.791046	0.682146
721.123686	0.684606
721.456278	0.690380
721.788821	0.686788
722.121315	0.690915
722.453761	0.694009
722.786158	0.691745
723.118506	0.688008
723.450805	0.695731
723.783056	0.691519
724.115259	0.688922
724.447412	0.687970
724.779518	0.689148
725.111574	0.687109
725.443582	0.683223
725.775542	0.685025
726.107453	0.678797
726.439315	0.678104
726.771129	0.676855
727.102895	0.671491
727.434612	0.664495
727.766281	0.662581
728.097901	0.661974
728.429473	0.661649
728.760996	0.659014
729.092471	0.659242
729.423897	0.661272
729.755276	0.659924
730.086606	0.658704
730.417887	0.654677
730.749120	0.646187
731.080305	0.636829
731.411442	0.633569
731.742530	0.637485
732.073570	0.635665
732.404562	0.628378
732.735506	0.630019
733.066401	0.634244
733.397249	0.641300
733.728048	0.650229
734.058798	0.660100
734.389501	0.670297
734.720156	0.678488
735.050762	0.685326
735.381320	0.685434
735.711831	0.694919
736.042293	0.698655
736.372707	0.693501
736.703073	0.697854
737.033391	0.700687
737.363661	0.697544
737.693883	0.692834
738.024056	0.692516
738.354182	0.692462
738.684260	0.682677
739.014290	0.678745
739.344272	0.680669
739.674207	0.674352
740.004093	0.673970
740.333931	0.674184
740.663722	0.673926
740.993464	0.673580
741.323159	0.676501
741.652806	0.681235
741.982405	0.685031
742.311956	0.689192
742.641460	0.690208
742.970915	0.692882
743.300323	0.699844
743.629683	0.705552
743.958996	0.707802
744.288260	0.710524
744.617477	0.716083
744.946647	0.717704
745.275768	0.721654
745.604842	0.721619
745.933869	0.731698
746.262847	0.731809
746.591778	0.725175
746.920662	0.730964
747.249498	0.737187
747.578286	0.728263
747.907027	0.724393
748.235720	0.726384
748.564365	0.720032
748.892963	0.720179
749.221514	0.722709
749.550017	0.728299
749.878473	0.726861
750.206881	0.733384
750.535242	0.734174
750.863555	0.733622
751.191821	0.734740
751.520039	0.737631
751.848210	0.742190
752.176334	0.735028
752.504411	0.733978
752.832440	0.741623
753.160421	0.745025
753.488356	0.743459
753.816243	0.740448
754.144082	0.748417
754.471875	0.752730
754.799620	0.747441
755.127318	0.748938
755.454969	0.748252
755.782572	0.747681
756.110129	0.752429
756.437638	0.755207
756.765100	0.751244
757.092515	0.749575
757.419882	0.748459
757.747203	0.753431
758.074477	0.752720
758.401703	0.750580
758.728882	0.745264
759.056014	0.744321
759.383099	0.743620
759.710138	0.744382
760.037129	0.741350
760.364073	0.736175
760.690970	0.737331
761.017820	0.743241
761.344623	0.738942
761.671379	0.729175
761.998088	0.718067
762.324751	0.696481
762.651366	0.656757
762.977935	0.594850
763.304456	0.544445
763.630931	0.534678
763.957359	0.571200
764.283740	0.613662
764.610074	0.639454
764.936362	0.667986
765.262602	0.693800
765.588796	0.714266
765.914943	0.731696
766.241044	0.748502
766.567097	0.755318
766.893104	0.763403
767.219064	0.769858
767.544978	0.775483
767.870845	0.789032
768.196665	0.792443
768.522438	0.790586
768.848165	0.791241
769.173846	0.799962
769.499479	0.804073
769.825066	0.807522
770.150607	0.812469
770.476101	0.807764
770.801548	0.808110
771.126949	0.820204
771.452303	0.823663
771.777611	0.822579
772.102872	0.822117
772.428087	0.826110
772.753256	0.829699
773.078378	0.831296
773.403453	0.840796
773.728482	0.844380
774.053465	0.838120
774.378401	0.840652
774.703291	0.849274
775.028135	0.848216
775.352932	0.850287
775.677683	0.853497
776.002388	0.854060
776.327046	0.853597
776.651658	0.857529
776.976224	0.858589
777.300743	0.860276
777.625216	0.863223
777.949643	0.863641
778.274024	0.863783
778.598359	0.864819
778.922647	0.863390
779.246889	0.864402
779.571086	0.867331
779.895236	0.870510
780.219339	0.867608
780.543397	0.865033
780.867409	0.863316
781.191374	0.865438
781.515294	0.867151
781.839167	0.865965
782.162995	0.869706
782.486776	0.865802
782.810511	0.867049
783.134201	0.870823
783.457844	0.867474
783.781441	0.870807
784.104993	0.876672
784.428498	0.876310
784.751958	0.872155
785.075372	0.874108
785.398739	0.878770
785.722061	0.874880
786.045337	0.869878
786.368568	0.875454
786.691752	0.878182
787.014891	0.864762
787.337983	0.854908
787.661030	0.847920
787.984031	0.831089
788.306987	0.818916
788.629897	0.819953
788.952760	0.824165
789.275579	0.828260
789.598351	0.843161
789.921078	0.856065
790.243759	0.857647
790.566395	0.862192
790.888984	0.869238
791.211529	0.874786
791.534027	0.877397
791.856480	0.879505
792.178888	0.885293
792.501249	0.886257
792.823566	0.888054
793.145836	0.888009
793.468062	0.890011
793.790241	0.890323
794.112375	0.888353
794.434464	0.882854
794.756507	0.881996
795.078505	0.882594
795.400457	0.876721
795.722364	0.865488
796.044226	0.859620
796.366042	0.859036
796.687812	0.861364
797.009538	0.858011
797.331218	0.860577
797.652852	0.865488
797.974442	0.870083
798.295986	0.869115
798.617484	0.871896
798.938938	0.876383
799.260346	0.881979
799.581709	0.883367
799.903026	0.884846
800.224299	0.885945
800.545526	0.890278
800.866708	0.893817
801.187845	0.897679
801.508936	0.897271
801.829983	0.895181
802.150984	0.897109
802.471940	0.902325
802.792851	0.901577
803.113717	0.903080
803.434538	0.900794
803.755314	0.902406
804.076045	0.904417
804.396731	0.905325
804.717372	0.903605
805.037967	0.906254
805.358518	0.903520
805.679024	0.901793
805.999485	0.901398
806.319901	0.901774
806.640272	0.902775
806.960598	0.901369
807.280879	0.897795
807.601115	0.897970
807.921306	0.900373
808.241453	0.901128
808.561554	0.898382
808.881611	0.898512
809.201623	0.900438
809.521590	0.900813
809.841513	0.902829
810.161390	0.900635
810.481223	0.902590
810.801011	0.905771
811.120755	0.907531
811.440453	0.905226
811.760107	0.905041
812.079716	0.903783
812.399281	0.908364
812.718801	0.909929
813.038276	0.911982
813.357707	0.911584
813.677093	0.907592
813.996434	0.911384
814.315731	0.912806
814.634983	0.913670
814.954191	0.910941
815.273354	0.909047
815.592473	0.906002
815.911547	0.906570
816.230577	0.903031
816.549562	0.900706
816.868502	0.902185
817.187399	0.898170
817.506250	0.893088
817.825058	0.895054
818.143821	0.891809
818.462539	0.886552
818.781213	0.879118
819.099843	0.867935
819.418429	0.853441
819.736970	0.836596
820.055466	0.817998
820.373919	0.793106
820.692327	0.760485
821.010691	0.727011
821.329011	0.654164
821.647286	0.543443
821.965517	0.432883
822.283704	0.391269
822.601847	0.393239
822.919945	0.428071
823.237999	0.459168
823.556010	0.503572
823.873976	0.558081
824.191897	0.606861
824.509775	0.647254
824.827609	0.692666
825.145398	0.714272
825.463144	0.716221
825.780845	0.699149
826.098502	0.681375
826.416116	0.637049
826.733685	0.594879
827.051210	0.586764
827.368692	0.601399
827.686129	0.636857
828.003522	0.687951
828.320872	0.733843
828.638177	0.776272
828.955439	0.807541
829.272656	0.829622
829.589830	0.846196
829.906960	0.860688
830.224046	0.873864
830.541088	0.882884
830.858086	0.886592
831.175041	0.893448
831.491952	0.892525
831.808819	0.889290
832.125642	0.882797
832.442421	0.868532
832.759157	0.847710
833.075849	0.803573
833.392497	0.740373
833.709101	0.700629
834.025662	0.709935
834.342179	0.740906
834.658653	0.779111
834.975083	0.814827
835.291469	0.839465
835.607811	0.860359
835.924110	0.876729
836.240366	0.893229
836.556578	0.907400
836.872746	0.914141
837.188871	0.919724
837.504952	0.924922
837.820990	0.928629
838.136984	0.931171
838.452935	0.934897
838.768842	0.936318
839.084706	0.928532
839.400526	0.905036
839.716303	0.866218
840.032037	0.843712
840.347727	0.847904
840.663373	0.865428
840.978977	0.885017
841.294537	0.907728
841.610054	0.923726
841.925527	0.930112
842.240957	0.937357
842.556344	0.944007
842.871687	0.950175
843.186987	0.954614
843.502244	0.954035
843.817458	0.955900
844.132629	0.958914
844.447756	0.964689
844.762840	0.964272
845.077881	0.962734
845.392879	0.962904
845.707833	0.965781
846.022745	0.967330
846.337613	0.967078
846.652438	0.968777
846.967221	0.967788
847.281960	0.967541
847.596656	0.970204
847.911309	0.968651
848.225919	0.971479
848.540485	0.970891
848.855009	0.971975
849.169490	0.970839
849.483928	0.972555
849.798323	0.971772
850.112675	0.973024
850.426984	0.973244
850.741251	0.972981
851.055474	0.974919
851.369654	0.971736
851.683792	0.972802
851.997887	0.971875
852.311938	0.973865
852.625947	0.972932
852.939914	0.972254
853.253837	0.972043
853.567718	0.973132
853.881555	0.973971
854.195350	0.971167
854.509103	0.972374
854.822812	0.973458
855.136479	0.973422
855.450103	0.973832
855.763685	0.970596
856.077224	0.971906
856.390720	0.973241
856.704173	0.973830
857.017584	0.971617
857.330953	0.969570
857.644278	0.970964
857.957561	0.972744
858.270802	0.971133
858.584000	0.970715
858.897155	0.970941
859.210268	0.971029
859.523339	0.972483
859.836367	0.973247
860.149352	0.973022
860.462295	0.970767
860.775195	0.972228
861.088054	0.971965
861.400869	0.972206
861.713642	0.972700
862.026373	0.973523
862.339062	0.973940
862.651708	0.971133
862.964312	0.970439
863.276873	0.972776
863.589392	0.971104
863.901869	0.969558
864.214303	0.968299
864.526696	0.966904
864.839045	0.966601
865.151353	0.964362
865.463619	0.966037
865.775842	0.966255
866.088023	0.965858
866.400162	0.966774
866.712258	0.966433
867.024313	0.965810
867.336325	0.966697
867.648296	0.966760
867.960224	0.965800
868.272110	0.965216
868.583954	0.966766
868.895755	0.968663
869.207515	0.965258
869.519233	0.963519
869.830909	0.963981
870.142542	0.965311
870.454134	0.964939
870.765684	0.964503
871.077191	0.961592
871.388657	0.962394
871.700081	0.960839
872.011463	0.962908
872.322803	0.960905
872.634101	0.961396
872.945357	0.958267
873.256571	0.957774
873.567744	0.955878
873.878874	0.958942
874.189963	0.956087
874.501010	0.955150
874.812015	0.954344
875.122979	0.955001
875.433900	0.957420
875.744780	0.957806
876.055618	0.955634
876.366415	0.954172
876.677169	0.954351
876.987882	0.955269
877.298554	0.956387
877.609183	0.952117
877.919771	0.950128
878.230317	0.948077
878.540822	0.945538
878.851285	0.940682
879.161707	0.932271
879.472087	0.921922
879.782425	0.906956
880.092722	0.874279
880.402977	0.824724
880.713191	0.767525
881.023363	0.710828
881.333494	0.679216
881.643583	0.651610
881.953631	0.651056
882.263637	0.679228
882.573602	0.718308
882.883526	0.742069
883.193408	0.764560
883.503248	0.784147
883.813048	0.811957
884.122806	0.838828
884.432522	0.861394
884.742197	0.879435
885.051831	0.889880
885.361424	0.899290
885.670975	0.910629
885.980485	0.920824
886.289954	0.926744
886.599382	0.932307
886.908768	0.934886
887.218113	0.939833
887.527417	0.944349
887.836680	0.946958
888.145901	0.948271
888.455082	0.950715
888.764221	0.955381
889.073319	0.956362
889.382376	0.958446
889.691392	0.957149
890.000366	0.956728
890.309300	0.958678
890.618193	0.958227
890.927044	0.957225
891.235855	0.955964
891.544625	0.955343
891.853353	0.956827
892.162041	0.954764
892.470687	0.947525
892.779293	0.943635
893.087858	0.940849
893.396381	0.932845
893.704864	0.921018
894.013306	0.898080
894.321707	0.873064
894.630068	0.859128
894.938387	0.856468
895.246665	0.856207
895.554903	0.867862
895.863100	0.879692
896.171256	0.897091
896.479371	0.914745
896.787446	0.927031
897.095480	0.931665
897.403473	0.934566
897.711425	0.938761
898.019336	0.945950
898.327207	0.948261
898.635038	0.950865
898.942827	0.950664
899.250576	0.954225
899.558284	0.956877
899.865952	0.959206
900.173579	0.959936
900.481165	0.959551
900.788711	0.964335
901.096216	0.966131
901.403681	0.965384
901.711105	0.967831
902.018489	0.968011
902.325832	0.967628
902.633135	0.966113
902.940397	0.959868
903.247619	0.949790
903.554800	0.925038
903.861941	0.889682
904.169041	0.855314
904.476101	0.839541
904.783121	0.841247
905.090100	0.856017
905.397039	0.875667
905.703938	0.895128
906.010796	0.913839
906.317614	0.930521
906.624391	0.941060
906.931129	0.949946
907.237826	0.958234
907.544483	0.963693
907.851099	0.966536
908.157675	0.972041
908.464211	0.973738
908.770707	0.976505
909.077163	0.977838
909.383578	0.978382
909.689954	0.979205
909.996289	0.979356
910.302584	0.981333
910.608839	0.983510
910.915054	0.981982
911.221229	0.981557
911.527363	0.981175
911.833458	0.981554
912.139513	0.981610
912.445527	0.979037
912.751502	0.977061
913.057436	0.976855
913.363331	0.975415
913.669186	0.971507
913.975000	0.966711
914.280775	0.962361
914.586510	0.954425
914.892205	0.942113
915.197859	0.922448
915.503475	0.896805
915.809050	0.878736
916.114585	0.875103
916.420081	0.873165
916.725536	0.869263
917.030952	0.876232
917.336328	0.888116
917.641665	0.903272
917.946961	0.916291
918.252218	0.927633
918.557435	0.935692
918.862612	0.944350
919.167750	0.948496
919.472848	0.954413
919.777906	0.958347
920.082925	0.963450
920.387904	0.967664
920.692843	0.968221
920.997743	0.968408
921.302603	0.972944
921.607423	0.973016
921.912204	0.975690
922.216946	0.976254
922.521647	0.976767
922.826310	0.979218
923.130932	0.980160
923.435516	0.982301
923.740059	0.982549
924.044564	0.982327
924.349028	0.983997
924.653454	0.986390
924.957840	0.989319
925.262186	0.988870
925.566493	0.986465
925.870761	0.988091
926.174989	0.989221
926.479178	0.992263
926.783328	0.991164
927.087438	0.991569
927.391509	0.990802
927.695541	0.992726
927.999533	0.992631
928.303486	0.991819
928.607400	0.994037
928.911275	0.992197
929.215110	0.993301
929.518906	0.994708
929.822663	0.993253
930.126381	0.994262
930.430060	0.993674
930.733699	0.992413
931.037299	0.992561
931.340861	0.992899
931.644383	0.992429
931.947866	0.992326
932.251309	0.993451
932.554714	0.992672
932.858080	0.992397
933.161407	0.993467
933.464694	0.994027
933.767943	0.992727
934.071153	0.993744
934.374323	0.993915
934.677455	0.993524
934.980548	0.994506
935.283602	0.993169
935.586617	0.993511
935.889593	0.993638
936.192530	0.993058
936.495428	0.992847
936.798287	0.992325
937.101108	0.993191
937.403890	0.991927
937.706632	0.990919
938.009336	0.990112
938.312002	0.989232
938.614628	0.987528
938.917216	0.987216
939.219765	0.985129
939.522275	0.986345
939.824747	0.985562
940.127179	0.986131
940.429573	0.988950
940.731929	0.986812
941.034246	0.987566
941.336524	0.988993
941.638763	0.990006
941.940964	0.989369
942.243126	0.990236
942.545250	0.989040
942.847335	0.990357
943.149381	0.991615
943.451389	0.991006
943.753359	0.989740
944.055290	0.994417
944.357182	0.993193
944.659036	0.991537
944.960851	0.992678
945.262628	0.992674
945.564367	0.993068
945.866067	0.993697
946.167729	0.993590
946.469352	0.991552
946.770937	0.991220
947.072484	0.993919
947.373992	0.993292
947.675462	0.992913
947.976893	0.991849
948.278286	0.993658
948.579641	0.994081
948.880958	0.993696
949.182236	0.994446
949.483476	0.992575
949.784678	0.992135
950.085841	0.993623
950.386967	0.993534
950.688054	0.994230
950.989103	0.993139
951.290114	0.990579
951.591087	0.991808
951.892021	0.993196
952.192917	0.991905
952.493776	0.990632
952.794596	0.992450
953.095378	0.990256
953.396122	0.990973
953.696828	0.991006
953.997496	0.991530
954.298126	0.993347
954.598718	0.991989
954.899272	0.993872
955.199788	0.993364
955.500266	0.993807
955.800706	0.995551
956.101108	0.995799
956.401472	0.996439
956.701798	0.996053
957.002087	0.995512
957.302337	0.995703
957.602550	0.997024
957.902724	0.996896
958.202861	0.997395
958.502960	0.997390
958.803022	0.995542
959.103045	0.998676
959.403031	0.996406
959.702979	0.997268
960.002889	0.997052
960.302762	0.996465
960.602596	0.998820
960.902393	0.996871
961.202153	0.998838
961.501875	0.999240
961.801559	0.996930
962.101205	0.996803
962.400814	0.998613
962.700385	0.997418
962.999918	0.998585
963.299414	0.998460
963.598873	0.996255
963.898293	0.998422
964.197677	0.997319
964.497022	0.998101
964.796331	0.999815
965.095601	0.997973
965.394835	0.997073
965.694030	0.998080
965.993189	0.999239
966.292309	0.998193
966.591393	0.999475
966.890439	0.999069
967.189447	0.999393
967.488419	0.997797
967.787353	0.997642
968.086249	0.998388
968.385108	0.997986
968.683930	0.999049
968.982714	0.998725
969.281462	0.999503
969.580172	0.996766
969.878844	0.998049
970.177480	0.997837
970.476078	0.998815
970.774639	0.998041
971.073162	0.999400
971.371649	0.998112
971.670098	0.997892
971.968510	0.997990
972.266885	0.996521
972.565223	0.998591
972.863524	0.997504
973.161788	0.998288
973.460014	0.999424
973.758204	0.996446
974.056356	0.998047
974.354471	0.996857
974.652550	0.998405
974.950591	0.998141
975.248595	0.997050
975.546563	0.997755
975.844493	0.998971
976.142386	0.998012
976.440243	0.998350
976.738062	0.997260
977.035845	1.000091
977.333590	0.998788
977.631299	0.998478
977.928971	0.997929
978.226606	0.997788
978.524204	0.996607
978.821765	0.999432
979.119290	0.997577
979.416777	0.997487
979.714228	0.998331
980.011642	0.997235
980.309020	0.998924
980.606360	0.998371
980.903664	0.999689
981.200931	0.997861
981.498162	0.995495
981.795356	0.996666
982.092513	0.995498
982.389633	0.996394
982.686717	0.992415
982.983764	0.994063
983.280775	0.992359
983.577749	0.990865
983.874686	0.993767
984.171587	0.994479
984.468451	0.996169
984.765279	0.997240
985.062070	0.996269
985.358824	0.996702
985.655543	0.996804
985.952224	0.996903
986.248869	0.997902
986.545478	0.997626
986.842050	0.998798
987.138586	0.995782
987.435086	0.998541
987.731549	0.999103
988.027975	0.999761
988.324366	0.998270
988.620719	0.998116
988.917037	0.997343
989.213318	0.999672
989.509563	0.998821
989.805772	0.999487
990.101944	0.999091
990.398080	0.997971
990.694180	0.998924
990.990244	0.998505
991.286271	0.999234
991.582262	0.998803
991.878217	0.999040
992.174136	0.999459
992.470019	0.999217
992.765865	0.998769
993.061676	0.998881
993.357450	0.998365
993.653188	0.997449
993.948890	0.997580
994.244556	0.997717
994.540186	0.999529
994.835780	0.997812
995.131337	0.998476
995.426859	0.997040
995.722345	0.999141
996.017795	0.997163
996.313208	0.997057
996.608586	0.996756
996.903928	0.998401
997.199234	0.997404
997.494504	0.996968
997.789738	0.996632
998.084936	0.998017
998.380099	0.999541
998.675225	0.997713
998.970316	0.999267
999.265371	0.999149
999.560390	0.997719
999.855373	1.000272
1000.150320	0.999124
1000.445232	0.999783
1000.740108	0.998741
1001.034948	0.998724
1001.329752	1.000432
1001.624521	0.999846
1001.919254	0.998892
1002.213951	0.999625
1002.508613	0.999410
1002.803239	1.000175
1003.097829	1.000114
1003.392384	1.000110
1003.686903	0.999448
1003.981386	0.999956
1004.275834	0.999635
1004.570246	0.998473
1004.864623	0.999607
1005.158964	0.999916
1005.453270	0.999523
1005.747540	0.997946
1006.041775	0.999250
1006.335974	1.000639
1006.630138	1.000240
1006.924266	1.000849
1007.218359	1.000939
1007.512416	0.999925
1007.806438	0.999514
1008.100425	1.000563
1008.394376	0.999605
1008.688292	0.998554
1008.982172	1.000888
1009.276017	0.999134
1009.569827	0.999171
1009.863602	0.999719
1010.157341	1.000065
1010.451045	0.999687
1010.744714	0.998780
1011.038347	1.000438
1011.331945	0.999125
1011.625508	0.998608
1011.919036	0.999400
1012.212528	1.000130
1012.505986	0.998308
1012.799408	0.998762
1013.092795	0.999432
1013.386147	0.998820
1013.679464	0.999795
1013.972745	0.997719
1014.265992	0.998871
1014.559204	0.998507
1014.852380	0.999694
1015.145521	0.999077
1015.438628	0.999832
1015.731699	0.998543
1016.024736	1.000503
1016.317737	0.999186
1016.610703	1.000073
1016.903635	1.000443
1017.196531	0.998637
1017.489393	1.000611
1017.782219	0.999089
1018.075011	0.999436
1018.367768	1.000035
1018.660490	1.000832
1018.953177	1.000832
1019.245829	1.000832
