Dividing Wavelength (nm)	Counts (n)	Blue Motor Position (mm): 0.000000	Red Motor Position (mm): 40.800000	
326.493990	0.999931
326.888308	0.999931
327.282561	0.999931
327.676750	0.999948
328.070874	0.998982
328.464933	1.000803
328.858929	0.999126
329.252859	0.999689
329.646726	0.998724
330.040528	0.998510
330.434265	0.998689
330.827938	1.000231
331.221547	1.000714
331.615091	1.000243
332.008571	0.999942
332.401986	1.000476
332.795338	0.998999
333.188625	0.998015
333.581847	1.000219
333.975006	0.999739
334.368100	0.998535
334.761129	0.999552
335.154095	1.000815
335.546996	0.998331
335.939833	0.996183
336.332606	0.996841
336.725315	0.997741
337.117960	0.998481
337.510540	0.998090
337.903056	0.997715
338.295508	0.996226
338.687896	0.997704
339.080220	0.997562
339.472480	0.998491
339.864676	0.997115
340.256807	0.998006
340.648875	0.998037
341.040879	0.997776
341.432818	0.997126
341.824694	0.998180
342.216506	0.999309
342.608253	0.998795
342.999937	0.998046
343.391557	0.997397
343.783113	0.996570
344.174605	0.998387
344.566033	0.998267
344.957397	0.996937
345.348697	0.998014
345.739934	0.998533
346.131106	0.996558
346.522215	0.996867
346.913260	0.997756
347.304241	0.997202
347.695159	0.996282
348.086012	0.997714
348.476802	0.997825
348.867528	0.997860
349.258191	0.996650
349.648789	0.998085
350.039324	0.997888
350.429796	0.998678
350.820203	0.999153
351.210548	0.997858
351.600828	0.997075
351.991045	0.998239
352.381198	0.997063
352.771288	0.998388
353.161314	0.997241
353.551276	0.998596
353.941175	0.997477
354.331010	0.997235
354.720782	0.998039
355.110490	0.996457
355.500135	0.998315
355.889717	0.996910
356.279235	0.998564
356.668689	0.996940
357.058080	0.997389
357.447408	0.997992
357.836672	0.998480
358.225873	0.999168
358.615010	0.997400
359.004084	0.998302
359.393095	0.997138
359.782043	0.997822
360.170927	0.999529
360.559748	0.998774
360.948505	0.997881
361.337199	0.997852
361.725830	0.998373
362.114398	0.997280
362.502903	0.998579
362.891344	0.998504
363.279722	0.997176
363.668037	0.998383
364.056289	0.998072
364.444478	0.998491
364.832603	0.997966
365.220665	0.997524
365.608665	0.998155
365.996601	0.996450
366.384474	0.998521
366.772284	0.998430
367.160031	0.996606
367.547715	0.996424
367.935336	0.998819
368.322893	0.996923
368.710388	0.997323
369.097820	0.998643
369.485189	0.997269
369.872495	0.997432
370.259738	0.996308
370.646918	0.998674
371.034035	0.999037
371.421090	0.997725
371.808081	0.998203
372.195010	0.998854
372.581875	0.997931
372.968678	0.998108
373.355418	0.997256
373.742096	0.997194
374.128710	0.998105
374.515262	0.998183
374.901751	0.998447
375.288177	0.998153
375.674540	0.998055
376.060841	0.996982
376.447079	0.998616
376.833254	0.997154
377.219367	0.997289
377.605417	0.998305
377.991404	0.998468
378.377329	0.996903
378.763191	0.997389
379.148991	0.998547
379.534727	0.998274
379.920402	0.997316
380.306013	0.998966
380.691563	0.998724
381.077049	0.998766
381.462474	0.998544
381.847835	0.998051
382.233134	0.998265
382.618371	0.998075
383.003545	0.998591
383.388657	0.998803
383.773706	0.998846
384.158693	0.999091
384.543618	0.997998
384.928480	0.998909
385.313280	0.998465
385.698017	0.999718
386.082692	0.999381
386.467305	0.998813
386.851856	0.997850
387.236344	0.997962
387.620770	0.997133
388.005133	0.998593
388.389435	0.999537
388.773674	0.998309
389.157851	0.999056
389.541965	0.998561
389.926018	0.998632
390.310008	0.998826
390.693936	0.998927
391.077802	0.999306
391.461606	0.999089
391.845348	0.998837
392.229027	1.000113
392.612645	0.998311
392.996200	0.999761
393.379694	0.999440
393.763125	0.999367
394.146494	0.999269
394.529801	0.997982
394.913047	0.999498
395.296230	0.999032
395.679351	0.998916
396.062410	0.997975
396.445408	0.999251
396.828343	0.998832
397.211217	0.998248
397.594028	0.999478
397.976778	0.998382
398.359466	0.998433
398.742092	0.997860
399.124656	0.998969
399.507158	0.998128
399.889598	0.998797
400.271977	0.998588
400.654294	0.998508
401.036549	0.999195
401.418742	0.998726
401.800874	0.998032
402.182944	0.999053
402.564952	0.998407
402.946898	0.999298
403.328783	0.999379
403.710606	0.998555
404.092367	0.999146
404.474067	0.999432
404.855705	0.998864
405.237282	0.999283
405.618797	0.999183
406.000250	0.997816
406.381642	0.999236
406.762972	0.999089
407.144240	1.000041
407.525447	0.999300
407.906593	0.998606
408.287677	0.999142
408.668700	0.999525
409.049661	0.998564
409.430560	0.999642
409.811399	0.999455
410.192176	0.998673
410.572891	0.998292
410.953545	0.999088
411.334138	0.997899
411.714669	0.999467
412.095139	0.998539
412.475547	0.999372
412.855894	0.999492
413.236180	0.999420
413.616405	0.998960
413.996568	0.999498
414.376670	0.998569
414.756711	0.998952
415.136691	0.998997
415.516609	0.998638
415.896466	0.998641
416.276262	0.997281
416.655997	0.999281
417.035670	0.998724
417.415283	0.998848
417.794834	0.998615
418.174324	0.998706
418.553753	0.999459
418.933121	0.998269
419.312428	0.998882
419.691674	0.998233
420.070859	0.999392
420.449983	0.998760
420.829045	0.998062
421.208047	0.999608
421.586988	0.998871
421.965867	0.998641
422.344686	0.999662
422.723444	0.998768
423.102141	0.999650
423.480777	0.998948
423.859352	0.999021
424.237866	0.998680
424.616319	0.998287
424.994712	0.999453
425.373044	0.999915
425.751314	0.998916
426.129524	0.998855
426.507673	0.999191
426.885762	0.999388
427.263789	0.999379
427.641756	0.999576
428.019662	0.999532
428.397508	0.998405
428.775292	0.997998
429.153016	0.998269
429.530679	0.999466
429.908282	0.999336
430.285824	0.998501
430.663305	0.998787
431.040726	0.998815
431.418086	1.000129
431.795385	0.998662
432.172624	0.998738
432.549802	0.999925
432.926920	0.999508
433.303977	0.998431
433.680974	0.999863
434.057910	0.998723
434.434786	0.998603
434.811601	0.999000
435.188355	0.999469
435.565050	0.998501
435.941683	0.999643
436.318257	1.000439
436.694770	0.998363
437.071222	0.999314
437.447614	0.999717
437.823946	0.998604
438.200218	0.999278
438.576429	0.998887
438.952580	0.999657
439.328670	0.998837
439.704700	0.999496
440.080670	0.999891
440.456580	0.998900
440.832429	0.998907
441.208218	0.999217
441.583947	0.999161
441.959616	0.998825
442.335224	0.998897
442.710773	0.999869
443.086261	0.998547
443.461689	0.998172
443.837057	0.998787
444.212365	0.999318
444.587612	0.998816
444.962800	0.998278
445.337927	0.999466
445.712995	0.998849
446.088002	0.999376
446.462949	0.999164
446.837837	0.999861
447.212664	0.999108
447.587431	0.999660
447.962139	0.998956
448.336786	0.999025
448.711374	0.998568
449.085901	0.998216
449.460369	0.999415
449.834776	0.998765
450.209124	0.999306
450.583412	0.998358
450.957640	0.998909
451.331808	0.998841
451.705917	0.999126
452.079965	0.998500
452.453954	0.999179
452.827883	0.999274
453.201752	0.999013
453.575562	1.000115
453.949311	0.998802
454.323001	0.998785
454.696632	0.998352
455.070202	0.998799
455.443713	0.999395
455.817164	0.998717
456.190556	0.999254
456.563888	0.998455
456.937160	0.999280
457.310373	0.998334
457.683526	0.999326
458.056619	0.999241
458.429653	0.999943
458.802628	0.998517
459.175542	0.998190
459.548398	0.998999
459.921194	0.998770
460.293930	0.999027
460.666607	0.998581
461.039224	0.997702
461.411782	0.998848
461.784280	0.997909
462.156719	0.999455
462.529099	0.999285
462.901419	0.998873
463.273680	0.998792
463.645882	0.998841
464.018024	0.999069
464.390106	0.999507
464.762130	0.999917
465.134094	0.998671
465.505999	0.999542
465.877845	0.999592
466.249631	0.999178
466.621358	0.999032
466.993026	0.999484
467.364634	0.998824
467.736184	0.999162
468.107674	0.998943
468.479105	0.998259
468.850477	0.999930
469.221790	0.999354
469.593043	0.999156
469.964238	0.999640
470.335373	0.999153
470.706449	0.999461
471.077467	0.998968
471.448425	0.999091
471.819324	1.000013
472.190164	0.998657
472.560945	0.998916
472.931667	0.998951
473.302330	0.998363
473.672934	0.999096
474.043479	0.998782
474.413965	0.999283
474.784393	0.999893
475.154761	0.999070
475.525070	0.998280
475.895321	0.998677
476.265513	0.999108
476.635645	0.999341
477.005719	0.998535
477.375734	0.998578
477.745691	0.999087
478.115588	0.999073
478.485427	0.999165
478.855207	0.998978
479.224928	0.998875
479.594591	0.999081
479.964194	0.999032
480.333739	0.998580
480.703226	0.999167
481.072653	0.999856
481.442022	0.999640
481.811333	0.998421
482.180584	0.999504
482.549777	0.999032
482.918912	0.998768
483.287988	0.999002
483.657005	0.999028
484.025964	0.999362
484.394864	0.999745
484.763706	0.999244
485.132489	0.999040
485.501213	0.998699
485.869879	0.999177
486.238487	0.998374
486.607036	0.999776
486.975527	0.998649
487.343959	0.999134
487.712333	0.998854
488.080648	0.999105
488.448905	0.998807
488.817104	0.999427
489.185244	0.999257
489.553326	0.999192
489.921350	0.999351
490.289315	0.998824
490.657222	0.999630
491.025070	0.999857
491.392861	0.999779
491.760593	0.999156
492.128267	0.999206
492.495883	0.998720
492.863440	0.998685
493.230939	0.999139
493.598380	0.999196
493.965763	0.998840
494.333088	0.999445
494.700354	0.998108
495.067563	0.999315
495.434713	0.998333
495.801805	0.999172
496.168839	0.999422
496.535815	0.998445
496.902733	0.998433
497.269593	0.999413
497.636395	0.999293
498.003139	0.999022
498.369825	0.999478
498.736453	0.998939
499.103023	0.998159
499.469535	0.998600
499.835989	0.998719
500.202385	0.999199
500.568723	0.998884
500.935003	0.999099
501.301226	0.999028
501.667390	0.999045
502.033497	0.999123
502.399546	0.999950
502.765537	0.997776
503.131470	0.999418
503.497345	0.998486
503.863163	0.999882
504.228923	0.998949
504.594625	0.999192
504.960269	0.999569
505.325856	0.999026
505.691385	0.998852
506.056856	0.998901
506.422270	0.998863
506.787625	0.998875
507.152924	0.999267
507.518164	0.999271
507.883347	0.998935
508.248472	0.999090
508.613540	0.998956
508.978550	0.998989
509.343503	0.997958
509.708398	0.999357
510.073236	0.998748
510.438016	0.999417
510.802738	0.998821
511.167403	0.999001
511.532010	0.998444
511.896561	0.998851
512.261053	0.999816
512.625488	0.998913
512.989866	0.998772
513.354186	0.998665
513.718449	0.998540
514.082655	0.998728
514.446803	0.998740
514.810894	0.998784
515.174927	0.998537
515.538904	0.998408
515.902822	0.998626
516.266684	0.999101
516.630488	0.998881
516.994235	0.997862
517.357925	0.998389
517.721558	0.998971
518.085133	0.997898
518.448651	0.999266
518.812112	0.998266
519.175516	0.998061
519.538863	0.998617
519.902152	0.998272
520.265385	0.998310
520.628560	0.998513
520.991678	0.999377
521.354739	0.998316
521.717743	0.998398
522.080690	0.998422
522.443580	0.998232
522.806413	0.998053
523.169189	0.997922
523.531908	0.997606
523.894569	0.998163
524.257174	0.998598
524.619722	0.998460
524.982213	0.998402
525.344647	0.997839
525.707025	0.997519
526.069345	0.997729
526.431608	0.998065
526.793815	0.998611
527.155964	0.998030
527.518057	0.998413
527.880093	0.998787
528.242072	0.997857
528.603995	0.997819
528.965860	0.998438
529.327669	0.997682
529.689421	0.997493
530.051117	0.998128
530.412755	0.997756
530.774337	0.998745
531.135862	0.997420
531.497331	0.998152
531.858743	0.997756
532.220098	0.998164
532.581396	0.997665
532.942638	0.998298
533.303824	0.997950
533.664953	0.997812
534.026025	0.997483
534.387040	0.997559
534.747999	0.997697
535.108902	0.997816
535.469748	0.997318
535.830537	0.997476
536.191270	0.997473
536.551947	0.996981
536.912567	0.997897
537.273131	0.998339
537.633638	0.996973
537.994089	0.998084
538.354483	0.997788
538.714821	0.998001
539.075103	0.997537
539.435328	0.997526
539.795497	0.997358
540.155609	0.997202
540.515665	0.997079
540.875665	0.997664
541.235609	0.997934
541.595496	0.997309
541.955328	0.996619
542.315102	0.996599
542.674821	0.996933
543.034483	0.996069
543.394090	0.996530
543.753640	0.997091
544.113134	0.997376
544.472571	0.997574
544.831953	0.997465
545.191278	0.996972
545.550548	0.997502
545.909761	0.996627
546.268918	0.997749
546.628019	0.997464
546.987064	0.997161
547.346053	0.997466
547.704986	0.997699
548.063863	0.996960
548.422684	0.997678
548.781449	0.997505
549.140158	0.997054
549.498811	0.997601
549.857408	0.997199
550.215949	0.997402
550.574434	0.997176
550.932864	0.997317
551.291237	0.997457
551.649555	0.997202
552.007817	0.997148
552.366022	0.997118
552.724173	0.997634
553.082267	0.997046
553.440305	0.997082
553.798288	0.997172
554.156215	0.996482
554.514086	0.997330
554.871902	0.996875
555.229661	0.996746
555.587365	0.996720
555.945014	0.997541
556.302606	0.996367
556.660143	0.996621
557.017625	0.996657
557.375050	0.996497
557.732421	0.996918
558.089735	0.997038
558.446994	0.997526
558.804197	0.997002
559.161345	0.997388
559.518437	0.997542
559.875474	0.996451
560.232455	0.996480
560.589381	0.997146
560.946251	0.995940
561.303065	0.996550
561.659825	0.996882
562.016528	0.996427
562.373177	0.996578
562.729770	0.996205
563.086307	0.996576
563.442789	0.996872
563.799216	0.996226
564.155587	0.996316
564.511904	0.995591
564.868164	0.995689
565.224370	0.996306
565.580520	0.996907
565.936615	0.995849
566.292654	0.995683
566.648638	0.996399
567.004567	0.995746
567.360441	0.996666
567.716260	0.995849
568.072023	0.995932
568.427732	0.995364
568.783385	0.996410
569.138982	0.996169
569.494525	0.995722
569.850013	0.996041
570.205445	0.995191
570.560823	0.995302
570.916145	0.995049
571.271412	0.995626
571.626625	0.995594
571.981782	0.994530
572.336884	0.995402
572.691931	0.994851
573.046923	0.994893
573.401860	0.994156
573.756743	0.995185
574.111570	0.994659
574.466342	0.994519
574.821059	0.994685
575.175722	0.994404
575.530330	0.994292
575.884882	0.994499
576.239380	0.994820
576.593823	0.993453
576.948211	0.993271
577.302544	0.993052
577.656823	0.993344
578.011047	0.993796
578.365216	0.992627
578.719330	0.992193
579.073389	0.993181
579.427394	0.992936
579.781344	0.992911
580.135239	0.992683
580.489080	0.992219
580.842866	0.992073
581.196597	0.991486
581.550273	0.991008
581.903895	0.991267
582.257463	0.990920
582.610975	0.990736
582.964434	0.990229
583.317837	0.990764
583.671186	0.989553
584.024481	0.989782
584.377721	0.989157
584.730906	0.988919
585.084037	0.989026
585.437113	0.988299
585.790135	0.988160
586.143103	0.987569
586.496016	0.988419
586.848874	0.987118
587.201679	0.986643
587.554428	0.986618
587.907124	0.986470
588.259765	0.985724
588.612352	0.986437
588.964884	0.985244
589.317362	0.984781
589.669786	0.984191
590.022155	0.984340
590.374470	0.983501
590.726731	0.982981
591.078937	0.982062
591.431090	0.981847
591.783188	0.981005
592.135232	0.980826
592.487222	0.981160
592.839157	0.979753
593.191038	0.979583
593.542866	0.979135
593.894639	0.979482
594.246358	0.976892
594.598022	0.976539
594.949633	0.977476
595.301190	0.976013
595.652692	0.975305
596.004141	0.975068
596.355535	0.974371
596.706876	0.973271
597.058162	0.974140
597.409395	0.972494
597.760573	0.971334
598.111698	0.970716
598.462768	0.969192
598.813785	0.969873
599.164748	0.968874
599.515657	0.967771
599.866511	0.967127
600.217312	0.966590
600.568060	0.966092
600.918753	0.964804
601.269392	0.964000
601.619978	0.962987
601.970510	0.962053
602.320988	0.961303
602.671412	0.959361
603.021783	0.959009
603.372100	0.958681
603.722363	0.956785
604.072572	0.956247
604.422728	0.955795
604.772830	0.953891
605.122878	0.952645
605.472872	0.952127
605.822813	0.950341
606.172701	0.949160
606.522534	0.949040
606.872314	0.947400
607.222041	0.945461
607.571714	0.944702
607.921333	0.942329
608.270899	0.941867
608.620411	0.941005
608.969870	0.939500
609.319276	0.937542
609.668627	0.937152
610.017926	0.935183
610.367171	0.932622
610.716362	0.931519
611.065500	0.930181
611.414585	0.927924
611.763616	0.927125
612.112594	0.925779
612.461518	0.923638
612.810389	0.921839
613.159207	0.920223
613.507971	0.918232
613.856682	0.916674
614.205340	0.915449
614.553945	0.912715
614.902496	0.911343
615.250994	0.909209
615.599439	0.907908
615.947830	0.906344
616.296169	0.903172
616.644454	0.901909
616.992686	0.900290
617.340864	0.897277
617.688990	0.896125
618.037063	0.894111
618.385082	0.892018
618.733048	0.889003
619.080961	0.887530
619.428821	0.885615
619.776628	0.882663
620.124382	0.881746
620.472083	0.879331
620.819731	0.878263
621.167326	0.876890
621.514868	0.875274
621.862357	0.874287
622.209793	0.873355
622.557176	0.870601
622.904506	0.869164
623.251783	0.868238
623.599007	0.866726
623.946179	0.865824
624.293297	0.863702
624.640363	0.862932
624.987376	0.860460
625.334336	0.860443
625.681243	0.857993
626.028097	0.857345
626.374899	0.855409
626.721647	0.852988
627.068343	0.852432
627.414987	0.849606
627.761577	0.848272
628.108115	0.846151
628.454600	0.845169
628.801032	0.841008
629.147412	0.840759
629.493739	0.837744
629.840014	0.835914
630.186236	0.833432
630.532405	0.832366
630.878521	0.829696
631.224585	0.827714
631.570597	0.827237
631.916556	0.823892
632.262462	0.821988
632.608316	0.820274
632.954117	0.818109
633.299866	0.816991
633.645562	0.814293
633.991206	0.813900
634.336797	0.813191
634.682336	0.810427
635.027823	0.809573
635.373257	0.808703
635.718639	0.806822
636.063968	0.804082
636.409245	0.804481
636.754470	0.802159
637.099642	0.801651
637.444762	0.800496
637.789829	0.797900
638.134845	0.797571
638.479808	0.796017
638.824719	0.793573
639.169577	0.793580
639.514383	0.790827
639.859137	0.789414
640.203839	0.788600
640.548489	0.786019
640.893086	0.784531
641.237632	0.783059
641.582125	0.779422
641.926566	0.777752
642.270955	0.776790
642.615292	0.774376
642.959576	0.771881
643.303809	0.769951
643.647990	0.766796
643.992118	0.765618
644.336195	0.765888
644.680219	0.761777
645.024192	0.761272
645.368112	0.756139
645.711981	0.754014
646.055797	0.749958
646.399562	0.748299
646.743274	0.742404
647.086935	0.739711
647.430544	0.737905
647.774101	0.734539
648.117606	0.734278
648.461059	0.731054
648.804460	0.729277
649.147810	0.731349
649.491108	0.729011
649.834354	0.727514
650.177548	0.728504
650.520690	0.728693
650.863781	0.727561
651.206820	0.724412
651.549807	0.725076
651.892742	0.724837
652.235626	0.722120
652.578458	0.720764
652.921238	0.721747
653.263967	0.719385
653.606644	0.719107
653.949269	0.716492
654.291843	0.716789
654.634365	0.713109
654.976836	0.711612
655.319255	0.711256
655.661622	0.709726
656.003938	0.707068
656.346203	0.708174
656.688416	0.704342
657.030577	0.704831
657.372687	0.703554
657.714746	0.701787
658.056753	0.699263
658.398708	0.699263
658.740612	0.698504
659.082465	0.694066
659.424266	0.693771
659.766016	0.690808
660.107715	0.690135
660.449362	0.687316
660.790958	0.686388
661.132503	0.684124
661.473996	0.681438
661.815438	0.680482
662.156829	0.679038
662.498168	0.676989
662.839456	0.677022
663.180693	0.673693
663.521879	0.672584
663.863013	0.671693
664.204097	0.667743
664.545129	0.664581
664.886110	0.662460
665.227040	0.658646
665.567918	0.659887
665.908746	0.656511
666.249522	0.655214
666.590248	0.654720
666.930922	0.652155
667.271545	0.649369
667.612118	0.648097
667.952639	0.647911
668.293109	0.644273
668.633528	0.644495
668.973896	0.643079
669.314213	0.641479
669.654480	0.640557
669.994695	0.639738
670.334859	0.638269
670.674973	0.636024
671.015035	0.634873
671.355047	0.632844
671.695008	0.632792
672.034918	0.632735
672.374777	0.630640
672.714585	0.629350
673.054342	0.628538
673.394049	0.626634
673.733705	0.622459
674.073310	0.621524
674.412864	0.623188
674.752368	0.621661
675.091820	0.620223
675.431223	0.621629
675.770574	0.619799
676.109875	0.620530
676.449125	0.618123
676.788324	0.618250
677.127473	0.621892
677.466571	0.619334
677.805619	0.617895
678.144616	0.617331
678.483562	0.616798
678.822458	0.617351
679.161303	0.617596
679.500098	0.615969
679.838842	0.616677
680.177535	0.614718
680.516179	0.612395
680.854771	0.610246
681.193314	0.605062
681.531805	0.598101
681.870247	0.588285
682.208638	0.581929
682.546978	0.580191
682.885268	0.579654
683.223508	0.582856
683.561697	0.583697
683.899836	0.584602
684.237925	0.586724
684.575963	0.586812
684.913951	0.589165
685.251889	0.584025
685.589776	0.585557
685.927614	0.587343
686.265401	0.580656
686.603137	0.581364
686.940824	0.575896
687.278460	0.574377
687.616046	0.573853
687.953582	0.569398
688.291068	0.569905
688.628504	0.565378
688.965889	0.566564
689.303224	0.568370
689.640510	0.569723
689.977745	0.572669
690.314930	0.577109
690.652065	0.578934
690.989150	0.583457
691.326185	0.586471
691.663170	0.588471
692.000105	0.592869
692.336990	0.597729
692.673825	0.596986
693.010610	0.602282
693.347345	0.605504
693.684030	0.604850
694.020665	0.608075
694.357251	0.614720
694.693786	0.613715
695.030272	0.615928
695.366707	0.617457
695.703093	0.619660
696.039429	0.616599
696.375716	0.616672
696.711952	0.619114
697.048139	0.619542
697.384276	0.621088
697.720363	0.618383
698.056400	0.616449
698.392388	0.621676
698.728326	0.623073
699.064214	0.624449
699.400053	0.624690
699.735842	0.625706
700.071581	0.627590
700.407270	0.628734
700.742910	0.630421
701.078501	0.635172
701.414042	0.633509
701.749533	0.635254
702.084974	0.642551
702.420366	0.634207
702.755709	0.641028
703.091002	0.647234
703.426246	0.640058
703.761440	0.644902
704.096584	0.648753
704.431679	0.644255
704.766725	0.645843
705.101721	0.646231
705.436668	0.642247
705.771565	0.648059
706.106413	0.644796
706.441212	0.640239
706.775961	0.638537
707.110661	0.640561
707.445311	0.637010
707.779913	0.633524
708.114465	0.632223
708.448967	0.629179
708.783421	0.621604
709.117825	0.617166
709.452180	0.616373
709.786485	0.610541
710.120742	0.601969
710.454949	0.604315
710.789107	0.597962
711.123216	0.590064
711.457275	0.591922
711.791286	0.583774
712.125247	0.582375
712.459159	0.592289
712.793023	0.585093
713.126837	0.587505
713.460602	0.586582
713.794318	0.594579
714.127985	0.592342
714.461602	0.599565
714.795171	0.602493
715.128691	0.607554
715.462162	0.613278
715.795584	0.617587
716.128957	0.619676
716.462281	0.624687
716.795556	0.626941
717.128782	0.631401
717.461960	0.639672
717.795088	0.637540
718.128167	0.642472
718.461198	0.650452
718.794180	0.650163
719.127113	0.652504
719.459997	0.656189
719.792833	0.660688
720.125619	0.661690
720.458357	0.667065
720.791046	0.665060
721.123686	0.668944
721.456278	0.675239
721.788821	0.672728
722.121315	0.675976
722.453761	0.679929
722.786158	0.677652
723.118506	0.672966
723.450805	0.680730
723.783056	0.676945
724.115259	0.673804
724.447412	0.673722
724.779518	0.674806
725.111574	0.673683
725.443582	0.669584
725.775542	0.670629
726.107453	0.663567
726.439315	0.663566
726.771129	0.662534
727.102895	0.655709
727.434612	0.649136
727.766281	0.646766
728.097901	0.645930
728.429473	0.646241
728.760996	0.644263
729.092471	0.644362
729.423897	0.646859
729.755276	0.646308
730.086606	0.645463
730.417887	0.639758
730.749120	0.631739
731.080305	0.622003
731.411442	0.618381
731.742530	0.622909
732.073570	0.622041
732.404562	0.613585
732.735506	0.615888
733.066401	0.620129
733.397249	0.628041
733.728048	0.637582
734.058798	0.648714
734.389501	0.658143
734.720156	0.667439
735.050762	0.674930
735.381320	0.676015
735.711831	0.685051
736.042293	0.688932
736.372707	0.684560
736.703073	0.689142
737.033391	0.691652
737.363661	0.687593
737.693883	0.683148
738.024056	0.682626
738.354182	0.682887
738.684260	0.672892
739.014290	0.669465
739.344272	0.669874
739.674207	0.664170
740.004093	0.663328
740.333931	0.663327
740.663722	0.662949
740.993464	0.663280
741.323159	0.667353
741.652806	0.671619
741.982405	0.675721
742.311956	0.679139
742.641460	0.680812
742.970915	0.684607
743.300323	0.691879
743.629683	0.697781
743.958996	0.699393
744.288260	0.703502
744.617477	0.708827
744.946647	0.710547
745.275768	0.715280
745.604842	0.714821
745.933869	0.724473
746.262847	0.725030
746.591778	0.717460
746.920662	0.724515
747.249498	0.730339
747.578286	0.722432
747.907027	0.718552
748.235720	0.719345
748.564365	0.713900
748.892963	0.713170
749.221514	0.715859
749.550017	0.720930
749.878473	0.720000
750.206881	0.726151
750.535242	0.728260
750.863555	0.727673
751.191821	0.728522
751.520039	0.730993
751.848210	0.736188
752.176334	0.729258
752.504411	0.728281
752.832440	0.735275
753.160421	0.739626
753.488356	0.737489
753.816243	0.734949
754.144082	0.744083
754.471875	0.746549
754.799620	0.742508
755.127318	0.743638
755.454969	0.743134
755.782572	0.742359
756.110129	0.748082
756.437638	0.750409
756.765100	0.746056
757.092515	0.744566
757.419882	0.743714
757.747203	0.748861
758.074477	0.748597
758.401703	0.744823
758.728882	0.740865
759.056014	0.739847
759.383099	0.738517
759.710138	0.739605
760.037129	0.736214
760.364073	0.729673
760.690970	0.731987
761.017820	0.738795
761.344623	0.733881
761.671379	0.724310
761.998088	0.713943
762.324751	0.690977
762.651366	0.651529
762.977935	0.586933
763.304456	0.535834
763.630931	0.526322
763.957359	0.564515
764.283740	0.607523
764.610074	0.633433
764.936362	0.663124
765.262602	0.689447
765.588796	0.710595
765.914943	0.727549
766.241044	0.744593
766.567097	0.751104
766.893104	0.760479
767.219064	0.766211
767.544978	0.771721
767.870845	0.786230
768.196665	0.789762
768.522438	0.787387
768.848165	0.788471
769.173846	0.796631
769.499479	0.800560
769.825066	0.805092
770.150607	0.809804
770.476101	0.803722
770.801548	0.805871
771.126949	0.817179
771.452303	0.820333
771.777611	0.819935
772.102872	0.818671
772.428087	0.824398
772.753256	0.827027
773.078378	0.829732
773.403453	0.837687
773.728482	0.842277
774.053465	0.836379
774.378401	0.840136
774.703291	0.847888
775.028135	0.847231
775.352932	0.849059
775.677683	0.850550
776.002388	0.852521
776.327046	0.849731
776.651658	0.855397
776.976224	0.857153
777.300743	0.857846
777.625216	0.860427
777.949643	0.861928
778.274024	0.862093
778.598359	0.863653
778.922647	0.862957
779.246889	0.862790
779.571086	0.866658
779.895236	0.868713
780.219339	0.865885
780.543397	0.864106
780.867409	0.861785
781.191374	0.864324
781.515294	0.864614
781.839167	0.863988
782.162995	0.867914
782.486776	0.864100
782.810511	0.864890
783.134201	0.869615
783.457844	0.866892
783.781441	0.868867
784.104993	0.875491
784.428498	0.875097
784.751958	0.870625
785.075372	0.873817
785.398739	0.876998
785.722061	0.874209
786.045337	0.868647
786.368568	0.875109
786.691752	0.877249
787.014891	0.862919
787.337983	0.853401
787.661030	0.847387
787.984031	0.829608
788.306987	0.817046
788.629897	0.818852
788.952760	0.822315
789.275579	0.826710
789.598351	0.841796
789.921078	0.855504
790.243759	0.856591
790.566395	0.860990
790.888984	0.868831
791.211529	0.873265
791.534027	0.876775
791.856480	0.878878
792.178888	0.882353
792.501249	0.886740
792.823566	0.887070
793.145836	0.887689
793.468062	0.888958
793.790241	0.889215
794.112375	0.886472
794.434464	0.882950
794.756507	0.882195
795.078505	0.882578
795.400457	0.876669
795.722364	0.866342
796.044226	0.858049
796.366042	0.858214
796.687812	0.861521
797.009538	0.857134
797.331218	0.859889
797.652852	0.865226
797.974442	0.869318
798.295986	0.869328
798.617484	0.870616
798.938938	0.876263
799.260346	0.880962
799.581709	0.882340
799.903026	0.885175
800.224299	0.885123
800.545526	0.888576
800.866708	0.893179
801.187845	0.896654
801.508936	0.896529
801.829983	0.894230
802.150984	0.896462
802.471940	0.902492
802.792851	0.902017
803.113717	0.903153
803.434538	0.899106
803.755314	0.902834
804.076045	0.904500
804.396731	0.904428
804.717372	0.903850
805.037967	0.905868
805.358518	0.903058
805.679024	0.901294
805.999485	0.900360
806.319901	0.901074
806.640272	0.901525
806.960598	0.901293
807.280879	0.897423
807.601115	0.896415
807.921306	0.900400
808.241453	0.900479
808.561554	0.897992
808.881611	0.898188
809.201623	0.900368
809.521590	0.900353
809.841513	0.901469
810.161390	0.900465
810.481223	0.901742
810.801011	0.905814
811.120755	0.907061
811.440453	0.905673
811.760107	0.904471
812.079716	0.904132
812.399281	0.908408
812.718801	0.910497
813.038276	0.911067
813.357707	0.909221
813.677093	0.907911
813.996434	0.910369
814.315731	0.912026
814.634983	0.914246
814.954191	0.912160
815.273354	0.908154
815.592473	0.905298
815.911547	0.906086
816.230577	0.902710
816.549562	0.900448
816.868502	0.902139
817.187399	0.896869
817.506250	0.892083
817.825058	0.894352
818.143821	0.891457
818.462539	0.886132
818.781213	0.878292
819.099843	0.867973
819.418429	0.851353
819.736970	0.837120
820.055466	0.816669
820.373919	0.792900
820.692327	0.759450
821.010691	0.725508
821.329011	0.651157
821.647286	0.540120
821.965517	0.428733
822.283704	0.387468
822.601847	0.389540
822.919945	0.424423
823.237999	0.455800
823.556010	0.501773
823.873976	0.555770
824.191897	0.604973
824.509775	0.646345
824.827609	0.689538
825.145398	0.712273
825.463144	0.715420
825.780845	0.697851
826.098502	0.680141
826.416116	0.635612
826.733685	0.592491
827.051210	0.584794
827.368692	0.599430
827.686129	0.635544
828.003522	0.686343
828.320872	0.732758
828.638177	0.776039
828.955439	0.807409
829.272656	0.828419
829.589830	0.845333
829.906960	0.860758
830.224046	0.872788
830.541088	0.883359
830.858086	0.887921
831.175041	0.892227
831.491952	0.891476
831.808819	0.888284
832.125642	0.881914
832.442421	0.868019
832.759157	0.846761
833.075849	0.801573
833.392497	0.740283
833.709101	0.699971
834.025662	0.709843
834.342179	0.740499
834.658653	0.778442
834.975083	0.813301
835.291469	0.839411
835.607811	0.859874
835.924110	0.876128
836.240366	0.892343
836.556578	0.905793
836.872746	0.913783
837.188871	0.918314
837.504952	0.924191
837.820990	0.927053
838.136984	0.930613
838.452935	0.934615
838.768842	0.934616
839.084706	0.929561
839.400526	0.903392
839.716303	0.865334
840.032037	0.844002
840.347727	0.847781
840.663373	0.865003
840.978977	0.884861
841.294537	0.907225
841.610054	0.923024
841.925527	0.929682
842.240957	0.936262
842.556344	0.943015
842.871687	0.949760
843.186987	0.953363
843.502244	0.952987
843.817458	0.955289
844.132629	0.958645
844.447756	0.963533
844.762840	0.964328
845.077881	0.962883
845.392879	0.963028
845.707833	0.966484
846.022745	0.966796
846.337613	0.967534
846.652438	0.968935
846.967221	0.968227
847.281960	0.968302
847.596656	0.970245
847.911309	0.968681
848.225919	0.969535
848.540485	0.971214
848.855009	0.971899
849.169490	0.971697
849.483928	0.971821
849.798323	0.971837
850.112675	0.972329
850.426984	0.972519
850.741251	0.973477
851.055474	0.973558
851.369654	0.970754
851.683792	0.971987
851.997887	0.971981
852.311938	0.973829
852.625947	0.972816
852.939914	0.969913
853.253837	0.971211
853.567718	0.973223
853.881555	0.973548
854.195350	0.970206
854.509103	0.972556
854.822812	0.972277
855.136479	0.973387
855.450103	0.972758
855.763685	0.970671
856.077224	0.971673
856.390720	0.972518
856.704173	0.973732
857.017584	0.971586
857.330953	0.969541
857.644278	0.971502
857.957561	0.971661
858.270802	0.972455
858.584000	0.970782
858.897155	0.969810
859.210268	0.970419
859.523339	0.972024
859.836367	0.973257
860.149352	0.972719
860.462295	0.972174
860.775195	0.973029
861.088054	0.971076
861.400869	0.972159
861.713642	0.973096
862.026373	0.973607
862.339062	0.974004
862.651708	0.971307
862.964312	0.970600
863.276873	0.972838
863.589392	0.971648
863.901869	0.970836
864.214303	0.967802
864.526696	0.966464
864.839045	0.966905
865.151353	0.964673
865.463619	0.965526
865.775842	0.966182
866.088023	0.965967
866.400162	0.965175
866.712258	0.964745
867.024313	0.965057
867.336325	0.966728
867.648296	0.967190
867.960224	0.965775
868.272110	0.965259
868.583954	0.967014
868.895755	0.967477
869.207515	0.964023
869.519233	0.962011
869.830909	0.964734
870.142542	0.965663
870.454134	0.965069
870.765684	0.964704
871.077191	0.961213
871.388657	0.963426
871.700081	0.961627
872.011463	0.962562
872.322803	0.961655
872.634101	0.960974
872.945357	0.957665
873.256571	0.957001
873.567744	0.956369
873.878874	0.957578
874.189963	0.956545
874.501010	0.954460
874.812015	0.953480
875.122979	0.955338
875.433900	0.956856
875.744780	0.958325
876.055618	0.956386
876.366415	0.954509
876.677169	0.954261
876.987882	0.955424
877.298554	0.955184
877.609183	0.951995
877.919771	0.948767
878.230317	0.947814
878.540822	0.946061
878.851285	0.940989
879.161707	0.932786
879.472087	0.922102
879.782425	0.906867
880.092722	0.873652
880.402977	0.823726
880.713191	0.766167
881.023363	0.710464
881.333494	0.677514
881.643583	0.649791
881.953631	0.649335
882.263637	0.677604
882.573602	0.717007
882.883526	0.740145
883.193408	0.762854
883.503248	0.783209
883.813048	0.810910
884.122806	0.838666
884.432522	0.860653
884.742197	0.879741
885.051831	0.889261
885.361424	0.899105
885.670975	0.910861
885.980485	0.920673
886.289954	0.925783
886.599382	0.929883
886.908768	0.933095
887.218113	0.939869
887.527417	0.943188
887.836680	0.947675
888.145901	0.948410
888.455082	0.950685
888.764221	0.955384
889.073319	0.957062
889.382376	0.958523
889.691392	0.957242
890.000366	0.956731
890.309300	0.958086
890.618193	0.958547
890.927044	0.956981
891.235855	0.956292
891.544625	0.955227
891.853353	0.956770
892.162041	0.955103
892.470687	0.947837
892.779293	0.942843
893.087858	0.939256
893.396381	0.932226
893.704864	0.920720
894.013306	0.898435
894.321707	0.872038
894.630068	0.859782
894.938387	0.854934
895.246665	0.855590
895.554903	0.866951
895.863100	0.879651
896.171256	0.894785
896.479371	0.914645
896.787446	0.926849
897.095480	0.931644
897.403473	0.934292
897.711425	0.938190
898.019336	0.945411
898.327207	0.948247
898.635038	0.950051
898.942827	0.950072
899.250576	0.953005
899.558284	0.956985
899.865952	0.958339
900.173579	0.959634
900.481165	0.960652
900.788711	0.964626
901.096216	0.965843
901.403681	0.966402
901.711105	0.967557
902.018489	0.967769
902.325832	0.967427
902.633135	0.966985
902.940397	0.959670
903.247619	0.949449
903.554800	0.924875
903.861941	0.888213
904.169041	0.854772
904.476101	0.839395
904.783121	0.840080
905.090100	0.854838
905.397039	0.874122
905.703938	0.895629
906.010796	0.914172
906.317614	0.929948
906.624391	0.940697
906.931129	0.949488
907.237826	0.957257
907.544483	0.964355
907.851099	0.968252
908.157675	0.971113
908.464211	0.974092
908.770707	0.976302
909.077163	0.978483
909.383578	0.978741
909.689954	0.978572
909.996289	0.979610
910.302584	0.981927
910.608839	0.983426
910.915054	0.982396
911.221229	0.981028
911.527363	0.980286
911.833458	0.980394
912.139513	0.980488
912.445527	0.979472
912.751502	0.977364
913.057436	0.975974
913.363331	0.974027
913.669186	0.969815
913.975000	0.966492
914.280775	0.960686
914.586510	0.954927
914.892205	0.942385
915.197859	0.922800
915.503475	0.896000
915.809050	0.878799
916.114585	0.874381
916.420081	0.872237
916.725536	0.868667
917.030952	0.876171
917.336328	0.887545
917.641665	0.902291
917.946961	0.916328
918.252218	0.928139
918.557435	0.935131
918.862612	0.943774
919.167750	0.948151
919.472848	0.953586
919.777906	0.958882
920.082925	0.963477
920.387904	0.966497
920.692843	0.968883
920.997743	0.967865
921.302603	0.972396
921.607423	0.973805
921.912204	0.975730
922.216946	0.976591
922.521647	0.977387
922.826310	0.979267
923.130932	0.980633
923.435516	0.981986
923.740059	0.982554
924.044564	0.981880
924.349028	0.984691
924.653454	0.985672
924.957840	0.987192
925.262186	0.987201
925.566493	0.986865
925.870761	0.988438
926.174989	0.989690
926.479178	0.990769
926.783328	0.991449
927.087438	0.990875
927.391509	0.991313
927.695541	0.992992
927.999533	0.993404
928.303486	0.992580
928.607400	0.993990
928.911275	0.991584
929.215110	0.992520
929.518906	0.993308
929.822663	0.991535
930.126381	0.993554
930.430060	0.992573
930.733699	0.992125
931.037299	0.991746
931.340861	0.993247
931.644383	0.992784
931.947866	0.991751
932.251309	0.993301
932.554714	0.993249
932.858080	0.992537
933.161407	0.992441
933.464694	0.993644
933.767943	0.992249
934.071153	0.993597
934.374323	0.993754
934.677455	0.994248
934.980548	0.994603
935.283602	0.994178
935.586617	0.993724
935.889593	0.993848
936.192530	0.993305
936.495428	0.993454
936.798287	0.993347
937.101108	0.991847
937.403890	0.992024
937.706632	0.991341
938.009336	0.990468
938.312002	0.989452
938.614628	0.986517
938.917216	0.986841
939.219765	0.985836
939.522275	0.985436
939.824747	0.986624
940.127179	0.987211
940.429573	0.986617
940.731929	0.987844
941.034246	0.987306
941.336524	0.989074
941.638763	0.988978
941.940964	0.989777
942.243126	0.989728
942.545250	0.989991
942.847335	0.990794
943.149381	0.991459
943.451389	0.991489
943.753359	0.990497
944.055290	0.993857
944.357182	0.992598
944.659036	0.990738
944.960851	0.992299
945.262628	0.990912
945.564367	0.993574
945.866067	0.991914
946.167729	0.991787
946.469352	0.992071
946.770937	0.991835
947.072484	0.993322
947.373992	0.993250
947.675462	0.992792
947.976893	0.992120
948.278286	0.993035
948.579641	0.994009
948.880958	0.993104
949.182236	0.993677
949.483476	0.993076
949.784678	0.993000
950.085841	0.993371
950.386967	0.993598
950.688054	0.993625
950.989103	0.992445
951.290114	0.992279
951.591087	0.992150
951.892021	0.991879
952.192917	0.991854
952.493776	0.990522
952.794596	0.990298
953.095378	0.991529
953.396122	0.991248
953.696828	0.988975
953.997496	0.991627
954.298126	0.993642
954.598718	0.993863
954.899272	0.993300
955.199788	0.993024
955.500266	0.993588
955.800706	0.994573
956.101108	0.995923
956.401472	0.995993
956.701798	0.996378
957.002087	0.994649
957.302337	0.995492
957.602550	0.997198
957.902724	0.996492
958.202861	0.997103
958.502960	0.996636
958.803022	0.995380
959.103045	0.997707
959.403031	0.997057
959.702979	0.997217
960.002889	0.998075
960.302762	0.996616
960.602596	0.997119
960.902393	0.996024
961.202153	0.998562
961.501875	0.998428
961.801559	0.997045
962.101205	0.997339
962.400814	0.997696
962.700385	0.998439
962.999918	0.998762
963.299414	0.998217
963.598873	0.997854
963.898293	0.996950
964.197677	0.997504
964.497022	0.997485
964.796331	0.999460
965.095601	0.997527
965.394835	0.998409
965.694030	0.997770
965.993189	0.999735
966.292309	0.998156
966.591393	0.998822
966.890439	0.999074
967.189447	0.997108
967.488419	0.999286
967.787353	0.997697
968.086249	0.998382
968.385108	0.998605
968.683930	0.998447
968.982714	0.998534
969.281462	0.998658
969.580172	0.997157
969.878844	0.998577
970.177480	0.998829
970.476078	0.998928
970.774639	0.998453
971.073162	0.998222
971.371649	0.998441
971.670098	0.997600
971.968510	0.998744
972.266885	0.997793
972.565223	0.997468
972.863524	0.996656
973.161788	0.996870
973.460014	0.999172
973.758204	0.997720
974.056356	0.998068
974.354471	0.995474
974.652550	0.997485
974.950591	0.997771
975.248595	0.997786
975.546563	0.998131
975.844493	0.998806
976.142386	0.998422
976.440243	0.998779
976.738062	0.998812
977.035845	0.998552
977.333590	0.998819
977.631299	0.999278
977.928971	0.998253
978.226606	0.997893
978.524204	0.997269
978.821765	0.998655
979.119290	0.998346
979.416777	0.998490
979.714228	0.998312
980.011642	0.997866
980.309020	0.999881
980.606360	0.998420
980.903664	0.999340
981.200931	0.997306
981.498162	0.994817
981.795356	0.996802
982.092513	0.995165
982.389633	0.995967
982.686717	0.992897
982.983764	0.993577
983.280775	0.992352
983.577749	0.992954
983.874686	0.993510
984.171587	0.993797
984.468451	0.996613
984.765279	0.996278
985.062070	0.996041
985.358824	0.995916
985.655543	0.997639
985.952224	0.996696
986.248869	0.997262
986.545478	0.998884
986.842050	0.998390
987.138586	0.996476
987.435086	0.997913
987.731549	0.999582
988.027975	0.998272
988.324366	0.999458
988.620719	0.999057
988.917037	0.997640
989.213318	0.998487
989.509563	1.000454
989.805772	0.999566
990.101944	0.999128
990.398080	0.998153
990.694180	0.999135
990.990244	0.998474
991.286271	0.999152
991.582262	0.999005
991.878217	0.998644
992.174136	0.999099
992.470019	0.998725
992.765865	0.998957
993.061676	0.999368
993.357450	0.999630
993.653188	0.998182
993.948890	0.997589
994.244556	0.998700
994.540186	0.998379
994.835780	0.997851
995.131337	0.998902
995.426859	0.996784
995.722345	1.000106
996.017795	0.997409
996.313208	0.996863
996.608586	0.996061
996.903928	0.997242
997.199234	0.997046
997.494504	0.997161
997.789738	0.996734
998.084936	0.997748
998.380099	0.998132
998.675225	0.998806
998.970316	0.998597
999.265371	0.998437
999.560390	0.999015
999.855373	0.999783
1000.150320	0.998879
1000.445232	0.999657
1000.740108	0.998170
1001.034948	0.999789
1001.329752	0.999203
1001.624521	0.999469
1001.919254	0.999361
1002.213951	0.999038
1002.508613	0.999606
1002.803239	1.001005
1003.097829	0.999458
1003.392384	0.999801
1003.686903	0.998911
1003.981386	0.999038
1004.275834	0.999805
1004.570246	0.999063
1004.864623	0.999413
1005.158964	1.000166
1005.453270	0.999385
1005.747540	0.997975
1006.041775	0.998949
1006.335974	0.999323
1006.630138	0.999483
1006.924266	1.000516
1007.218359	1.001703
1007.512416	0.999513
1007.806438	0.999336
1008.100425	1.000264
1008.394376	0.999199
1008.688292	0.998401
1008.982172	1.000891
1009.276017	1.000327
1009.569827	0.999043
1009.863602	0.998794
1010.157341	1.000781
1010.451045	0.999558
1010.744714	1.000628
1011.038347	0.999504
1011.331945	0.998948
1011.625508	0.997822
1011.919036	0.998571
1012.212528	0.999046
1012.505986	0.998642
1012.799408	0.998569
1013.092795	1.000287
1013.386147	0.999494
1013.679464	0.999562
1013.972745	0.998326
1014.265992	0.998301
1014.559204	0.998544
1014.852380	0.999196
1015.145521	0.999656
1015.438628	0.999514
1015.731699	0.999223
1016.024736	1.000446
1016.317737	0.998657
1016.610703	0.999499
1016.903635	1.000934
1017.196531	1.000077
1017.489393	1.000438
1017.782219	0.999337
1018.075011	0.999184
1018.367768	1.000810
1018.660490	1.000630
1018.953177	1.000630
1019.245829	1.000630
