Dividing Wavelength (nm)	Counts (n)	Blue Motor Position (mm): 0.000000	Red Motor Position (mm): 12.400000	
326.493990	1.001353
326.888308	1.001353
327.282561	1.001353
327.676750	1.000301
328.070874	0.998726
328.464933	1.000925
328.858929	0.999156
329.252859	0.998353
329.646726	0.999908
330.040528	1.001015
330.434265	0.999877
330.827938	1.000461
331.221547	1.000745
331.615091	1.000462
332.008571	0.999782
332.401986	0.999573
332.795338	1.000830
333.188625	0.998798
333.581847	1.000184
333.975006	0.999872
334.368100	0.998986
334.761129	1.000578
335.154095	1.000843
335.546996	0.996676
335.939833	0.993883
336.332606	0.993118
336.725315	0.994312
337.117960	0.996061
337.510540	0.994226
337.903056	0.994344
338.295508	0.991623
338.687896	0.994221
339.080220	0.993786
339.472480	0.994222
339.864676	0.994537
340.256807	0.994246
340.648875	0.994464
341.040879	0.994401
341.432818	0.993889
341.824694	0.994059
342.216506	0.994914
342.608253	0.994158
342.999937	0.993140
343.391557	0.993887
343.783113	0.994912
344.174605	0.993483
344.566033	0.994841
344.957397	0.993651
345.348697	0.993088
345.739934	0.993488
346.131106	0.993794
346.522215	0.993153
346.913260	0.992386
347.304241	0.994163
347.695159	0.993461
348.086012	0.992965
348.476802	0.994151
348.867528	0.993892
349.258191	0.992478
349.648789	0.994530
350.039324	0.993514
350.429796	0.994105
350.820203	0.993803
351.210548	0.993743
351.600828	0.994778
351.991045	0.992704
352.381198	0.992291
352.771288	0.993393
353.161314	0.993711
353.551276	0.995524
353.941175	0.993206
354.331010	0.993187
354.720782	0.994458
355.110490	0.994067
355.500135	0.993935
355.889717	0.993057
356.279235	0.994237
356.668689	0.992914
357.058080	0.993113
357.447408	0.994540
357.836672	0.994244
358.225873	0.993615
358.615010	0.994197
359.004084	0.994688
359.393095	0.994114
359.782043	0.993626
360.170927	0.994480
360.559748	0.994480
360.948505	0.992778
361.337199	0.993562
361.725830	0.994188
362.114398	0.992836
362.502903	0.993727
362.891344	0.994881
363.279722	0.993784
363.668037	0.993967
364.056289	0.994592
364.444478	0.993648
364.832603	0.994877
365.220665	0.992620
365.608665	0.993810
365.996601	0.992923
366.384474	0.993735
366.772284	0.992764
367.160031	0.990364
367.547715	0.992833
367.935336	0.993758
368.322893	0.993119
368.710388	0.992412
369.097820	0.993650
369.485189	0.991889
369.872495	0.992316
370.259738	0.989814
370.646918	0.992794
371.034035	0.994336
371.421090	0.992658
371.808081	0.992673
372.195010	0.993107
372.581875	0.992406
372.968678	0.992281
373.355418	0.992428
373.742096	0.992271
374.128710	0.993870
374.515262	0.992953
374.901751	0.992109
375.288177	0.993353
375.674540	0.993467
376.060841	0.991539
376.447079	0.993183
376.833254	0.992945
377.219367	0.992496
377.605417	0.992757
377.991404	0.992676
378.377329	0.991612
378.763191	0.992939
379.148991	0.993297
379.534727	0.992625
379.920402	0.993131
380.306013	0.992487
380.691563	0.993494
381.077049	0.992597
381.462474	0.992879
381.847835	0.993395
382.233134	0.992429
382.618371	0.993218
383.003545	0.993407
383.388657	0.992035
383.773706	0.993494
384.158693	0.992637
384.543618	0.992260
384.928480	0.992693
385.313280	0.991278
385.698017	0.990999
386.082692	0.991303
386.467305	0.990051
386.851856	0.987749
387.236344	0.984958
387.620770	0.983313
388.005133	0.981972
388.389435	0.979514
388.773674	0.976860
389.157851	0.973059
389.541965	0.968542
389.926018	0.965213
390.310008	0.961882
390.693936	0.956152
391.077802	0.951109
391.461606	0.946437
391.845348	0.940325
392.229027	0.936575
392.612645	0.929923
392.996200	0.921276
393.379694	0.912750
393.763125	0.905173
394.146494	0.898798
394.529801	0.888296
394.913047	0.879279
395.296230	0.873591
395.679351	0.863215
396.062410	0.853152
396.445408	0.846462
396.828343	0.836593
397.211217	0.826150
397.594028	0.823815
397.976778	0.810075
398.359466	0.800305
398.742092	0.788544
399.124656	0.786718
399.507158	0.773296
399.889598	0.763766
400.271977	0.749650
400.654294	0.743638
401.036549	0.734755
401.418742	0.729992
401.800874	0.711413
402.182944	0.702598
402.564952	0.687699
402.946898	0.683468
403.328783	0.676056
403.710606	0.677514
404.092367	0.651416
404.474067	0.647983
404.855705	0.640858
405.237282	0.643579
405.618797	0.626028
406.000250	0.617664
406.381642	0.604571
406.762972	0.603306
407.144240	0.597386
407.525447	0.593976
407.906593	0.582690
408.287677	0.574875
408.668700	0.578229
409.049661	0.569110
409.430560	0.562201
409.811399	0.567040
410.192176	0.546484
410.572891	0.550798
410.953545	0.537512
411.334138	0.547722
411.714669	0.539124
412.095139	0.549278
412.475547	0.532796
412.855894	0.533563
413.236180	0.531204
413.616405	0.535132
413.996568	0.525073
414.376670	0.530271
414.756711	0.534355
415.136691	0.530693
415.516609	0.521884
415.896466	0.517586
416.276262	0.513592
416.655997	0.515310
417.035670	0.495884
417.415283	0.487564
417.794834	0.492184
418.174324	0.496676
418.553753	0.506817
418.933121	0.487879
419.312428	0.482237
419.691674	0.487343
420.070859	0.475809
420.449983	0.483662
420.829045	0.474017
421.208047	0.482128
421.586988	0.475784
421.965867	0.474222
422.344686	0.462935
422.723444	0.475384
423.102141	0.492493
423.480777	0.465377
423.859352	0.485294
424.237866	0.462496
424.616319	0.463636
424.994712	0.454340
425.373044	0.464735
425.751314	0.453115
426.129524	0.469368
426.507673	0.452739
426.885762	0.446727
427.263789	0.452239
427.641756	0.461992
428.019662	0.451760
428.397508	0.451400
428.775292	0.455327
429.153016	0.447648
429.530679	0.453512
429.908282	0.446996
430.285824	0.456993
430.663305	0.435139
431.040726	0.456248
431.418086	0.456718
431.795385	0.448109
432.172624	0.446505
432.549802	0.447398
432.926920	0.446181
433.303977	0.445895
433.680974	0.442723
434.057910	0.441289
434.434786	0.440891
434.811601	0.443628
435.188355	0.425585
435.565050	0.434987
435.941683	0.436196
436.318257	0.421378
436.694770	0.421215
437.071222	0.419147
437.447614	0.424027
437.823946	0.430678
438.200218	0.420200
438.576429	0.429480
438.952580	0.422620
439.328670	0.419608
439.704700	0.426086
440.080670	0.427029
440.456580	0.408396
440.832429	0.415778
441.208218	0.427004
441.583947	0.416811
441.959616	0.415554
442.335224	0.420944
442.710773	0.411845
443.086261	0.409248
443.461689	0.423602
443.837057	0.413674
444.212365	0.403060
444.587612	0.410423
444.962800	0.400318
445.337927	0.401879
445.712995	0.428290
446.088002	0.390663
446.462949	0.400851
446.837837	0.405087
447.212664	0.394269
447.587431	0.385787
447.962139	0.356314
448.336786	0.315765
448.711374	0.326267
449.085901	0.369876
449.460369	0.374593
449.834776	0.378630
450.209124	0.357224
450.583412	0.349989
450.957640	0.343097
451.331808	0.354359
451.705917	0.377818
452.079965	0.381803
452.453954	0.370209
452.827883	0.377612
453.201752	0.372501
453.575562	0.383528
453.949311	0.371886
454.323001	0.377916
454.696632	0.373721
455.070202	0.366197
455.443713	0.358043
455.817164	0.353439
456.190556	0.348708
456.563888	0.345534
456.937160	0.343963
457.310373	0.360311
457.683526	0.359343
458.056619	0.365014
458.429653	0.365854
458.802628	0.369474
459.175542	0.363528
459.548398	0.346300
459.921194	0.338660
460.293930	0.338603
460.666607	0.316248
461.039224	0.304502
461.411782	0.300409
461.784280	0.299810
462.156719	0.303513
462.529099	0.307955
462.901419	0.324077
463.273680	0.328628
463.645882	0.328042
464.018024	0.334203
464.390106	0.326821
464.762130	0.311376
465.134094	0.294376
465.505999	0.263834
465.877845	0.234546
466.249631	0.221197
466.621358	0.228815
466.993026	0.242671
467.364634	0.248945
467.736184	0.257502
468.107674	0.266354
468.479105	0.265153
468.850477	0.272188
469.221790	0.278798
469.593043	0.289319
469.964238	0.293746
470.335373	0.293111
470.706449	0.291295
471.077467	0.292284
471.448425	0.254343
471.819324	0.230038
472.190164	0.229506
472.560945	0.257845
472.931667	0.280362
473.302330	0.284577
473.672934	0.296586
474.043479	0.284185
474.413965	0.285954
474.784393	0.289698
475.154761	0.284792
475.525070	0.281508
475.895321	0.287415
476.265513	0.281581
476.635645	0.276869
477.005719	0.276846
477.375734	0.273519
477.745691	0.266797
478.115588	0.263510
478.485427	0.257018
478.855207	0.243937
479.224928	0.226347
479.594591	0.214405
479.964194	0.217682
480.333739	0.218772
480.703226	0.220581
481.072653	0.219113
481.442022	0.214581
481.811333	0.211235
482.180584	0.214621
482.549777	0.219754
482.918912	0.223150
483.287988	0.222979
483.657005	0.222344
484.025964	0.228846
484.394864	0.226315
484.763706	0.227046
485.132489	0.232085
485.501213	0.232665
485.869879	0.231026
486.238487	0.234191
486.607036	0.232182
486.975527	0.236619
487.343959	0.232722
487.712333	0.231778
488.080648	0.233125
488.448905	0.232432
488.817104	0.233757
489.185244	0.227991
489.553326	0.225144
489.921350	0.214756
490.289315	0.197461
490.657222	0.192360
491.025070	0.193793
491.392861	0.195557
491.760593	0.201420
492.128267	0.207041
492.495883	0.212665
492.863440	0.218609
493.230939	0.224965
493.598380	0.226324
493.965763	0.228535
494.333088	0.231022
494.700354	0.232470
495.067563	0.231312
495.434713	0.234674
495.801805	0.232605
496.168839	0.234172
496.535815	0.235337
496.902733	0.235277
497.269593	0.236952
497.636395	0.234719
498.003139	0.234896
498.369825	0.237819
498.736453	0.234570
499.103023	0.235834
499.469535	0.235187
499.835989	0.235588
500.202385	0.236555
500.568723	0.239971
500.935003	0.235102
501.301226	0.238892
501.667390	0.233622
502.033497	0.231566
502.399546	0.234578
502.765537	0.236454
503.131470	0.234558
503.497345	0.231057
503.863163	0.239888
504.228923	0.232819
504.594625	0.231371
504.960269	0.236855
505.325856	0.232191
505.691385	0.236559
506.056856	0.233360
506.422270	0.232451
506.787625	0.235003
507.152924	0.232532
507.518164	0.232765
507.883347	0.234755
508.248472	0.236285
508.613540	0.231371
508.978550	0.234100
509.343503	0.234507
509.708398	0.232137
510.073236	0.229672
510.438016	0.229658
510.802738	0.230425
511.167403	0.229271
511.532010	0.231584
511.896561	0.226830
512.261053	0.225751
512.625488	0.227843
512.989866	0.228202
513.354186	0.228491
513.718449	0.230371
514.082655	0.226597
514.446803	0.228795
514.810894	0.226721
515.174927	0.229069
515.538904	0.228701
515.902822	0.225598
516.266684	0.227897
516.630488	0.229135
516.994235	0.227855
517.357925	0.226520
517.721558	0.224753
518.085133	0.224446
518.448651	0.224600
518.812112	0.226912
519.175516	0.226270
519.538863	0.223922
519.902152	0.225604
520.265385	0.222504
520.628560	0.224261
520.991678	0.224728
521.354739	0.223349
521.717743	0.224887
522.080690	0.225238
522.443580	0.222528
522.806413	0.223578
523.169189	0.222782
523.531908	0.221594
523.894569	0.225464
524.257174	0.225141
524.619722	0.222723
524.982213	0.224009
525.344647	0.222916
525.707025	0.223733
526.069345	0.221946
526.431608	0.223511
526.793815	0.221561
527.155964	0.225776
527.518057	0.224573
527.880093	0.225635
528.242072	0.224388
528.603995	0.226213
528.965860	0.227754
529.327669	0.226627
529.689421	0.227707
530.051117	0.228391
530.412755	0.226013
530.774337	0.228450
531.135862	0.228630
531.497331	0.228070
531.858743	0.231052
532.220098	0.227830
532.581396	0.230104
532.942638	0.230774
533.303824	0.231553
533.664953	0.231247
534.026025	0.233192
534.387040	0.231074
534.747999	0.231236
535.108902	0.230265
535.469748	0.234922
535.830537	0.232636
536.191270	0.233059
536.551947	0.232697
536.912567	0.232909
537.273131	0.234620
537.633638	0.234764
537.994089	0.234842
538.354483	0.235989
538.714821	0.233246
539.075103	0.232683
539.435328	0.233677
539.795497	0.237201
540.155609	0.233845
540.515665	0.232265
540.875665	0.237914
541.235609	0.236150
541.595496	0.236227
541.955328	0.232924
542.315102	0.235604
542.674821	0.236402
543.034483	0.236637
543.394090	0.236048
543.753640	0.238238
544.113134	0.233311
544.472571	0.236384
544.831953	0.233326
545.191278	0.237337
545.550548	0.236964
545.909761	0.233721
546.268918	0.234523
546.628019	0.232646
546.987064	0.235426
547.346053	0.237441
547.704986	0.235253
548.063863	0.235381
548.422684	0.235413
548.781449	0.237494
549.140158	0.234990
549.498811	0.237991
549.857408	0.241335
550.215949	0.235939
550.574434	0.238788
550.932864	0.236761
551.291237	0.235352
551.649555	0.236889
552.007817	0.236810
552.366022	0.237473
552.724173	0.237823
553.082267	0.237851
553.440305	0.234894
553.798288	0.239181
554.156215	0.236056
554.514086	0.236730
554.871902	0.239690
555.229661	0.238704
555.587365	0.239484
555.945014	0.242191
556.302606	0.239284
556.660143	0.241480
557.017625	0.237923
557.375050	0.240109
557.732421	0.237317
558.089735	0.239308
558.446994	0.239288
558.804197	0.238463
559.161345	0.238412
559.518437	0.241994
559.875474	0.239778
560.232455	0.239090
560.589381	0.240302
560.946251	0.240366
561.303065	0.237726
561.659825	0.239457
562.016528	0.240871
562.373177	0.244021
562.729770	0.241067
563.086307	0.243133
563.442789	0.240678
563.799216	0.243755
564.155587	0.242589
564.511904	0.243645
564.868164	0.243741
565.224370	0.243445
565.580520	0.245239
565.936615	0.245163
566.292654	0.248325
566.648638	0.245091
567.004567	0.246003
567.360441	0.246750
567.716260	0.248580
568.072023	0.246368
568.427732	0.247180
568.783385	0.249528
569.138982	0.247760
569.494525	0.247310
569.850013	0.250102
570.205445	0.248582
570.560823	0.251232
570.916145	0.253329
571.271412	0.251469
571.626625	0.252929
571.981782	0.253295
572.336884	0.254364
572.691931	0.254017
573.046923	0.255299
573.401860	0.256129
573.756743	0.257949
574.111570	0.256941
574.466342	0.257380
574.821059	0.256651
575.175722	0.259471
575.530330	0.259148
575.884882	0.259485
576.239380	0.261454
576.593823	0.261835
576.948211	0.261515
577.302544	0.264903
577.656823	0.264573
578.011047	0.264461
578.365216	0.265106
578.719330	0.266546
579.073389	0.266826
579.427394	0.268280
579.781344	0.268745
580.135239	0.270452
580.489080	0.270240
580.842866	0.273047
581.196597	0.272733
581.550273	0.271502
581.903895	0.272580
582.257463	0.270429
582.610975	0.274125
582.964434	0.273452
583.317837	0.276095
583.671186	0.276076
584.024481	0.276722
584.377721	0.278713
584.730906	0.279507
585.084037	0.278973
585.437113	0.280569
585.790135	0.279697
586.143103	0.282879
586.496016	0.284034
586.848874	0.281700
587.201679	0.281933
587.554428	0.285507
587.907124	0.284176
588.259765	0.284780
588.612352	0.285660
588.964884	0.289343
589.317362	0.289240
589.669786	0.288592
590.022155	0.287606
590.374470	0.286551
590.726731	0.288983
591.078937	0.293432
591.431090	0.289673
591.783188	0.293986
592.135232	0.294375
592.487222	0.294470
592.839157	0.292657
593.191038	0.294906
593.542866	0.296694
593.894639	0.300344
594.246358	0.298196
594.598022	0.297744
594.949633	0.301358
595.301190	0.302108
595.652692	0.301522
596.004141	0.297361
596.355535	0.305706
596.706876	0.305957
597.058162	0.308467
597.409395	0.305778
597.760573	0.303314
598.111698	0.306900
598.462768	0.307113
598.813785	0.308603
599.164748	0.309732
599.515657	0.309918
599.866511	0.313221
600.217312	0.308369
600.568060	0.313877
600.918753	0.310533
601.269392	0.311645
601.619978	0.314789
601.970510	0.312528
602.320988	0.312415
602.671412	0.309850
603.021783	0.312609
603.372100	0.313802
603.722363	0.313702
604.072572	0.314481
604.422728	0.314153
604.772830	0.316379
605.122878	0.316105
605.472872	0.316145
605.822813	0.314756
606.172701	0.317386
606.522534	0.314953
606.872314	0.314882
607.222041	0.315865
607.571714	0.314102
607.921333	0.315209
608.270899	0.315312
608.620411	0.311942
608.969870	0.315562
609.319276	0.316027
609.668627	0.315647
610.017926	0.314199
610.367171	0.312835
610.716362	0.313767
611.065500	0.314107
611.414585	0.312531
611.763616	0.312823
612.112594	0.313302
612.461518	0.312780
612.810389	0.310305
613.159207	0.312852
613.507971	0.314579
613.856682	0.310304
614.205340	0.312078
614.553945	0.308799
614.902496	0.312555
615.250994	0.310674
615.599439	0.311574
615.947830	0.310958
616.296169	0.311893
616.644454	0.311460
616.992686	0.311026
617.340864	0.309298
617.688990	0.312780
618.037063	0.309652
618.385082	0.311495
618.733048	0.308356
619.080961	0.310672
619.428821	0.309898
619.776628	0.309273
620.124382	0.311781
620.472083	0.311837
620.819731	0.311189
621.167326	0.315276
621.514868	0.314874
621.862357	0.319006
622.209793	0.318643
622.557176	0.320592
622.904506	0.321911
623.251783	0.324351
623.599007	0.326560
623.946179	0.326271
624.293297	0.328263
624.640363	0.332011
624.987376	0.332347
625.334336	0.335033
625.681243	0.337135
626.028097	0.337474
626.374899	0.338758
626.721647	0.339265
627.068343	0.342490
627.414987	0.343404
627.761577	0.346062
628.108115	0.343966
628.454600	0.349097
628.801032	0.346488
629.147412	0.348544
629.493739	0.348669
629.840014	0.352174
630.186236	0.349698
630.532405	0.355231
630.878521	0.352298
631.224585	0.354742
631.570597	0.358037
631.916556	0.356518
632.262462	0.356718
632.608316	0.358742
632.954117	0.359738
633.299866	0.360721
633.645562	0.360898
633.991206	0.365184
634.336797	0.368509
634.682336	0.370483
635.027823	0.372648
635.373257	0.372632
635.718639	0.376424
636.063968	0.375478
636.409245	0.381601
636.754470	0.381817
637.099642	0.384304
637.444762	0.387451
637.789829	0.386357
638.134845	0.390307
638.479808	0.391367
638.824719	0.390567
639.169577	0.395088
639.514383	0.393909
639.859137	0.398179
640.203839	0.397999
640.548489	0.398571
640.893086	0.399348
641.237632	0.401339
641.582125	0.400015
641.926566	0.401037
642.270955	0.401715
642.615292	0.401988
642.959576	0.400706
643.303809	0.401933
643.647990	0.400948
643.992118	0.402077
644.336195	0.405695
644.680219	0.403565
645.024192	0.403810
645.368112	0.397818
645.711981	0.396714
646.055797	0.391840
646.399562	0.394603
646.743274	0.386655
647.086935	0.384062
647.430544	0.384254
647.774101	0.382807
648.117606	0.382505
648.461059	0.383007
648.804460	0.385549
649.147810	0.390953
649.491108	0.392473
649.834354	0.393579
650.177548	0.399159
650.520690	0.404883
650.863781	0.405953
651.206820	0.405125
651.549807	0.409966
651.892742	0.413718
652.235626	0.413364
652.578458	0.414405
652.921238	0.420064
653.263967	0.417994
653.606644	0.422303
653.949269	0.421664
654.291843	0.425867
654.634365	0.422301
654.976836	0.425629
655.319255	0.425848
655.661622	0.427278
656.003938	0.427682
656.346203	0.430177
656.688416	0.428451
657.030577	0.431880
657.372687	0.433967
657.714746	0.434602
658.056753	0.431813
658.398708	0.435043
658.740612	0.436219
659.082465	0.432956
659.424266	0.433251
659.766016	0.432493
660.107715	0.435461
660.449362	0.434075
660.790958	0.434997
661.132503	0.435140
661.473996	0.433216
661.815438	0.434194
662.156829	0.434378
662.498168	0.434790
662.839456	0.435954
663.180693	0.434123
663.521879	0.433948
663.863013	0.435371
664.204097	0.433539
664.545129	0.430291
664.886110	0.430858
665.227040	0.427864
665.567918	0.430764
665.908746	0.428483
666.249522	0.428560
666.590248	0.428987
666.930922	0.427460
667.271545	0.426829
667.612118	0.426330
667.952639	0.427753
668.293109	0.426548
668.633528	0.429631
668.973896	0.429075
669.314213	0.429959
669.654480	0.431597
669.994695	0.432035
670.334859	0.432039
670.674973	0.432835
671.015035	0.433256
671.355047	0.432942
671.695008	0.433947
672.034918	0.436001
672.374777	0.435066
672.714585	0.436123
673.054342	0.436475
673.394049	0.436140
673.733705	0.433935
674.073310	0.434945
674.412864	0.438088
674.752368	0.439173
675.091820	0.439089
675.431223	0.444092
675.770574	0.443534
676.109875	0.446546
676.449125	0.445817
676.788324	0.448634
677.127473	0.454235
677.466571	0.453468
677.805619	0.455081
678.144616	0.456597
678.483562	0.457665
678.822458	0.460747
679.161303	0.461803
679.500098	0.462191
679.838842	0.463929
680.177535	0.463533
680.516179	0.461808
680.854771	0.461263
681.193314	0.454381
681.531805	0.445498
681.870247	0.433935
682.208638	0.426679
682.546978	0.425478
682.885268	0.427866
683.223508	0.433638
683.561697	0.437215
683.899836	0.439734
684.237925	0.443304
684.575963	0.445715
684.913951	0.448885
685.251889	0.444578
685.589776	0.446492
685.927614	0.448797
686.265401	0.443545
686.603137	0.445024
686.940824	0.438871
687.278460	0.437294
687.616046	0.436437
687.953582	0.431109
688.291068	0.432648
688.628504	0.428436
688.965889	0.430664
689.303224	0.435104
689.640510	0.438801
689.977745	0.444440
690.314930	0.452335
690.652065	0.456600
690.989150	0.464754
691.326185	0.470602
691.663170	0.475461
692.000105	0.482346
692.336990	0.489476
692.673825	0.491674
693.010610	0.499449
693.347345	0.504586
693.684030	0.505547
694.020665	0.511417
694.357251	0.519921
694.693786	0.519581
695.030272	0.522946
695.366707	0.526732
695.703093	0.530502
696.039429	0.528251
696.375716	0.529652
696.711952	0.532614
697.048139	0.534113
697.384276	0.536514
697.720363	0.534515
698.056400	0.533875
698.392388	0.539359
698.728326	0.542355
699.064214	0.545057
699.400053	0.545605
699.735842	0.549692
700.071581	0.552272
700.407270	0.555127
700.742910	0.558458
701.078501	0.563882
701.414042	0.564634
701.749533	0.568058
702.084974	0.575360
702.420366	0.568075
702.755709	0.576025
703.091002	0.584246
703.426246	0.578013
703.761440	0.583707
704.096584	0.588409
704.431679	0.585656
704.766725	0.587015
705.101721	0.589226
705.436668	0.584662
705.771565	0.591622
706.106413	0.588720
706.441212	0.583854
706.775961	0.582368
707.110661	0.585854
707.445311	0.581577
707.779913	0.579484
708.114465	0.577780
708.448967	0.574642
708.783421	0.566369
709.117825	0.560867
709.452180	0.561825
709.786485	0.554650
710.120742	0.545240
710.454949	0.546954
710.789107	0.539274
711.123216	0.530165
711.457275	0.531544
711.791286	0.522460
712.125247	0.522309
712.459159	0.532426
712.793023	0.525237
713.126837	0.529103
713.460602	0.529273
713.794318	0.538771
714.127985	0.537741
714.461602	0.547037
714.795171	0.550978
715.128691	0.558587
715.462162	0.566164
715.795584	0.571705
716.128957	0.574745
716.462281	0.581482
716.795556	0.584917
717.128782	0.590115
717.461960	0.599395
717.795088	0.597638
718.128167	0.604052
718.461198	0.612945
718.794180	0.612939
719.127113	0.616009
719.459997	0.619523
719.792833	0.626303
720.125619	0.626710
720.458357	0.633430
720.791046	0.633090
721.123686	0.636067
721.456278	0.643350
721.788821	0.640210
722.121315	0.643985
722.453761	0.648095
722.786158	0.646227
723.118506	0.642938
723.450805	0.650953
723.783056	0.647026
724.115259	0.644016
724.447412	0.643873
724.779518	0.645444
725.111574	0.643958
725.443582	0.639949
725.775542	0.641114
726.107453	0.634892
726.439315	0.632998
726.771129	0.632278
727.102895	0.625279
727.434612	0.618695
727.766281	0.616333
728.097901	0.615197
728.429473	0.615358
728.760996	0.613880
729.092471	0.613822
729.423897	0.617784
729.755276	0.617127
730.086606	0.616505
730.417887	0.611288
730.749120	0.602471
731.080305	0.593428
731.411442	0.589518
731.742530	0.593411
732.073570	0.592742
732.404562	0.585290
732.735506	0.587425
733.066401	0.591281
733.397249	0.600943
733.728048	0.612036
734.058798	0.624146
734.389501	0.635572
734.720156	0.644677
735.050762	0.653232
735.381320	0.654377
735.711831	0.663399
736.042293	0.668200
736.372707	0.663417
736.703073	0.668811
737.033391	0.671038
737.363661	0.667463
737.693883	0.663516
738.024056	0.662103
738.354182	0.662761
738.684260	0.651200
739.014290	0.647678
739.344272	0.648864
739.674207	0.642416
740.004093	0.640987
740.333931	0.641274
740.663722	0.641739
740.993464	0.642410
741.323159	0.645726
741.652806	0.650885
741.982405	0.655037
742.311956	0.660991
742.641460	0.662277
742.970915	0.665821
743.300323	0.674012
743.629683	0.680597
743.958996	0.682688
744.288260	0.686348
744.617477	0.693278
744.946647	0.694071
745.275768	0.699934
745.604842	0.699500
745.933869	0.709965
746.262847	0.709426
746.591778	0.704134
746.920662	0.710763
747.249498	0.715856
747.578286	0.706950
747.907027	0.703317
748.235720	0.703492
748.564365	0.699272
748.892963	0.698632
749.221514	0.702194
749.550017	0.706548
749.878473	0.706995
750.206881	0.712416
750.535242	0.715074
750.863555	0.713541
751.191821	0.715411
751.520039	0.718381
751.848210	0.722664
752.176334	0.715548
752.504411	0.714718
752.832440	0.722201
753.160421	0.726549
753.488356	0.725491
753.816243	0.722541
754.144082	0.730561
754.471875	0.734783
754.799620	0.729830
755.127318	0.730166
755.454969	0.730776
755.782572	0.729535
756.110129	0.735788
756.437638	0.737797
756.765100	0.735047
757.092515	0.732738
757.419882	0.731528
757.747203	0.736466
758.074477	0.736626
758.401703	0.732774
758.728882	0.728106
759.056014	0.727833
759.383099	0.726605
759.710138	0.727256
760.037129	0.724250
760.364073	0.718598
760.690970	0.720726
761.017820	0.726426
761.344623	0.721272
761.671379	0.712520
761.998088	0.700316
762.324751	0.677355
762.651366	0.636214
762.977935	0.568999
763.304456	0.516426
763.630931	0.507296
763.957359	0.546236
764.283740	0.590787
764.610074	0.618295
764.936362	0.649188
765.262602	0.676028
765.588796	0.697712
765.914943	0.715662
766.241044	0.733526
766.567097	0.740139
766.893104	0.750255
767.219064	0.757004
767.544978	0.762730
767.870845	0.777277
768.196665	0.779722
768.522438	0.778715
768.848165	0.778678
769.173846	0.788813
769.499479	0.792457
769.825066	0.796806
770.150607	0.801389
770.476101	0.797299
770.801548	0.797497
771.126949	0.809068
771.452303	0.812299
771.777611	0.811209
772.102872	0.811279
772.428087	0.816655
772.753256	0.819775
773.078378	0.821987
773.403453	0.831016
773.728482	0.835838
774.053465	0.828399
774.378401	0.831480
774.703291	0.841462
775.028135	0.840007
775.352932	0.841722
775.677683	0.845162
776.002388	0.845957
776.327046	0.844455
776.651658	0.847579
776.976224	0.851899
777.300743	0.852030
777.625216	0.854031
777.949643	0.855553
778.274024	0.856183
778.598359	0.857825
778.922647	0.856366
779.246889	0.856814
779.571086	0.861456
779.895236	0.863322
780.219339	0.859044
780.543397	0.858129
780.867409	0.856198
781.191374	0.856382
781.515294	0.858914
781.839167	0.857701
782.162995	0.861086
782.486776	0.858061
782.810511	0.858604
783.134201	0.862683
783.457844	0.860428
783.781441	0.863543
784.104993	0.869987
784.428498	0.870224
784.751958	0.864924
785.075372	0.867251
785.398739	0.871491
785.722061	0.867447
786.045337	0.864365
786.368568	0.868692
786.691752	0.871059
787.014891	0.857631
787.337983	0.847345
787.661030	0.839922
787.984031	0.823112
788.306987	0.809203
788.629897	0.811038
788.952760	0.815903
789.275579	0.820223
789.598351	0.835005
789.921078	0.848754
790.243759	0.849870
790.566395	0.855684
790.888984	0.861740
791.211529	0.868336
791.534027	0.870819
791.856480	0.873074
792.178888	0.877804
792.501249	0.881123
792.823566	0.881248
793.145836	0.882195
793.468062	0.883994
793.790241	0.883426
794.112375	0.882722
794.434464	0.876890
794.756507	0.877288
795.078505	0.876685
795.400457	0.870666
795.722364	0.858936
796.044226	0.852213
796.366042	0.850740
796.687812	0.853940
797.009538	0.849860
797.331218	0.854377
797.652852	0.857980
797.974442	0.863185
798.295986	0.862153
798.617484	0.865272
798.938938	0.869549
799.260346	0.874812
799.581709	0.876447
799.903026	0.878629
800.224299	0.878980
800.545526	0.883118
800.866708	0.887117
801.187845	0.891021
801.508936	0.891101
801.829983	0.889488
802.150984	0.892047
802.471940	0.896399
802.792851	0.896212
803.113717	0.897351
803.434538	0.894723
803.755314	0.897946
804.076045	0.900367
804.396731	0.899182
804.717372	0.898922
805.037967	0.901120
805.358518	0.898809
805.679024	0.895721
805.999485	0.896325
806.319901	0.896591
806.640272	0.897275
806.960598	0.895588
807.280879	0.893066
807.601115	0.891598
807.921306	0.894755
808.241453	0.895242
808.561554	0.893160
808.881611	0.893205
809.201623	0.895194
809.521590	0.895458
809.841513	0.896923
810.161390	0.896417
810.481223	0.896800
810.801011	0.899993
811.120755	0.901809
811.440453	0.901369
811.760107	0.898860
812.079716	0.900007
812.399281	0.903064
812.718801	0.906388
813.038276	0.905242
813.357707	0.905901
813.677093	0.903101
813.996434	0.906482
814.315731	0.908356
814.634983	0.909689
814.954191	0.907519
815.273354	0.904117
815.592473	0.899947
815.911547	0.900150
816.230577	0.897170
816.549562	0.894798
816.868502	0.895972
817.187399	0.892503
817.506250	0.887428
817.825058	0.888238
818.143821	0.885761
818.462539	0.880273
818.781213	0.871711
819.099843	0.861399
819.418429	0.844557
819.736970	0.827418
820.055466	0.807501
820.373919	0.782824
820.692327	0.748434
821.010691	0.713650
821.329011	0.635881
821.647286	0.518875
821.965517	0.404776
822.283704	0.362589
822.601847	0.363080
822.919945	0.398672
823.237999	0.432990
823.556010	0.480885
823.873976	0.536251
824.191897	0.587515
824.509775	0.629966
824.827609	0.675985
825.145398	0.699204
825.463144	0.701760
825.780845	0.685310
826.098502	0.665727
826.416116	0.620262
826.733685	0.575117
827.051210	0.566877
827.368692	0.580987
827.686129	0.619171
828.003522	0.672527
828.320872	0.720677
828.638177	0.764312
828.955439	0.798147
829.272656	0.820174
829.589830	0.837079
829.906960	0.853492
830.224046	0.865521
830.541088	0.875675
830.858086	0.880590
831.175041	0.885446
831.491952	0.885516
831.808819	0.882462
832.125642	0.875713
832.442421	0.860586
832.759157	0.838957
833.075849	0.792385
833.392497	0.727832
833.709101	0.686534
834.025662	0.696106
834.342179	0.727899
834.658653	0.767034
834.975083	0.803117
835.291469	0.830906
835.607811	0.853369
835.924110	0.869483
836.240366	0.885743
836.556578	0.900792
836.872746	0.907414
837.188871	0.913056
837.504952	0.919299
837.820990	0.923145
838.136984	0.925122
838.452935	0.928423
838.768842	0.930843
839.084706	0.923885
839.400526	0.897665
839.716303	0.857430
840.032037	0.834940
840.347727	0.837739
840.663373	0.856530
840.978977	0.878110
841.294537	0.901223
841.610054	0.917558
841.925527	0.925619
842.240957	0.932165
842.556344	0.939444
842.871687	0.946101
843.186987	0.949488
843.502244	0.949701
843.817458	0.951831
844.132629	0.954994
844.447756	0.960219
844.762840	0.960094
845.077881	0.959532
845.392879	0.958662
845.707833	0.962594
846.022745	0.964058
846.337613	0.964998
846.652438	0.965520
846.967221	0.964440
847.281960	0.965574
847.596656	0.967275
847.911309	0.966020
848.225919	0.967241
848.540485	0.968586
848.855009	0.968371
849.169490	0.967747
849.483928	0.968526
849.798323	0.968087
850.112675	0.969841
850.426984	0.968413
850.741251	0.968587
851.055474	0.969672
851.369654	0.968193
851.683792	0.968778
851.997887	0.970531
852.311938	0.971248
852.625947	0.970157
852.939914	0.967768
853.253837	0.969361
853.567718	0.970228
853.881555	0.969711
854.195350	0.967494
854.509103	0.969088
854.822812	0.969910
855.136479	0.969983
855.450103	0.968913
855.763685	0.968276
856.077224	0.967969
856.390720	0.970253
856.704173	0.970000
857.017584	0.967971
857.330953	0.967000
857.644278	0.967279
857.957561	0.969297
858.270802	0.967721
858.584000	0.968168
858.897155	0.966865
859.210268	0.967286
859.523339	0.968349
859.836367	0.969141
860.149352	0.970205
860.462295	0.968393
860.775195	0.969906
861.088054	0.969267
861.400869	0.969479
861.713642	0.969752
862.026373	0.969178
862.339062	0.969610
862.651708	0.967756
862.964312	0.967803
863.276873	0.968945
863.589392	0.968540
863.901869	0.965985
864.214303	0.964417
864.526696	0.963901
864.839045	0.963511
865.151353	0.961567
865.463619	0.961313
865.775842	0.963388
866.088023	0.961377
866.400162	0.962485
866.712258	0.962062
867.024313	0.961930
867.336325	0.962793
867.648296	0.962629
867.960224	0.961311
868.272110	0.960669
868.583954	0.964299
868.895755	0.962643
869.207515	0.961735
869.519233	0.958726
869.830909	0.960856
870.142542	0.962276
870.454134	0.962065
870.765684	0.959606
871.077191	0.957268
871.388657	0.959494
871.700081	0.957325
872.011463	0.958181
872.322803	0.956571
872.634101	0.955821
872.945357	0.954308
873.256571	0.952801
873.567744	0.951785
873.878874	0.953390
874.189963	0.951457
874.501010	0.949870
874.812015	0.949433
875.122979	0.951237
875.433900	0.952434
875.744780	0.952941
876.055618	0.950578
876.366415	0.948451
876.677169	0.948863
876.987882	0.951217
877.298554	0.950578
877.609183	0.946109
877.919771	0.944109
878.230317	0.941871
878.540822	0.939639
878.851285	0.934425
879.161707	0.925939
879.472087	0.913797
879.782425	0.896376
880.092722	0.862196
880.402977	0.809507
880.713191	0.747241
881.023363	0.687923
881.333494	0.653186
881.643583	0.624508
881.953631	0.625635
882.263637	0.653992
882.573602	0.693072
882.883526	0.720089
883.193408	0.743548
883.503248	0.767579
883.813048	0.793298
884.122806	0.824547
884.432522	0.847682
884.742197	0.867689
885.051831	0.879340
885.361424	0.889721
885.670975	0.901673
885.980485	0.912026
886.289954	0.918361
886.599382	0.923557
886.908768	0.926959
887.218113	0.932783
887.527417	0.936645
887.836680	0.940071
888.145901	0.942829
888.455082	0.946654
888.764221	0.949402
889.073319	0.952166
889.382376	0.952068
889.691392	0.951857
890.000366	0.951412
890.309300	0.952715
890.618193	0.952542
890.927044	0.950265
891.235855	0.950821
891.544625	0.950725
891.853353	0.950925
892.162041	0.948619
892.470687	0.941518
892.779293	0.937197
893.087858	0.933653
893.396381	0.925192
893.704864	0.910968
894.013306	0.887011
894.321707	0.860279
894.630068	0.844948
894.938387	0.839959
895.246665	0.841621
895.554903	0.854569
895.863100	0.867424
896.171256	0.885088
896.479371	0.904014
896.787446	0.918323
897.095480	0.923635
897.403473	0.927666
897.711425	0.932235
898.019336	0.938813
898.327207	0.942929
898.635038	0.944106
898.942827	0.944894
899.250576	0.946782
899.558284	0.951630
899.865952	0.953017
900.173579	0.954265
900.481165	0.954696
900.788711	0.958511
901.096216	0.960641
901.403681	0.961267
901.711105	0.962723
902.018489	0.963230
902.325832	0.961976
902.633135	0.960387
902.940397	0.955488
903.247619	0.941940
903.554800	0.916578
903.861941	0.875703
904.169041	0.839795
904.476101	0.821813
904.783121	0.822816
905.090100	0.839722
905.397039	0.861193
905.703938	0.883246
906.010796	0.904464
906.317614	0.920672
906.624391	0.933082
906.931129	0.942564
907.237826	0.950543
907.544483	0.958325
907.851099	0.962599
908.157675	0.966373
908.464211	0.968146
908.770707	0.971976
909.077163	0.972889
909.383578	0.973710
909.689954	0.974322
909.996289	0.975272
910.302584	0.978412
910.608839	0.979128
910.915054	0.977881
911.221229	0.977792
911.527363	0.975840
911.833458	0.977209
912.139513	0.975558
912.445527	0.974484
912.751502	0.973218
913.057436	0.972113
913.363331	0.969146
913.669186	0.965545
913.975000	0.960792
914.280775	0.955255
914.586510	0.947383
914.892205	0.933321
915.197859	0.911577
915.503475	0.884420
915.809050	0.864154
916.114585	0.857436
916.420081	0.854702
916.725536	0.851917
917.030952	0.859682
917.336328	0.873516
917.641665	0.888566
917.946961	0.905543
918.252218	0.916131
918.557435	0.926264
918.862612	0.934243
919.167750	0.940618
919.472848	0.945864
919.777906	0.951431
920.082925	0.956678
920.387904	0.960206
920.692843	0.962906
920.997743	0.962215
921.302603	0.965356
921.607423	0.968482
921.912204	0.970436
922.216946	0.971496
922.521647	0.973694
922.826310	0.973934
923.130932	0.976024
923.435516	0.977180
923.740059	0.980216
924.044564	0.978675
924.349028	0.979948
924.653454	0.982437
924.957840	0.984912
925.262186	0.984665
925.566493	0.983158
925.870761	0.984350
926.174989	0.985727
926.479178	0.988174
926.783328	0.987628
927.087438	0.988741
927.391509	0.987847
927.695541	0.989993
927.999533	0.989156
928.303486	0.989065
928.607400	0.990521
928.911275	0.989624
929.215110	0.989999
929.518906	0.989121
929.822663	0.989190
930.126381	0.989792
930.430060	0.990776
930.733699	0.990148
931.037299	0.989402
931.340861	0.990576
931.644383	0.989876
931.947866	0.988494
932.251309	0.991204
932.554714	0.990441
932.858080	0.990986
933.161407	0.988999
933.464694	0.991070
933.767943	0.988964
934.071153	0.990791
934.374323	0.991743
934.677455	0.990583
934.980548	0.991801
935.283602	0.990314
935.586617	0.991663
935.889593	0.990835
936.192530	0.989815
936.495428	0.990035
936.798287	0.990756
937.101108	0.989851
937.403890	0.988179
937.706632	0.988573
938.009336	0.986906
938.312002	0.984422
938.614628	0.984331
938.917216	0.984036
939.219765	0.981709
939.522275	0.983381
939.824747	0.981926
940.127179	0.981618
940.429573	0.984194
940.731929	0.983787
941.034246	0.984115
941.336524	0.985059
941.638763	0.985438
941.940964	0.985712
942.243126	0.985729
942.545250	0.987400
942.847335	0.987724
943.149381	0.988139
943.451389	0.988554
943.753359	0.987746
944.055290	0.990372
944.357182	0.988856
944.659036	0.988115
944.960851	0.988764
945.262628	0.989577
945.564367	0.989031
945.866067	0.989670
946.167729	0.990598
946.469352	0.989944
946.770937	0.988385
947.072484	0.990733
947.373992	0.990043
947.675462	0.990006
947.976893	0.990684
948.278286	0.989640
948.579641	0.991319
948.880958	0.989341
949.182236	0.990098
949.483476	0.991434
949.784678	0.989614
950.085841	0.991462
950.386967	0.990832
950.688054	0.990610
950.989103	0.990074
951.290114	0.988348
951.591087	0.989437
951.892021	0.988970
952.192917	0.988262
952.493776	0.988062
952.794596	0.988741
953.095378	0.987446
953.396122	0.987953
953.696828	0.986466
953.997496	0.989829
954.298126	0.990876
954.598718	0.989572
954.899272	0.990852
955.199788	0.989788
955.500266	0.991538
955.800706	0.992736
956.101108	0.992474
956.401472	0.993265
956.701798	0.993212
957.002087	0.993129
957.302337	0.993361
957.602550	0.994649
957.902724	0.995199
958.202861	0.994405
958.502960	0.995885
958.803022	0.993952
959.103045	0.996158
959.403031	0.996590
959.702979	0.995401
960.002889	0.995598
960.302762	0.995426
960.602596	0.995250
960.902393	0.994968
961.202153	0.996973
961.501875	0.996114
961.801559	0.995820
962.101205	0.995913
962.400814	0.995688
962.700385	0.996239
962.999918	0.996858
963.299414	0.996315
963.598873	0.995794
963.898293	0.995705
964.197677	0.995806
964.497022	0.995657
964.796331	0.996909
965.095601	0.996136
965.394835	0.996088
965.694030	0.996382
965.993189	0.997287
966.292309	0.996274
966.591393	0.997348
966.890439	0.997716
967.189447	0.996802
967.488419	0.997143
967.787353	0.995892
968.086249	0.996585
968.385108	0.997212
968.683930	0.997417
968.982714	0.997489
969.281462	0.997640
969.580172	0.995685
969.878844	0.997492
970.177480	0.996895
970.476078	0.997137
970.774639	0.997019
971.073162	0.997612
971.371649	0.995999
971.670098	0.996472
971.968510	0.997720
972.266885	0.995823
972.565223	0.996765
972.863524	0.995956
973.161788	0.996671
973.460014	0.996958
973.758204	0.996593
974.056356	0.996319
974.354471	0.994353
974.652550	0.996068
974.950591	0.996731
975.248595	0.996645
975.546563	0.997110
975.844493	0.997862
976.142386	0.996402
976.440243	0.996425
976.738062	0.997375
977.035845	0.998125
977.333590	0.996974
977.631299	0.997828
977.928971	0.996064
978.226606	0.997077
978.524204	0.996098
978.821765	0.998240
979.119290	0.996579
979.416777	0.997345
979.714228	0.997819
980.011642	0.996220
980.309020	0.996463
980.606360	0.997240
980.903664	0.997746
981.200931	0.996561
981.498162	0.995731
981.795356	0.995172
982.092513	0.994081
982.389633	0.994248
982.686717	0.992480
982.983764	0.992411
983.280775	0.989959
983.577749	0.989931
983.874686	0.991907
984.171587	0.991469
984.468451	0.993780
984.765279	0.995427
985.062070	0.993828
985.358824	0.995076
985.655543	0.995699
985.952224	0.995827
986.248869	0.997683
986.545478	0.996428
986.842050	0.998369
987.138586	0.995177
987.435086	0.997775
987.731549	0.999159
988.027975	0.997816
988.324366	0.997544
988.620719	0.996686
988.917037	0.995827
989.213318	0.998270
989.509563	0.998838
989.805772	0.997789
990.101944	0.998856
990.398080	0.997421
990.694180	0.998483
990.990244	0.997106
991.286271	0.998388
991.582262	0.998970
991.878217	0.997640
992.174136	0.999537
992.470019	0.998410
992.765865	0.998400
993.061676	0.998675
993.357450	0.997130
993.653188	0.997061
993.948890	0.998161
994.244556	0.997764
994.540186	0.997737
994.835780	0.996082
995.131337	0.997151
995.426859	0.996296
995.722345	0.997004
996.017795	0.995829
996.313208	0.996737
996.608586	0.995899
996.903928	0.996981
997.199234	0.995653
997.494504	0.997306
997.789738	0.997275
998.084936	0.996108
998.380099	0.998183
998.675225	0.996973
998.970316	0.997895
999.265371	0.998424
999.560390	0.998478
999.855373	0.998859
1000.150320	0.997419
1000.445232	0.998281
1000.740108	0.997838
1001.034948	0.998448
1001.329752	0.999381
1001.624521	0.998851
1001.919254	0.998364
1002.213951	0.997741
1002.508613	0.998727
1002.803239	0.998188
1003.097829	1.000097
1003.392384	0.998804
1003.686903	0.998791
1003.981386	0.998604
1004.275834	0.998874
1004.570246	0.998199
1004.864623	0.999344
1005.158964	1.000017
1005.453270	0.998354
1005.747540	0.997496
1006.041775	0.999407
1006.335974	0.999861
1006.630138	0.999600
1006.924266	0.999441
1007.218359	1.000287
1007.512416	0.998235
1007.806438	0.999518
1008.100425	0.998957
1008.394376	0.999127
1008.688292	0.998730
1008.982172	1.000298
1009.276017	0.999277
1009.569827	0.998548
1009.863602	0.999041
1010.157341	0.999494
1010.451045	0.998959
1010.744714	0.999217
1011.038347	0.998495
1011.331945	0.999291
1011.625508	0.997981
1011.919036	0.998772
1012.212528	0.997845
1012.505986	0.997586
1012.799408	0.998530
1013.092795	0.999708
1013.386147	0.998840
1013.679464	0.999967
1013.972745	0.998126
1014.265992	0.997658
1014.559204	0.998994
1014.852380	0.999087
1015.145521	0.998782
1015.438628	1.000207
1015.731699	0.999451
1016.024736	0.999045
1016.317737	0.998857
1016.610703	0.998868
1016.903635	1.000137
1017.196531	0.998591
1017.489393	1.000432
1017.782219	0.998980
1018.075011	0.998663
1018.367768	0.999049
1018.660490	0.998591
1018.953177	0.998591
1019.245829	0.998591
