Dividing Wavelength (nm)	Counts (n)	Blue Motor Position (mm): 0.000000	Red Motor Position (mm): 22.600000	
326.493990	1.002365
326.888308	1.002365
327.282561	1.002365
327.676750	0.999912
328.070874	0.999151
328.464933	1.000161
328.858929	0.999013
329.252859	0.999648
329.646726	0.999277
330.040528	1.000351
330.434265	0.999737
330.827938	0.999782
331.221547	1.000263
331.615091	1.000705
332.008571	0.999526
332.401986	0.999557
332.795338	1.001121
333.188625	0.999235
333.581847	0.999551
333.975006	0.999549
334.368100	0.998889
334.761129	0.999911
335.154095	0.999660
335.546996	0.998185
335.939833	0.993975
336.332606	0.993923
336.725315	0.994478
337.117960	0.995744
337.510540	0.994640
337.903056	0.994831
338.295508	0.993387
338.687896	0.995456
339.080220	0.993446
339.472480	0.994249
339.864676	0.993515
340.256807	0.994517
340.648875	0.995908
341.040879	0.995237
341.432818	0.994748
341.824694	0.994130
342.216506	0.995367
342.608253	0.994146
342.999937	0.993979
343.391557	0.993606
343.783113	0.995060
344.174605	0.994433
344.566033	0.993919
344.957397	0.993794
345.348697	0.994730
345.739934	0.993552
346.131106	0.994557
346.522215	0.993352
346.913260	0.993270
347.304241	0.995589
347.695159	0.993623
348.086012	0.993662
348.476802	0.993956
348.867528	0.994832
349.258191	0.994072
349.648789	0.994368
350.039324	0.994276
350.429796	0.994331
350.820203	0.995073
351.210548	0.994311
351.600828	0.994681
351.991045	0.993461
352.381198	0.992749
352.771288	0.993886
353.161314	0.992845
353.551276	0.994890
353.941175	0.994330
354.331010	0.993459
354.720782	0.994454
355.110490	0.994316
355.500135	0.995081
355.889717	0.994934
356.279235	0.994879
356.668689	0.994180
357.058080	0.994848
357.447408	0.994043
357.836672	0.995050
358.225873	0.995214
358.615010	0.994681
359.004084	0.995289
359.393095	0.995104
359.782043	0.994032
360.170927	0.995814
360.559748	0.995118
360.948505	0.994256
361.337199	0.993619
361.725830	0.995248
362.114398	0.993805
362.502903	0.994250
362.891344	0.995931
363.279722	0.993680
363.668037	0.995381
364.056289	0.993584
364.444478	0.994350
364.832603	0.995685
365.220665	0.994309
365.608665	0.993407
365.996601	0.993047
366.384474	0.994211
366.772284	0.993744
367.160031	0.992161
367.547715	0.993163
367.935336	0.994859
368.322893	0.994573
368.710388	0.994292
369.097820	0.993597
369.485189	0.994615
369.872495	0.993274
370.259738	0.992988
370.646918	0.993455
371.034035	0.994784
371.421090	0.994632
371.808081	0.993295
372.195010	0.994973
372.581875	0.994742
372.968678	0.995678
373.355418	0.994217
373.742096	0.994758
374.128710	0.996491
374.515262	0.993524
374.901751	0.995449
375.288177	0.994759
375.674540	0.994841
376.060841	0.994055
376.447079	0.994711
376.833254	0.995801
377.219367	0.995109
377.605417	0.994912
377.991404	0.995229
378.377329	0.994212
378.763191	0.995250
379.148991	0.995452
379.534727	0.996028
379.920402	0.995065
380.306013	0.994399
380.691563	0.995784
381.077049	0.994997
381.462474	0.996116
381.847835	0.996229
382.233134	0.995669
382.618371	0.994893
383.003545	0.995063
383.388657	0.995452
383.773706	0.996858
384.158693	0.995066
384.543618	0.995242
384.928480	0.996010
385.313280	0.996224
385.698017	0.996789
386.082692	0.995766
386.467305	0.996682
386.851856	0.995862
387.236344	0.994962
387.620770	0.995340
388.005133	0.995928
388.389435	0.996215
388.773674	0.995616
389.157851	0.996379
389.541965	0.996325
389.926018	0.995327
390.310008	0.997648
390.693936	0.995851
391.077802	0.995614
391.461606	0.995379
391.845348	0.996375
392.229027	0.996963
392.612645	0.996877
392.996200	0.997200
393.379694	0.997160
393.763125	0.997329
394.146494	0.996441
394.529801	0.996698
394.913047	0.996630
395.296230	0.996552
395.679351	0.996306
396.062410	0.996351
396.445408	0.996662
396.828343	0.996789
397.211217	0.996593
397.594028	0.996785
397.976778	0.995902
398.359466	0.996237
398.742092	0.995270
399.124656	0.996097
399.507158	0.996222
399.889598	0.996588
400.271977	0.996586
400.654294	0.997125
401.036549	0.997397
401.418742	0.997168
401.800874	0.995522
402.182944	0.996154
402.564952	0.996079
402.946898	0.996351
403.328783	0.996089
403.710606	0.996633
404.092367	0.996741
404.474067	0.996813
404.855705	0.995953
405.237282	0.997067
405.618797	0.995285
406.000250	0.995384
406.381642	0.996735
406.762972	0.996477
407.144240	0.997020
407.525447	0.996474
407.906593	0.995899
408.287677	0.996413
408.668700	0.997444
409.049661	0.995500
409.430560	0.995975
409.811399	0.995738
410.192176	0.996557
410.572891	0.995651
410.953545	0.996428
411.334138	0.995282
411.714669	0.997046
412.095139	0.995725
412.475547	0.996655
412.855894	0.996027
413.236180	0.996054
413.616405	0.995669
413.996568	0.997611
414.376670	0.996050
414.756711	0.995158
415.136691	0.996152
415.516609	0.995546
415.896466	0.995263
416.276262	0.994577
416.655997	0.995887
417.035670	0.995772
417.415283	0.994795
417.794834	0.995730
418.174324	0.995829
418.553753	0.995225
418.933121	0.995133
419.312428	0.995675
419.691674	0.994991
420.070859	0.994760
420.449983	0.994733
420.829045	0.993926
421.208047	0.993576
421.586988	0.993497
421.965867	0.991781
422.344686	0.991603
422.723444	0.991656
423.102141	0.989685
423.480777	0.988193
423.859352	0.986881
424.237866	0.986240
424.616319	0.984843
424.994712	0.983042
425.373044	0.981595
425.751314	0.979703
426.129524	0.978025
426.507673	0.975377
426.885762	0.973357
427.263789	0.970715
427.641756	0.969370
428.019662	0.966506
428.397508	0.963127
428.775292	0.959611
429.153016	0.956706
429.530679	0.953975
429.908282	0.950637
430.285824	0.947581
430.663305	0.940817
431.040726	0.940016
431.418086	0.936893
431.795385	0.930181
432.172624	0.925076
432.549802	0.921753
432.926920	0.917209
433.303977	0.911079
433.680974	0.906350
434.057910	0.900204
434.434786	0.895161
434.811601	0.889538
435.188355	0.879878
435.565050	0.875637
435.941683	0.869089
436.318257	0.859646
436.694770	0.852409
437.071222	0.845063
437.447614	0.839740
437.823946	0.835090
438.200218	0.824961
438.576429	0.819352
438.952580	0.809375
439.328670	0.800893
439.704700	0.795533
440.080670	0.788018
440.456580	0.772285
440.832429	0.767247
441.208218	0.764053
441.583947	0.751437
441.959616	0.743072
442.335224	0.737110
442.710773	0.724585
443.086261	0.714120
443.461689	0.713496
443.837057	0.699436
444.212365	0.685559
444.587612	0.681735
444.962800	0.666790
445.337927	0.659688
445.712995	0.666439
446.088002	0.635230
446.462949	0.634169
446.837837	0.627885
447.212664	0.614496
447.587431	0.599203
447.962139	0.572210
448.336786	0.537465
448.711374	0.537526
449.085901	0.558884
449.460369	0.553228
449.834776	0.547672
450.209124	0.525665
450.583412	0.512229
450.957640	0.502003
451.331808	0.502679
451.705917	0.513648
452.079965	0.510459
452.453954	0.494821
452.827883	0.494857
453.201752	0.484749
453.575562	0.488611
453.949311	0.472282
454.323001	0.473208
454.696632	0.464481
455.070202	0.453117
455.443713	0.441811
455.817164	0.432836
456.190556	0.424312
456.563888	0.416840
456.937160	0.410926
457.310373	0.422103
457.683526	0.416821
458.056619	0.418230
458.429653	0.415120
458.802628	0.414961
459.175542	0.407001
459.548398	0.387644
459.921194	0.378425
460.293930	0.376461
460.666607	0.352836
461.039224	0.339668
461.411782	0.333468
461.784280	0.329998
462.156719	0.331454
462.529099	0.333142
462.901419	0.346388
463.273680	0.349034
463.645882	0.347247
464.018024	0.351557
464.390106	0.342833
464.762130	0.326829
465.134094	0.309681
465.505999	0.279316
465.877845	0.249505
466.249631	0.235144
466.621358	0.241036
466.993026	0.253968
467.364634	0.259117
467.736184	0.267285
468.107674	0.275319
468.479105	0.273716
468.850477	0.280181
469.221790	0.286353
469.593043	0.296281
469.964238	0.300523
470.335373	0.299745
470.706449	0.297699
471.077467	0.297970
471.448425	0.260101
471.819324	0.235767
472.190164	0.234893
472.560945	0.263365
472.931667	0.285637
473.302330	0.289180
473.672934	0.300697
474.043479	0.288890
474.413965	0.290676
474.784393	0.294239
475.154761	0.289118
475.525070	0.285843
475.895321	0.291902
476.265513	0.286015
476.635645	0.281265
477.005719	0.281152
477.375734	0.277741
477.745691	0.271038
478.115588	0.267364
478.485427	0.261049
478.855207	0.247713
479.224928	0.230567
479.594591	0.218346
479.964194	0.221775
480.333739	0.222978
480.703226	0.224829
481.072653	0.223188
481.442022	0.218561
481.811333	0.215133
482.180584	0.218607
482.549777	0.223908
482.918912	0.227118
483.287988	0.226891
483.657005	0.226561
484.025964	0.232960
484.394864	0.230309
484.763706	0.230608
485.132489	0.235628
485.501213	0.236332
485.869879	0.234785
486.238487	0.238003
486.607036	0.235715
486.975527	0.240083
487.343959	0.236451
487.712333	0.235217
488.080648	0.236520
488.448905	0.235849
488.817104	0.237166
489.185244	0.231779
489.553326	0.228640
489.921350	0.218598
490.289315	0.201058
490.657222	0.196142
491.025070	0.197299
491.392861	0.199177
491.760593	0.205066
492.128267	0.210350
492.495883	0.215896
492.863440	0.222037
493.230939	0.228470
493.598380	0.229773
493.965763	0.232105
494.333088	0.234360
494.700354	0.235823
495.067563	0.234565
495.434713	0.238081
495.801805	0.235879
496.168839	0.237404
496.535815	0.238537
496.902733	0.238621
497.269593	0.239893
497.636395	0.238011
498.003139	0.238435
498.369825	0.241158
498.736453	0.237503
499.103023	0.239142
499.469535	0.238435
499.835989	0.238471
500.202385	0.239448
500.568723	0.242734
500.935003	0.238089
501.301226	0.242014
501.667390	0.236669
502.033497	0.234536
502.399546	0.237698
502.765537	0.239338
503.131470	0.237892
503.497345	0.233998
503.863163	0.242754
504.228923	0.235609
504.594625	0.234305
504.960269	0.239877
505.325856	0.234807
505.691385	0.239213
506.056856	0.236094
506.422270	0.235388
506.787625	0.237824
507.152924	0.235247
507.518164	0.235717
507.883347	0.237436
508.248472	0.239172
508.613540	0.234213
508.978550	0.236741
509.343503	0.236918
509.708398	0.234957
510.073236	0.232589
510.438016	0.232605
510.802738	0.233233
511.167403	0.232537
511.532010	0.234468
511.896561	0.229517
512.261053	0.228757
512.625488	0.230753
512.989866	0.230925
513.354186	0.231341
513.718449	0.233127
514.082655	0.229798
514.446803	0.231827
514.810894	0.229292
515.174927	0.232038
515.538904	0.231586
515.902822	0.228450
516.266684	0.230680
516.630488	0.232106
516.994235	0.230597
517.357925	0.229258
517.721558	0.227855
518.085133	0.227430
518.448651	0.227444
518.812112	0.229548
519.175516	0.229359
519.538863	0.226952
519.902152	0.228632
520.265385	0.225247
520.628560	0.226767
520.991678	0.227587
521.354739	0.226712
521.717743	0.227584
522.080690	0.228115
522.443580	0.225650
522.806413	0.226313
523.169189	0.225499
523.531908	0.224631
523.894569	0.228046
524.257174	0.228163
524.619722	0.225716
524.982213	0.227027
525.344647	0.226024
525.707025	0.226936
526.069345	0.224908
526.431608	0.226633
526.793815	0.224523
527.155964	0.228616
527.518057	0.227373
527.880093	0.228660
528.242072	0.227137
528.603995	0.229336
528.965860	0.230940
529.327669	0.229544
529.689421	0.230685
530.051117	0.231320
530.412755	0.229272
530.774337	0.231550
531.135862	0.231565
531.497331	0.231100
531.858743	0.234144
532.220098	0.230560
532.581396	0.233108
532.942638	0.233648
533.303824	0.234763
533.664953	0.234454
534.026025	0.236154
534.387040	0.234136
534.747999	0.234014
535.108902	0.233295
535.469748	0.237805
535.830537	0.235899
536.191270	0.236462
536.551947	0.235546
536.912567	0.235920
537.273131	0.237479
537.633638	0.237575
537.994089	0.237843
538.354483	0.239227
538.714821	0.236078
539.075103	0.235845
539.435328	0.236657
539.795497	0.240363
540.155609	0.237046
540.515665	0.235194
540.875665	0.240776
541.235609	0.239120
541.595496	0.239501
541.955328	0.235821
542.315102	0.238634
542.674821	0.239630
543.034483	0.239613
543.394090	0.239319
543.753640	0.241124
544.113134	0.236185
544.472571	0.239486
544.831953	0.236521
545.191278	0.240483
545.550548	0.239986
545.909761	0.236493
546.268918	0.237507
546.628019	0.235693
546.987064	0.238562
547.346053	0.240418
547.704986	0.238614
548.063863	0.238438
548.422684	0.238807
548.781449	0.240620
549.140158	0.238074
549.498811	0.241265
549.857408	0.244384
550.215949	0.239056
550.574434	0.242158
550.932864	0.239945
551.291237	0.238456
551.649555	0.240281
552.007817	0.240022
552.366022	0.240664
552.724173	0.240696
553.082267	0.241215
553.440305	0.238044
553.798288	0.242900
554.156215	0.238922
554.514086	0.239769
554.871902	0.242902
555.229661	0.242281
555.587365	0.242781
555.945014	0.245400
556.302606	0.242110
556.660143	0.244733
557.017625	0.241290
557.375050	0.243473
557.732421	0.240529
558.089735	0.242304
558.446994	0.242540
558.804197	0.241477
559.161345	0.241718
559.518437	0.245130
559.875474	0.242906
560.232455	0.242321
560.589381	0.243529
560.946251	0.243464
561.303065	0.241134
561.659825	0.242682
562.016528	0.243726
562.373177	0.246942
562.729770	0.244054
563.086307	0.246114
563.442789	0.243993
563.799216	0.246848
564.155587	0.245699
564.511904	0.246718
564.868164	0.246809
565.224370	0.246859
565.580520	0.248428
565.936615	0.248138
566.292654	0.251337
566.648638	0.248099
567.004567	0.249321
567.360441	0.249920
567.716260	0.251888
568.072023	0.249608
568.427732	0.250455
568.783385	0.252545
569.138982	0.250849
569.494525	0.250605
569.850013	0.253615
570.205445	0.251694
570.560823	0.254427
570.916145	0.256281
571.271412	0.254433
571.626625	0.256091
571.981782	0.256571
572.336884	0.257552
572.691931	0.257370
573.046923	0.258145
573.401860	0.259588
573.756743	0.261062
574.111570	0.260173
574.466342	0.260774
574.821059	0.259708
575.175722	0.262674
575.530330	0.262437
575.884882	0.262408
576.239380	0.264650
576.593823	0.265318
576.948211	0.264686
577.302544	0.267938
577.656823	0.267433
578.011047	0.267454
578.365216	0.268146
578.719330	0.270274
579.073389	0.270069
579.427394	0.271260
579.781344	0.272176
580.135239	0.273832
580.489080	0.273226
580.842866	0.276175
581.196597	0.275959
581.550273	0.274659
581.903895	0.275833
582.257463	0.274025
582.610975	0.277096
582.964434	0.276675
583.317837	0.278990
583.671186	0.279461
584.024481	0.279613
584.377721	0.281810
584.730906	0.282491
585.084037	0.281654
585.437113	0.283663
585.790135	0.282892
586.143103	0.285941
586.496016	0.287140
586.848874	0.284566
587.201679	0.285130
587.554428	0.288474
587.907124	0.287501
588.259765	0.288293
588.612352	0.288858
588.964884	0.292481
589.317362	0.292158
589.669786	0.291851
590.022155	0.290254
590.374470	0.289814
590.726731	0.291658
591.078937	0.296487
591.431090	0.292821
591.783188	0.297131
592.135232	0.297238
592.487222	0.297169
592.839157	0.295654
593.191038	0.297998
593.542866	0.299750
593.894639	0.303459
594.246358	0.301033
594.598022	0.300685
594.949633	0.304516
595.301190	0.305361
595.652692	0.304128
596.004141	0.300721
596.355535	0.308546
596.706876	0.309075
597.058162	0.311739
597.409395	0.308550
597.760573	0.306053
598.111698	0.309566
598.462768	0.309889
598.813785	0.311588
599.164748	0.312626
599.515657	0.312960
599.866511	0.316299
600.217312	0.311641
600.568060	0.317099
600.918753	0.313498
601.269392	0.314459
601.619978	0.317677
601.970510	0.314993
602.320988	0.315320
602.671412	0.313018
603.021783	0.315309
603.372100	0.316610
603.722363	0.315999
604.072572	0.317547
604.422728	0.317445
604.772830	0.319066
605.122878	0.318700
605.472872	0.319255
605.822813	0.317460
606.172701	0.320414
606.522534	0.317389
606.872314	0.317885
607.222041	0.318706
607.571714	0.317167
607.921333	0.318143
608.270899	0.318152
608.620411	0.314884
608.969870	0.318458
609.319276	0.318546
609.668627	0.318589
610.017926	0.317133
610.367171	0.315780
610.716362	0.316285
611.065500	0.316630
611.414585	0.315377
611.763616	0.316010
612.112594	0.316051
612.461518	0.315926
612.810389	0.313315
613.159207	0.315806
613.507971	0.317495
613.856682	0.313012
614.205340	0.314544
614.553945	0.311607
614.902496	0.315552
615.250994	0.313799
615.599439	0.314275
615.947830	0.314117
616.296169	0.314928
616.644454	0.314447
616.992686	0.314319
617.340864	0.311843
617.688990	0.315705
618.037063	0.312565
618.385082	0.314342
618.733048	0.311042
619.080961	0.313217
619.428821	0.312460
619.776628	0.312243
620.124382	0.314279
620.472083	0.314735
620.819731	0.314366
621.167326	0.318156
621.514868	0.317636
621.862357	0.321493
622.209793	0.321626
622.557176	0.323434
622.904506	0.324445
623.251783	0.326931
623.599007	0.329650
623.946179	0.328859
624.293297	0.330974
624.640363	0.334885
624.987376	0.335380
625.334336	0.337868
625.681243	0.339913
626.028097	0.340752
626.374899	0.341698
626.721647	0.342180
627.068343	0.345411
627.414987	0.346397
627.761577	0.348645
628.108115	0.346428
628.454600	0.351524
628.801032	0.349230
629.147412	0.350832
629.493739	0.351445
629.840014	0.354738
630.186236	0.352250
630.532405	0.358006
630.878521	0.355649
631.224585	0.357112
631.570597	0.360769
631.916556	0.358709
632.262462	0.359612
632.608316	0.361313
632.954117	0.362449
633.299866	0.363256
633.645562	0.363864
633.991206	0.367763
634.336797	0.371104
634.682336	0.373132
635.027823	0.374765
635.373257	0.375181
635.718639	0.379187
636.063968	0.377879
636.409245	0.384157
636.754470	0.384431
637.099642	0.386832
637.444762	0.390063
637.789829	0.388844
638.134845	0.392417
638.479808	0.393628
638.824719	0.393484
639.169577	0.397536
639.514383	0.395884
639.859137	0.400778
640.203839	0.400143
640.548489	0.400953
640.893086	0.402184
641.237632	0.403726
641.582125	0.402520
641.926566	0.403610
642.270955	0.404035
642.615292	0.404061
642.959576	0.403409
643.303809	0.403895
643.647990	0.403457
643.992118	0.403766
644.336195	0.407837
644.680219	0.405803
645.024192	0.406463
645.368112	0.400572
645.711981	0.399247
646.055797	0.394639
646.399562	0.396756
646.743274	0.388993
647.086935	0.386677
647.430544	0.387160
647.774101	0.385602
648.117606	0.385374
648.461059	0.385065
648.804460	0.388004
649.147810	0.393461
649.491108	0.394955
649.834354	0.396456
650.177548	0.401570
650.520690	0.407109
650.863781	0.408599
651.206820	0.407789
651.549807	0.412099
651.892742	0.416645
652.235626	0.415995
652.578458	0.416438
652.921238	0.422569
653.263967	0.420661
653.606644	0.424557
653.949269	0.424755
654.291843	0.428504
654.634365	0.424429
654.976836	0.427800
655.319255	0.428122
655.661622	0.430041
656.003938	0.430157
656.346203	0.432629
656.688416	0.430759
657.030577	0.433832
657.372687	0.436174
657.714746	0.436636
658.056753	0.433657
658.398708	0.437912
658.740612	0.438827
659.082465	0.434720
659.424266	0.435650
659.766016	0.435006
660.107715	0.437598
660.449362	0.436484
660.790958	0.437380
661.132503	0.437613
661.473996	0.435718
661.815438	0.436118
662.156829	0.436401
662.498168	0.437118
662.839456	0.438955
663.180693	0.436607
663.521879	0.436660
663.863013	0.437354
664.204097	0.435443
664.545129	0.432944
664.886110	0.432940
665.227040	0.430346
665.567918	0.433462
665.908746	0.431063
666.249522	0.430533
666.590248	0.431597
666.930922	0.430032
667.271545	0.428576
667.612118	0.428737
667.952639	0.430469
668.293109	0.428810
668.633528	0.431753
668.973896	0.431902
669.314213	0.432155
669.654480	0.433662
669.994695	0.433913
670.334859	0.434990
670.674973	0.435420
671.015035	0.435368
671.355047	0.435119
671.695008	0.436310
672.034918	0.438335
672.374777	0.437807
672.714585	0.438756
673.054342	0.438485
673.394049	0.438673
673.733705	0.436417
674.073310	0.437316
674.412864	0.440719
674.752368	0.441446
675.091820	0.441298
675.431223	0.445471
675.770574	0.445445
676.109875	0.448628
676.449125	0.448486
676.788324	0.450702
677.127473	0.456055
677.466571	0.455928
677.805619	0.457384
678.144616	0.458318
678.483562	0.459802
678.822458	0.462292
679.161303	0.464490
679.500098	0.464166
679.838842	0.465971
680.177535	0.464750
680.516179	0.464343
680.854771	0.463017
681.193314	0.456232
681.531805	0.447830
681.870247	0.436760
682.208638	0.428566
682.546978	0.428415
682.885268	0.429648
683.223508	0.435486
683.561697	0.439609
683.899836	0.442341
684.237925	0.445503
684.575963	0.448624
684.913951	0.450773
685.251889	0.447273
685.589776	0.448756
685.927614	0.451900
686.265401	0.445345
686.603137	0.447511
686.940824	0.441230
687.278460	0.439466
687.616046	0.438586
687.953582	0.433361
688.291068	0.435069
688.628504	0.430692
688.965889	0.433177
689.303224	0.436750
689.640510	0.440487
689.977745	0.446612
690.314930	0.454554
690.652065	0.458978
690.989150	0.466738
691.326185	0.473028
691.663170	0.477579
692.000105	0.484440
692.336990	0.491712
692.673825	0.494614
693.010610	0.501002
693.347345	0.506215
693.684030	0.507319
694.020665	0.512652
694.357251	0.521346
694.693786	0.521605
695.030272	0.525099
695.366707	0.528682
695.703093	0.532997
696.039429	0.529871
696.375716	0.531598
696.711952	0.534038
697.048139	0.536682
697.384276	0.538529
697.720363	0.536960
698.056400	0.535599
698.392388	0.541370
698.728326	0.544956
699.064214	0.547757
699.400053	0.548038
699.735842	0.551589
700.071581	0.554272
700.407270	0.557086
700.742910	0.559318
701.078501	0.566878
701.414042	0.566220
701.749533	0.569852
702.084974	0.577943
702.420366	0.570764
702.755709	0.578125
703.091002	0.586079
703.426246	0.579067
703.761440	0.585795
704.096584	0.590798
704.431679	0.587052
704.766725	0.588804
705.101721	0.590785
705.436668	0.586915
705.771565	0.593593
706.106413	0.590793
706.441212	0.585722
706.775961	0.584627
707.110661	0.587336
707.445311	0.583649
707.779913	0.581014
708.114465	0.579575
708.448967	0.576276
708.783421	0.568478
709.117825	0.563435
709.452180	0.563355
709.786485	0.556768
710.120742	0.546828
710.454949	0.548843
710.789107	0.540357
711.123216	0.532385
711.457275	0.534240
711.791286	0.524574
712.125247	0.523381
712.459159	0.535111
712.793023	0.526874
713.126837	0.530711
713.460602	0.531309
713.794318	0.540803
714.127985	0.539101
714.461602	0.549617
714.795171	0.552704
715.128691	0.561067
715.462162	0.567513
715.795584	0.573846
716.128957	0.576054
716.462281	0.583253
716.795556	0.586780
717.128782	0.592248
717.461960	0.601555
717.795088	0.599848
718.128167	0.606123
718.461198	0.614844
718.794180	0.615073
719.127113	0.617928
719.459997	0.621661
719.792833	0.627427
720.125619	0.628755
720.458357	0.634984
720.791046	0.633782
721.123686	0.637387
721.456278	0.644517
721.788821	0.642152
722.121315	0.646472
722.453761	0.650387
722.786158	0.648091
723.118506	0.644456
723.450805	0.652579
723.783056	0.648777
724.115259	0.646099
724.447412	0.646143
724.779518	0.647118
725.111574	0.644961
725.443582	0.641665
725.775542	0.644096
726.107453	0.636164
726.439315	0.635264
726.771129	0.633857
727.102895	0.627405
727.434612	0.620603
727.766281	0.618450
728.097901	0.617467
728.429473	0.616892
728.760996	0.615967
729.092471	0.615761
729.423897	0.619289
729.755276	0.618742
730.086606	0.618685
730.417887	0.613274
730.749120	0.603953
731.080305	0.594909
731.411442	0.590050
731.742530	0.595544
732.073570	0.594819
732.404562	0.587842
732.735506	0.588442
733.066401	0.593294
733.397249	0.603215
733.728048	0.614066
734.058798	0.626475
734.389501	0.637367
734.720156	0.647024
735.050762	0.654419
735.381320	0.655736
735.711831	0.664981
736.042293	0.669971
736.372707	0.665938
736.703073	0.670357
737.033391	0.673121
737.363661	0.669942
737.693883	0.664684
738.024056	0.663478
738.354182	0.664479
738.684260	0.652517
739.014290	0.649121
739.344272	0.650184
739.674207	0.643987
740.004093	0.642830
740.333931	0.643016
740.663722	0.643726
740.993464	0.643750
741.323159	0.647779
741.652806	0.652374
741.982405	0.657569
742.311956	0.662196
742.641460	0.664220
742.970915	0.667704
743.300323	0.675956
743.629683	0.682120
743.958996	0.683845
744.288260	0.688782
744.617477	0.694474
744.946647	0.696029
745.275768	0.701163
745.604842	0.701340
745.933869	0.710720
746.262847	0.711165
746.591778	0.704264
746.920662	0.711677
747.249498	0.717967
747.578286	0.708446
747.907027	0.705470
748.235720	0.705613
748.564365	0.700067
748.892963	0.700036
749.221514	0.703908
749.550017	0.708894
749.878473	0.708442
750.206881	0.714810
750.535242	0.715476
750.863555	0.716386
751.191821	0.716636
751.520039	0.720547
751.848210	0.725155
752.176334	0.717527
752.504411	0.716802
752.832440	0.724081
753.160421	0.728907
753.488356	0.726961
753.816243	0.723926
754.144082	0.731702
754.471875	0.736728
754.799620	0.731508
755.127318	0.733212
755.454969	0.732863
755.782572	0.731687
756.110129	0.737606
756.437638	0.739651
756.765100	0.735199
757.092515	0.733980
757.419882	0.733239
757.747203	0.738456
758.074477	0.737957
758.401703	0.735598
758.728882	0.730198
759.056014	0.728751
759.383099	0.727849
759.710138	0.729048
760.037129	0.725475
760.364073	0.718983
760.690970	0.721525
761.017820	0.727465
761.344623	0.723465
761.671379	0.714424
761.998088	0.702356
762.324751	0.679993
762.651366	0.638003
762.977935	0.571613
763.304456	0.519730
763.630931	0.509969
763.957359	0.549012
764.283740	0.593700
764.610074	0.620963
764.936362	0.651883
765.262602	0.678124
765.588796	0.699872
765.914943	0.717395
766.241044	0.735099
766.567097	0.742127
766.893104	0.751831
767.219064	0.758414
767.544978	0.764865
767.870845	0.777993
768.196665	0.780877
768.522438	0.779553
768.848165	0.781316
769.173846	0.789366
769.499479	0.793762
769.825066	0.797555
770.150607	0.803079
770.476101	0.798571
770.801548	0.798930
771.126949	0.811183
771.452303	0.813612
771.777611	0.813595
772.102872	0.811656
772.428087	0.817757
772.753256	0.821395
773.078378	0.823611
773.403453	0.831823
773.728482	0.836293
774.053465	0.829868
774.378401	0.833515
774.703291	0.841986
775.028135	0.841306
775.352932	0.843334
775.677683	0.846086
776.002388	0.846247
776.327046	0.845628
776.651658	0.849276
776.976224	0.852459
777.300743	0.853176
777.625216	0.855154
777.949643	0.856720
778.274024	0.857442
778.598359	0.858990
778.922647	0.857029
779.246889	0.857617
779.571086	0.861284
779.895236	0.864280
780.219339	0.861468
780.543397	0.858290
780.867409	0.857091
781.191374	0.858753
781.515294	0.860535
781.839167	0.858596
782.162995	0.862675
782.486776	0.859514
782.810511	0.859653
783.134201	0.863991
783.457844	0.861970
783.781441	0.864483
784.104993	0.870298
784.428498	0.871255
784.751958	0.867616
785.075372	0.869059
785.398739	0.872418
785.722061	0.869046
786.045337	0.864944
786.368568	0.868695
786.691752	0.872149
787.014891	0.857223
787.337983	0.848840
787.661030	0.841013
787.984031	0.822891
788.306987	0.811429
788.629897	0.812879
788.952760	0.817502
789.275579	0.821796
789.598351	0.836275
789.921078	0.849808
790.243759	0.851829
790.566395	0.855985
790.888984	0.864699
791.211529	0.868334
791.534027	0.871668
791.856480	0.873375
792.178888	0.878424
792.501249	0.881287
792.823566	0.882455
793.145836	0.883018
793.468062	0.883789
793.790241	0.884795
794.112375	0.882668
794.434464	0.879228
794.756507	0.877479
795.078505	0.877995
795.400457	0.872052
795.722364	0.860028
796.044226	0.853638
796.366042	0.851817
796.687812	0.855986
797.009538	0.851923
797.331218	0.853753
797.652852	0.859820
797.974442	0.864350
798.295986	0.864156
798.617484	0.865917
798.938938	0.871249
799.260346	0.876821
799.581709	0.878256
799.903026	0.880292
800.224299	0.881164
800.545526	0.884885
800.866708	0.888639
801.187845	0.892113
801.508936	0.893067
801.829983	0.890053
802.150984	0.892359
802.471940	0.898144
802.792851	0.896446
803.113717	0.898454
803.434538	0.896669
803.755314	0.898339
804.076045	0.900020
804.396731	0.899402
804.717372	0.899698
805.037967	0.903028
805.358518	0.900101
805.679024	0.897215
805.999485	0.896669
806.319901	0.896667
806.640272	0.898715
806.960598	0.896127
807.280879	0.894106
807.601115	0.892239
807.921306	0.895999
808.241453	0.897129
808.561554	0.894615
808.881611	0.894066
809.201623	0.896232
809.521590	0.896074
809.841513	0.897247
810.161390	0.896012
810.481223	0.897606
810.801011	0.902398
811.120755	0.902885
811.440453	0.902268
811.760107	0.900543
812.079716	0.900450
812.399281	0.904481
812.718801	0.906273
813.038276	0.907532
813.357707	0.908052
813.677093	0.904001
813.996434	0.906997
814.315731	0.908674
814.634983	0.909835
814.954191	0.908357
815.273354	0.904468
815.592473	0.901005
815.911547	0.901470
816.230577	0.898933
816.549562	0.896246
816.868502	0.896913
817.187399	0.893117
817.506250	0.888456
817.825058	0.889249
818.143821	0.887001
818.462539	0.881411
818.781213	0.873137
819.099843	0.862243
819.418429	0.846619
819.736970	0.829661
820.055466	0.809583
820.373919	0.784883
820.692327	0.752144
821.010691	0.717852
821.329011	0.640462
821.647286	0.525875
821.965517	0.412057
822.283704	0.369269
822.601847	0.370786
822.919945	0.406103
823.237999	0.439755
823.556010	0.486162
823.873976	0.542196
824.191897	0.592676
824.509775	0.634053
824.827609	0.680579
825.145398	0.702535
825.463144	0.706054
825.780845	0.688215
826.098502	0.669712
826.416116	0.623823
826.733685	0.579936
827.051210	0.572109
827.368692	0.586113
827.686129	0.623713
828.003522	0.677179
828.320872	0.723562
828.638177	0.768011
828.955439	0.800098
829.272656	0.821507
829.589830	0.839161
829.906960	0.854630
830.224046	0.867011
830.541088	0.877738
830.858086	0.881761
831.175041	0.887479
831.491952	0.887063
831.808819	0.883479
832.125642	0.876554
832.442421	0.862354
832.759157	0.840174
833.075849	0.794665
833.392497	0.731422
833.709101	0.689604
834.025662	0.699691
834.342179	0.730955
834.658653	0.770980
834.975083	0.806085
835.291469	0.832051
835.607811	0.854739
835.924110	0.870773
836.240366	0.887660
836.556578	0.901758
836.872746	0.908952
837.188871	0.914364
837.504952	0.920304
837.820990	0.922680
838.136984	0.927125
838.452935	0.929985
838.768842	0.931127
839.084706	0.926848
839.400526	0.898555
839.716303	0.858944
840.032037	0.836088
840.347727	0.840538
840.663373	0.859520
840.978977	0.880067
841.294537	0.902355
841.610054	0.918622
841.925527	0.926159
842.240957	0.932789
842.556344	0.940062
842.871687	0.946399
843.186987	0.950449
843.502244	0.950430
843.817458	0.952755
844.132629	0.955824
844.447756	0.961191
844.762840	0.961334
845.077881	0.959655
845.392879	0.959971
845.707833	0.963158
846.022745	0.964618
846.337613	0.965542
846.652438	0.965983
846.967221	0.964795
847.281960	0.964770
847.596656	0.967381
847.911309	0.965505
848.225919	0.967613
848.540485	0.967993
848.855009	0.969103
849.169490	0.968633
849.483928	0.969591
849.798323	0.968558
850.112675	0.969958
850.426984	0.969193
850.741251	0.971046
851.055474	0.970534
851.369654	0.967324
851.683792	0.970114
851.997887	0.970583
852.311938	0.970523
852.625947	0.970224
852.939914	0.966883
853.253837	0.969495
853.567718	0.970710
853.881555	0.970183
854.195350	0.968673
854.509103	0.969364
854.822812	0.969628
855.136479	0.969448
855.450103	0.969781
855.763685	0.968952
856.077224	0.969213
856.390720	0.970721
856.704173	0.970965
857.017584	0.969350
857.330953	0.967897
857.644278	0.967799
857.957561	0.968541
858.270802	0.969244
858.584000	0.968756
858.897155	0.965632
859.210268	0.968771
859.523339	0.968833
859.836367	0.969804
860.149352	0.970850
860.462295	0.969944
860.775195	0.970098
861.088054	0.969785
861.400869	0.969720
861.713642	0.970418
862.026373	0.970208
862.339062	0.970045
862.651708	0.968705
862.964312	0.967734
863.276873	0.969505
863.589392	0.968388
863.901869	0.966423
864.214303	0.965771
864.526696	0.964609
864.839045	0.963703
865.151353	0.962236
865.463619	0.963233
865.775842	0.962197
866.088023	0.962093
866.400162	0.961545
866.712258	0.962868
867.024313	0.962638
867.336325	0.962206
867.648296	0.963225
867.960224	0.963763
868.272110	0.962132
868.583954	0.963328
868.895755	0.963520
869.207515	0.961992
869.519233	0.958795
869.830909	0.961133
870.142542	0.962031
870.454134	0.962347
870.765684	0.960743
871.077191	0.958032
871.388657	0.959613
871.700081	0.958834
872.011463	0.958781
872.322803	0.958448
872.634101	0.957733
872.945357	0.954891
873.256571	0.954087
873.567744	0.953079
873.878874	0.954394
874.189963	0.951679
874.501010	0.950623
874.812015	0.949775
875.122979	0.951786
875.433900	0.953674
875.744780	0.953403
876.055618	0.951492
876.366415	0.950457
876.677169	0.949612
876.987882	0.951397
877.298554	0.951674
877.609183	0.948141
877.919771	0.945372
878.230317	0.943537
878.540822	0.941125
878.851285	0.935649
879.161707	0.927717
879.472087	0.915066
879.782425	0.899537
880.092722	0.866039
880.402977	0.812426
880.713191	0.754120
881.023363	0.695120
881.333494	0.661142
881.643583	0.633086
881.953631	0.632865
882.263637	0.662219
882.573602	0.701829
882.883526	0.726419
883.193408	0.750699
883.503248	0.772581
883.813048	0.799439
884.122806	0.829002
884.432522	0.851367
884.742197	0.871560
885.051831	0.882495
885.361424	0.892492
885.670975	0.904380
885.980485	0.913713
886.289954	0.919721
886.599382	0.926039
886.908768	0.928357
887.218113	0.934224
887.527417	0.939950
887.836680	0.942499
888.145901	0.943431
888.455082	0.946607
888.764221	0.949957
889.073319	0.952248
889.382376	0.953170
889.691392	0.954147
890.000366	0.952957
890.309300	0.954157
890.618193	0.952088
890.927044	0.951236
891.235855	0.951868
891.544625	0.951678
891.853353	0.952354
892.162041	0.948185
892.470687	0.942527
892.779293	0.938216
893.087858	0.933513
893.396381	0.926802
893.704864	0.914219
894.013306	0.890285
894.321707	0.863043
894.630068	0.849398
894.938387	0.844899
895.246665	0.844994
895.554903	0.858337
895.863100	0.871395
896.171256	0.886668
896.479371	0.906677
896.787446	0.919011
897.095480	0.925783
897.403473	0.928707
897.711425	0.933579
898.019336	0.940400
898.327207	0.943232
898.635038	0.945040
898.942827	0.946061
899.250576	0.948859
899.558284	0.952779
899.865952	0.953370
900.173579	0.955985
900.481165	0.955789
900.788711	0.961095
901.096216	0.962336
901.403681	0.961475
901.711105	0.962667
902.018489	0.964033
902.325832	0.963121
902.633135	0.962105
902.940397	0.956275
903.247619	0.944004
903.554800	0.918746
903.861941	0.879481
904.169041	0.844263
904.476101	0.827894
904.783121	0.828358
905.090100	0.844973
905.397039	0.865624
905.703938	0.887863
906.010796	0.908218
906.317614	0.922686
906.624391	0.934935
906.931129	0.945227
907.237826	0.952696
907.544483	0.960533
907.851099	0.963131
908.157675	0.967662
908.464211	0.969680
908.770707	0.972491
909.077163	0.974775
909.383578	0.974283
909.689954	0.974212
909.996289	0.975901
910.302584	0.978462
910.608839	0.979425
910.915054	0.978908
911.221229	0.977905
911.527363	0.977486
911.833458	0.977630
912.139513	0.976667
912.445527	0.974724
912.751502	0.975137
913.057436	0.971697
913.363331	0.970061
913.669186	0.965282
913.975000	0.961502
914.280775	0.955722
914.586510	0.948739
914.892205	0.936055
915.197859	0.915180
915.503475	0.887843
915.809050	0.868974
916.114585	0.862961
916.420081	0.861332
916.725536	0.856211
917.030952	0.865775
917.336328	0.877997
917.641665	0.893266
917.946961	0.908034
918.252218	0.920819
918.557435	0.929081
918.862612	0.937809
919.167750	0.943442
919.472848	0.947709
919.777906	0.952451
920.082925	0.958198
920.387904	0.963359
920.692843	0.963472
920.997743	0.963568
921.302603	0.967613
921.607423	0.969471
921.912204	0.971475
922.216946	0.973003
922.521647	0.974094
922.826310	0.975398
923.130932	0.976085
923.435516	0.978518
923.740059	0.979272
924.044564	0.980106
924.349028	0.980752
924.653454	0.982405
924.957840	0.984604
925.262186	0.985510
925.566493	0.984106
925.870761	0.984544
926.174989	0.986564
926.479178	0.988705
926.783328	0.988248
927.087438	0.989034
927.391509	0.987406
927.695541	0.989662
927.999533	0.989893
928.303486	0.989173
928.607400	0.990306
928.911275	0.989044
929.215110	0.989768
929.518906	0.990290
929.822663	0.989722
930.126381	0.991748
930.430060	0.990764
930.733699	0.989882
931.037299	0.988656
931.340861	0.990186
931.644383	0.989919
931.947866	0.988966
932.251309	0.990195
932.554714	0.990240
932.858080	0.990431
933.161407	0.989991
933.464694	0.990776
933.767943	0.989878
934.071153	0.990674
934.374323	0.992343
934.677455	0.990873
934.980548	0.991427
935.283602	0.990323
935.586617	0.990894
935.889593	0.991154
936.192530	0.990556
936.495428	0.991913
936.798287	0.990277
937.101108	0.989707
937.403890	0.988592
937.706632	0.988717
938.009336	0.987825
938.312002	0.986837
938.614628	0.985347
938.917216	0.982780
939.219765	0.981297
939.522275	0.983126
939.824747	0.982971
940.127179	0.982179
940.429573	0.984915
940.731929	0.984316
941.034246	0.983989
941.336524	0.986301
941.638763	0.986546
941.940964	0.987084
942.243126	0.986587
942.545250	0.987322
942.847335	0.988899
943.149381	0.987582
943.451389	0.988188
943.753359	0.987679
944.055290	0.991097
944.357182	0.990360
944.659036	0.989056
944.960851	0.989200
945.262628	0.990069
945.564367	0.990486
945.866067	0.990432
946.167729	0.990000
946.469352	0.990707
946.770937	0.988151
947.072484	0.991737
947.373992	0.990455
947.675462	0.991278
947.976893	0.990392
948.278286	0.989500
948.579641	0.992621
948.880958	0.990756
949.182236	0.992206
949.483476	0.990670
949.784678	0.989938
950.085841	0.990546
950.386967	0.992005
950.688054	0.990531
950.989103	0.990840
951.290114	0.990432
951.591087	0.989693
951.892021	0.990158
952.192917	0.989552
952.493776	0.987278
952.794596	0.988628
953.095378	0.987655
953.396122	0.989669
953.696828	0.987474
953.997496	0.989685
954.298126	0.990885
954.598718	0.990369
954.899272	0.990468
955.199788	0.990553
955.500266	0.991883
955.800706	0.992492
956.101108	0.992289
956.401472	0.993011
956.701798	0.993774
957.002087	0.993097
957.302337	0.994244
957.602550	0.995329
957.902724	0.994254
958.202861	0.995532
958.502960	0.995734
958.803022	0.993453
959.103045	0.996166
959.403031	0.996892
959.702979	0.995013
960.002889	0.995425
960.302762	0.994646
960.602596	0.996086
960.902393	0.995429
961.202153	0.996647
961.501875	0.997137
961.801559	0.994875
962.101205	0.995632
962.400814	0.996204
962.700385	0.995689
962.999918	0.996188
963.299414	0.996287
963.598873	0.996099
963.898293	0.996765
964.197677	0.996735
964.497022	0.996857
964.796331	0.997046
965.095601	0.996804
965.394835	0.995559
965.694030	0.997211
965.993189	0.997425
966.292309	0.995842
966.591393	0.997935
966.890439	0.998069
967.189447	0.997517
967.488419	0.997361
967.787353	0.996182
968.086249	0.996842
968.385108	0.996973
968.683930	0.996637
968.982714	0.999132
969.281462	0.998649
969.580172	0.995770
969.878844	0.997437
970.177480	0.996723
970.476078	0.996680
970.774639	0.996707
971.073162	0.996993
971.371649	0.997770
971.670098	0.996564
971.968510	0.996825
972.266885	0.995164
972.565223	0.995602
972.863524	0.995917
973.161788	0.996808
973.460014	0.997227
973.758204	0.995419
974.056356	0.996370
974.354471	0.994114
974.652550	0.994923
974.950591	0.996443
975.248595	0.996382
975.546563	0.996849
975.844493	0.997775
976.142386	0.996803
976.440243	0.997326
976.738062	0.996564
977.035845	0.997890
977.333590	0.996432
977.631299	0.997790
977.928971	0.996692
978.226606	0.996347
978.524204	0.995136
978.821765	0.997175
979.119290	0.995973
979.416777	0.997074
979.714228	0.996314
980.011642	0.996076
980.309020	0.997354
980.606360	0.996571
980.903664	0.998755
981.200931	0.995492
981.498162	0.994086
981.795356	0.995075
982.092513	0.993038
982.389633	0.994412
982.686717	0.991143
982.983764	0.992639
983.280775	0.990409
983.577749	0.990068
983.874686	0.991462
984.171587	0.992000
984.468451	0.994281
984.765279	0.994077
985.062070	0.994763
985.358824	0.996030
985.655543	0.994265
985.952224	0.995888
986.248869	0.996166
986.545478	0.996477
986.842050	0.998036
987.138586	0.995309
987.435086	0.997408
987.731549	0.999543
988.027975	0.997738
988.324366	0.998061
988.620719	0.997010
988.917037	0.997083
989.213318	0.997730
989.509563	0.998576
989.805772	0.998065
990.101944	0.998042
990.398080	0.997311
990.694180	0.996978
990.990244	0.998167
991.286271	0.997975
991.582262	0.997303
991.878217	0.998695
992.174136	0.998299
992.470019	0.997912
992.765865	0.998027
993.061676	0.997481
993.357450	0.998217
993.653188	0.996360
993.948890	0.996890
994.244556	0.998189
994.540186	0.996476
994.835780	0.996451
995.131337	0.997935
995.426859	0.996740
995.722345	0.998005
996.017795	0.996057
996.313208	0.996144
996.608586	0.994733
996.903928	0.996376
997.199234	0.996265
997.494504	0.997555
997.789738	0.996590
998.084936	0.996268
998.380099	0.997940
998.675225	0.998039
998.970316	0.997321
999.265371	0.998374
999.560390	0.997881
999.855373	0.998544
1000.150320	0.997790
1000.445232	0.998694
1000.740108	0.998002
1001.034948	0.998383
1001.329752	0.999563
1001.624521	0.998452
1001.919254	0.998543
1002.213951	0.997968
1002.508613	0.998246
1002.803239	0.999094
1003.097829	0.999685
1003.392384	0.999285
1003.686903	0.998403
1003.981386	0.997886
1004.275834	0.999435
1004.570246	0.998320
1004.864623	1.000158
1005.158964	0.998677
1005.453270	0.997961
1005.747540	0.997456
1006.041775	0.998740
1006.335974	0.998601
1006.630138	0.999721
1006.924266	0.998519
1007.218359	0.999740
1007.512416	0.998870
1007.806438	0.999064
1008.100425	0.998528
1008.394376	0.997608
1008.688292	0.999075
1008.982172	1.000089
1009.276017	0.998676
1009.569827	0.999887
1009.863602	0.999614
1010.157341	0.999159
1010.451045	0.997911
1010.744714	0.997841
1011.038347	0.999005
1011.331945	0.999918
1011.625508	0.997332
1011.919036	0.999106
1012.212528	0.997664
1012.505986	0.997713
1012.799408	0.998486
1013.092795	0.998897
1013.386147	0.999258
1013.679464	0.999536
1013.972745	0.997981
1014.265992	0.997959
1014.559204	0.997812
1014.852380	0.999822
1015.145521	0.999594
1015.438628	0.999712
1015.731699	0.998286
1016.024736	0.998964
1016.317737	0.999265
1016.610703	0.998482
1016.903635	1.000208
1017.196531	0.998303
1017.489393	1.000099
1017.782219	0.998361
1018.075011	0.998817
1018.367768	0.998856
1018.660490	0.999084
1018.953177	0.999084
1019.245829	0.999084
