Dividing Wavelength (nm)	Counts (n)	Blue Motor Position (mm): 0.000000	Red Motor Position (mm): 27.500000	
326.493990	1.000545
326.888308	1.000545
327.282561	1.000545
327.676750	0.999012
328.070874	0.999936
328.464933	1.000677
328.858929	0.999898
329.252859	0.999527
329.646726	0.998874
330.040528	0.999174
330.434265	0.998364
330.827938	1.000821
331.221547	1.000365
331.615091	0.999888
332.008571	0.999611
332.401986	1.000203
332.795338	1.000870
333.188625	0.998284
333.581847	1.000593
333.975006	0.998594
334.368100	0.997775
334.761129	1.000088
335.154095	1.000477
335.546996	0.997043
335.939833	0.995326
336.332606	0.993515
336.725315	0.994466
337.117960	0.996366
337.510540	0.994404
337.903056	0.993886
338.295508	0.993479
338.687896	0.994002
339.080220	0.994652
339.472480	0.994186
339.864676	0.994337
340.256807	0.994545
340.648875	0.996050
341.040879	0.994589
341.432818	0.994800
341.824694	0.995292
342.216506	0.995876
342.608253	0.994478
342.999937	0.992479
343.391557	0.996074
343.783113	0.993839
344.174605	0.995451
344.566033	0.995316
344.957397	0.993949
345.348697	0.994749
345.739934	0.993803
346.131106	0.994629
346.522215	0.995368
346.913260	0.994713
347.304241	0.995412
347.695159	0.993907
348.086012	0.994539
348.476802	0.994235
348.867528	0.995194
349.258191	0.993507
349.648789	0.995897
350.039324	0.994133
350.429796	0.994190
350.820203	0.993785
351.210548	0.993598
351.600828	0.994611
351.991045	0.995231
352.381198	0.993627
352.771288	0.994240
353.161314	0.994734
353.551276	0.994716
353.941175	0.994535
354.331010	0.995306
354.720782	0.994409
355.110490	0.993914
355.500135	0.994981
355.889717	0.995198
356.279235	0.993880
356.668689	0.994830
357.058080	0.994466
357.447408	0.995667
357.836672	0.994497
358.225873	0.995810
358.615010	0.994869
359.004084	0.996272
359.393095	0.995186
359.782043	0.995310
360.170927	0.995784
360.559748	0.995616
360.948505	0.994455
361.337199	0.994764
361.725830	0.994283
362.114398	0.994630
362.502903	0.994801
362.891344	0.995525
363.279722	0.995216
363.668037	0.995314
364.056289	0.995249
364.444478	0.995977
364.832603	0.993763
365.220665	0.994465
365.608665	0.994879
365.996601	0.994236
366.384474	0.994067
366.772284	0.994893
367.160031	0.993374
367.547715	0.993720
367.935336	0.993236
368.322893	0.994740
368.710388	0.993669
369.097820	0.994058
369.485189	0.994773
369.872495	0.994963
370.259738	0.992936
370.646918	0.994812
371.034035	0.995565
371.421090	0.993810
371.808081	0.993832
372.195010	0.995180
372.581875	0.995616
372.968678	0.994489
373.355418	0.994448
373.742096	0.995128
374.128710	0.995591
374.515262	0.994666
374.901751	0.995499
375.288177	0.995750
375.674540	0.996540
376.060841	0.993934
376.447079	0.996122
376.833254	0.995443
377.219367	0.995765
377.605417	0.995273
377.991404	0.995222
378.377329	0.994861
378.763191	0.995402
379.148991	0.995485
379.534727	0.995495
379.920402	0.995626
380.306013	0.996548
380.691563	0.996661
381.077049	0.994218
381.462474	0.995787
381.847835	0.996176
382.233134	0.995221
382.618371	0.996465
383.003545	0.995553
383.388657	0.996277
383.773706	0.996411
384.158693	0.995529
384.543618	0.995835
384.928480	0.996641
385.313280	0.996549
385.698017	0.996969
386.082692	0.996386
386.467305	0.996137
386.851856	0.995460
387.236344	0.995619
387.620770	0.995817
388.005133	0.996723
388.389435	0.997050
388.773674	0.995909
389.157851	0.996958
389.541965	0.997447
389.926018	0.996228
390.310008	0.997906
390.693936	0.996893
391.077802	0.997824
391.461606	0.996295
391.845348	0.997148
392.229027	0.998236
392.612645	0.997997
392.996200	0.998182
393.379694	0.996901
393.763125	0.998268
394.146494	0.997282
394.529801	0.996322
394.913047	0.998399
395.296230	0.997514
395.679351	0.997025
396.062410	0.996720
396.445408	0.997236
396.828343	0.996636
397.211217	0.996922
397.594028	0.997859
397.976778	0.997211
398.359466	0.996593
398.742092	0.996248
399.124656	0.997176
399.507158	0.997019
399.889598	0.997714
400.271977	0.997522
400.654294	0.997825
401.036549	0.997195
401.418742	0.999001
401.800874	0.996290
402.182944	0.996984
402.564952	0.996085
402.946898	0.997584
403.328783	0.996125
403.710606	0.997133
404.092367	0.997231
404.474067	0.997381
404.855705	0.997223
405.237282	0.997320
405.618797	0.997435
406.000250	0.996122
406.381642	0.997577
406.762972	0.997744
407.144240	0.997633
407.525447	0.997647
407.906593	0.997556
408.287677	0.997649
408.668700	0.997932
409.049661	0.996496
409.430560	0.998855
409.811399	0.997135
410.192176	0.995915
410.572891	0.997424
410.953545	0.996856
411.334138	0.997012
411.714669	0.997721
412.095139	0.996462
412.475547	0.998030
412.855894	0.997429
413.236180	0.998106
413.616405	0.997573
413.996568	0.997650
414.376670	0.997571
414.756711	0.997671
415.136691	0.996883
415.516609	0.996811
415.896466	0.996821
416.276262	0.996020
416.655997	0.997290
417.035670	0.996185
417.415283	0.997350
417.794834	0.997683
418.174324	0.996626
418.553753	0.997852
418.933121	0.997041
419.312428	0.997326
419.691674	0.997681
420.070859	0.996507
420.449983	0.997928
420.829045	0.997044
421.208047	0.997498
421.586988	0.997785
421.965867	0.996445
422.344686	0.997784
422.723444	0.997370
423.102141	0.997477
423.480777	0.997378
423.859352	0.997619
424.237866	0.996164
424.616319	0.997279
424.994712	0.997426
425.373044	0.998339
425.751314	0.997772
426.129524	0.996327
426.507673	0.996766
426.885762	0.998082
427.263789	0.996739
427.641756	0.997540
428.019662	0.997789
428.397508	0.996346
428.775292	0.997159
429.153016	0.996687
429.530679	0.997809
429.908282	0.997484
430.285824	0.996404
430.663305	0.997106
431.040726	0.997182
431.418086	0.998069
431.795385	0.997129
432.172624	0.996520
432.549802	0.997866
432.926920	0.997702
433.303977	0.996255
433.680974	0.997225
434.057910	0.996726
434.434786	0.997922
434.811601	0.996548
435.188355	0.996716
435.565050	0.996644
435.941683	0.997380
436.318257	0.998741
436.694770	0.996218
437.071222	0.997717
437.447614	0.997655
437.823946	0.996823
438.200218	0.996401
438.576429	0.997379
438.952580	0.997393
439.328670	0.996706
439.704700	0.997205
440.080670	0.997402
440.456580	0.996563
440.832429	0.996854
441.208218	0.996491
441.583947	0.996605
441.959616	0.997204
442.335224	0.996371
442.710773	0.997361
443.086261	0.994873
443.461689	0.996120
443.837057	0.995584
444.212365	0.995635
444.587612	0.996099
444.962800	0.995132
445.337927	0.995279
445.712995	0.995410
446.088002	0.995328
446.462949	0.994647
446.837837	0.994207
447.212664	0.993535
447.587431	0.993455
447.962139	0.991921
448.336786	0.991936
448.711374	0.990723
449.085901	0.990292
449.460369	0.989951
449.834776	0.988911
450.209124	0.988376
450.583412	0.986588
450.957640	0.985551
451.331808	0.984471
451.705917	0.983977
452.079965	0.982072
452.453954	0.982150
452.827883	0.979786
453.201752	0.978992
453.575562	0.977680
453.949311	0.975837
454.323001	0.973412
454.696632	0.971650
455.070202	0.969467
455.443713	0.966974
455.817164	0.964802
456.190556	0.962434
456.563888	0.959354
456.937160	0.957510
457.310373	0.955755
457.683526	0.953276
458.056619	0.950928
458.429653	0.949339
458.802628	0.945568
459.175542	0.942316
459.548398	0.937132
459.921194	0.932392
460.293930	0.928294
460.666607	0.919868
461.039224	0.914145
461.411782	0.909887
461.784280	0.906136
462.156719	0.903761
462.529099	0.900492
462.901419	0.897268
463.273680	0.894590
463.645882	0.890022
464.018024	0.885392
464.390106	0.879355
464.762130	0.871142
465.134094	0.860260
465.505999	0.845374
465.877845	0.831004
466.249631	0.823935
466.621358	0.821488
466.993026	0.818538
467.364634	0.815575
467.736184	0.810117
468.107674	0.804965
468.479105	0.796409
468.850477	0.792231
469.221790	0.787146
469.593043	0.783318
469.964238	0.776748
470.335373	0.768847
470.706449	0.761761
471.077467	0.754630
471.448425	0.731264
471.819324	0.715938
472.190164	0.708099
472.560945	0.712493
472.931667	0.712380
473.302330	0.705674
473.672934	0.703008
474.043479	0.689499
474.413965	0.683197
474.784393	0.675586
475.154761	0.666052
475.525070	0.655525
475.895321	0.652364
476.265513	0.641015
476.635645	0.631713
477.005719	0.622305
477.375734	0.612872
477.745691	0.601930
478.115588	0.591390
478.485427	0.579312
478.855207	0.564840
479.224928	0.546475
479.594591	0.533046
479.964194	0.526355
480.333739	0.518824
480.703226	0.509852
481.072653	0.501698
481.442022	0.491539
481.811333	0.482410
482.180584	0.476637
482.549777	0.470999
482.918912	0.466707
483.287988	0.458884
483.657005	0.451662
484.025964	0.448956
484.394864	0.439306
484.763706	0.431865
485.132489	0.429549
485.501213	0.423130
485.869879	0.415451
486.238487	0.411042
486.607036	0.403962
486.975527	0.400627
487.343959	0.391914
487.712333	0.384732
488.080648	0.380865
488.448905	0.373896
488.817104	0.369658
489.185244	0.359995
489.553326	0.352075
489.921350	0.339736
490.289315	0.319989
490.657222	0.311901
491.025070	0.307591
491.392861	0.304712
491.760593	0.304864
492.128267	0.304109
492.495883	0.304244
492.863440	0.305614
493.230939	0.307461
493.598380	0.304617
493.965763	0.303051
494.333088	0.301976
494.700354	0.299473
495.067563	0.295849
495.434713	0.295479
495.801805	0.290663
496.168839	0.289179
496.535815	0.287520
496.902733	0.285095
497.269593	0.283792
497.636395	0.279352
498.003139	0.277068
498.369825	0.277877
498.736453	0.272479
499.103023	0.271792
499.469535	0.269542
499.835989	0.267921
500.202385	0.267022
500.568723	0.268652
500.935003	0.262748
501.301226	0.265177
501.667390	0.258602
502.033497	0.254872
502.399546	0.256771
502.765537	0.257326
503.131470	0.254771
503.497345	0.249916
503.863163	0.257854
504.228923	0.249951
504.594625	0.247896
504.960269	0.252349
505.325856	0.247110
505.691385	0.250567
506.056856	0.246976
506.422270	0.245716
506.787625	0.247443
507.152924	0.244637
507.518164	0.244478
507.883347	0.245822
508.248472	0.246929
508.613540	0.241783
508.978550	0.243813
509.343503	0.244015
509.708398	0.241645
510.073236	0.238910
510.438016	0.238406
510.802738	0.239216
511.167403	0.237813
511.532010	0.239672
511.896561	0.234837
512.261053	0.233753
512.625488	0.235450
512.989866	0.235705
513.354186	0.235900
513.718449	0.237547
514.082655	0.233595
514.446803	0.235934
514.810894	0.233374
515.174927	0.235682
515.538904	0.234996
515.902822	0.232031
516.266684	0.234077
516.630488	0.235214
516.994235	0.233872
517.357925	0.232424
517.721558	0.230799
518.085133	0.230370
518.448651	0.230356
518.812112	0.232225
519.175516	0.231878
519.538863	0.229316
519.902152	0.231005
520.265385	0.227933
520.628560	0.229640
520.991678	0.230036
521.354739	0.228836
521.717743	0.230050
522.080690	0.230607
522.443580	0.227570
522.806413	0.228827
523.169189	0.227751
523.531908	0.226711
523.894569	0.230373
524.257174	0.230278
524.619722	0.227769
524.982213	0.228823
525.344647	0.227910
525.707025	0.228702
526.069345	0.226941
526.431608	0.228494
526.793815	0.226274
527.155964	0.230281
527.518057	0.228986
527.880093	0.230251
528.242072	0.229188
528.603995	0.230874
528.965860	0.232311
529.327669	0.231112
529.689421	0.232126
530.051117	0.232974
530.412755	0.230724
530.774337	0.232938
531.135862	0.233491
531.497331	0.232840
531.858743	0.235526
532.220098	0.232143
532.581396	0.234846
532.942638	0.235157
533.303824	0.236003
533.664953	0.235966
534.026025	0.237788
534.387040	0.235685
534.747999	0.235463
535.108902	0.234595
535.469748	0.239250
535.830537	0.237012
536.191270	0.237420
536.551947	0.237271
536.912567	0.237274
537.273131	0.238811
537.633638	0.239103
537.994089	0.239532
538.354483	0.240566
538.714821	0.237450
539.075103	0.237486
539.435328	0.238000
539.795497	0.241936
540.155609	0.238218
540.515665	0.236668
540.875665	0.242098
541.235609	0.240741
541.595496	0.240654
541.955328	0.237124
542.315102	0.240167
542.674821	0.240709
543.034483	0.240984
543.394090	0.240909
543.753640	0.242664
544.113134	0.237641
544.472571	0.240852
544.831953	0.237722
545.191278	0.241708
545.550548	0.241393
545.909761	0.238016
546.268918	0.238811
546.628019	0.237324
546.987064	0.239774
547.346053	0.241345
547.704986	0.239197
548.063863	0.239793
548.422684	0.240006
548.781449	0.241848
549.140158	0.239465
549.498811	0.242481
549.857408	0.245382
550.215949	0.240261
550.574434	0.243378
550.932864	0.241083
551.291237	0.240071
551.649555	0.241525
552.007817	0.241131
552.366022	0.241962
552.724173	0.242027
553.082267	0.242544
553.440305	0.239293
553.798288	0.243748
554.156215	0.240217
554.514086	0.241098
554.871902	0.244077
555.229661	0.243448
555.587365	0.243962
555.945014	0.246662
556.302606	0.243301
556.660143	0.245930
557.017625	0.242270
557.375050	0.244705
557.732421	0.241679
558.089735	0.243849
558.446994	0.243591
558.804197	0.243013
559.161345	0.243076
559.518437	0.246100
559.875474	0.244085
560.232455	0.243564
560.589381	0.244829
560.946251	0.244941
561.303065	0.242589
561.659825	0.243610
562.016528	0.245022
562.373177	0.248427
562.729770	0.245472
563.086307	0.247506
563.442789	0.245394
563.799216	0.247876
564.155587	0.246608
564.511904	0.247755
564.868164	0.248135
565.224370	0.247821
565.580520	0.249806
565.936615	0.249313
566.292654	0.252276
566.648638	0.249493
567.004567	0.250473
567.360441	0.250779
567.716260	0.252846
568.072023	0.250779
568.427732	0.251626
568.783385	0.254014
569.138982	0.251890
569.494525	0.251712
569.850013	0.254506
570.205445	0.252795
570.560823	0.255419
570.916145	0.257604
571.271412	0.255772
571.626625	0.257406
571.981782	0.257744
572.336884	0.258625
572.691931	0.258133
573.046923	0.259416
573.401860	0.261102
573.756743	0.262415
574.111570	0.261381
574.466342	0.261850
574.821059	0.261213
575.175722	0.263738
575.530330	0.263630
575.884882	0.263900
576.239380	0.265885
576.593823	0.266258
576.948211	0.266003
577.302544	0.269065
577.656823	0.268874
578.011047	0.268979
578.365216	0.269292
578.719330	0.271482
579.073389	0.271543
579.427394	0.272588
579.781344	0.273208
580.135239	0.274847
580.489080	0.274507
580.842866	0.277275
581.196597	0.277421
581.550273	0.276130
581.903895	0.276682
582.257463	0.275232
582.610975	0.278258
582.964434	0.277621
583.317837	0.280236
583.671186	0.280510
584.024481	0.280771
584.377721	0.283182
584.730906	0.283855
585.084037	0.282994
585.437113	0.284861
585.790135	0.284191
586.143103	0.287271
586.496016	0.288203
586.848874	0.285804
587.201679	0.286493
587.554428	0.290040
587.907124	0.288738
588.259765	0.289111
588.612352	0.289940
588.964884	0.293784
589.317362	0.293382
589.669786	0.292978
590.022155	0.291854
590.374470	0.291277
590.726731	0.292879
591.078937	0.297648
591.431090	0.294002
591.783188	0.298315
592.135232	0.298380
592.487222	0.298492
592.839157	0.296848
593.191038	0.299179
593.542866	0.300921
593.894639	0.304418
594.246358	0.302533
594.598022	0.302119
594.949633	0.305899
595.301190	0.306312
595.652692	0.305707
596.004141	0.301782
596.355535	0.309955
596.706876	0.310387
597.058162	0.312705
597.409395	0.310023
597.760573	0.307628
598.111698	0.310892
598.462768	0.311722
598.813785	0.312502
599.164748	0.314265
599.515657	0.314221
599.866511	0.317859
600.217312	0.312676
600.568060	0.318656
600.918753	0.314590
601.269392	0.315701
601.619978	0.318889
601.970510	0.316313
602.320988	0.316633
602.671412	0.314422
603.021783	0.316862
603.372100	0.318182
603.722363	0.317935
604.072572	0.319101
604.422728	0.318384
604.772830	0.321005
605.122878	0.320463
605.472872	0.320332
605.822813	0.318999
606.172701	0.321652
606.522534	0.319202
606.872314	0.319234
607.222041	0.319806
607.571714	0.318189
607.921333	0.319658
608.270899	0.319356
608.620411	0.315953
608.969870	0.319728
609.319276	0.320369
609.668627	0.319994
610.017926	0.318425
610.367171	0.317452
610.716362	0.318048
611.065500	0.318050
611.414585	0.316875
611.763616	0.317351
612.112594	0.318080
612.461518	0.317344
612.810389	0.314910
613.159207	0.317135
613.507971	0.318968
613.856682	0.314638
614.205340	0.316391
614.553945	0.313131
614.902496	0.317200
615.250994	0.315160
615.599439	0.316090
615.947830	0.315377
616.296169	0.316444
616.644454	0.315783
616.992686	0.315888
617.340864	0.313539
617.688990	0.316930
618.037063	0.313733
618.385082	0.316051
618.733048	0.312565
619.080961	0.314719
619.428821	0.314376
619.776628	0.314321
620.124382	0.315980
620.472083	0.316147
620.819731	0.315589
621.167326	0.319125
621.514868	0.319080
621.862357	0.323371
622.209793	0.323084
622.557176	0.325242
622.904506	0.326279
623.251783	0.328618
623.599007	0.330771
623.946179	0.330310
624.293297	0.332495
624.640363	0.336290
624.987376	0.336958
625.334336	0.339430
625.681243	0.341466
626.028097	0.342074
626.374899	0.343356
626.721647	0.343179
627.068343	0.346909
627.414987	0.347981
627.761577	0.349950
628.108115	0.348151
628.454600	0.353329
628.801032	0.350613
629.147412	0.353036
629.493739	0.353045
629.840014	0.356034
630.186236	0.353699
630.532405	0.359175
630.878521	0.356630
631.224585	0.358503
631.570597	0.362589
631.916556	0.360914
632.262462	0.361121
632.608316	0.363088
632.954117	0.363946
633.299866	0.364920
633.645562	0.365205
633.991206	0.369686
634.336797	0.372558
634.682336	0.374409
635.027823	0.376198
635.373257	0.377011
635.718639	0.380438
636.063968	0.379531
636.409245	0.385289
636.754470	0.385594
637.099642	0.388476
637.444762	0.391585
637.789829	0.390602
638.134845	0.394220
638.479808	0.395113
638.824719	0.394548
639.169577	0.398909
639.514383	0.397426
639.859137	0.401904
640.203839	0.402090
640.548489	0.402564
640.893086	0.403736
641.237632	0.405042
641.582125	0.403469
641.926566	0.405401
642.270955	0.405116
642.615292	0.405435
642.959576	0.404853
643.303809	0.405303
643.647990	0.405315
643.992118	0.405403
644.336195	0.409454
644.680219	0.407066
645.024192	0.408435
645.368112	0.402091
645.711981	0.400947
646.055797	0.396313
646.399562	0.398381
646.743274	0.390511
647.086935	0.388062
647.430544	0.387969
647.774101	0.386918
648.117606	0.386713
648.461059	0.387259
648.804460	0.389387
649.147810	0.395033
649.491108	0.396479
649.834354	0.397733
650.177548	0.403336
650.520690	0.408512
650.863781	0.410110
651.206820	0.409218
651.549807	0.413823
651.892742	0.417704
652.235626	0.417101
652.578458	0.418313
652.921238	0.424445
653.263967	0.422292
653.606644	0.426280
653.949269	0.425590
654.291843	0.429874
654.634365	0.426593
654.976836	0.429818
655.319255	0.430104
655.661622	0.431637
656.003938	0.431241
656.346203	0.434740
656.688416	0.432327
657.030577	0.435363
657.372687	0.437455
657.714746	0.438039
658.056753	0.435344
658.398708	0.439312
658.740612	0.440611
659.082465	0.436737
659.424266	0.436949
659.766016	0.436563
660.107715	0.439211
660.449362	0.438270
660.790958	0.438870
661.132503	0.439043
661.473996	0.437210
661.815438	0.437532
662.156829	0.438211
662.498168	0.439047
662.839456	0.440495
663.180693	0.438453
663.521879	0.437778
663.863013	0.438877
664.204097	0.437397
664.545129	0.434167
664.886110	0.434942
665.227040	0.432338
665.567918	0.434778
665.908746	0.432430
666.249522	0.432131
666.590248	0.432964
666.930922	0.431257
667.271545	0.430535
667.612118	0.430396
667.952639	0.432243
668.293109	0.430799
668.633528	0.433261
668.973896	0.433387
669.314213	0.433732
669.654480	0.435475
669.994695	0.435414
670.334859	0.437251
670.674973	0.436720
671.015035	0.436651
671.355047	0.436492
671.695008	0.437939
672.034918	0.439645
672.374777	0.439207
672.714585	0.440177
673.054342	0.440438
673.394049	0.440327
673.733705	0.437720
674.073310	0.439031
674.412864	0.442062
674.752368	0.442789
675.091820	0.442313
675.431223	0.446942
675.770574	0.447123
676.109875	0.449665
676.449125	0.450265
676.788324	0.452266
677.127473	0.457975
677.466571	0.457592
677.805619	0.458897
678.144616	0.459999
678.483562	0.461830
678.822458	0.464494
679.161303	0.465394
679.500098	0.465790
679.838842	0.467210
680.177535	0.467346
680.516179	0.465479
680.854771	0.464521
681.193314	0.457922
681.531805	0.449483
681.870247	0.437792
682.208638	0.430129
682.546978	0.429313
682.885268	0.431119
683.223508	0.437464
683.561697	0.441348
683.899836	0.443978
684.237925	0.447003
684.575963	0.449426
684.913951	0.453004
685.251889	0.448423
685.589776	0.450187
685.927614	0.453277
686.265401	0.447372
686.603137	0.448229
686.940824	0.442562
687.278460	0.441110
687.616046	0.440726
687.953582	0.434862
688.291068	0.436951
688.628504	0.432076
688.965889	0.434356
689.303224	0.438686
689.640510	0.442448
689.977745	0.448225
690.314930	0.456690
690.652065	0.460663
690.989150	0.468230
691.326185	0.474053
691.663170	0.479027
692.000105	0.486287
692.336990	0.492837
692.673825	0.495466
693.010610	0.502917
693.347345	0.508449
693.684030	0.509543
694.020665	0.514365
694.357251	0.522839
694.693786	0.522402
695.030272	0.526973
695.366707	0.530248
695.703093	0.534016
696.039429	0.531259
696.375716	0.533023
696.711952	0.536349
697.048139	0.537968
697.384276	0.539666
697.720363	0.538802
698.056400	0.537022
698.392388	0.542917
698.728326	0.546023
699.064214	0.548849
699.400053	0.549087
699.735842	0.553034
700.071581	0.556046
700.407270	0.558374
700.742910	0.561274
701.078501	0.567687
701.414042	0.567993
701.749533	0.571339
702.084974	0.579886
702.420366	0.572015
702.755709	0.579778
703.091002	0.587548
703.426246	0.580564
703.761440	0.587026
704.096584	0.590953
704.431679	0.588637
704.766725	0.590679
705.101721	0.592251
705.436668	0.588122
705.771565	0.594954
706.106413	0.592575
706.441212	0.586679
706.775961	0.585870
707.110661	0.588967
707.445311	0.585822
707.779913	0.582914
708.114465	0.581270
708.448967	0.577466
708.783421	0.570251
709.117825	0.564182
709.452180	0.564352
709.786485	0.557735
710.120742	0.548179
710.454949	0.550747
710.789107	0.543097
711.123216	0.533615
711.457275	0.535042
711.791286	0.525531
712.125247	0.524802
712.459159	0.535325
712.793023	0.528555
713.126837	0.531789
713.460602	0.532469
713.794318	0.542146
714.127985	0.541070
714.461602	0.551124
714.795171	0.554699
715.128691	0.562163
715.462162	0.569041
715.795584	0.575367
716.128957	0.577762
716.462281	0.583998
716.795556	0.587917
717.128782	0.593435
717.461960	0.602383
717.795088	0.600948
718.128167	0.606567
718.461198	0.616329
718.794180	0.616570
719.127113	0.618955
719.459997	0.622234
719.792833	0.629118
720.125619	0.630683
720.458357	0.636303
720.791046	0.635899
721.123686	0.639103
721.456278	0.646389
721.788821	0.643075
722.121315	0.647387
722.453761	0.651482
722.786158	0.649800
723.118506	0.646163
723.450805	0.653756
723.783056	0.650186
724.115259	0.647270
724.447412	0.646835
724.779518	0.648394
725.111574	0.646875
725.443582	0.642527
725.775542	0.644013
726.107453	0.637393
726.439315	0.636445
726.771129	0.635496
727.102895	0.628463
727.434612	0.621727
727.766281	0.619294
728.097901	0.618489
728.429473	0.618763
728.760996	0.617234
729.092471	0.616943
729.423897	0.621140
729.755276	0.619816
730.086606	0.620346
730.417887	0.614444
730.749120	0.605082
731.080305	0.596109
731.411442	0.592187
731.742530	0.596845
732.073570	0.596490
732.404562	0.588683
732.735506	0.590164
733.066401	0.594911
733.397249	0.603457
733.728048	0.615133
734.058798	0.627709
734.389501	0.638517
734.720156	0.648199
735.050762	0.656541
735.381320	0.656643
735.711831	0.665733
736.042293	0.671306
736.372707	0.666809
736.703073	0.671545
737.033391	0.673772
737.363661	0.670493
737.693883	0.666228
738.024056	0.664939
738.354182	0.665665
738.684260	0.654747
739.014290	0.650075
739.344272	0.651892
739.674207	0.644984
740.004093	0.644243
740.333931	0.645684
740.663722	0.645112
740.993464	0.645411
741.323159	0.649520
741.652806	0.653708
741.982405	0.658857
742.311956	0.663174
742.641460	0.665475
742.970915	0.669786
743.300323	0.676903
743.629683	0.683678
743.958996	0.684902
744.288260	0.689649
744.617477	0.695349
744.946647	0.697339
745.275768	0.702323
745.604842	0.701951
745.933869	0.711831
746.262847	0.712371
746.591778	0.706539
746.920662	0.712548
747.249498	0.718796
747.578286	0.710021
747.907027	0.706023
748.235720	0.707281
748.564365	0.702247
748.892963	0.701638
749.221514	0.704928
749.550017	0.709508
749.878473	0.709641
750.206881	0.715483
750.535242	0.716816
750.863555	0.716921
751.191821	0.718195
751.520039	0.721487
751.848210	0.725636
752.176334	0.718211
752.504411	0.718089
752.832440	0.725339
753.160421	0.729716
753.488356	0.727406
753.816243	0.724930
754.144082	0.733636
754.471875	0.736959
754.799620	0.733552
755.127318	0.733470
755.454969	0.734557
755.782572	0.733343
756.110129	0.737981
756.437638	0.740496
756.765100	0.737992
757.092515	0.736006
757.419882	0.733691
757.747203	0.739082
758.074477	0.739430
758.401703	0.735566
758.728882	0.730692
759.056014	0.730296
759.383099	0.729197
759.710138	0.729846
760.037129	0.726731
760.364073	0.720720
760.690970	0.723159
761.017820	0.729101
761.344623	0.724681
761.671379	0.715459
761.998088	0.703749
762.324751	0.681331
762.651366	0.639621
762.977935	0.573315
763.304456	0.521685
763.630931	0.511712
763.957359	0.550574
764.283740	0.595690
764.610074	0.623080
764.936362	0.653450
765.262602	0.679367
765.588796	0.701114
765.914943	0.718679
766.241044	0.736337
766.567097	0.742492
766.893104	0.752158
767.219064	0.759079
767.544978	0.765044
767.870845	0.778774
768.196665	0.782631
768.522438	0.781020
768.848165	0.781794
769.173846	0.791042
769.499479	0.795974
769.825066	0.798190
770.150607	0.803808
770.476101	0.798456
770.801548	0.800436
771.126949	0.812202
771.452303	0.815020
771.777611	0.814080
772.102872	0.812896
772.428087	0.817819
772.753256	0.822032
773.078378	0.823679
773.403453	0.833612
773.728482	0.837597
774.053465	0.830758
774.378401	0.833162
774.703291	0.842670
775.028135	0.842311
775.352932	0.843702
775.677683	0.847125
776.002388	0.847729
776.327046	0.845732
776.651658	0.849765
776.976224	0.853749
777.300743	0.853036
777.625216	0.855232
777.949643	0.857069
778.274024	0.857106
778.598359	0.858886
778.922647	0.857300
779.246889	0.858488
779.571086	0.861661
779.895236	0.865055
780.219339	0.862470
780.543397	0.858964
780.867409	0.856863
781.191374	0.859338
781.515294	0.861350
781.839167	0.859580
782.162995	0.862550
782.486776	0.860346
782.810511	0.861331
783.134201	0.864896
783.457844	0.861329
783.781441	0.864260
784.104993	0.871390
784.428498	0.870700
784.751958	0.866693
785.075372	0.869354
785.398739	0.872538
785.722061	0.868996
786.045337	0.864969
786.368568	0.869710
786.691752	0.871808
787.014891	0.858015
787.337983	0.848771
787.661030	0.842165
787.984031	0.824985
788.306987	0.810546
788.629897	0.814077
788.952760	0.817478
789.275579	0.822317
789.598351	0.836621
789.921078	0.850442
790.243759	0.852041
790.566395	0.857125
790.888984	0.864727
791.211529	0.868198
791.534027	0.873160
791.856480	0.873557
792.178888	0.879670
792.501249	0.882013
792.823566	0.884032
793.145836	0.882815
793.468062	0.885864
793.790241	0.885502
794.112375	0.883345
794.434464	0.877534
794.756507	0.879573
795.078505	0.878135
795.400457	0.873011
795.722364	0.860578
796.044226	0.855005
796.366042	0.853404
796.687812	0.856426
797.009538	0.852713
797.331218	0.855836
797.652852	0.860210
797.974442	0.866313
798.295986	0.863903
798.617484	0.867157
798.938938	0.872200
799.260346	0.876632
799.581709	0.879132
799.903026	0.880860
800.224299	0.881257
800.545526	0.885721
800.866708	0.890060
801.187845	0.892543
801.508936	0.891932
801.829983	0.889992
802.150984	0.893431
802.471940	0.898230
802.792851	0.898392
803.113717	0.898279
803.434538	0.897015
803.755314	0.898494
804.076045	0.899253
804.396731	0.900756
804.717372	0.900452
805.037967	0.902749
805.358518	0.899790
805.679024	0.896401
805.999485	0.897331
806.319901	0.897448
806.640272	0.899224
806.960598	0.897339
807.280879	0.893446
807.601115	0.892565
807.921306	0.896775
808.241453	0.897406
808.561554	0.894509
808.881611	0.895521
809.201623	0.897697
809.521590	0.896157
809.841513	0.896630
810.161390	0.896736
810.481223	0.899251
810.801011	0.901194
811.120755	0.903239
811.440453	0.901888
811.760107	0.901201
812.079716	0.900602
812.399281	0.903962
812.718801	0.906810
813.038276	0.907893
813.357707	0.907229
813.677093	0.903942
813.996434	0.908363
814.315731	0.909371
814.634983	0.910172
814.954191	0.909319
815.273354	0.906400
815.592473	0.900698
815.911547	0.902876
816.230577	0.899935
816.549562	0.895839
816.868502	0.897681
817.187399	0.893071
817.506250	0.888710
817.825058	0.890398
818.143821	0.888479
818.462539	0.881941
818.781213	0.875199
819.099843	0.863410
819.418429	0.848321
819.736970	0.831149
820.055466	0.811930
820.373919	0.786032
820.692327	0.753882
821.010691	0.718778
821.329011	0.643323
821.647286	0.529111
821.965517	0.415755
822.283704	0.373318
822.601847	0.374737
822.919945	0.410556
823.237999	0.443532
823.556010	0.489861
823.873976	0.545048
824.191897	0.594429
824.509775	0.637074
824.827609	0.682171
825.145398	0.704570
825.463144	0.706898
825.780845	0.690190
826.098502	0.671352
826.416116	0.626440
826.733685	0.582501
827.051210	0.574637
827.368692	0.589402
827.686129	0.625933
828.003522	0.678578
828.320872	0.725670
828.638177	0.769144
828.955439	0.801480
829.272656	0.823021
829.589830	0.839867
829.906960	0.855135
830.224046	0.867372
830.541088	0.877727
830.858086	0.881958
831.175041	0.889231
831.491952	0.887292
831.808819	0.884856
832.125642	0.877593
832.442421	0.863664
832.759157	0.841733
833.075849	0.796604
833.392497	0.733151
833.709101	0.692277
834.025662	0.702243
834.342179	0.733410
834.658653	0.772906
834.975083	0.808401
835.291469	0.833429
835.607811	0.856091
835.924110	0.871797
836.240366	0.888175
836.556578	0.902314
836.872746	0.908762
837.188871	0.915185
837.504952	0.920925
837.820990	0.924307
838.136984	0.927004
838.452935	0.930724
838.768842	0.932659
839.084706	0.924628
839.400526	0.900461
839.716303	0.859455
840.032037	0.838888
840.347727	0.842253
840.663373	0.859975
840.978977	0.880700
841.294537	0.903379
841.610054	0.919284
841.925527	0.926089
842.240957	0.933113
842.556344	0.940188
842.871687	0.947565
843.186987	0.950128
843.502244	0.950812
843.817458	0.952947
844.132629	0.956300
844.447756	0.960736
844.762840	0.960420
845.077881	0.959722
845.392879	0.959721
845.707833	0.962657
846.022745	0.964302
846.337613	0.965490
846.652438	0.966358
846.967221	0.963584
847.281960	0.965706
847.596656	0.968813
847.911309	0.965346
848.225919	0.968050
848.540485	0.968452
848.855009	0.969313
849.169490	0.968365
849.483928	0.969562
849.798323	0.969140
850.112675	0.969879
850.426984	0.968750
850.741251	0.970228
851.055474	0.971050
851.369654	0.968025
851.683792	0.970724
851.997887	0.970437
852.311938	0.969945
852.625947	0.970660
852.939914	0.967942
853.253837	0.968342
853.567718	0.970769
853.881555	0.970715
854.195350	0.968122
854.509103	0.970252
854.822812	0.970184
855.136479	0.969884
855.450103	0.970337
855.763685	0.967840
856.077224	0.969102
856.390720	0.969496
856.704173	0.970609
857.017584	0.968788
857.330953	0.967547
857.644278	0.968840
857.957561	0.968708
858.270802	0.968468
858.584000	0.967312
858.897155	0.967271
859.210268	0.967486
859.523339	0.967821
859.836367	0.970049
860.149352	0.971114
860.462295	0.967944
860.775195	0.970055
861.088054	0.969406
861.400869	0.970509
861.713642	0.970989
862.026373	0.970726
862.339062	0.970783
862.651708	0.968163
862.964312	0.967918
863.276873	0.969947
863.589392	0.967962
863.901869	0.967812
864.214303	0.966604
864.526696	0.963986
864.839045	0.964235
865.151353	0.963384
865.463619	0.963769
865.775842	0.962474
866.088023	0.962493
866.400162	0.962432
866.712258	0.963092
867.024313	0.962462
867.336325	0.964288
867.648296	0.963879
867.960224	0.962065
868.272110	0.961991
868.583954	0.964314
868.895755	0.964771
869.207515	0.961480
869.519233	0.960094
869.830909	0.961833
870.142542	0.962687
870.454134	0.961668
870.765684	0.961207
871.077191	0.958549
871.388657	0.959982
871.700081	0.958820
872.011463	0.958202
872.322803	0.959566
872.634101	0.956788
872.945357	0.954774
873.256571	0.953716
873.567744	0.953600
873.878874	0.953944
874.189963	0.952355
874.501010	0.952020
874.812015	0.950616
875.122979	0.951949
875.433900	0.953617
875.744780	0.953887
876.055618	0.952507
876.366415	0.950219
876.677169	0.950100
876.987882	0.952231
877.298554	0.952269
877.609183	0.949141
877.919771	0.946138
878.230317	0.943670
878.540822	0.941184
878.851285	0.935688
879.161707	0.928260
879.472087	0.915974
879.782425	0.900277
880.092722	0.867945
880.402977	0.816583
880.713191	0.756195
881.023363	0.698640
881.333494	0.664911
881.643583	0.637245
881.953631	0.636401
882.263637	0.666120
882.573602	0.704676
882.883526	0.729949
883.193408	0.752825
883.503248	0.774354
883.813048	0.802016
884.122806	0.830823
884.432522	0.853687
884.742197	0.872593
885.051831	0.882562
885.361424	0.893286
885.670975	0.905381
885.980485	0.915535
886.289954	0.919546
886.599382	0.925572
886.908768	0.929720
887.218113	0.935621
887.527417	0.939229
887.836680	0.942428
888.145901	0.944784
888.455082	0.946715
888.764221	0.950979
889.073319	0.953551
889.382376	0.953950
889.691392	0.953320
890.000366	0.953719
890.309300	0.954523
890.618193	0.953890
890.927044	0.952030
891.235855	0.952729
891.544625	0.952595
891.853353	0.952950
892.162041	0.949634
892.470687	0.943220
892.779293	0.939654
893.087858	0.935142
893.396381	0.927767
893.704864	0.914747
894.013306	0.891349
894.321707	0.865007
894.630068	0.851934
894.938387	0.846317
895.246665	0.847823
895.554903	0.860043
895.863100	0.873293
896.171256	0.888936
896.479371	0.909253
896.787446	0.920735
897.095480	0.927147
897.403473	0.929672
897.711425	0.934474
898.019336	0.941235
898.327207	0.943984
898.635038	0.946190
898.942827	0.945749
899.250576	0.949313
899.558284	0.953523
899.865952	0.955605
900.173579	0.956265
900.481165	0.956468
900.788711	0.960044
901.096216	0.961172
901.403681	0.962517
901.711105	0.963409
902.018489	0.963811
902.325832	0.962385
902.633135	0.962767
902.940397	0.956531
903.247619	0.945138
903.554800	0.920210
903.861941	0.881629
904.169041	0.847004
904.476101	0.829936
904.783121	0.831248
905.090100	0.847214
905.397039	0.867284
905.703938	0.888883
906.010796	0.908365
906.317614	0.923996
906.624391	0.935038
906.931129	0.945074
907.237826	0.953173
907.544483	0.960465
907.851099	0.962828
908.157675	0.968044
908.464211	0.970684
908.770707	0.973268
909.077163	0.974090
909.383578	0.974693
909.689954	0.975374
909.996289	0.976379
910.302584	0.977164
910.608839	0.979746
910.915054	0.979206
911.221229	0.977597
911.527363	0.977028
911.833458	0.976843
912.139513	0.976259
912.445527	0.975676
912.751502	0.974965
913.057436	0.972900
913.363331	0.970911
913.669186	0.966592
913.975000	0.961782
914.280775	0.955794
914.586510	0.949284
914.892205	0.936150
915.197859	0.917255
915.503475	0.888734
915.809050	0.870604
916.114585	0.865865
916.420081	0.862937
916.725536	0.860102
917.030952	0.867196
917.336328	0.880087
917.641665	0.894675
917.946961	0.909768
918.252218	0.921595
918.557435	0.929744
918.862612	0.937870
919.167750	0.943842
919.472848	0.948003
919.777906	0.953683
920.082925	0.958164
920.387904	0.963135
920.692843	0.963902
920.997743	0.964748
921.302603	0.969037
921.607423	0.969563
921.912204	0.973188
922.216946	0.973377
922.521647	0.973927
922.826310	0.975393
923.130932	0.976631
923.435516	0.978114
923.740059	0.980878
924.044564	0.978365
924.349028	0.980049
924.653454	0.983489
924.957840	0.985884
925.262186	0.984343
925.566493	0.984187
925.870761	0.984596
926.174989	0.986746
926.479178	0.987967
926.783328	0.988834
927.087438	0.988805
927.391509	0.988208
927.695541	0.990294
927.999533	0.988585
928.303486	0.989844
928.607400	0.992088
928.911275	0.988453
929.215110	0.990140
929.518906	0.990254
929.822663	0.989699
930.126381	0.991312
930.430060	0.990665
930.733699	0.990036
931.037299	0.990286
931.340861	0.990732
931.644383	0.990101
931.947866	0.990195
932.251309	0.989979
932.554714	0.990711
932.858080	0.989460
933.161407	0.990256
933.464694	0.990782
933.767943	0.990860
934.071153	0.990857
934.374323	0.992279
934.677455	0.990411
934.980548	0.991962
935.283602	0.991169
935.586617	0.991630
935.889593	0.990477
936.192530	0.990721
936.495428	0.990710
936.798287	0.991006
937.101108	0.991818
937.403890	0.989232
937.706632	0.990015
938.009336	0.987258
938.312002	0.986669
938.614628	0.985577
938.917216	0.982917
939.219765	0.982765
939.522275	0.983524
939.824747	0.984183
940.127179	0.984237
940.429573	0.984719
940.731929	0.984334
941.034246	0.983855
941.336524	0.985419
941.638763	0.986597
941.940964	0.987147
942.243126	0.986706
942.545250	0.986616
942.847335	0.988729
943.149381	0.987955
943.451389	0.988256
943.753359	0.988204
944.055290	0.990924
944.357182	0.989003
944.659036	0.988225
944.960851	0.989344
945.262628	0.990712
945.564367	0.991142
945.866067	0.990558
946.167729	0.990276
946.469352	0.989607
946.770937	0.989275
947.072484	0.991501
947.373992	0.990524
947.675462	0.989901
947.976893	0.989734
948.278286	0.989327
948.579641	0.992618
948.880958	0.990605
949.182236	0.990308
949.483476	0.991277
949.784678	0.990481
950.085841	0.992479
950.386967	0.991272
950.688054	0.990482
950.989103	0.991147
951.290114	0.989639
951.591087	0.990408
951.892021	0.989783
952.192917	0.988086
952.493776	0.988948
952.794596	0.988971
953.095378	0.987010
953.396122	0.988668
953.696828	0.987864
953.997496	0.989582
954.298126	0.990792
954.598718	0.990752
954.899272	0.990883
955.199788	0.990328
955.500266	0.991498
955.800706	0.992952
956.101108	0.993161
956.401472	0.992386
956.701798	0.994326
957.002087	0.992478
957.302337	0.993667
957.602550	0.996339
957.902724	0.994384
958.202861	0.996230
958.502960	0.995409
958.803022	0.993974
959.103045	0.994896
959.403031	0.995842
959.702979	0.995721
960.002889	0.995680
960.302762	0.994975
960.602596	0.995172
960.902393	0.995585
961.202153	0.996974
961.501875	0.995845
961.801559	0.996477
962.101205	0.995618
962.400814	0.996806
962.700385	0.995525
962.999918	0.996793
963.299414	0.995175
963.598873	0.995541
963.898293	0.995455
964.197677	0.995902
964.497022	0.996070
964.796331	0.997974
965.095601	0.996603
965.394835	0.996623
965.694030	0.995996
965.993189	0.997253
966.292309	0.995350
966.591393	0.997192
966.890439	0.996924
967.189447	0.996481
967.488419	0.995942
967.787353	0.995637
968.086249	0.995490
968.385108	0.997200
968.683930	0.996361
968.982714	0.997519
969.281462	0.995680
969.580172	0.996747
969.878844	0.996829
970.177480	0.995998
970.476078	0.997104
970.774639	0.996226
971.073162	0.996565
971.371649	0.995246
971.670098	0.996498
971.968510	0.997912
972.266885	0.995004
972.565223	0.995147
972.863524	0.995456
973.161788	0.995328
973.460014	0.997302
973.758204	0.995984
974.056356	0.996344
974.354471	0.995046
974.652550	0.994306
974.950591	0.996843
975.248595	0.996228
975.546563	0.997180
975.844493	0.997939
976.142386	0.996183
976.440243	0.997368
976.738062	0.995668
977.035845	0.997433
977.333590	0.997117
977.631299	0.997035
977.928971	0.998036
978.226606	0.996630
978.524204	0.996162
978.821765	0.997401
979.119290	0.997391
979.416777	0.996064
979.714228	0.996983
980.011642	0.995423
980.309020	0.996187
980.606360	0.996336
980.903664	0.997533
981.200931	0.996432
981.498162	0.995541
981.795356	0.994551
982.092513	0.994534
982.389633	0.995248
982.686717	0.991987
982.983764	0.990212
983.280775	0.990876
983.577749	0.990040
983.874686	0.992427
984.171587	0.992612
984.468451	0.993914
984.765279	0.994508
985.062070	0.993766
985.358824	0.996652
985.655543	0.994180
985.952224	0.995849
986.248869	0.996615
986.545478	0.996647
986.842050	0.998309
987.138586	0.994975
987.435086	0.996750
987.731549	0.998338
988.027975	0.997858
988.324366	0.997164
988.620719	0.997828
988.917037	0.995726
989.213318	0.997721
989.509563	0.998411
989.805772	0.997695
990.101944	0.997610
990.398080	0.996796
990.694180	0.997375
990.990244	0.997206
991.286271	0.997418
991.582262	0.997659
991.878217	0.997112
992.174136	0.998354
992.470019	0.998002
992.765865	0.997892
993.061676	0.997039
993.357450	0.997668
993.653188	0.996314
993.948890	0.997028
994.244556	0.997895
994.540186	0.997425
994.835780	0.996236
995.131337	0.997069
995.426859	0.996747
995.722345	0.997541
996.017795	0.997187
996.313208	0.996217
996.608586	0.995803
996.903928	0.996022
997.199234	0.995590
997.494504	0.996690
997.789738	0.995508
998.084936	0.996063
998.380099	0.998412
998.675225	0.997439
998.970316	0.997845
999.265371	0.997869
999.560390	0.997068
999.855373	0.998338
1000.150320	0.997270
1000.445232	0.998895
1000.740108	0.996932
1001.034948	0.998107
1001.329752	0.997642
1001.624521	0.998537
1001.919254	0.997828
1002.213951	0.997081
1002.508613	0.997086
1002.803239	0.999619
1003.097829	0.997322
1003.392384	0.998051
1003.686903	0.997280
1003.981386	0.997977
1004.275834	0.998158
1004.570246	0.998744
1004.864623	0.999352
1005.158964	1.000730
1005.453270	0.997998
1005.747540	0.997270
1006.041775	0.998424
1006.335974	0.998391
1006.630138	0.999674
1006.924266	0.999341
1007.218359	1.000824
1007.512416	0.998409
1007.806438	0.998282
1008.100425	0.999293
1008.394376	0.998329
1008.688292	0.998494
1008.982172	1.000292
1009.276017	0.998729
1009.569827	0.999097
1009.863602	0.998535
1010.157341	0.999854
1010.451045	0.998633
1010.744714	0.998226
1011.038347	0.999283
1011.331945	0.998511
1011.625508	0.997591
1011.919036	0.998421
1012.212528	0.998646
1012.505986	0.997436
1012.799408	0.998456
1013.092795	0.998494
1013.386147	0.997646
1013.679464	0.998272
1013.972745	0.997780
1014.265992	0.995988
1014.559204	0.999121
1014.852380	0.997866
1015.145521	0.998244
1015.438628	0.998818
1015.731699	0.998032
1016.024736	0.998316
1016.317737	0.998632
1016.610703	0.997896
1016.903635	0.999645
1017.196531	0.998521
1017.489393	1.000169
1017.782219	0.997761
1018.075011	0.997801
1018.367768	0.998473
1018.660490	1.000124
1018.953177	1.000124
1019.245829	1.000124
