Dividing Wavelength (nm)	Counts (n)	Blue Motor Position (mm): 0.000000	Red Motor Position (mm): 27.400000	
326.493990	0.999634
326.888308	0.999634
327.282561	0.999634
327.676750	0.999862
328.070874	0.997974
328.464933	0.999800
328.858929	0.999444
329.252859	0.999658
329.646726	0.998935
330.040528	0.998894
330.434265	0.999882
330.827938	0.999871
331.221547	1.000413
331.615091	0.999587
332.008571	1.000079
332.401986	0.999673
332.795338	0.999636
333.188625	0.997380
333.581847	0.999747
333.975006	0.999880
334.368100	0.998482
334.761129	0.998749
335.154095	0.999644
335.546996	0.997415
335.939833	0.993460
336.332606	0.994221
336.725315	0.995033
337.117960	0.996405
337.510540	0.993460
337.903056	0.995085
338.295508	0.993500
338.687896	0.994514
339.080220	0.995097
339.472480	0.994854
339.864676	0.994259
340.256807	0.994555
340.648875	0.994661
341.040879	0.994761
341.432818	0.994972
341.824694	0.994652
342.216506	0.995687
342.608253	0.995305
342.999937	0.993437
343.391557	0.995719
343.783113	0.995110
344.174605	0.994554
344.566033	0.995683
344.957397	0.993084
345.348697	0.994085
345.739934	0.993931
346.131106	0.993410
346.522215	0.992846
346.913260	0.993666
347.304241	0.994092
347.695159	0.994736
348.086012	0.993687
348.476802	0.994513
348.867528	0.995453
349.258191	0.992990
349.648789	0.996087
350.039324	0.994033
350.429796	0.995369
350.820203	0.995048
351.210548	0.993866
351.600828	0.994628
351.991045	0.994694
352.381198	0.993661
352.771288	0.994924
353.161314	0.994672
353.551276	0.994994
353.941175	0.994684
354.331010	0.993918
354.720782	0.994709
355.110490	0.993695
355.500135	0.995737
355.889717	0.994538
356.279235	0.993863
356.668689	0.995142
357.058080	0.994207
357.447408	0.996133
357.836672	0.994788
358.225873	0.995375
358.615010	0.994722
359.004084	0.996790
359.393095	0.995268
359.782043	0.994203
360.170927	0.995199
360.559748	0.996141
360.948505	0.994388
361.337199	0.994669
361.725830	0.993714
362.114398	0.995461
362.502903	0.995459
362.891344	0.995797
363.279722	0.994237
363.668037	0.993669
364.056289	0.994849
364.444478	0.994766
364.832603	0.995753
365.220665	0.993407
365.608665	0.994607
365.996601	0.994107
366.384474	0.995778
366.772284	0.994785
367.160031	0.993654
367.547715	0.994616
367.935336	0.995777
368.322893	0.993885
368.710388	0.993343
369.097820	0.995088
369.485189	0.994469
369.872495	0.994870
370.259738	0.992477
370.646918	0.994815
371.034035	0.995400
371.421090	0.993991
371.808081	0.994240
372.195010	0.995958
372.581875	0.995072
372.968678	0.995539
373.355418	0.995145
373.742096	0.994875
374.128710	0.996173
374.515262	0.994988
374.901751	0.995301
375.288177	0.994444
375.674540	0.996056
376.060841	0.994786
376.447079	0.994965
376.833254	0.995452
377.219367	0.996000
377.605417	0.995845
377.991404	0.995879
378.377329	0.994034
378.763191	0.995443
379.148991	0.997833
379.534727	0.996993
379.920402	0.996212
380.306013	0.995212
380.691563	0.996718
381.077049	0.996017
381.462474	0.996937
381.847835	0.996046
382.233134	0.996073
382.618371	0.995667
383.003545	0.996888
383.388657	0.996774
383.773706	0.997464
384.158693	0.995642
384.543618	0.996129
384.928480	0.997130
385.313280	0.996311
385.698017	0.997460
386.082692	0.997576
386.467305	0.997646
386.851856	0.996863
387.236344	0.995865
387.620770	0.995465
388.005133	0.996514
388.389435	0.998463
388.773674	0.995978
389.157851	0.996908
389.541965	0.995803
389.926018	0.996653
390.310008	0.997084
390.693936	0.996882
391.077802	0.997272
391.461606	0.997336
391.845348	0.996105
392.229027	0.997742
392.612645	0.997996
392.996200	0.998229
393.379694	0.997390
393.763125	0.997127
394.146494	0.997743
394.529801	0.997358
394.913047	0.998038
395.296230	0.997489
395.679351	0.996632
396.062410	0.997566
396.445408	0.997795
396.828343	0.997498
397.211217	0.996509
397.594028	0.997790
397.976778	0.997720
398.359466	0.997755
398.742092	0.996537
399.124656	0.997099
399.507158	0.997784
399.889598	0.997829
400.271977	0.997223
400.654294	0.998323
401.036549	0.997814
401.418742	0.998514
401.800874	0.996428
402.182944	0.997431
402.564952	0.997216
402.946898	0.998322
403.328783	0.998113
403.710606	0.996933
404.092367	0.997633
404.474067	0.998444
404.855705	0.997705
405.237282	0.997009
405.618797	0.998129
406.000250	0.996661
406.381642	0.997862
406.762972	0.997895
407.144240	0.998054
407.525447	0.997189
407.906593	0.997622
408.287677	0.996948
408.668700	0.998419
409.049661	0.996829
409.430560	0.998255
409.811399	0.997237
410.192176	0.997792
410.572891	0.997260
410.953545	0.997562
411.334138	0.996034
411.714669	0.997537
412.095139	0.996625
412.475547	0.998105
412.855894	0.997982
413.236180	0.997676
413.616405	0.997500
413.996568	0.997984
414.376670	0.997096
414.756711	0.997052
415.136691	0.996576
415.516609	0.997902
415.896466	0.997692
416.276262	0.996372
416.655997	0.998150
417.035670	0.997228
417.415283	0.998199
417.794834	0.997766
418.174324	0.997707
418.553753	0.998738
418.933121	0.997923
419.312428	0.997859
419.691674	0.998137
420.070859	0.997666
420.449983	0.997456
420.829045	0.998024
421.208047	0.999081
421.586988	0.998898
421.965867	0.997446
422.344686	0.998538
422.723444	0.998082
423.102141	0.998044
423.480777	0.998498
423.859352	0.997933
424.237866	0.997507
424.616319	0.997725
424.994712	0.997561
425.373044	0.998138
425.751314	0.998242
426.129524	0.997618
426.507673	0.998151
426.885762	0.998714
427.263789	0.997850
427.641756	0.997680
428.019662	0.999158
428.397508	0.997162
428.775292	0.997565
429.153016	0.997569
429.530679	0.998159
429.908282	0.998622
430.285824	0.998128
430.663305	0.997915
431.040726	0.996910
431.418086	0.998763
431.795385	0.999039
432.172624	0.997180
432.549802	0.997920
432.926920	0.998210
433.303977	0.997559
433.680974	0.997399
434.057910	0.997949
434.434786	0.997782
434.811601	0.998157
435.188355	0.996863
435.565050	0.997134
435.941683	0.996466
436.318257	0.998685
436.694770	0.997250
437.071222	0.998182
437.447614	0.997160
437.823946	0.997972
438.200218	0.997617
438.576429	0.996553
438.952580	0.998008
439.328670	0.996786
439.704700	0.997700
440.080670	0.997416
440.456580	0.997172
440.832429	0.996857
441.208218	0.997359
441.583947	0.996989
441.959616	0.997551
442.335224	0.996161
442.710773	0.997262
443.086261	0.995960
443.461689	0.995758
443.837057	0.995770
444.212365	0.996830
444.587612	0.995273
444.962800	0.995330
445.337927	0.995213
445.712995	0.995290
446.088002	0.995842
446.462949	0.994059
446.837837	0.993808
447.212664	0.993379
447.587431	0.993165
447.962139	0.991143
448.336786	0.990215
448.711374	0.990199
449.085901	0.990058
449.460369	0.989826
449.834776	0.987394
450.209124	0.986576
450.583412	0.985264
450.957640	0.984238
451.331808	0.983714
451.705917	0.982756
452.079965	0.980675
452.453954	0.979137
452.827883	0.978021
453.201752	0.976216
453.575562	0.976051
453.949311	0.972817
454.323001	0.970708
454.696632	0.968375
455.070202	0.966389
455.443713	0.963710
455.817164	0.961723
456.190556	0.958407
456.563888	0.955488
456.937160	0.953271
457.310373	0.951614
457.683526	0.948656
458.056619	0.946264
458.429653	0.943426
458.802628	0.939322
459.175542	0.936686
459.548398	0.931123
459.921194	0.925971
460.293930	0.921389
460.666607	0.911326
461.039224	0.904438
461.411782	0.901660
461.784280	0.896849
462.156719	0.893973
462.529099	0.890997
462.901419	0.888595
463.273680	0.885121
463.645882	0.880763
464.018024	0.875532
464.390106	0.869012
464.762130	0.860295
465.134094	0.847236
465.505999	0.831769
465.877845	0.817220
466.249631	0.809637
466.621358	0.806537
466.993026	0.804482
467.364634	0.800316
467.736184	0.795431
468.107674	0.789804
468.479105	0.780584
468.850477	0.777605
469.221790	0.771609
469.593043	0.767491
469.964238	0.760783
470.335373	0.753211
470.706449	0.744755
471.077467	0.737534
471.448425	0.714118
471.819324	0.696779
472.190164	0.690040
472.560945	0.694313
472.931667	0.693948
473.302330	0.688211
473.672934	0.685498
474.043479	0.671503
474.413965	0.665050
474.784393	0.657763
475.154761	0.647244
475.525070	0.637722
475.895321	0.633858
476.265513	0.622578
476.635645	0.612649
477.005719	0.603744
477.375734	0.594181
477.745691	0.582551
478.115588	0.572858
478.485427	0.560541
478.855207	0.545627
479.224928	0.526948
479.594591	0.513802
479.964194	0.506951
480.333739	0.499404
480.703226	0.489949
481.072653	0.481898
481.442022	0.472126
481.811333	0.462386
482.180584	0.457732
482.549777	0.452177
482.918912	0.448219
483.287988	0.440862
483.657005	0.433539
484.025964	0.431345
484.394864	0.421924
484.763706	0.414967
485.132489	0.412988
485.501213	0.406652
485.869879	0.399726
486.238487	0.395460
486.607036	0.388677
486.975527	0.385447
487.343959	0.376737
487.712333	0.370291
488.080648	0.366517
488.448905	0.360188
488.817104	0.356082
489.185244	0.346703
489.553326	0.338978
489.921350	0.326410
490.289315	0.307087
490.657222	0.298765
491.025070	0.295355
491.392861	0.292674
491.760593	0.293277
492.128267	0.293324
492.495883	0.293964
492.863440	0.295471
493.230939	0.297427
493.598380	0.295004
493.965763	0.293756
494.333088	0.293250
494.700354	0.290767
495.067563	0.287721
495.434713	0.287642
495.801805	0.282950
496.168839	0.282043
496.535815	0.280611
496.902733	0.278349
497.269593	0.277685
497.636395	0.273424
498.003139	0.271294
498.369825	0.272351
498.736453	0.267014
499.103023	0.266932
499.469535	0.264782
499.835989	0.263326
500.202385	0.262615
500.568723	0.264437
500.935003	0.258801
501.301226	0.261359
501.667390	0.254958
502.033497	0.252017
502.399546	0.253743
502.765537	0.254580
503.131470	0.252133
503.497345	0.247451
503.863163	0.255346
504.228923	0.247856
504.594625	0.245713
504.960269	0.250558
505.325856	0.245096
505.691385	0.248940
506.056856	0.245563
506.422270	0.244240
506.787625	0.246409
507.152924	0.243415
507.518164	0.243255
507.883347	0.244603
508.248472	0.246195
508.613540	0.240801
508.978550	0.243061
509.343503	0.243261
509.708398	0.240696
510.073236	0.238167
510.438016	0.237944
510.802738	0.238561
511.167403	0.237264
511.532010	0.239321
511.896561	0.234461
512.261053	0.233187
512.625488	0.235126
512.989866	0.235163
513.354186	0.235426
513.718449	0.237002
514.082655	0.233080
514.446803	0.235286
514.810894	0.233008
515.174927	0.235483
515.538904	0.234693
515.902822	0.231788
516.266684	0.233993
516.630488	0.234717
516.994235	0.233585
517.357925	0.232361
517.721558	0.230408
518.085133	0.229763
518.448651	0.229963
518.812112	0.232181
519.175516	0.231850
519.538863	0.229493
519.902152	0.231240
520.265385	0.227581
520.628560	0.229345
520.991678	0.229914
521.354739	0.228657
521.717743	0.229881
522.080690	0.230364
522.443580	0.227515
522.806413	0.228379
523.169189	0.227735
523.531908	0.226702
523.894569	0.230029
524.257174	0.230020
524.619722	0.227755
524.982213	0.228864
525.344647	0.227885
525.707025	0.228462
526.069345	0.226765
526.431608	0.228579
526.793815	0.226370
527.155964	0.230205
527.518057	0.229233
527.880093	0.230298
528.242072	0.229035
528.603995	0.230606
528.965860	0.232331
529.327669	0.231310
529.689421	0.232008
530.051117	0.233045
530.412755	0.230766
530.774337	0.232848
531.135862	0.233291
531.497331	0.232286
531.858743	0.235541
532.220098	0.232237
532.581396	0.234577
532.942638	0.235184
533.303824	0.235933
533.664953	0.235887
534.026025	0.237688
534.387040	0.235427
534.747999	0.235528
535.108902	0.234498
535.469748	0.239454
535.830537	0.237377
536.191270	0.237565
536.551947	0.237365
536.912567	0.237018
537.273131	0.239203
537.633638	0.239029
537.994089	0.239831
538.354483	0.240455
538.714821	0.237543
539.075103	0.237357
539.435328	0.237794
539.795497	0.241530
540.155609	0.238250
540.515665	0.236667
540.875665	0.242003
541.235609	0.240724
541.595496	0.240816
541.955328	0.237113
542.315102	0.240087
542.674821	0.240847
543.034483	0.240936
543.394090	0.240675
543.753640	0.242560
544.113134	0.237037
544.472571	0.240699
544.831953	0.237976
545.191278	0.241998
545.550548	0.241378
545.909761	0.238432
546.268918	0.238629
546.628019	0.237223
546.987064	0.239711
547.346053	0.241833
547.704986	0.239656
548.063863	0.239671
548.422684	0.239978
548.781449	0.241824
549.140158	0.239527
549.498811	0.242485
549.857408	0.245402
550.215949	0.240147
550.574434	0.243280
550.932864	0.241116
551.291237	0.239788
551.649555	0.241233
552.007817	0.240991
552.366022	0.241829
552.724173	0.242180
553.082267	0.242070
553.440305	0.239177
553.798288	0.243740
554.156215	0.240248
554.514086	0.240908
554.871902	0.243909
555.229661	0.243403
555.587365	0.243830
555.945014	0.246471
556.302606	0.243188
556.660143	0.245927
557.017625	0.242268
557.375050	0.244582
557.732421	0.241580
558.089735	0.243653
558.446994	0.243805
558.804197	0.242907
559.161345	0.242980
559.518437	0.246382
559.875474	0.244015
560.232455	0.243639
560.589381	0.244535
560.946251	0.244733
561.303065	0.242353
561.659825	0.243889
562.016528	0.245157
562.373177	0.247860
562.729770	0.245232
563.086307	0.247649
563.442789	0.245295
563.799216	0.248219
564.155587	0.246930
564.511904	0.247991
564.868164	0.248344
565.224370	0.248096
565.580520	0.249707
565.936615	0.249542
566.292654	0.252407
566.648638	0.249416
567.004567	0.250490
567.360441	0.251049
567.716260	0.253069
568.072023	0.250859
568.427732	0.251325
568.783385	0.254033
569.138982	0.252126
569.494525	0.251514
569.850013	0.254378
570.205445	0.253186
570.560823	0.255551
570.916145	0.257480
571.271412	0.255984
571.626625	0.257309
571.981782	0.257554
572.336884	0.258485
572.691931	0.258315
573.046923	0.259600
573.401860	0.260783
573.756743	0.262354
574.111570	0.261272
574.466342	0.261652
574.821059	0.260921
575.175722	0.263604
575.530330	0.263756
575.884882	0.263724
576.239380	0.265818
576.593823	0.266256
576.948211	0.265772
577.302544	0.269215
577.656823	0.268520
578.011047	0.268811
578.365216	0.269244
578.719330	0.271210
579.073389	0.270961
579.427394	0.272382
579.781344	0.273410
580.135239	0.274635
580.489080	0.274333
580.842866	0.277376
581.196597	0.277586
581.550273	0.276149
581.903895	0.276733
582.257463	0.274987
582.610975	0.278362
582.964434	0.277837
583.317837	0.280402
583.671186	0.280819
584.024481	0.280762
584.377721	0.283062
584.730906	0.283737
585.084037	0.282973
585.437113	0.284883
585.790135	0.284088
586.143103	0.287063
586.496016	0.288440
586.848874	0.286015
587.201679	0.286782
587.554428	0.289840
587.907124	0.288645
588.259765	0.289250
588.612352	0.289678
588.964884	0.293567
589.317362	0.293161
589.669786	0.293161
590.022155	0.291897
590.374470	0.291070
590.726731	0.292964
591.078937	0.297895
591.431090	0.293788
591.783188	0.298513
592.135232	0.298455
592.487222	0.298734
592.839157	0.296975
593.191038	0.299155
593.542866	0.300938
593.894639	0.304751
594.246358	0.302585
594.598022	0.302235
594.949633	0.305811
595.301190	0.306360
595.652692	0.305522
596.004141	0.301712
596.355535	0.309797
596.706876	0.310224
597.058162	0.312917
597.409395	0.310022
597.760573	0.307890
598.111698	0.310900
598.462768	0.311379
598.813785	0.312608
599.164748	0.313824
599.515657	0.314228
599.866511	0.318027
600.217312	0.313079
600.568060	0.318462
600.918753	0.314629
601.269392	0.315508
601.619978	0.319146
601.970510	0.316526
602.320988	0.316528
602.671412	0.314182
603.021783	0.317124
603.372100	0.318104
603.722363	0.318133
604.072572	0.318942
604.422728	0.318572
604.772830	0.320683
605.122878	0.320012
605.472872	0.320565
605.822813	0.318948
606.172701	0.321912
606.522534	0.318604
606.872314	0.319109
607.222041	0.320260
607.571714	0.318623
607.921333	0.319786
608.270899	0.319078
608.620411	0.316405
608.969870	0.319657
609.319276	0.320247
609.668627	0.320095
610.017926	0.318383
610.367171	0.317034
610.716362	0.318062
611.065500	0.318233
611.414585	0.316545
611.763616	0.317099
612.112594	0.317760
612.461518	0.317273
612.810389	0.314983
613.159207	0.317214
613.507971	0.319152
613.856682	0.314613
614.205340	0.316347
614.553945	0.313048
614.902496	0.317052
615.250994	0.315032
615.599439	0.315665
615.947830	0.315063
616.296169	0.316217
616.644454	0.315736
616.992686	0.315946
617.340864	0.313359
617.688990	0.317120
618.037063	0.313935
618.385082	0.315737
618.733048	0.312778
619.080961	0.315194
619.428821	0.314367
619.776628	0.313741
620.124382	0.316036
620.472083	0.316230
620.819731	0.315589
621.167326	0.319137
621.514868	0.319403
621.862357	0.323333
622.209793	0.323131
622.557176	0.325244
622.904506	0.326410
623.251783	0.328655
623.599007	0.330786
623.946179	0.330642
624.293297	0.332509
624.640363	0.336086
624.987376	0.336752
625.334336	0.339456
625.681243	0.341615
626.028097	0.341896
626.374899	0.343071
626.721647	0.343228
627.068343	0.346871
627.414987	0.347455
627.761577	0.349708
628.108115	0.348011
628.454600	0.353503
628.801032	0.350708
629.147412	0.352717
629.493739	0.352686
629.840014	0.356662
630.186236	0.353532
630.532405	0.359179
630.878521	0.356580
631.224585	0.358900
631.570597	0.362583
631.916556	0.360960
632.262462	0.361418
632.608316	0.363227
632.954117	0.364029
633.299866	0.364847
633.645562	0.365061
633.991206	0.369269
634.336797	0.372526
634.682336	0.374943
635.027823	0.376221
635.373257	0.376792
635.718639	0.380261
636.063968	0.379618
636.409245	0.385481
636.754470	0.385824
637.099642	0.388412
637.444762	0.391552
637.789829	0.390638
638.134845	0.393919
638.479808	0.394928
638.824719	0.394674
639.169577	0.398885
639.514383	0.397952
639.859137	0.401840
640.203839	0.401716
640.548489	0.402488
640.893086	0.403695
641.237632	0.405097
641.582125	0.404035
641.926566	0.405862
642.270955	0.405463
642.615292	0.405784
642.959576	0.405079
643.303809	0.405568
643.647990	0.404654
643.992118	0.405611
644.336195	0.409445
644.680219	0.407491
645.024192	0.408201
645.368112	0.401422
645.711981	0.401221
646.055797	0.395918
646.399562	0.398643
646.743274	0.390616
647.086935	0.387757
647.430544	0.388393
647.774101	0.387239
648.117606	0.386599
648.461059	0.386936
648.804460	0.389567
649.147810	0.394411
649.491108	0.396595
649.834354	0.397836
650.177548	0.403410
650.520690	0.408435
650.863781	0.409484
651.206820	0.408978
651.549807	0.413888
651.892742	0.418241
652.235626	0.417309
652.578458	0.418320
652.921238	0.424027
653.263967	0.421916
653.606644	0.426151
653.949269	0.425556
654.291843	0.430042
654.634365	0.426422
654.976836	0.429785
655.319255	0.429659
655.661622	0.431355
656.003938	0.431491
656.346203	0.434657
656.688416	0.432624
657.030577	0.435666
657.372687	0.437569
657.714746	0.438351
658.056753	0.435272
658.398708	0.438667
658.740612	0.440154
659.082465	0.436500
659.424266	0.437169
659.766016	0.436234
660.107715	0.438903
660.449362	0.438163
660.790958	0.438838
661.132503	0.439402
661.473996	0.437499
661.815438	0.437602
662.156829	0.438282
662.498168	0.438577
662.839456	0.439795
663.180693	0.438026
663.521879	0.437510
663.863013	0.438799
664.204097	0.437381
664.545129	0.434334
664.886110	0.434317
665.227040	0.432194
665.567918	0.434277
665.908746	0.432116
666.249522	0.431864
666.590248	0.432802
666.930922	0.431078
667.271545	0.430262
667.612118	0.430223
667.952639	0.432500
668.293109	0.430819
668.633528	0.433433
668.973896	0.432955
669.314213	0.433825
669.654480	0.435220
669.994695	0.435856
670.334859	0.436578
670.674973	0.436801
671.015035	0.436838
671.355047	0.436820
671.695008	0.437528
672.034918	0.440060
672.374777	0.439021
672.714585	0.440151
673.054342	0.440547
673.394049	0.440382
673.733705	0.438015
674.073310	0.439351
674.412864	0.442212
674.752368	0.442592
675.091820	0.442737
675.431223	0.447158
675.770574	0.446713
676.109875	0.450359
676.449125	0.450367
676.788324	0.452447
677.127473	0.457759
677.466571	0.456979
677.805619	0.458804
678.144616	0.460159
678.483562	0.461630
678.822458	0.464171
679.161303	0.465405
679.500098	0.465423
679.838842	0.467662
680.177535	0.466833
680.516179	0.465373
680.854771	0.464759
681.193314	0.457844
681.531805	0.448995
681.870247	0.437893
682.208638	0.430650
682.546978	0.428999
682.885268	0.431376
683.223508	0.436919
683.561697	0.440670
683.899836	0.444165
684.237925	0.447433
684.575963	0.449864
684.913951	0.452886
685.251889	0.448712
685.589776	0.450670
685.927614	0.453072
686.265401	0.447185
686.603137	0.448628
686.940824	0.442850
687.278460	0.441004
687.616046	0.439933
687.953582	0.435195
688.291068	0.435813
688.628504	0.432333
688.965889	0.434676
689.303224	0.438394
689.640510	0.442526
689.977745	0.448164
690.314930	0.456007
690.652065	0.460567
690.989150	0.468086
691.326185	0.474249
691.663170	0.479201
692.000105	0.486519
692.336990	0.493715
692.673825	0.495673
693.010610	0.502838
693.347345	0.508088
693.684030	0.509412
694.020665	0.513981
694.357251	0.523075
694.693786	0.522514
695.030272	0.526643
695.366707	0.530185
695.703093	0.534044
696.039429	0.531470
696.375716	0.532989
696.711952	0.536086
697.048139	0.537463
697.384276	0.539636
697.720363	0.538639
698.056400	0.537079
698.392388	0.542801
698.728326	0.545821
699.064214	0.548665
699.400053	0.549231
699.735842	0.552596
700.071581	0.555542
700.407270	0.558295
700.742910	0.561401
701.078501	0.567405
701.414042	0.567753
701.749533	0.570558
702.084974	0.579880
702.420366	0.571858
702.755709	0.579678
703.091002	0.587485
703.426246	0.581221
703.761440	0.586769
704.096584	0.591091
704.431679	0.588301
704.766725	0.590755
705.101721	0.592641
705.436668	0.588367
705.771565	0.594777
706.106413	0.592377
706.441212	0.587522
706.775961	0.586221
707.110661	0.589500
707.445311	0.584658
707.779913	0.581894
708.114465	0.581001
708.448967	0.577391
708.783421	0.569518
709.117825	0.564098
709.452180	0.564294
709.786485	0.558202
710.120742	0.548163
710.454949	0.550005
710.789107	0.541982
711.123216	0.533198
711.457275	0.534656
711.791286	0.526077
712.125247	0.525200
712.459159	0.535556
712.793023	0.528737
713.126837	0.532416
713.460602	0.532915
713.794318	0.542067
714.127985	0.541030
714.461602	0.550973
714.795171	0.554188
715.128691	0.561503
715.462162	0.569308
715.795584	0.575297
716.128957	0.578304
716.462281	0.584537
716.795556	0.587949
717.128782	0.592977
717.461960	0.602234
717.795088	0.600590
718.128167	0.606144
718.461198	0.615947
718.794180	0.616063
719.127113	0.619454
719.459997	0.622537
719.792833	0.629342
720.125619	0.629732
720.458357	0.635807
720.791046	0.636078
721.123686	0.638911
721.456278	0.645949
721.788821	0.643737
722.121315	0.647533
722.453761	0.651582
722.786158	0.649221
723.118506	0.646278
723.450805	0.654247
723.783056	0.650344
724.115259	0.646282
724.447412	0.646328
724.779518	0.648238
725.111574	0.647037
725.443582	0.642872
725.775542	0.644963
726.107453	0.637136
726.439315	0.636743
726.771129	0.635174
727.102895	0.628476
727.434612	0.621406
727.766281	0.619337
728.097901	0.619127
728.429473	0.618685
728.760996	0.616653
729.092471	0.617180
729.423897	0.620024
729.755276	0.620177
730.086606	0.621127
730.417887	0.614813
730.749120	0.605239
731.080305	0.595630
731.411442	0.592533
731.742530	0.597574
732.073570	0.596526
732.404562	0.588240
732.735506	0.589836
733.066401	0.595227
733.397249	0.603980
733.728048	0.615073
734.058798	0.627453
734.389501	0.637833
734.720156	0.648274
735.050762	0.656319
735.381320	0.657108
735.711831	0.667064
736.042293	0.670541
736.372707	0.666207
736.703073	0.671789
737.033391	0.673827
737.363661	0.670570
737.693883	0.666237
738.024056	0.664773
738.354182	0.665386
738.684260	0.654774
739.014290	0.650314
739.344272	0.651610
739.674207	0.644539
740.004093	0.644518
740.333931	0.644277
740.663722	0.644491
740.993464	0.645672
741.323159	0.649508
741.652806	0.653810
741.982405	0.658095
742.311956	0.663585
742.641460	0.665707
742.970915	0.669653
743.300323	0.677596
743.629683	0.683721
743.958996	0.685255
744.288260	0.689160
744.617477	0.695103
744.946647	0.697083
745.275768	0.701663
745.604842	0.701603
745.933869	0.711176
746.262847	0.712892
746.591778	0.706219
746.920662	0.712715
747.249498	0.718784
747.578286	0.710220
747.907027	0.706130
748.235720	0.707037
748.564365	0.701284
748.892963	0.700869
749.221514	0.704005
749.550017	0.710211
749.878473	0.708328
750.206881	0.715293
750.535242	0.716533
750.863555	0.717077
751.191821	0.717290
751.520039	0.721354
751.848210	0.726175
752.176334	0.718163
752.504411	0.717583
752.832440	0.725829
753.160421	0.729449
753.488356	0.727715
753.816243	0.725387
754.144082	0.733565
754.471875	0.736882
754.799620	0.732700
755.127318	0.734558
755.454969	0.733414
755.782572	0.732653
756.110129	0.738056
756.437638	0.739941
756.765100	0.737295
757.092515	0.735017
757.419882	0.733734
757.747203	0.738176
758.074477	0.738443
758.401703	0.735983
758.728882	0.731377
759.056014	0.730023
759.383099	0.728647
759.710138	0.730330
760.037129	0.726516
760.364073	0.720515
760.690970	0.723148
761.017820	0.728183
761.344623	0.724147
761.671379	0.715367
761.998088	0.703609
762.324751	0.681735
762.651366	0.639352
762.977935	0.573085
763.304456	0.521568
763.630931	0.512438
763.957359	0.550351
764.283740	0.594999
764.610074	0.621662
764.936362	0.652276
765.262602	0.679506
765.588796	0.700715
765.914943	0.718463
766.241044	0.737408
766.567097	0.743380
766.893104	0.752431
767.219064	0.759265
767.544978	0.765505
767.870845	0.778410
768.196665	0.782997
768.522438	0.780276
768.848165	0.782445
769.173846	0.790176
769.499479	0.795871
769.825066	0.798191
770.150607	0.803298
770.476101	0.799714
770.801548	0.799567
771.126949	0.811079
771.452303	0.815226
771.777611	0.814340
772.102872	0.813338
772.428087	0.818250
772.753256	0.821935
773.078378	0.824013
773.403453	0.833193
773.728482	0.836730
774.053465	0.830709
774.378401	0.833625
774.703291	0.843045
775.028135	0.842484
775.352932	0.843483
775.677683	0.846849
776.002388	0.847612
776.327046	0.846552
776.651658	0.850126
776.976224	0.853591
777.300743	0.854287
777.625216	0.855765
777.949643	0.856931
778.274024	0.856639
778.598359	0.859192
778.922647	0.857777
779.246889	0.857680
779.571086	0.862998
779.895236	0.865138
780.219339	0.861809
780.543397	0.859291
780.867409	0.857260
781.191374	0.859864
781.515294	0.861600
781.839167	0.859754
782.162995	0.862445
782.486776	0.860477
782.810511	0.861029
783.134201	0.864182
783.457844	0.861919
783.781441	0.865494
784.104993	0.871419
784.428498	0.870057
784.751958	0.865966
785.075372	0.868526
785.398739	0.873598
785.722061	0.869897
786.045337	0.863960
786.368568	0.869666
786.691752	0.873305
787.014891	0.857979
787.337983	0.849195
787.661030	0.841992
787.984031	0.824019
788.306987	0.810762
788.629897	0.813732
788.952760	0.818032
789.275579	0.822222
789.598351	0.837914
789.921078	0.850721
790.243759	0.852272
790.566395	0.858047
790.888984	0.864313
791.211529	0.869727
791.534027	0.872571
791.856480	0.873977
792.178888	0.879193
792.501249	0.881569
792.823566	0.883450
793.145836	0.882674
793.468062	0.884634
793.790241	0.884758
794.112375	0.884437
794.434464	0.878204
794.756507	0.878606
795.078505	0.877073
795.400457	0.872399
795.722364	0.860383
796.044226	0.853565
796.366042	0.853085
796.687812	0.856686
797.009538	0.851536
797.331218	0.855727
797.652852	0.861666
797.974442	0.864876
798.295986	0.864789
798.617484	0.867370
798.938938	0.871154
799.260346	0.877199
799.581709	0.877903
799.903026	0.880675
800.224299	0.880005
800.545526	0.885955
800.866708	0.889645
801.187845	0.894193
801.508936	0.891376
801.829983	0.889695
802.150984	0.893685
802.471940	0.897046
802.792851	0.898673
803.113717	0.898695
803.434538	0.896840
803.755314	0.898387
804.076045	0.901135
804.396731	0.900354
804.717372	0.900278
805.037967	0.902301
805.358518	0.899927
805.679024	0.898253
805.999485	0.898358
806.319901	0.897854
806.640272	0.898674
806.960598	0.896717
807.280879	0.894238
807.601115	0.892883
807.921306	0.896158
808.241453	0.896347
808.561554	0.894284
808.881611	0.894127
809.201623	0.897502
809.521590	0.896280
809.841513	0.897788
810.161390	0.896500
810.481223	0.898766
810.801011	0.901627
811.120755	0.902944
811.440453	0.902279
811.760107	0.901211
812.079716	0.900322
812.399281	0.904651
812.718801	0.906971
813.038276	0.907747
813.357707	0.908572
813.677093	0.905348
813.996434	0.907469
814.315731	0.909215
814.634983	0.909906
814.954191	0.908255
815.273354	0.906326
815.592473	0.902048
815.911547	0.901864
816.230577	0.900035
816.549562	0.896253
816.868502	0.897131
817.187399	0.893581
817.506250	0.887868
817.825058	0.891915
818.143821	0.886837
818.462539	0.882734
818.781213	0.874065
819.099843	0.862309
819.418429	0.848235
819.736970	0.830669
820.055466	0.811562
820.373919	0.785836
820.692327	0.753710
821.010691	0.718609
821.329011	0.643113
821.647286	0.528978
821.965517	0.415793
822.283704	0.373261
822.601847	0.374905
822.919945	0.410981
823.237999	0.443521
823.556010	0.489946
823.873976	0.544582
824.191897	0.595480
824.509775	0.637294
824.827609	0.681969
825.145398	0.704710
825.463144	0.707567
825.780845	0.690198
826.098502	0.671676
826.416116	0.626783
826.733685	0.582350
827.051210	0.575222
827.368692	0.589319
827.686129	0.625509
828.003522	0.678566
828.320872	0.725826
828.638177	0.768730
828.955439	0.800618
829.272656	0.822842
829.589830	0.839433
829.906960	0.855982
830.224046	0.868135
830.541088	0.878236
830.858086	0.882347
831.175041	0.888545
831.491952	0.887803
831.808819	0.884323
832.125642	0.878523
832.442421	0.862972
832.759157	0.841661
833.075849	0.796760
833.392497	0.732825
833.709101	0.692791
834.025662	0.701925
834.342179	0.733374
834.658653	0.772112
834.975083	0.807963
835.291469	0.834183
835.607811	0.856531
835.924110	0.872183
836.240366	0.887720
836.556578	0.902693
836.872746	0.909721
837.188871	0.915219
837.504952	0.920937
837.820990	0.923734
838.136984	0.927454
838.452935	0.929768
838.768842	0.931566
839.084706	0.925945
839.400526	0.899940
839.716303	0.859746
840.032037	0.838177
840.347727	0.842233
840.663373	0.859771
840.978977	0.881173
841.294537	0.903267
841.610054	0.919161
841.925527	0.926468
842.240957	0.934160
842.556344	0.940698
842.871687	0.944894
843.186987	0.950332
843.502244	0.950795
843.817458	0.952626
844.132629	0.955387
844.447756	0.961705
844.762840	0.961336
845.077881	0.960085
845.392879	0.959425
845.707833	0.963266
846.022745	0.964862
846.337613	0.964870
846.652438	0.965845
846.967221	0.964137
847.281960	0.966142
847.596656	0.967401
847.911309	0.965804
848.225919	0.967481
848.540485	0.968009
848.855009	0.968620
849.169490	0.968364
849.483928	0.968796
849.798323	0.969390
850.112675	0.970456
850.426984	0.969107
850.741251	0.970007
851.055474	0.970712
851.369654	0.968729
851.683792	0.969617
851.997887	0.970238
852.311938	0.969523
852.625947	0.969331
852.939914	0.967969
853.253837	0.969158
853.567718	0.970879
853.881555	0.970021
854.195350	0.968435
854.509103	0.969443
854.822812	0.971161
855.136479	0.970205
855.450103	0.969478
855.763685	0.967945
856.077224	0.968611
856.390720	0.970256
856.704173	0.971044
857.017584	0.968657
857.330953	0.967179
857.644278	0.968348
857.957561	0.968829
858.270802	0.968684
858.584000	0.969206
858.897155	0.966894
859.210268	0.967861
859.523339	0.968111
859.836367	0.970760
860.149352	0.971096
860.462295	0.968993
860.775195	0.970314
861.088054	0.968706
861.400869	0.969537
861.713642	0.970213
862.026373	0.971182
862.339062	0.971029
862.651708	0.968343
862.964312	0.967669
863.276873	0.970176
863.589392	0.969401
863.901869	0.968366
864.214303	0.963930
864.526696	0.963992
864.839045	0.964062
865.151353	0.963138
865.463619	0.962788
865.775842	0.962193
866.088023	0.962677
866.400162	0.962017
866.712258	0.962041
867.024313	0.963251
867.336325	0.964334
867.648296	0.963022
867.960224	0.962301
868.272110	0.962090
868.583954	0.963627
868.895755	0.963968
869.207515	0.962055
869.519233	0.960258
869.830909	0.961371
870.142542	0.962364
870.454134	0.961303
870.765684	0.961842
871.077191	0.958550
871.388657	0.958861
871.700081	0.959481
872.011463	0.959963
872.322803	0.958948
872.634101	0.957001
872.945357	0.955570
873.256571	0.953812
873.567744	0.953573
873.878874	0.954182
874.189963	0.952741
874.501010	0.951732
874.812015	0.948976
875.122979	0.951608
875.433900	0.953439
875.744780	0.954404
876.055618	0.951976
876.366415	0.950146
876.677169	0.950283
876.987882	0.952907
877.298554	0.952521
877.609183	0.948015
877.919771	0.945468
878.230317	0.943363
878.540822	0.941876
878.851285	0.936862
879.161707	0.928587
879.472087	0.917459
879.782425	0.900402
880.092722	0.867058
880.402977	0.815860
880.713191	0.756421
881.023363	0.699044
881.333494	0.665414
881.643583	0.636965
881.953631	0.636848
882.263637	0.665450
882.573602	0.705379
882.883526	0.730759
883.193408	0.752436
883.503248	0.775213
883.813048	0.801614
884.122806	0.830647
884.432522	0.854133
884.742197	0.873265
885.051831	0.883415
885.361424	0.892648
885.670975	0.905402
885.980485	0.915435
886.289954	0.921610
886.599382	0.925085
886.908768	0.928903
887.218113	0.935159
887.527417	0.940190
887.836680	0.944263
888.145901	0.944752
888.455082	0.947165
888.764221	0.951478
889.073319	0.954147
889.382376	0.953315
889.691392	0.954220
890.000366	0.952679
890.309300	0.954501
890.618193	0.954281
890.927044	0.952214
891.235855	0.951682
891.544625	0.951687
891.853353	0.952829
892.162041	0.949510
892.470687	0.943988
892.779293	0.939794
893.087858	0.934404
893.396381	0.927920
893.704864	0.914311
894.013306	0.891411
894.321707	0.866039
894.630068	0.851284
894.938387	0.847400
895.246665	0.847170
895.554903	0.860403
895.863100	0.873031
896.171256	0.889894
896.479371	0.908539
896.787446	0.921512
897.095480	0.926817
897.403473	0.929555
897.711425	0.934429
898.019336	0.942197
898.327207	0.944566
898.635038	0.946464
898.942827	0.946464
899.250576	0.948989
899.558284	0.953127
899.865952	0.954981
900.173579	0.955494
900.481165	0.957107
900.788711	0.959865
901.096216	0.962818
901.403681	0.962173
901.711105	0.964596
902.018489	0.962997
902.325832	0.963488
902.633135	0.963168
902.940397	0.956874
903.247619	0.944650
903.554800	0.920112
903.861941	0.882174
904.169041	0.846232
904.476101	0.830040
904.783121	0.830172
905.090100	0.846930
905.397039	0.866926
905.703938	0.889138
906.010796	0.909075
906.317614	0.924602
906.624391	0.936171
906.931129	0.945516
907.237826	0.952568
907.544483	0.960456
907.851099	0.963094
908.157675	0.968102
908.464211	0.970368
908.770707	0.972645
909.077163	0.974236
909.383578	0.975488
909.689954	0.974503
909.996289	0.975550
910.302584	0.978790
910.608839	0.979789
910.915054	0.979663
911.221229	0.977125
911.527363	0.976871
911.833458	0.977546
912.139513	0.977584
912.445527	0.975606
912.751502	0.973816
913.057436	0.971775
913.363331	0.970032
913.669186	0.966541
913.975000	0.962771
914.280775	0.957132
914.586510	0.949976
914.892205	0.936717
915.197859	0.916638
915.503475	0.889351
915.809050	0.871194
916.114585	0.865574
916.420081	0.863531
916.725536	0.859383
917.030952	0.867173
917.336328	0.880494
917.641665	0.894490
917.946961	0.909325
918.252218	0.921262
918.557435	0.929747
918.862612	0.938120
919.167750	0.943901
919.472848	0.948294
919.777906	0.954121
920.082925	0.959884
920.387904	0.961942
920.692843	0.963549
920.997743	0.965010
921.302603	0.968732
921.607423	0.968921
921.912204	0.973148
922.216946	0.972456
922.521647	0.974633
922.826310	0.974837
923.130932	0.977113
923.435516	0.979087
923.740059	0.979043
924.044564	0.978175
924.349028	0.979756
924.653454	0.983109
924.957840	0.984646
925.262186	0.984219
925.566493	0.984780
925.870761	0.985671
926.174989	0.986862
926.479178	0.987766
926.783328	0.988583
927.087438	0.988104
927.391509	0.988305
927.695541	0.990417
927.999533	0.989748
928.303486	0.989144
928.607400	0.992233
928.911275	0.990298
929.215110	0.989599
929.518906	0.991489
929.822663	0.989625
930.126381	0.991578
930.430060	0.990736
930.733699	0.990592
931.037299	0.989851
931.340861	0.991066
931.644383	0.989833
931.947866	0.988894
932.251309	0.990466
932.554714	0.990551
932.858080	0.989618
933.161407	0.990164
933.464694	0.991498
933.767943	0.988582
934.071153	0.991157
934.374323	0.990646
934.677455	0.990029
934.980548	0.991861
935.283602	0.991523
935.586617	0.991281
935.889593	0.990550
936.192530	0.990407
936.495428	0.991264
936.798287	0.990791
937.101108	0.991223
937.403890	0.989172
937.706632	0.987883
938.009336	0.986379
938.312002	0.986384
938.614628	0.983871
938.917216	0.983492
939.219765	0.981675
939.522275	0.983344
939.824747	0.983225
940.127179	0.983854
940.429573	0.985501
940.731929	0.984320
941.034246	0.985294
941.336524	0.985630
941.638763	0.987191
941.940964	0.986386
942.243126	0.986777
942.545250	0.988373
942.847335	0.988779
943.149381	0.988006
943.451389	0.989415
943.753359	0.987920
944.055290	0.990251
944.357182	0.989371
944.659036	0.988055
944.960851	0.989280
945.262628	0.989517
945.564367	0.989432
945.866067	0.989959
946.167729	0.991114
946.469352	0.989825
946.770937	0.988427
947.072484	0.990612
947.373992	0.990203
947.675462	0.990086
947.976893	0.989677
948.278286	0.990963
948.579641	0.992203
948.880958	0.989944
949.182236	0.990521
949.483476	0.991694
949.784678	0.990521
950.085841	0.991550
950.386967	0.990416
950.688054	0.991021
950.989103	0.990744
951.290114	0.990293
951.591087	0.988861
951.892021	0.989002
952.192917	0.989384
952.493776	0.988034
952.794596	0.988311
953.095378	0.986442
953.396122	0.988406
953.696828	0.987253
953.997496	0.989879
954.298126	0.992080
954.598718	0.990264
954.899272	0.990942
955.199788	0.989869
955.500266	0.991875
955.800706	0.994066
956.101108	0.993972
956.401472	0.994697
956.701798	0.994478
957.002087	0.993081
957.302337	0.993003
957.602550	0.995150
957.902724	0.993713
958.202861	0.994564
958.502960	0.995443
958.803022	0.993233
959.103045	0.995707
959.403031	0.995334
959.702979	0.994954
960.002889	0.995944
960.302762	0.994384
960.602596	0.996383
960.902393	0.995134
961.202153	0.995982
961.501875	0.996541
961.801559	0.995438
962.101205	0.996118
962.400814	0.997924
962.700385	0.996716
962.999918	0.995856
963.299414	0.997012
963.598873	0.995687
963.898293	0.996145
964.197677	0.996029
964.497022	0.995419
964.796331	0.997097
965.095601	0.996685
965.394835	0.996649
965.694030	0.997309
965.993189	0.996227
966.292309	0.995630
966.591393	0.997454
966.890439	0.996816
967.189447	0.996581
967.488419	0.997375
967.787353	0.996443
968.086249	0.996067
968.385108	0.996917
968.683930	0.996289
968.982714	0.997024
969.281462	0.997992
969.580172	0.996912
969.878844	0.997220
970.177480	0.996217
970.476078	0.996674
970.774639	0.996386
971.073162	0.997038
971.371649	0.996069
971.670098	0.994252
971.968510	0.996344
972.266885	0.994531
972.565223	0.996728
972.863524	0.996225
973.161788	0.995847
973.460014	0.997162
973.758204	0.994608
974.056356	0.997034
974.354471	0.994016
974.652550	0.996378
974.950591	0.995948
975.248595	0.996933
975.546563	0.996679
975.844493	0.998103
976.142386	0.995854
976.440243	0.997243
976.738062	0.997084
977.035845	0.997564
977.333590	0.997096
977.631299	0.998490
977.928971	0.995741
978.226606	0.996001
978.524204	0.995839
978.821765	0.997528
979.119290	0.996520
979.416777	0.996270
979.714228	0.997079
980.011642	0.996390
980.309020	0.996902
980.606360	0.996000
980.903664	0.997478
981.200931	0.995908
981.498162	0.995467
981.795356	0.994742
982.092513	0.994159
982.389633	0.994794
982.686717	0.991658
982.983764	0.990885
983.280775	0.989855
983.577749	0.990805
983.874686	0.990968
984.171587	0.991709
984.468451	0.994276
984.765279	0.995237
985.062070	0.994128
985.358824	0.995839
985.655543	0.994632
985.952224	0.996083
986.248869	0.996334
986.545478	0.996434
986.842050	0.997893
987.138586	0.994922
987.435086	0.996669
987.731549	0.998419
988.027975	0.998487
988.324366	0.996472
988.620719	0.997211
988.917037	0.996060
989.213318	0.997609
989.509563	0.998288
989.805772	0.997726
990.101944	0.997967
990.398080	0.996334
990.694180	0.998342
990.990244	0.996077
991.286271	0.998015
991.582262	0.997843
991.878217	0.996617
992.174136	0.999087
992.470019	0.998188
992.765865	0.997759
993.061676	0.997153
993.357450	0.997482
993.653188	0.996762
993.948890	0.997552
994.244556	0.997648
994.540186	0.997475
994.835780	0.996260
995.131337	0.996582
995.426859	0.997162
995.722345	0.997103
996.017795	0.995802
996.313208	0.995856
996.608586	0.996416
996.903928	0.996862
997.199234	0.996309
997.494504	0.996709
997.789738	0.995902
998.084936	0.995375
998.380099	0.996600
998.675225	0.996609
998.970316	0.997987
999.265371	0.997253
999.560390	0.997329
999.855373	0.998109
1000.150320	0.997624
1000.445232	0.997330
1000.740108	0.996517
1001.034948	0.997309
1001.329752	0.997933
1001.624521	0.998712
1001.919254	0.998135
1002.213951	0.998050
1002.508613	0.997425
1002.803239	0.998108
1003.097829	0.998879
1003.392384	0.999660
1003.686903	0.997925
1003.981386	0.998108
1004.275834	0.998364
1004.570246	0.997906
1004.864623	0.999181
1005.158964	0.999222
1005.453270	0.998357
1005.747540	0.997537
1006.041775	0.997937
1006.335974	0.998883
1006.630138	0.999849
1006.924266	0.999529
1007.218359	1.000381
1007.512416	0.999081
1007.806438	0.998557
1008.100425	0.998386
1008.394376	0.998189
1008.688292	0.997989
1008.982172	0.999464
1009.276017	0.999446
1009.569827	0.997449
1009.863602	0.997923
1010.157341	0.999910
1010.451045	0.999282
1010.744714	0.998766
1011.038347	0.999514
1011.331945	0.997400
1011.625508	0.996861
1011.919036	0.998254
1012.212528	0.998125
1012.505986	0.998747
1012.799408	0.997820
1013.092795	0.998549
1013.386147	0.997918
1013.679464	0.999368
1013.972745	0.998106
1014.265992	0.996976
1014.559204	0.998536
1014.852380	0.998711
1015.145521	0.998665
1015.438628	0.998492
1015.731699	0.997894
1016.024736	0.998176
1016.317737	0.998904
1016.610703	0.997852
1016.903635	0.999336
1017.196531	0.997923
1017.489393	0.999986
1017.782219	0.999209
1018.075011	0.997761
1018.367768	0.998452
1018.660490	0.998144
1018.953177	0.998144
1019.245829	0.998144
