Dividing Wavelength (nm)	Counts (n)	Blue Motor Position (mm): 0.000000	Red Motor Position (mm): 31.300000	
326.493990	1.000485
326.888308	1.000485
327.282561	1.000485
327.676750	0.999809
328.070874	0.999857
328.464933	0.999493
328.858929	0.998964
329.252859	0.999788
329.646726	1.000679
330.040528	1.001416
330.434265	0.999760
330.827938	1.000019
331.221547	1.001671
331.615091	1.000686
332.008571	1.001004
332.401986	1.000873
332.795338	1.000650
333.188625	0.998235
333.581847	1.000733
333.975006	1.000622
334.368100	0.998839
334.761129	1.000093
335.154095	1.000346
335.546996	0.997721
335.939833	0.995427
336.332606	0.995792
336.725315	0.996262
337.117960	0.996033
337.510540	0.996502
337.903056	0.996165
338.295508	0.995134
338.687896	0.995803
339.080220	0.996270
339.472480	0.995913
339.864676	0.995382
340.256807	0.995905
340.648875	0.996476
341.040879	0.995711
341.432818	0.996671
341.824694	0.995677
342.216506	0.996601
342.608253	0.996884
342.999937	0.995930
343.391557	0.995442
343.783113	0.995181
344.174605	0.996393
344.566033	0.995790
344.957397	0.994788
345.348697	0.995848
345.739934	0.995795
346.131106	0.996459
346.522215	0.995297
346.913260	0.996089
347.304241	0.995876
347.695159	0.995412
348.086012	0.994773
348.476802	0.995636
348.867528	0.995222
349.258191	0.994725
349.648789	0.996028
350.039324	0.995394
350.429796	0.996502
350.820203	0.995961
351.210548	0.996524
351.600828	0.994098
351.991045	0.996142
352.381198	0.995381
352.771288	0.995049
353.161314	0.994965
353.551276	0.997579
353.941175	0.995107
354.331010	0.995362
354.720782	0.995677
355.110490	0.993947
355.500135	0.995458
355.889717	0.995678
356.279235	0.996045
356.668689	0.994524
357.058080	0.995702
357.447408	0.996898
357.836672	0.996402
358.225873	0.995344
358.615010	0.996609
359.004084	0.996425
359.393095	0.996431
359.782043	0.995931
360.170927	0.997379
360.559748	0.995576
360.948505	0.995919
361.337199	0.995419
361.725830	0.996753
362.114398	0.996003
362.502903	0.996281
362.891344	0.997563
363.279722	0.995907
363.668037	0.996111
364.056289	0.996092
364.444478	0.996453
364.832603	0.995961
365.220665	0.994818
365.608665	0.995390
365.996601	0.994991
366.384474	0.995656
366.772284	0.995563
367.160031	0.994099
367.547715	0.994217
367.935336	0.996395
368.322893	0.995537
368.710388	0.994573
369.097820	0.996070
369.485189	0.994492
369.872495	0.995056
370.259738	0.994084
370.646918	0.995710
371.034035	0.996324
371.421090	0.996587
371.808081	0.995533
372.195010	0.996142
372.581875	0.995548
372.968678	0.996289
373.355418	0.996613
373.742096	0.995052
374.128710	0.997081
374.515262	0.996185
374.901751	0.996486
375.288177	0.996089
375.674540	0.997072
376.060841	0.996261
376.447079	0.996146
376.833254	0.996615
377.219367	0.997299
377.605417	0.996372
377.991404	0.996747
378.377329	0.996444
378.763191	0.996838
379.148991	0.997359
379.534727	0.996527
379.920402	0.997123
380.306013	0.997874
380.691563	0.996701
381.077049	0.995636
381.462474	0.996178
381.847835	0.996366
382.233134	0.996775
382.618371	0.996878
383.003545	0.996508
383.388657	0.996826
383.773706	0.997194
384.158693	0.998166
384.543618	0.996962
384.928480	0.997461
385.313280	0.997260
385.698017	0.997698
386.082692	0.998675
386.467305	0.997922
386.851856	0.996948
387.236344	0.997683
387.620770	0.996636
388.005133	0.998107
388.389435	0.998039
388.773674	0.996878
389.157851	0.997084
389.541965	0.997839
389.926018	0.996337
390.310008	0.998689
390.693936	0.996957
391.077802	0.998387
391.461606	0.996617
391.845348	0.997689
392.229027	0.998845
392.612645	0.998096
392.996200	0.999170
393.379694	0.997813
393.763125	0.999293
394.146494	0.997988
394.529801	0.997328
394.913047	0.998522
395.296230	0.997669
395.679351	0.998011
396.062410	0.997607
396.445408	0.998068
396.828343	0.997971
397.211217	0.997224
397.594028	0.998475
397.976778	0.997827
398.359466	0.998116
398.742092	0.997014
399.124656	0.997665
399.507158	0.998198
399.889598	0.997649
400.271977	0.999407
400.654294	0.998535
401.036549	0.998186
401.418742	0.997780
401.800874	0.997573
402.182944	0.998593
402.564952	0.997433
402.946898	0.998446
403.328783	0.997675
403.710606	0.998041
404.092367	0.997845
404.474067	0.998608
404.855705	0.998335
405.237282	0.998542
405.618797	0.998226
406.000250	0.997741
406.381642	0.997792
406.762972	0.998535
407.144240	0.998487
407.525447	0.998989
407.906593	0.998167
408.287677	0.997930
408.668700	0.998838
409.049661	0.998176
409.430560	0.999130
409.811399	0.997507
410.192176	0.998106
410.572891	0.997394
410.953545	0.998230
411.334138	0.997490
411.714669	0.998457
412.095139	0.997797
412.475547	0.999248
412.855894	0.998332
413.236180	0.998336
413.616405	0.998352
413.996568	0.998301
414.376670	0.998016
414.756711	0.998633
415.136691	0.998282
415.516609	0.997756
415.896466	0.997555
416.276262	0.997587
416.655997	0.998716
417.035670	0.998663
417.415283	0.998606
417.794834	0.997917
418.174324	0.998299
418.553753	0.998681
418.933121	0.998310
419.312428	0.998071
419.691674	0.997799
420.070859	0.998282
420.449983	0.998994
420.829045	0.998221
421.208047	0.998744
421.586988	0.999420
421.965867	0.998362
422.344686	0.999568
422.723444	0.998093
423.102141	0.998538
423.480777	0.998347
423.859352	0.998140
424.237866	0.998124
424.616319	0.998570
424.994712	0.998485
425.373044	0.997790
425.751314	0.998670
426.129524	0.997525
426.507673	0.999118
426.885762	0.999601
427.263789	0.998979
427.641756	0.999297
428.019662	0.998775
428.397508	0.997806
428.775292	0.998361
429.153016	0.998249
429.530679	0.998879
429.908282	0.999262
430.285824	0.998537
430.663305	0.998163
431.040726	0.998180
431.418086	0.999584
431.795385	0.999370
432.172624	0.998692
432.549802	0.999351
432.926920	0.999093
433.303977	0.998174
433.680974	0.999389
434.057910	0.998173
434.434786	0.998924
434.811601	0.998276
435.188355	0.997805
435.565050	0.998311
435.941683	0.998592
436.318257	0.998803
436.694770	0.998008
437.071222	0.998753
437.447614	0.998770
437.823946	0.998240
438.200218	0.998965
438.576429	0.999006
438.952580	0.999457
439.328670	0.998554
439.704700	0.998591
440.080670	0.999163
440.456580	0.998649
440.832429	0.997835
441.208218	0.998614
441.583947	0.998637
441.959616	0.998973
442.335224	0.998248
442.710773	0.999398
443.086261	0.998816
443.461689	0.998921
443.837057	0.998662
444.212365	0.998720
444.587612	0.998422
444.962800	0.998102
445.337927	0.998726
445.712995	0.999559
446.088002	0.998909
446.462949	0.998959
446.837837	0.998293
447.212664	0.998013
447.587431	0.998793
447.962139	0.999084
448.336786	0.999405
448.711374	0.999176
449.085901	0.998583
449.460369	0.999467
449.834776	0.998544
450.209124	0.999620
450.583412	0.998987
450.957640	0.998567
451.331808	0.999235
451.705917	0.998961
452.079965	0.998440
452.453954	0.999001
452.827883	0.999083
453.201752	0.998517
453.575562	0.998625
453.949311	0.998855
454.323001	0.998904
454.696632	0.999306
455.070202	0.998677
455.443713	0.998298
455.817164	0.998606
456.190556	0.998344
456.563888	0.998380
456.937160	0.998658
457.310373	0.998118
457.683526	0.998507
458.056619	0.998860
458.429653	0.998500
458.802628	0.997903
459.175542	0.998105
459.548398	0.998413
459.921194	0.998606
460.293930	0.998622
460.666607	0.998152
461.039224	0.996781
461.411782	0.998476
461.784280	0.998242
462.156719	0.998934
462.529099	0.998497
462.901419	0.998362
463.273680	0.998249
463.645882	0.998191
464.018024	0.998658
464.390106	0.998236
464.762130	0.999546
465.134094	0.998306
465.505999	0.998394
465.877845	0.998232
466.249631	0.999006
466.621358	0.998880
466.993026	0.998753
467.364634	0.998316
467.736184	0.998725
468.107674	0.997775
468.479105	0.998207
468.850477	0.998402
469.221790	0.997565
469.593043	0.998977
469.964238	0.998057
470.335373	0.997237
470.706449	0.997552
471.077467	0.997881
471.448425	0.996115
471.819324	0.997036
472.190164	0.995600
472.560945	0.995888
472.931667	0.995544
473.302330	0.994235
473.672934	0.995000
474.043479	0.994540
474.413965	0.993816
474.784393	0.993762
475.154761	0.992897
475.525070	0.991407
475.895321	0.992098
476.265513	0.990510
476.635645	0.990468
477.005719	0.989930
477.375734	0.988140
477.745691	0.987984
478.115588	0.987312
478.485427	0.987036
478.855207	0.984260
479.224928	0.982934
479.594591	0.981541
479.964194	0.981084
480.333739	0.979516
480.703226	0.978951
481.072653	0.977893
481.442022	0.975384
481.811333	0.972863
482.180584	0.973095
482.549777	0.970242
482.918912	0.969472
483.287988	0.966960
483.657005	0.965517
484.025964	0.964085
484.394864	0.962112
484.763706	0.960076
485.132489	0.958738
485.501213	0.955825
485.869879	0.954103
486.238487	0.951332
486.607036	0.949651
486.975527	0.946410
487.343959	0.943683
487.712333	0.940953
488.080648	0.937821
488.448905	0.935121
488.817104	0.932279
489.185244	0.929069
489.553326	0.924660
489.921350	0.919337
490.289315	0.910985
490.657222	0.907071
491.025070	0.903513
491.392861	0.900207
491.760593	0.899027
492.128267	0.897041
492.495883	0.893526
492.863440	0.891261
493.230939	0.887239
493.598380	0.882667
493.965763	0.877983
494.333088	0.874890
494.700354	0.869054
495.067563	0.865864
495.434713	0.860745
495.801805	0.856227
496.168839	0.851250
496.535815	0.845098
496.902733	0.840992
497.269593	0.835539
497.636395	0.830817
498.003139	0.824130
498.369825	0.820278
498.736453	0.812418
499.103023	0.807943
499.469535	0.801360
499.835989	0.796299
500.202385	0.790773
500.568723	0.785442
500.935003	0.779657
501.301226	0.772394
501.667390	0.765700
502.033497	0.758459
502.399546	0.754191
502.765537	0.747363
503.131470	0.740250
503.497345	0.732699
503.863163	0.730692
504.228923	0.720500
504.594625	0.714156
504.960269	0.709442
505.325856	0.701406
505.691385	0.695645
506.056856	0.688398
506.422270	0.680752
506.787625	0.675978
507.152924	0.667640
507.518164	0.661801
507.883347	0.656165
508.248472	0.649859
508.613540	0.641130
508.978550	0.635473
509.343503	0.628734
509.708398	0.621118
510.073236	0.613370
510.438016	0.607383
510.802738	0.600544
511.167403	0.593949
511.532010	0.587746
511.896561	0.579978
512.261053	0.573087
512.625488	0.567137
512.989866	0.560689
513.354186	0.554200
513.718449	0.548849
514.082655	0.541173
514.446803	0.535748
514.810894	0.528302
515.174927	0.522559
515.538904	0.517266
515.902822	0.508428
516.266684	0.504704
516.630488	0.499128
516.994235	0.492724
517.357925	0.485367
517.721558	0.478468
518.085133	0.471973
518.448651	0.467216
518.812112	0.462761
519.175516	0.455934
519.538863	0.449076
519.902152	0.445003
520.265385	0.436119
520.628560	0.433524
520.991678	0.427638
521.354739	0.422135
521.717743	0.418295
522.080690	0.413937
522.443580	0.405735
522.806413	0.402048
523.169189	0.396856
523.531908	0.390874
523.894569	0.389758
524.257174	0.384737
524.619722	0.377766
524.982213	0.375295
525.344647	0.369287
525.707025	0.366040
526.069345	0.360301
526.431608	0.357338
526.793815	0.351821
527.155964	0.351313
527.518057	0.346848
527.880093	0.343665
528.242072	0.338986
528.603995	0.336385
528.965860	0.334663
529.327669	0.330076
529.689421	0.328203
530.051117	0.325425
530.412755	0.319977
530.774337	0.319574
531.135862	0.315935
531.497331	0.312842
531.858743	0.312585
532.220098	0.306930
532.581396	0.306565
532.942638	0.304559
533.303824	0.303068
533.664953	0.300267
534.026025	0.299267
534.387040	0.295178
534.747999	0.292921
535.108902	0.289617
535.469748	0.292238
535.830537	0.287637
536.191270	0.286272
536.551947	0.284137
536.912567	0.282006
537.273131	0.282359
537.633638	0.280294
537.994089	0.278837
538.354483	0.278377
538.714821	0.274180
539.075103	0.272124
539.435328	0.271506
539.795497	0.273603
540.155609	0.268807
540.515665	0.266227
540.875665	0.269878
541.235609	0.267560
541.595496	0.266472
541.955328	0.261953
542.315102	0.263344
542.674821	0.263338
543.034483	0.262333
543.394090	0.261257
543.753640	0.261735
544.113134	0.256491
544.472571	0.258522
544.831953	0.254673
545.191278	0.257745
545.550548	0.256925
545.909761	0.252980
546.268918	0.253105
546.628019	0.250497
546.987064	0.252741
547.346053	0.253942
547.704986	0.251157
548.063863	0.251205
548.422684	0.250855
548.781449	0.252319
549.140158	0.249532
549.498811	0.252203
549.857408	0.254432
550.215949	0.249317
550.574434	0.251573
550.932864	0.249545
551.291237	0.247833
551.649555	0.248976
552.007817	0.248178
552.366022	0.248721
552.724173	0.248861
553.082267	0.248933
553.440305	0.245579
553.798288	0.249767
554.156215	0.246213
554.514086	0.246421
554.871902	0.249792
555.229661	0.248721
555.587365	0.248995
555.945014	0.251302
556.302606	0.248355
556.660143	0.250755
557.017625	0.247022
557.375050	0.249152
557.732421	0.246094
558.089735	0.248002
558.446994	0.247980
558.804197	0.246901
559.161345	0.246651
559.518437	0.250330
559.875474	0.247548
560.232455	0.247195
560.589381	0.248362
560.946251	0.248144
561.303065	0.245498
561.659825	0.247125
562.016528	0.248364
562.373177	0.251207
562.729770	0.248318
563.086307	0.250388
563.442789	0.247997
563.799216	0.251079
564.155587	0.249315
564.511904	0.250814
564.868164	0.250759
565.224370	0.250372
565.580520	0.252371
565.936615	0.252175
566.292654	0.254925
566.648638	0.251915
567.004567	0.252629
567.360441	0.253493
567.716260	0.255239
568.072023	0.253213
568.427732	0.253671
568.783385	0.256439
569.138982	0.254284
569.494525	0.254018
569.850013	0.256813
570.205445	0.255159
570.560823	0.257663
570.916145	0.259632
571.271412	0.257932
571.626625	0.259236
571.981782	0.259398
572.336884	0.260697
572.691931	0.260350
573.046923	0.261307
573.401860	0.262452
573.756743	0.264269
574.111570	0.262970
574.466342	0.263475
574.821059	0.263049
575.175722	0.265542
575.530330	0.265240
575.884882	0.265509
576.239380	0.267305
576.593823	0.267796
576.948211	0.267290
577.302544	0.270656
577.656823	0.270186
578.011047	0.270305
578.365216	0.270710
578.719330	0.273240
579.073389	0.272891
579.427394	0.273991
579.781344	0.274792
580.135239	0.276275
580.489080	0.275887
580.842866	0.278732
581.196597	0.278573
581.550273	0.277335
581.903895	0.278433
582.257463	0.276375
582.610975	0.279919
582.964434	0.279160
583.317837	0.281830
583.671186	0.282202
584.024481	0.281896
584.377721	0.284615
584.730906	0.285116
585.084037	0.284435
585.437113	0.286001
585.790135	0.285669
586.143103	0.288449
586.496016	0.289874
586.848874	0.287436
587.201679	0.287866
587.554428	0.291211
587.907124	0.289919
588.259765	0.290650
588.612352	0.290881
588.964884	0.294982
589.317362	0.294763
589.669786	0.294458
590.022155	0.293100
590.374470	0.291926
590.726731	0.294181
591.078937	0.298881
591.431090	0.295298
591.783188	0.299603
592.135232	0.299785
592.487222	0.299942
592.839157	0.297910
593.191038	0.300158
593.542866	0.302083
593.894639	0.305803
594.246358	0.303789
594.598022	0.303143
594.949633	0.306893
595.301190	0.307710
595.652692	0.307138
596.004141	0.303160
596.355535	0.310868
596.706876	0.311513
597.058162	0.314040
597.409395	0.310863
597.760573	0.308868
598.111698	0.311997
598.462768	0.312669
598.813785	0.314134
599.164748	0.315025
599.515657	0.315266
599.866511	0.318716
600.217312	0.313723
600.568060	0.319749
600.918753	0.315979
601.269392	0.316597
601.619978	0.319942
601.970510	0.317310
602.320988	0.317851
602.671412	0.315456
603.021783	0.318119
603.372100	0.319397
603.722363	0.318813
604.072572	0.319694
604.422728	0.319560
604.772830	0.321818
605.122878	0.321274
605.472872	0.321391
605.822813	0.320007
606.172701	0.322940
606.522534	0.320417
606.872314	0.320440
607.222041	0.321214
607.571714	0.319203
607.921333	0.320554
608.270899	0.320381
608.620411	0.316998
608.969870	0.321016
609.319276	0.321162
609.668627	0.321148
610.017926	0.319409
610.367171	0.317967
610.716362	0.319138
611.065500	0.319074
611.414585	0.317818
611.763616	0.318681
612.112594	0.318854
612.461518	0.318455
612.810389	0.315883
613.159207	0.318352
613.507971	0.320396
613.856682	0.315616
614.205340	0.317328
614.553945	0.313825
614.902496	0.318005
615.250994	0.315916
615.599439	0.317003
615.947830	0.316034
616.296169	0.317148
616.644454	0.316741
616.992686	0.316766
617.340864	0.314811
617.688990	0.318181
618.037063	0.314749
618.385082	0.316756
618.733048	0.313529
619.080961	0.315905
619.428821	0.315288
619.776628	0.314680
620.124382	0.317119
620.472083	0.316909
620.819731	0.316491
621.167326	0.320370
621.514868	0.320127
621.862357	0.324476
622.209793	0.324096
622.557176	0.326171
622.904506	0.327139
623.251783	0.329338
623.599007	0.331939
623.946179	0.331311
624.293297	0.333502
624.640363	0.336995
624.987376	0.337459
625.334336	0.340145
625.681243	0.342453
626.028097	0.343057
626.374899	0.344193
626.721647	0.344386
627.068343	0.347981
627.414987	0.348506
627.761577	0.350630
628.108115	0.348595
628.454600	0.354085
628.801032	0.351242
629.147412	0.353788
629.493739	0.354105
629.840014	0.357059
630.186236	0.354465
630.532405	0.360349
630.878521	0.357368
631.224585	0.359594
631.570597	0.363065
631.916556	0.361921
632.262462	0.362103
632.608316	0.363608
632.954117	0.364839
633.299866	0.365626
633.645562	0.366553
633.991206	0.370065
634.336797	0.373299
634.682336	0.375613
635.027823	0.377157
635.373257	0.378164
635.718639	0.381345
636.063968	0.380475
636.409245	0.386633
636.754470	0.386664
637.099642	0.389052
637.444762	0.392714
637.789829	0.391610
638.134845	0.395196
638.479808	0.395903
638.824719	0.395615
639.169577	0.399908
639.514383	0.398681
639.859137	0.402717
640.203839	0.402667
640.548489	0.402811
640.893086	0.404666
641.237632	0.406405
641.582125	0.405002
641.926566	0.406601
642.270955	0.406374
642.615292	0.407131
642.959576	0.405902
643.303809	0.406372
643.647990	0.405623
643.992118	0.406681
644.336195	0.410076
644.680219	0.408516
645.024192	0.409013
645.368112	0.402809
645.711981	0.402087
646.055797	0.397183
646.399562	0.399821
646.743274	0.391771
647.086935	0.388994
647.430544	0.389045
647.774101	0.387787
648.117606	0.387604
648.461059	0.387693
648.804460	0.390620
649.147810	0.395832
649.491108	0.397752
649.834354	0.398942
650.177548	0.404591
650.520690	0.409971
650.863781	0.410865
651.206820	0.410137
651.549807	0.415041
651.892742	0.418474
652.235626	0.417966
652.578458	0.419113
652.921238	0.425152
653.263967	0.423001
653.606644	0.427007
653.949269	0.426663
654.291843	0.430652
654.634365	0.427225
654.976836	0.430735
655.319255	0.430810
655.661622	0.432606
656.003938	0.432541
656.346203	0.435364
656.688416	0.433190
657.030577	0.436791
657.372687	0.438254
657.714746	0.439323
658.056753	0.436193
658.398708	0.439924
658.740612	0.441386
659.082465	0.437363
659.424266	0.438225
659.766016	0.437683
660.107715	0.440282
660.449362	0.438894
660.790958	0.439726
661.132503	0.440283
661.473996	0.437658
661.815438	0.438802
662.156829	0.438514
662.498168	0.439577
662.839456	0.441228
663.180693	0.438576
663.521879	0.439017
663.863013	0.439978
664.204097	0.438362
664.545129	0.435799
664.886110	0.435426
665.227040	0.432959
665.567918	0.435791
665.908746	0.433268
666.249522	0.433072
666.590248	0.434060
666.930922	0.432189
667.271545	0.431341
667.612118	0.431060
667.952639	0.433170
668.293109	0.431360
668.633528	0.434449
668.973896	0.433809
669.314213	0.434637
669.654480	0.436132
669.994695	0.437025
670.334859	0.437353
670.674973	0.438241
671.015035	0.437419
671.355047	0.437857
671.695008	0.438729
672.034918	0.440625
672.374777	0.440052
672.714585	0.440769
673.054342	0.440794
673.394049	0.441494
673.733705	0.438991
674.073310	0.439937
674.412864	0.443379
674.752368	0.443775
675.091820	0.443493
675.431223	0.448146
675.770574	0.448279
676.109875	0.450972
676.449125	0.451262
676.788324	0.453669
677.127473	0.458702
677.466571	0.458347
677.805619	0.459933
678.144616	0.461101
678.483562	0.462752
678.822458	0.464853
679.161303	0.466508
679.500098	0.466485
679.838842	0.468712
680.177535	0.467727
680.516179	0.466450
680.854771	0.465849
681.193314	0.459145
681.531805	0.450159
681.870247	0.439004
682.208638	0.431544
682.546978	0.430549
682.885268	0.432265
683.223508	0.438789
683.561697	0.441719
683.899836	0.444816
684.237925	0.448617
684.575963	0.450938
684.913951	0.454315
685.251889	0.449958
685.589776	0.450958
685.927614	0.453896
686.265401	0.448432
686.603137	0.449761
686.940824	0.443704
687.278460	0.441667
687.616046	0.441231
687.953582	0.436838
688.291068	0.437368
688.628504	0.433486
688.965889	0.435434
689.303224	0.439694
689.640510	0.443622
689.977745	0.449491
690.314930	0.457094
690.652065	0.461631
690.989150	0.469081
691.326185	0.476085
691.663170	0.480415
692.000105	0.487533
692.336990	0.493864
692.673825	0.497115
693.010610	0.503548
693.347345	0.508992
693.684030	0.510495
694.020665	0.515422
694.357251	0.524629
694.693786	0.523716
695.030272	0.528798
695.366707	0.531417
695.703093	0.534862
696.039429	0.532506
696.375716	0.533858
696.711952	0.537443
697.048139	0.539611
697.384276	0.541028
697.720363	0.539366
698.056400	0.538709
698.392388	0.543734
698.728326	0.546799
699.064214	0.549806
699.400053	0.550533
699.735842	0.553993
700.071581	0.555953
700.407270	0.559911
700.742910	0.562023
701.078501	0.568314
701.414042	0.569026
701.749533	0.572871
702.084974	0.580204
702.420366	0.572870
702.755709	0.581317
703.091002	0.588823
703.426246	0.581817
703.761440	0.587645
704.096584	0.592742
704.431679	0.589463
704.766725	0.591419
705.101721	0.592836
705.436668	0.589184
705.771565	0.596406
706.106413	0.593188
706.441212	0.588755
706.775961	0.587068
707.110661	0.589734
707.445311	0.586248
707.779913	0.583660
708.114465	0.582567
708.448967	0.578101
708.783421	0.571245
709.117825	0.565650
709.452180	0.565799
709.786485	0.559640
710.120742	0.549047
710.454949	0.551365
710.789107	0.543675
711.123216	0.534602
711.457275	0.536514
711.791286	0.527077
712.125247	0.525978
712.459159	0.536838
712.793023	0.529803
713.126837	0.533382
713.460602	0.533999
713.794318	0.543539
714.127985	0.542737
714.461602	0.551243
714.795171	0.555349
715.128691	0.563045
715.462162	0.570391
715.795584	0.576606
716.128957	0.579563
716.462281	0.584733
716.795556	0.589269
717.128782	0.593377
717.461960	0.603455
717.795088	0.602261
718.128167	0.607974
718.461198	0.616721
718.794180	0.617834
719.127113	0.620805
719.459997	0.624022
719.792833	0.629621
720.125619	0.631604
720.458357	0.637194
720.791046	0.637166
721.123686	0.640589
721.456278	0.646949
721.788821	0.644124
722.121315	0.648100
722.453761	0.653017
722.786158	0.650386
723.118506	0.647244
723.450805	0.655595
723.783056	0.651107
724.115259	0.648362
724.447412	0.647683
724.779518	0.649540
725.111574	0.647964
725.443582	0.643830
725.775542	0.645543
726.107453	0.638286
726.439315	0.637362
726.771129	0.636025
727.102895	0.629725
727.434612	0.622837
727.766281	0.621056
728.097901	0.620439
728.429473	0.620220
728.760996	0.617986
729.092471	0.618313
729.423897	0.621881
729.755276	0.621059
730.086606	0.620983
730.417887	0.616401
730.749120	0.606190
731.080305	0.597207
731.411442	0.593212
731.742530	0.599221
732.073570	0.597485
732.404562	0.590249
732.735506	0.591494
733.066401	0.596869
733.397249	0.605059
733.728048	0.616418
734.058798	0.628666
734.389501	0.639330
734.720156	0.649547
735.050762	0.656600
735.381320	0.657598
735.711831	0.667030
736.042293	0.671946
736.372707	0.667829
736.703073	0.672687
737.033391	0.674905
737.363661	0.672162
737.693883	0.667065
738.024056	0.665908
738.354182	0.666997
738.684260	0.656375
739.014290	0.651712
739.344272	0.652012
739.674207	0.646973
740.004093	0.645508
740.333931	0.645634
740.663722	0.646560
740.993464	0.646669
741.323159	0.650091
741.652806	0.655314
741.982405	0.659566
742.311956	0.664502
742.641460	0.666372
742.970915	0.670451
743.300323	0.677603
743.629683	0.684724
743.958996	0.686010
744.288260	0.690718
744.617477	0.696788
744.946647	0.698493
745.275768	0.702739
745.604842	0.703687
745.933869	0.713385
746.262847	0.713176
746.591778	0.707773
746.920662	0.713486
747.249498	0.720087
747.578286	0.711144
747.907027	0.707420
748.235720	0.707935
748.564365	0.702122
748.892963	0.702804
749.221514	0.705200
749.550017	0.711064
749.878473	0.710232
750.206881	0.717343
750.535242	0.717803
750.863555	0.718574
751.191821	0.718656
751.520039	0.721599
751.848210	0.726995
752.176334	0.719871
752.504411	0.718176
752.832440	0.726545
753.160421	0.730733
753.488356	0.729009
753.816243	0.726688
754.144082	0.734572
754.471875	0.737664
754.799620	0.733564
755.127318	0.735412
755.454969	0.735170
755.782572	0.734288
756.110129	0.739511
756.437638	0.741844
756.765100	0.738363
757.092515	0.736752
757.419882	0.735480
757.747203	0.741022
758.074477	0.740397
758.401703	0.736670
758.728882	0.732449
759.056014	0.731114
759.383099	0.729920
759.710138	0.731672
760.037129	0.727569
760.364073	0.721758
760.690970	0.724116
761.017820	0.730774
761.344623	0.725839
761.671379	0.716315
761.998088	0.705410
762.324751	0.682916
762.651366	0.641982
762.977935	0.574920
763.304456	0.523445
763.630931	0.513843
763.957359	0.552441
764.283740	0.596907
764.610074	0.623667
764.936362	0.654323
765.262602	0.680121
765.588796	0.701078
765.914943	0.719461
766.241044	0.737306
766.567097	0.744015
766.893104	0.754030
767.219064	0.760091
767.544978	0.766322
767.870845	0.780071
768.196665	0.784063
768.522438	0.781381
768.848165	0.783196
769.173846	0.791742
769.499479	0.796800
769.825066	0.798930
770.150607	0.806114
770.476101	0.800186
770.801548	0.800971
771.126949	0.812189
771.452303	0.815982
771.777611	0.815667
772.102872	0.813891
772.428087	0.820715
772.753256	0.822949
773.078378	0.825570
773.403453	0.834056
773.728482	0.838192
774.053465	0.831122
774.378401	0.834283
774.703291	0.843349
775.028135	0.842634
775.352932	0.844205
775.677683	0.847680
776.002388	0.848038
776.327046	0.847393
776.651658	0.850612
776.976224	0.853983
777.300743	0.854302
777.625216	0.857804
777.949643	0.857700
778.274024	0.857923
778.598359	0.860101
778.922647	0.859368
779.246889	0.859888
779.571086	0.862622
779.895236	0.866398
780.219339	0.862278
780.543397	0.859591
780.867409	0.857545
781.191374	0.860840
781.515294	0.861473
781.839167	0.860597
782.162995	0.864049
782.486776	0.860970
782.810511	0.861892
783.134201	0.865407
783.457844	0.862469
783.781441	0.865832
784.104993	0.871597
784.428498	0.872777
784.751958	0.867818
785.075372	0.869790
785.398739	0.873758
785.722061	0.869637
786.045337	0.865971
786.368568	0.870670
786.691752	0.873668
787.014891	0.858483
787.337983	0.850721
787.661030	0.843278
787.984031	0.825994
788.306987	0.813186
788.629897	0.815521
788.952760	0.819242
789.275579	0.823887
789.598351	0.837989
789.921078	0.851711
790.243759	0.852520
790.566395	0.858219
790.888984	0.865007
791.211529	0.869623
791.534027	0.874296
791.856480	0.875646
792.178888	0.880181
792.501249	0.882019
792.823566	0.885025
793.145836	0.884036
793.468062	0.886494
793.790241	0.886765
794.112375	0.883735
794.434464	0.880289
794.756507	0.879642
795.078505	0.879197
795.400457	0.874778
795.722364	0.862429
796.044226	0.854370
796.366042	0.854163
796.687812	0.856774
797.009538	0.853960
797.331218	0.855974
797.652852	0.861401
797.974442	0.866214
798.295986	0.865376
798.617484	0.868355
798.938938	0.872498
799.260346	0.878113
799.581709	0.879414
799.903026	0.882644
800.224299	0.882520
800.545526	0.887173
800.866708	0.889611
801.187845	0.893594
801.508936	0.893458
801.829983	0.891443
802.150984	0.893462
802.471940	0.899411
802.792851	0.898374
803.113717	0.898870
803.434538	0.896915
803.755314	0.900092
804.076045	0.901198
804.396731	0.902281
804.717372	0.901364
805.037967	0.903543
805.358518	0.901041
805.679024	0.899445
805.999485	0.898368
806.319901	0.897953
806.640272	0.899616
806.960598	0.898450
807.280879	0.894363
807.601115	0.893591
807.921306	0.897845
808.241453	0.898003
808.561554	0.896341
808.881611	0.895009
809.201623	0.897986
809.521590	0.897224
809.841513	0.898764
810.161390	0.897582
810.481223	0.899011
810.801011	0.902065
811.120755	0.904158
811.440453	0.902773
811.760107	0.903018
812.079716	0.901889
812.399281	0.904855
812.718801	0.908770
813.038276	0.908673
813.357707	0.907778
813.677093	0.904573
813.996434	0.909366
814.315731	0.909212
814.634983	0.910504
814.954191	0.909802
815.273354	0.906954
815.592473	0.903038
815.911547	0.902810
816.230577	0.900940
816.549562	0.897963
816.868502	0.898940
817.187399	0.895382
817.506250	0.889734
817.825058	0.891540
818.143821	0.888265
818.462539	0.882894
818.781213	0.875053
819.099843	0.864430
819.418429	0.849025
819.736970	0.832170
820.055466	0.812448
820.373919	0.787171
820.692327	0.755489
821.010691	0.720886
821.329011	0.645606
821.647286	0.532559
821.965517	0.419360
822.283704	0.377185
822.601847	0.378948
822.919945	0.414522
823.237999	0.447460
823.556010	0.492922
823.873976	0.548466
824.191897	0.597948
824.509775	0.640180
824.827609	0.684576
825.145398	0.706817
825.463144	0.708755
825.780845	0.692815
826.098502	0.674335
826.416116	0.628439
826.733685	0.586516
827.051210	0.578038
827.368692	0.591426
827.686129	0.628500
828.003522	0.681316
828.320872	0.728144
828.638177	0.770308
828.955439	0.803239
829.272656	0.824742
829.589830	0.841143
829.906960	0.856511
830.224046	0.868454
830.541088	0.879441
830.858086	0.882496
831.175041	0.889022
831.491952	0.889011
831.808819	0.885603
832.125642	0.878905
832.442421	0.864540
832.759157	0.843922
833.075849	0.798099
833.392497	0.735086
833.709101	0.694876
834.025662	0.704296
834.342179	0.735831
834.658653	0.774430
834.975083	0.810311
835.291469	0.834992
835.607811	0.856896
835.924110	0.873601
836.240366	0.888647
836.556578	0.904367
836.872746	0.910407
837.188871	0.916049
837.504952	0.921915
837.820990	0.924722
838.136984	0.929404
838.452935	0.931374
838.768842	0.933616
839.084706	0.926503
839.400526	0.901483
839.716303	0.861891
840.032037	0.840209
840.347727	0.843479
840.663373	0.861630
840.978977	0.882808
841.294537	0.903903
841.610054	0.920342
841.925527	0.927940
842.240957	0.934636
842.556344	0.940622
842.871687	0.946853
843.186987	0.951026
843.502244	0.951829
843.817458	0.953432
844.132629	0.956433
844.447756	0.962599
844.762840	0.961193
845.077881	0.960665
845.392879	0.960751
845.707833	0.963468
846.022745	0.965330
846.337613	0.965643
846.652438	0.967757
846.967221	0.965620
847.281960	0.965518
847.596656	0.967668
847.911309	0.967242
848.225919	0.969613
848.540485	0.969152
848.855009	0.970004
849.169490	0.968861
849.483928	0.969699
849.798323	0.970623
850.112675	0.970768
850.426984	0.969848
850.741251	0.971337
851.055474	0.971167
851.369654	0.968184
851.683792	0.971609
851.997887	0.971114
852.311938	0.971809
852.625947	0.970842
852.939914	0.968014
853.253837	0.969581
853.567718	0.972353
853.881555	0.972232
854.195350	0.969568
854.509103	0.970131
854.822812	0.970542
855.136479	0.971207
855.450103	0.971343
855.763685	0.968556
856.077224	0.969467
856.390720	0.971498
856.704173	0.970967
857.017584	0.968826
857.330953	0.968152
857.644278	0.969385
857.957561	0.970530
858.270802	0.969558
858.584000	0.969015
858.897155	0.967102
859.210268	0.967783
859.523339	0.969343
859.836367	0.970368
860.149352	0.972500
860.462295	0.970243
860.775195	0.970922
861.088054	0.969737
861.400869	0.970857
861.713642	0.971854
862.026373	0.971102
862.339062	0.971767
862.651708	0.968587
862.964312	0.968466
863.276873	0.969499
863.589392	0.970136
863.901869	0.966357
864.214303	0.965874
864.526696	0.965847
864.839045	0.964547
865.151353	0.963157
865.463619	0.963953
865.775842	0.962689
866.088023	0.964005
866.400162	0.964433
866.712258	0.964367
867.024313	0.963627
867.336325	0.965512
867.648296	0.964381
867.960224	0.963577
868.272110	0.962640
868.583954	0.965939
868.895755	0.965462
869.207515	0.963544
869.519233	0.960621
869.830909	0.962265
870.142542	0.964488
870.454134	0.963129
870.765684	0.962330
871.077191	0.958937
871.388657	0.959967
871.700081	0.958474
872.011463	0.959312
872.322803	0.960528
872.634101	0.957706
872.945357	0.955289
873.256571	0.954508
873.567744	0.953956
873.878874	0.955208
874.189963	0.953303
874.501010	0.952776
874.812015	0.951359
875.122979	0.953582
875.433900	0.955117
875.744780	0.956140
876.055618	0.952835
876.366415	0.951716
876.677169	0.951402
876.987882	0.954038
877.298554	0.953037
877.609183	0.949933
877.919771	0.946737
878.230317	0.944990
878.540822	0.942502
878.851285	0.937241
879.161707	0.929682
879.472087	0.918402
879.782425	0.901921
880.092722	0.869508
880.402977	0.819252
880.713191	0.759808
881.023363	0.703542
881.333494	0.669856
881.643583	0.642588
881.953631	0.641984
882.263637	0.670974
882.573602	0.709339
882.883526	0.735103
883.193408	0.756832
883.503248	0.778026
883.813048	0.804738
884.122806	0.833636
884.432522	0.856504
884.742197	0.875167
885.051831	0.885839
885.361424	0.894796
885.670975	0.906182
885.980485	0.916678
886.289954	0.922236
886.599382	0.927267
886.908768	0.931363
887.218113	0.937147
887.527417	0.941102
887.836680	0.944323
888.145901	0.945038
888.455082	0.949193
888.764221	0.952591
889.073319	0.954013
889.382376	0.954813
889.691392	0.954358
890.000366	0.954008
890.309300	0.956118
890.618193	0.955196
890.927044	0.952674
891.235855	0.953411
891.544625	0.953436
891.853353	0.953214
892.162041	0.951405
892.470687	0.945157
892.779293	0.939132
893.087858	0.937645
893.396381	0.929693
893.704864	0.916414
894.013306	0.893696
894.321707	0.868495
894.630068	0.853804
894.938387	0.850125
895.246665	0.851038
895.554903	0.863178
895.863100	0.875718
896.171256	0.891847
896.479371	0.910937
896.787446	0.923163
897.095480	0.928690
897.403473	0.930705
897.711425	0.935286
898.019336	0.943083
898.327207	0.944614
898.635038	0.946631
898.942827	0.947378
899.250576	0.949926
899.558284	0.954289
899.865952	0.955577
900.173579	0.956732
900.481165	0.958048
900.788711	0.961137
901.096216	0.962953
901.403681	0.963259
901.711105	0.963344
902.018489	0.966412
902.325832	0.963973
902.633135	0.963313
902.940397	0.958321
903.247619	0.946026
903.554800	0.921496
903.861941	0.884240
904.169041	0.848689
904.476101	0.833962
904.783121	0.834761
905.090100	0.851023
905.397039	0.870257
905.703938	0.891820
906.010796	0.910996
906.317614	0.926883
906.624391	0.938503
906.931129	0.946316
907.237826	0.954164
907.544483	0.960948
907.851099	0.965262
908.157675	0.970076
908.464211	0.971401
908.770707	0.973911
909.077163	0.974963
909.383578	0.976021
909.689954	0.977291
909.996289	0.976492
910.302584	0.978996
910.608839	0.980205
910.915054	0.979438
911.221229	0.978467
911.527363	0.978396
911.833458	0.978275
912.139513	0.978859
912.445527	0.976898
912.751502	0.975803
913.057436	0.973819
913.363331	0.971450
913.669186	0.967905
913.975000	0.964152
914.280775	0.958174
914.586510	0.952252
914.892205	0.939143
915.197859	0.918132
915.503475	0.892212
915.809050	0.874182
916.114585	0.868420
916.420081	0.867036
916.725536	0.863734
917.030952	0.871150
917.336328	0.882808
917.641665	0.896444
917.946961	0.912829
918.252218	0.922531
918.557435	0.931307
918.862612	0.939121
919.167750	0.945196
919.472848	0.949624
919.777906	0.954957
920.082925	0.960453
920.387904	0.964555
920.692843	0.964647
920.997743	0.966191
921.302603	0.969097
921.607423	0.970136
921.912204	0.972814
922.216946	0.972343
922.521647	0.976322
922.826310	0.977183
923.130932	0.979037
923.435516	0.979353
923.740059	0.980230
924.044564	0.980014
924.349028	0.980854
924.653454	0.983224
924.957840	0.986674
925.262186	0.985498
925.566493	0.985247
925.870761	0.985637
926.174989	0.986068
926.479178	0.988481
926.783328	0.988752
927.087438	0.988967
927.391509	0.988725
927.695541	0.991469
927.999533	0.990188
928.303486	0.990699
928.607400	0.991319
928.911275	0.990075
929.215110	0.990555
929.518906	0.992469
929.822663	0.990093
930.126381	0.992449
930.430060	0.990660
930.733699	0.990608
931.037299	0.989147
931.340861	0.991352
931.644383	0.990416
931.947866	0.989969
932.251309	0.990339
932.554714	0.991191
932.858080	0.990415
933.161407	0.991411
933.464694	0.992389
933.767943	0.988744
934.071153	0.991259
934.374323	0.992244
934.677455	0.991908
934.980548	0.991608
935.283602	0.991364
935.586617	0.993207
935.889593	0.991952
936.192530	0.990097
936.495428	0.991102
936.798287	0.990857
937.101108	0.991438
937.403890	0.989219
937.706632	0.989716
938.009336	0.987213
938.312002	0.986757
938.614628	0.985095
938.917216	0.984381
939.219765	0.982864
939.522275	0.983844
939.824747	0.984520
940.127179	0.983422
940.429573	0.985891
940.731929	0.985530
941.034246	0.985820
941.336524	0.986523
941.638763	0.986585
941.940964	0.987278
942.243126	0.987377
942.545250	0.987519
942.847335	0.989235
943.149381	0.989008
943.451389	0.989418
943.753359	0.988519
944.055290	0.992619
944.357182	0.990222
944.659036	0.989462
944.960851	0.989665
945.262628	0.990421
945.564367	0.990646
945.866067	0.989933
946.167729	0.991220
946.469352	0.990333
946.770937	0.990272
947.072484	0.992393
947.373992	0.989488
947.675462	0.990171
947.976893	0.989488
948.278286	0.990657
948.579641	0.992380
948.880958	0.990970
949.182236	0.991214
949.483476	0.991721
949.784678	0.991400
950.085841	0.992017
950.386967	0.990934
950.688054	0.990977
950.989103	0.991418
951.290114	0.990827
951.591087	0.990059
951.892021	0.991568
952.192917	0.989805
952.493776	0.989872
952.794596	0.990148
953.095378	0.988111
953.396122	0.989426
953.696828	0.988427
953.997496	0.990500
954.298126	0.991771
954.598718	0.991442
954.899272	0.991671
955.199788	0.990083
955.500266	0.992381
955.800706	0.992906
956.101108	0.993823
956.401472	0.994020
956.701798	0.994369
957.002087	0.993563
957.302337	0.994497
957.602550	0.994925
957.902724	0.995026
958.202861	0.996135
958.502960	0.995013
958.803022	0.994414
959.103045	0.995964
959.403031	0.995770
959.702979	0.994777
960.002889	0.995714
960.302762	0.994390
960.602596	0.996067
960.902393	0.995072
961.202153	0.996134
961.501875	0.996690
961.801559	0.995096
962.101205	0.995545
962.400814	0.996650
962.700385	0.996654
962.999918	0.997069
963.299414	0.997387
963.598873	0.996134
963.898293	0.995962
964.197677	0.995657
964.497022	0.996331
964.796331	0.996212
965.095601	0.998101
965.394835	0.995828
965.694030	0.997007
965.993189	0.997073
966.292309	0.996862
966.591393	0.996771
966.890439	0.996876
967.189447	0.997548
967.488419	0.996705
967.787353	0.996969
968.086249	0.996901
968.385108	0.995635
968.683930	0.997098
968.982714	0.997062
969.281462	0.997541
969.580172	0.997107
969.878844	0.997654
970.177480	0.996836
970.476078	0.997906
970.774639	0.996426
971.073162	0.997244
971.371649	0.995466
971.670098	0.996982
971.968510	0.997126
972.266885	0.994982
972.565223	0.995993
972.863524	0.997475
973.161788	0.995049
973.460014	0.997931
973.758204	0.995887
974.056356	0.996331
974.354471	0.994388
974.652550	0.996368
974.950591	0.996288
975.248595	0.996684
975.546563	0.996765
975.844493	0.997760
976.142386	0.996991
976.440243	0.997136
976.738062	0.997004
977.035845	0.997605
977.333590	0.996736
977.631299	0.997927
977.928971	0.995558
978.226606	0.996893
978.524204	0.996265
978.821765	0.997411
979.119290	0.995703
979.416777	0.996127
979.714228	0.996443
980.011642	0.996229
980.309020	0.996898
980.606360	0.997528
980.903664	0.997791
981.200931	0.996672
981.498162	0.995197
981.795356	0.994235
982.092513	0.994637
982.389633	0.994190
982.686717	0.991595
982.983764	0.991657
983.280775	0.991623
983.577749	0.990322
983.874686	0.992457
984.171587	0.992001
984.468451	0.993906
984.765279	0.994198
985.062070	0.993667
985.358824	0.996262
985.655543	0.994959
985.952224	0.996509
986.248869	0.995829
986.545478	0.997195
986.842050	0.998672
987.138586	0.994952
987.435086	0.996773
987.731549	0.999196
988.027975	0.998268
988.324366	0.997022
988.620719	0.998615
988.917037	0.996586
989.213318	0.997649
989.509563	0.998892
989.805772	0.998435
990.101944	0.998501
990.398080	0.997752
990.694180	0.999043
990.990244	0.996864
991.286271	0.998584
991.582262	0.999061
991.878217	0.997871
992.174136	0.997565
992.470019	0.998430
992.765865	0.998235
993.061676	0.998335
993.357450	0.999161
993.653188	0.996544
993.948890	0.996567
994.244556	0.997917
994.540186	0.996674
994.835780	0.996924
995.131337	0.998107
995.426859	0.996773
995.722345	0.998315
996.017795	0.996105
996.313208	0.995991
996.608586	0.995621
996.903928	0.996348
997.199234	0.996218
997.494504	0.997046
997.789738	0.996464
998.084936	0.996414
998.380099	0.997690
998.675225	0.998491
998.970316	0.997673
999.265371	0.998707
999.560390	0.998405
999.855373	0.998945
1000.150320	0.998071
1000.445232	0.998395
1000.740108	0.998746
1001.034948	0.997181
1001.329752	0.999139
1001.624521	0.999853
1001.919254	0.998027
1002.213951	0.998083
1002.508613	0.998388
1002.803239	0.999393
1003.097829	1.000574
1003.392384	0.998787
1003.686903	0.997644
1003.981386	0.999393
1004.275834	0.999137
1004.570246	0.997907
1004.864623	0.998709
1005.158964	0.999626
1005.453270	0.998608
1005.747540	0.998150
1006.041775	0.998569
1006.335974	1.000393
1006.630138	0.998634
1006.924266	0.999924
1007.218359	0.998692
1007.512416	0.998693
1007.806438	0.999832
1008.100425	0.999211
1008.394376	0.998618
1008.688292	0.999266
1008.982172	1.001030
1009.276017	0.998888
1009.569827	0.998682
1009.863602	0.997674
1010.157341	1.000521
1010.451045	0.999966
1010.744714	0.998851
1011.038347	0.999180
1011.331945	0.998688
1011.625508	0.998255
1011.919036	0.998823
1012.212528	0.999149
1012.505986	0.997298
1012.799408	0.999401
1013.092795	0.999201
1013.386147	0.998861
1013.679464	0.998656
1013.972745	0.998612
1014.265992	0.998537
1014.559204	0.998775
1014.852380	0.998451
1015.145521	0.999333
1015.438628	0.999112
1015.731699	0.999463
1016.024736	0.999393
1016.317737	0.998869
1016.610703	0.998598
1016.903635	0.999259
1017.196531	0.998148
1017.489393	0.999066
1017.782219	0.998868
1018.075011	0.998189
1018.367768	0.999491
1018.660490	0.999188
1018.953177	0.999188
1019.245829	0.999188
