Dividing Wavelength (nm)	Counts (n)	Blue Motor Position (mm): 0.000000	Red Motor Position (mm): 1.400000	
326.493990	1.000531
326.888308	1.000531
327.282561	1.000531
327.676750	1.000505
328.070874	0.999438
328.464933	1.000614
328.858929	0.999225
329.252859	1.000194
329.646726	0.999005
330.040528	1.000022
330.434265	0.999857
330.827938	1.000488
331.221547	1.000594
331.615091	0.998390
332.008571	1.000201
332.401986	0.999800
332.795338	1.000366
333.188625	0.998626
333.581847	1.000127
333.975006	0.999322
334.368100	0.999252
334.761129	0.999979
335.154095	1.001506
335.546996	0.996987
335.939833	0.992062
336.332606	0.993039
336.725315	0.993825
337.117960	0.994736
337.510540	0.994465
337.903056	0.994433
338.295508	0.992801
338.687896	0.993888
339.080220	0.993236
339.472480	0.993862
339.864676	0.993209
340.256807	0.994443
340.648875	0.994186
341.040879	0.993536
341.432818	0.994171
341.824694	0.993275
342.216506	0.995013
342.608253	0.992203
342.999937	0.993270
343.391557	0.992496
343.783113	0.992741
344.174605	0.993360
344.566033	0.993650
344.957397	0.992434
345.348697	0.993362
345.739934	0.992405
346.131106	0.994091
346.522215	0.992215
346.913260	0.992093
347.304241	0.992789
347.695159	0.992766
348.086012	0.991163
348.476802	0.992431
348.867528	0.993964
349.258191	0.991604
349.648789	0.994056
350.039324	0.993005
350.429796	0.992933
350.820203	0.993727
351.210548	0.992524
351.600828	0.992645
351.991045	0.992583
352.381198	0.991618
352.771288	0.992718
353.161314	0.993081
353.551276	0.992588
353.941175	0.992506
354.331010	0.991781
354.720782	0.992898
355.110490	0.992393
355.500135	0.993073
355.889717	0.992766
356.279235	0.991880
356.668689	0.991324
357.058080	0.992559
357.447408	0.993626
357.836672	0.992971
358.225873	0.992900
358.615010	0.992361
359.004084	0.992820
359.393095	0.992944
359.782043	0.992548
360.170927	0.994002
360.559748	0.992465
360.948505	0.990703
361.337199	0.992138
361.725830	0.993177
362.114398	0.991974
362.502903	0.992841
362.891344	0.992249
363.279722	0.992213
363.668037	0.992764
364.056289	0.991341
364.444478	0.992498
364.832603	0.992793
365.220665	0.992091
365.608665	0.991280
365.996601	0.990267
366.384474	0.990819
366.772284	0.989822
367.160031	0.989324
367.547715	0.989322
367.935336	0.989766
368.322893	0.986787
368.710388	0.986668
369.097820	0.984014
369.485189	0.982280
369.872495	0.979370
370.259738	0.976548
370.646918	0.975010
371.034035	0.972715
371.421090	0.969513
371.808081	0.964319
372.195010	0.961759
372.581875	0.956468
372.968678	0.952514
373.355418	0.948623
373.742096	0.942220
374.128710	0.937536
374.515262	0.931726
374.901751	0.926769
375.288177	0.923032
375.674540	0.915361
376.060841	0.908955
376.447079	0.903207
376.833254	0.896082
377.219367	0.890621
377.605417	0.880583
377.991404	0.877062
378.377329	0.869646
378.763191	0.864927
379.148991	0.855853
379.534727	0.847103
379.920402	0.840112
380.306013	0.837232
380.691563	0.823183
381.077049	0.816309
381.462474	0.811934
381.847835	0.802013
382.233134	0.796137
382.618371	0.797059
383.003545	0.780035
383.388657	0.778019
383.773706	0.770858
384.158693	0.766938
384.543618	0.759842
384.928480	0.753030
385.313280	0.742321
385.698017	0.743363
386.082692	0.731403
386.467305	0.729362
386.851856	0.722920
387.236344	0.718737
387.620770	0.712773
388.005133	0.707407
388.389435	0.702595
388.773674	0.699586
389.157851	0.692026
389.541965	0.688688
389.926018	0.696075
390.310008	0.682951
390.693936	0.678991
391.077802	0.670952
391.461606	0.673004
391.845348	0.662087
392.229027	0.663507
392.612645	0.660744
392.996200	0.647105
393.379694	0.640180
393.763125	0.630534
394.146494	0.634760
394.529801	0.626032
394.913047	0.618320
395.296230	0.623444
395.679351	0.614942
396.062410	0.610664
396.445408	0.614399
396.828343	0.609846
397.211217	0.605011
397.594028	0.617522
397.976778	0.607429
398.359466	0.604042
398.742092	0.599112
399.124656	0.611426
399.507158	0.600096
399.889598	0.596616
400.271977	0.588137
400.654294	0.592709
401.036549	0.590814
401.418742	0.594880
401.800874	0.580579
402.182944	0.578312
402.564952	0.569463
402.946898	0.573010
403.328783	0.572122
403.710606	0.584107
404.092367	0.558504
404.474067	0.563267
404.855705	0.561870
405.237282	0.571811
405.618797	0.557190
406.000250	0.552799
406.381642	0.544142
406.762972	0.547636
407.144240	0.547859
407.525447	0.547551
407.906593	0.540732
408.287677	0.535754
408.668700	0.543704
409.049661	0.536945
409.430560	0.532552
409.811399	0.541168
410.192176	0.523223
410.572891	0.529807
410.953545	0.518796
411.334138	0.531361
411.714669	0.524880
412.095139	0.535566
412.475547	0.520818
412.855894	0.521942
413.236180	0.521757
413.616405	0.526928
413.996568	0.517418
414.376670	0.523333
414.756711	0.529042
415.136691	0.525614
415.516609	0.516902
415.896466	0.512777
416.276262	0.508648
416.655997	0.511107
417.035670	0.492099
417.415283	0.483719
417.794834	0.488176
418.174324	0.494112
418.553753	0.503989
418.933121	0.484971
419.312428	0.479230
419.691674	0.485623
420.070859	0.473650
420.449983	0.481610
420.829045	0.470841
421.208047	0.480146
421.586988	0.473745
421.965867	0.472456
422.344686	0.460932
422.723444	0.474050
423.102141	0.489689
423.480777	0.463650
423.859352	0.483743
424.237866	0.460885
424.616319	0.461449
424.994712	0.452686
425.373044	0.462417
425.751314	0.451091
426.129524	0.467278
426.507673	0.451442
426.885762	0.445234
427.263789	0.450673
427.641756	0.460338
428.019662	0.450492
428.397508	0.449451
428.775292	0.453367
429.153016	0.446058
429.530679	0.452259
429.908282	0.445371
430.285824	0.455491
430.663305	0.433644
431.040726	0.454604
431.418086	0.455503
431.795385	0.446438
432.172624	0.444979
432.549802	0.446147
432.926920	0.445037
433.303977	0.444303
433.680974	0.441590
434.057910	0.439485
434.434786	0.439436
434.811601	0.441533
435.188355	0.424358
435.565050	0.433518
435.941683	0.434704
436.318257	0.418960
436.694770	0.419876
437.071222	0.418352
437.447614	0.422244
437.823946	0.429059
438.200218	0.418653
438.576429	0.427940
438.952580	0.420900
439.328670	0.418027
439.704700	0.424130
440.080670	0.425818
440.456580	0.406427
440.832429	0.414770
441.208218	0.425328
441.583947	0.414971
441.959616	0.414325
442.335224	0.419425
442.710773	0.410484
443.086261	0.408095
443.461689	0.422599
443.837057	0.412319
444.212365	0.402188
444.587612	0.408682
444.962800	0.398548
445.337927	0.400263
445.712995	0.426667
446.088002	0.388844
446.462949	0.399272
446.837837	0.403413
447.212664	0.393041
447.587431	0.384342
447.962139	0.354920
448.336786	0.314060
448.711374	0.324557
449.085901	0.368529
449.460369	0.373006
449.834776	0.376446
450.209124	0.355544
450.583412	0.348242
450.957640	0.341460
451.331808	0.352636
451.705917	0.375985
452.079965	0.380674
452.453954	0.368680
452.827883	0.375505
453.201752	0.370633
453.575562	0.382034
453.949311	0.370572
454.323001	0.376137
454.696632	0.372388
455.070202	0.364964
455.443713	0.356667
455.817164	0.351865
456.190556	0.347550
456.563888	0.343733
456.937160	0.341798
457.310373	0.358974
457.683526	0.357155
458.056619	0.363792
458.429653	0.364381
458.802628	0.367680
459.175542	0.361843
459.548398	0.344317
459.921194	0.336858
460.293930	0.337003
460.666607	0.314423
461.039224	0.302580
461.411782	0.298522
461.784280	0.297736
462.156719	0.301675
462.529099	0.306354
462.901419	0.322526
463.273680	0.326744
463.645882	0.326730
464.018024	0.332066
464.390106	0.325239
464.762130	0.309904
465.134094	0.292857
465.505999	0.261925
465.877845	0.232430
466.249631	0.219281
466.621358	0.226768
466.993026	0.240589
467.364634	0.247065
467.736184	0.255743
468.107674	0.264179
468.479105	0.263255
468.850477	0.270118
469.221790	0.277176
469.593043	0.287325
469.964238	0.291853
470.335373	0.291413
470.706449	0.289635
471.077467	0.290207
471.448425	0.252341
471.819324	0.227857
472.190164	0.227227
472.560945	0.256079
472.931667	0.278076
473.302330	0.282659
473.672934	0.294228
474.043479	0.282789
474.413965	0.284102
474.784393	0.287649
475.154761	0.283021
475.525070	0.279922
475.895321	0.285591
476.265513	0.279969
476.635645	0.275221
477.005719	0.275022
477.375734	0.271811
477.745691	0.265077
478.115588	0.261647
478.485427	0.254945
478.855207	0.241828
479.224928	0.224545
479.594591	0.212750
479.964194	0.216159
480.333739	0.217179
480.703226	0.218695
481.072653	0.217455
481.442022	0.212719
481.811333	0.209305
482.180584	0.212865
482.549777	0.218144
482.918912	0.221542
483.287988	0.221097
483.657005	0.221015
484.025964	0.227272
484.394864	0.224560
484.763706	0.225425
485.132489	0.230426
485.501213	0.231225
485.869879	0.229217
486.238487	0.232783
486.607036	0.230506
486.975527	0.234781
487.343959	0.230952
487.712333	0.229876
488.080648	0.231197
488.448905	0.230536
488.817104	0.231748
489.185244	0.226200
489.553326	0.223452
489.921350	0.213234
490.289315	0.195726
490.657222	0.190751
491.025070	0.192102
491.392861	0.193962
491.760593	0.199611
492.128267	0.205311
492.495883	0.210775
492.863440	0.217261
493.230939	0.223238
493.598380	0.224794
493.965763	0.227033
494.333088	0.229304
494.700354	0.230704
495.067563	0.229613
495.434713	0.233109
495.801805	0.230723
496.168839	0.232390
496.535815	0.233748
496.902733	0.233601
497.269593	0.235354
497.636395	0.233056
498.003139	0.233047
498.369825	0.236382
498.736453	0.232975
499.103023	0.234152
499.469535	0.233689
499.835989	0.233871
500.202385	0.235122
500.568723	0.237958
500.935003	0.233311
501.301226	0.237491
501.667390	0.231781
502.033497	0.229918
502.399546	0.232901
502.765537	0.234488
503.131470	0.232979
503.497345	0.229263
503.863163	0.238045
504.228923	0.230860
504.594625	0.229637
504.960269	0.235461
505.325856	0.230525
505.691385	0.235013
506.056856	0.231388
506.422270	0.231023
506.787625	0.233371
507.152924	0.231011
507.518164	0.231162
507.883347	0.232897
508.248472	0.234476
508.613540	0.229404
508.978550	0.232051
509.343503	0.232893
509.708398	0.230311
510.073236	0.227901
510.438016	0.228063
510.802738	0.229104
511.167403	0.227928
511.532010	0.229697
511.896561	0.225281
512.261053	0.224176
512.625488	0.226041
512.989866	0.226498
513.354186	0.226680
513.718449	0.228561
514.082655	0.224808
514.446803	0.226913
514.810894	0.224908
515.174927	0.227614
515.538904	0.226822
515.902822	0.223618
516.266684	0.226182
516.630488	0.227701
516.994235	0.226197
517.357925	0.224739
517.721558	0.223204
518.085133	0.222755
518.448651	0.223052
518.812112	0.225013
519.175516	0.224742
519.538863	0.222305
519.902152	0.223996
520.265385	0.220764
520.628560	0.222801
520.991678	0.222945
521.354739	0.222153
521.717743	0.223123
522.080690	0.223817
522.443580	0.220860
522.806413	0.221736
523.169189	0.221175
523.531908	0.220226
523.894569	0.223632
524.257174	0.223628
524.619722	0.221504
524.982213	0.222430
525.344647	0.221135
525.707025	0.222250
526.069345	0.220228
526.431608	0.221966
526.793815	0.219909
527.155964	0.224028
527.518057	0.223152
527.880093	0.223972
528.242072	0.222351
528.603995	0.224572
528.965860	0.226039
529.327669	0.225228
529.689421	0.225952
530.051117	0.226794
530.412755	0.224515
530.774337	0.226819
531.135862	0.227231
531.497331	0.226596
531.858743	0.229308
532.220098	0.226157
532.581396	0.228513
532.942638	0.229161
533.303824	0.229905
533.664953	0.229685
534.026025	0.231574
534.387040	0.229410
534.747999	0.229454
535.108902	0.228479
535.469748	0.233055
535.830537	0.231105
536.191270	0.231568
536.551947	0.231054
536.912567	0.231123
537.273131	0.232837
537.633638	0.232852
537.994089	0.233280
538.354483	0.234583
538.714821	0.231501
539.075103	0.231218
539.435328	0.231963
539.795497	0.235799
540.155609	0.232479
540.515665	0.230251
540.875665	0.236007
541.235609	0.234734
541.595496	0.234740
541.955328	0.231409
542.315102	0.234063
542.674821	0.235115
543.034483	0.234808
543.394090	0.234511
543.753640	0.236543
544.113134	0.231544
544.472571	0.234688
544.831953	0.231512
545.191278	0.235953
545.550548	0.235212
545.909761	0.231977
546.268918	0.232681
546.628019	0.231128
546.987064	0.233985
547.346053	0.235756
547.704986	0.233590
548.063863	0.233884
548.422684	0.233943
548.781449	0.235844
549.140158	0.233373
549.498811	0.236309
549.857408	0.239494
550.215949	0.234302
550.574434	0.237215
550.932864	0.235279
551.291237	0.233734
551.649555	0.235125
552.007817	0.234980
552.366022	0.235478
552.724173	0.236154
553.082267	0.236536
553.440305	0.233249
553.798288	0.237690
554.156215	0.234334
554.514086	0.234940
554.871902	0.237920
555.229661	0.237597
555.587365	0.237909
555.945014	0.240463
556.302606	0.237187
556.660143	0.240057
557.017625	0.236338
557.375050	0.238675
557.732421	0.235647
558.089735	0.237734
558.446994	0.237590
558.804197	0.236919
559.161345	0.236867
559.518437	0.239996
559.875474	0.237942
560.232455	0.237532
560.589381	0.238539
560.946251	0.238650
561.303065	0.236233
561.659825	0.237662
562.016528	0.239474
562.373177	0.242088
562.729770	0.239357
563.086307	0.241514
563.442789	0.238938
563.799216	0.242060
564.155587	0.240883
564.511904	0.241683
564.868164	0.242085
565.224370	0.241811
565.580520	0.243311
565.936615	0.243379
566.292654	0.246312
566.648638	0.243554
567.004567	0.244329
567.360441	0.244869
567.716260	0.247103
568.072023	0.244683
568.427732	0.245571
568.783385	0.247959
569.138982	0.245921
569.494525	0.245694
569.850013	0.248688
570.205445	0.246898
570.560823	0.249525
570.916145	0.251538
571.271412	0.249811
571.626625	0.251116
571.981782	0.251642
572.336884	0.252463
572.691931	0.252067
573.046923	0.253636
573.401860	0.254781
573.756743	0.256293
574.111570	0.255066
574.466342	0.256018
574.821059	0.254886
575.175722	0.257808
575.530330	0.257265
575.884882	0.257610
576.239380	0.259853
576.593823	0.260641
576.948211	0.259825
577.302544	0.263024
577.656823	0.262757
578.011047	0.262736
578.365216	0.263217
578.719330	0.265014
579.073389	0.265371
579.427394	0.266273
579.781344	0.267456
580.135239	0.268780
580.489080	0.268160
580.842866	0.271678
581.196597	0.271340
581.550273	0.269929
581.903895	0.271115
582.257463	0.268948
582.610975	0.272550
582.964434	0.271632
583.317837	0.274102
583.671186	0.274461
584.024481	0.274776
584.377721	0.277125
584.730906	0.277805
585.084037	0.276831
585.437113	0.279012
585.790135	0.278254
586.143103	0.281419
586.496016	0.282545
586.848874	0.279585
587.201679	0.280470
587.554428	0.283827
587.907124	0.282697
588.259765	0.283390
588.612352	0.283591
588.964884	0.287685
589.317362	0.287330
589.669786	0.287236
590.022155	0.285910
590.374470	0.284933
590.726731	0.287061
591.078937	0.291817
591.431090	0.287995
591.783188	0.292458
592.135232	0.292899
592.487222	0.292493
592.839157	0.290805
593.191038	0.293074
593.542866	0.295191
593.894639	0.298635
594.246358	0.296581
594.598022	0.296218
594.949633	0.299784
595.301190	0.300771
595.652692	0.299727
596.004141	0.296135
596.355535	0.303519
596.706876	0.304151
597.058162	0.306658
597.409395	0.304381
597.760573	0.301809
598.111698	0.305229
598.462768	0.305600
598.813785	0.306719
599.164748	0.308099
599.515657	0.308239
599.866511	0.311692
600.217312	0.307080
600.568060	0.312515
600.918753	0.308763
601.269392	0.309680
601.619978	0.313120
601.970510	0.310841
602.320988	0.310643
602.671412	0.308285
603.021783	0.311115
603.372100	0.312282
603.722363	0.312104
604.072572	0.313112
604.422728	0.312657
604.772830	0.314937
605.122878	0.314471
605.472872	0.314823
605.822813	0.313076
606.172701	0.315901
606.522534	0.313143
606.872314	0.313313
607.222041	0.314411
607.571714	0.312283
607.921333	0.313795
608.270899	0.313391
608.620411	0.310047
608.969870	0.313790
609.319276	0.314490
609.668627	0.313855
610.017926	0.312780
610.367171	0.311123
610.716362	0.312161
611.065500	0.312083
611.414585	0.310898
611.763616	0.311339
612.112594	0.312079
612.461518	0.310890
612.810389	0.309037
613.159207	0.311538
613.507971	0.313448
613.856682	0.308799
614.205340	0.310117
614.553945	0.307229
614.902496	0.310987
615.250994	0.309080
615.599439	0.309922
615.947830	0.309541
616.296169	0.310353
616.644454	0.310135
616.992686	0.309857
617.340864	0.307722
617.688990	0.311151
618.037063	0.308094
618.385082	0.309903
618.733048	0.306941
619.080961	0.308738
619.428821	0.308306
619.776628	0.307901
620.124382	0.310058
620.472083	0.310453
620.819731	0.309957
621.167326	0.313143
621.514868	0.312860
621.862357	0.317388
622.209793	0.316856
622.557176	0.319083
622.904506	0.320363
623.251783	0.322645
623.599007	0.325281
623.946179	0.324875
624.293297	0.326645
624.640363	0.330265
624.987376	0.330963
625.334336	0.333523
625.681243	0.335737
626.028097	0.336124
626.374899	0.337720
626.721647	0.337453
627.068343	0.340943
627.414987	0.341689
627.761577	0.343974
628.108115	0.342350
628.454600	0.347879
628.801032	0.344954
629.147412	0.347000
629.493739	0.347333
629.840014	0.350241
630.186236	0.347674
630.532405	0.353544
630.878521	0.350784
631.224585	0.352998
631.570597	0.356726
631.916556	0.355192
632.262462	0.355072
632.608316	0.357724
632.954117	0.358476
633.299866	0.358785
633.645562	0.359244
633.991206	0.363762
634.336797	0.367022
634.682336	0.368670
635.027823	0.370758
635.373257	0.371016
635.718639	0.374891
636.063968	0.374180
636.409245	0.379666
636.754470	0.380217
637.099642	0.382852
637.444762	0.385534
637.789829	0.385228
638.134845	0.388583
638.479808	0.389564
638.824719	0.389520
639.169577	0.393790
639.514383	0.392312
639.859137	0.396883
640.203839	0.395953
640.548489	0.396924
640.893086	0.398339
641.237632	0.400010
641.582125	0.398562
641.926566	0.399497
642.270955	0.400619
642.615292	0.400437
642.959576	0.399482
643.303809	0.400059
643.647990	0.399524
643.992118	0.400395
644.336195	0.404035
644.680219	0.402232
645.024192	0.402768
645.368112	0.396709
645.711981	0.395406
646.055797	0.390443
646.399562	0.393521
646.743274	0.384940
647.086935	0.382474
647.430544	0.382528
647.774101	0.381750
648.117606	0.381174
648.461059	0.381577
648.804460	0.384170
649.147810	0.389228
649.491108	0.391512
649.834354	0.392528
650.177548	0.398121
650.520690	0.403121
650.863781	0.404539
651.206820	0.404022
651.549807	0.408243
651.892742	0.412467
652.235626	0.412431
652.578458	0.412806
652.921238	0.419071
653.263967	0.416754
653.606644	0.421028
653.949269	0.420269
654.291843	0.424460
654.634365	0.420948
654.976836	0.424248
655.319255	0.424403
655.661622	0.426532
656.003938	0.426081
656.346203	0.429346
656.688416	0.427087
657.030577	0.430511
657.372687	0.432097
657.714746	0.433003
658.056753	0.429901
658.398708	0.434062
658.740612	0.434798
659.082465	0.431436
659.424266	0.432142
659.766016	0.431631
660.107715	0.434293
660.449362	0.432998
660.790958	0.432971
661.132503	0.434102
661.473996	0.431935
661.815438	0.432684
662.156829	0.432843
662.498168	0.433622
662.839456	0.434649
663.180693	0.432578
663.521879	0.432779
663.863013	0.434189
664.204097	0.432373
664.545129	0.428955
664.886110	0.429395
665.227040	0.426603
665.567918	0.429318
665.908746	0.427066
666.249522	0.427357
666.590248	0.427866
666.930922	0.426475
667.271545	0.424972
667.612118	0.425087
667.952639	0.426183
668.293109	0.425202
668.633528	0.428297
668.973896	0.428279
669.314213	0.428680
669.654480	0.430037
669.994695	0.430287
670.334859	0.431496
670.674973	0.431463
671.015035	0.431473
671.355047	0.431470
671.695008	0.432344
672.034918	0.434791
672.374777	0.433806
672.714585	0.434862
673.054342	0.435028
673.394049	0.435036
673.733705	0.432152
674.073310	0.433548
674.412864	0.436969
674.752368	0.437049
675.091820	0.437569
675.431223	0.442006
675.770574	0.441910
676.109875	0.445024
676.449125	0.444819
676.788324	0.447142
677.127473	0.452695
677.466571	0.452165
677.805619	0.453653
678.144616	0.454925
678.483562	0.456946
678.822458	0.459149
679.161303	0.460536
679.500098	0.460989
679.838842	0.462476
680.177535	0.462260
680.516179	0.460530
680.854771	0.459533
681.193314	0.452873
681.531805	0.444450
681.870247	0.432816
682.208638	0.425153
682.546978	0.424141
682.885268	0.425566
683.223508	0.432149
683.561697	0.435603
683.899836	0.438277
684.237925	0.441988
684.575963	0.444611
684.913951	0.447535
685.251889	0.443829
685.589776	0.445966
685.927614	0.447503
686.265401	0.442179
686.603137	0.443146
686.940824	0.437109
687.278460	0.435582
687.616046	0.435158
687.953582	0.429509
688.291068	0.431221
688.628504	0.426808
688.965889	0.429077
689.303224	0.432612
689.640510	0.437231
689.977745	0.442751
690.314930	0.451167
690.652065	0.455411
690.989150	0.463012
691.326185	0.469718
691.663170	0.473765
692.000105	0.481396
692.336990	0.487997
692.673825	0.490833
693.010610	0.497359
693.347345	0.503311
693.684030	0.504604
694.020665	0.509610
694.357251	0.518278
694.693786	0.517814
695.030272	0.521846
695.366707	0.525064
695.703093	0.528913
696.039429	0.526404
696.375716	0.528856
696.711952	0.531211
697.048139	0.533457
697.384276	0.534935
697.720363	0.533432
698.056400	0.531821
698.392388	0.538406
698.728326	0.541449
699.064214	0.544377
699.400053	0.544313
699.735842	0.547994
700.071581	0.551393
700.407270	0.554443
700.742910	0.555928
701.078501	0.563418
701.414042	0.563893
701.749533	0.566811
702.084974	0.575464
702.420366	0.566843
702.755709	0.574971
703.091002	0.583445
703.426246	0.576966
703.761440	0.582562
704.096584	0.586976
704.431679	0.584467
704.766725	0.586440
705.101721	0.587724
705.436668	0.583965
705.771565	0.590625
706.106413	0.587665
706.441212	0.583287
706.775961	0.581788
707.110661	0.584492
707.445311	0.580828
707.779913	0.577826
708.114465	0.576494
708.448967	0.573255
708.783421	0.565325
709.117825	0.559897
709.452180	0.559802
709.786485	0.554074
710.120742	0.543526
710.454949	0.545857
710.789107	0.537742
711.123216	0.528685
711.457275	0.530178
711.791286	0.520971
712.125247	0.519774
712.459159	0.531077
712.793023	0.523678
713.126837	0.527707
713.460602	0.527835
713.794318	0.537707
714.127985	0.535558
714.461602	0.546556
714.795171	0.549070
715.128691	0.557578
715.462162	0.565051
715.795584	0.570722
716.128957	0.572900
716.462281	0.579517
716.795556	0.583174
717.128782	0.588176
717.461960	0.598284
717.795088	0.595951
718.128167	0.602798
718.461198	0.610887
718.794180	0.612367
719.127113	0.614767
719.459997	0.618601
719.792833	0.624422
720.125619	0.625885
720.458357	0.632104
720.791046	0.631421
721.123686	0.634426
721.456278	0.642181
721.788821	0.639387
722.121315	0.643664
722.453761	0.647498
722.786158	0.645320
723.118506	0.641196
723.450805	0.650075
723.783056	0.645673
724.115259	0.642794
724.447412	0.642414
724.779518	0.645111
725.111574	0.642787
725.443582	0.638135
725.775542	0.640447
726.107453	0.632572
726.439315	0.632012
726.771129	0.630746
727.102895	0.624598
727.434612	0.617262
727.766281	0.615373
728.097901	0.614605
728.429473	0.613808
728.760996	0.612344
729.092471	0.612093
729.423897	0.616562
729.755276	0.614699
730.086606	0.615321
730.417887	0.610222
730.749120	0.600490
731.080305	0.591744
731.411442	0.587570
731.742530	0.592698
732.073570	0.590907
732.404562	0.584006
732.735506	0.585216
733.066401	0.590274
733.397249	0.599061
733.728048	0.610304
734.058798	0.623701
734.389501	0.634289
734.720156	0.643624
735.050762	0.652078
735.381320	0.652359
735.711831	0.661326
736.042293	0.666994
736.372707	0.662187
736.703073	0.667191
737.033391	0.669838
737.363661	0.666242
737.693883	0.661692
738.024056	0.660691
738.354182	0.661369
738.684260	0.650335
739.014290	0.645865
739.344272	0.648059
739.674207	0.640052
740.004093	0.639749
740.333931	0.640338
740.663722	0.640386
740.993464	0.640739
741.323159	0.644121
741.652806	0.649860
741.982405	0.653757
742.311956	0.658952
742.641460	0.661158
742.970915	0.664780
743.300323	0.672653
743.629683	0.679267
743.958996	0.681226
744.288260	0.685754
744.617477	0.691516
744.946647	0.693353
745.275768	0.698698
745.604842	0.698407
745.933869	0.708704
746.262847	0.708589
746.591778	0.702886
746.920662	0.708303
747.249498	0.714551
747.578286	0.706227
747.907027	0.701803
748.235720	0.702259
748.564365	0.697645
748.892963	0.697923
749.221514	0.700688
749.550017	0.705763
749.878473	0.705573
750.206881	0.712376
750.535242	0.712968
750.863555	0.712625
751.191821	0.714269
751.520039	0.717673
751.848210	0.721954
752.176334	0.714951
752.504411	0.714401
752.832440	0.722335
753.160421	0.726241
753.488356	0.723961
753.816243	0.721616
754.144082	0.730172
754.471875	0.733977
754.799620	0.728355
755.127318	0.730876
755.454969	0.730066
755.782572	0.729448
756.110129	0.734896
756.437638	0.736996
756.765100	0.733919
757.092515	0.731985
757.419882	0.730118
757.747203	0.736174
758.074477	0.734683
758.401703	0.732824
758.728882	0.727262
759.056014	0.725572
759.383099	0.725344
759.710138	0.726586
760.037129	0.722773
760.364073	0.716826
760.690970	0.718604
761.017820	0.724576
761.344623	0.720389
761.671379	0.710940
761.998088	0.699125
762.324751	0.676503
762.651366	0.634909
762.977935	0.567243
763.304456	0.514862
763.630931	0.505883
763.957359	0.545161
764.283740	0.589494
764.610074	0.617032
764.936362	0.647737
765.262602	0.674463
765.588796	0.696725
765.914943	0.714014
766.241044	0.731944
766.567097	0.738310
766.893104	0.749459
767.219064	0.756269
767.544978	0.762546
767.870845	0.775084
768.196665	0.778012
768.522438	0.777177
768.848165	0.778096
769.173846	0.787952
769.499479	0.791811
769.825066	0.795577
770.150607	0.800718
770.476101	0.795185
770.801548	0.797672
771.126949	0.808191
771.452303	0.811692
771.777611	0.810754
772.102872	0.810224
772.428087	0.816820
772.753256	0.819464
773.078378	0.821505
773.403453	0.829859
773.728482	0.833901
774.053465	0.828497
774.378401	0.831292
774.703291	0.839687
775.028135	0.839145
775.352932	0.841822
775.677683	0.844321
776.002388	0.844802
776.327046	0.844325
776.651658	0.847556
776.976224	0.850168
777.300743	0.850960
777.625216	0.852800
777.949643	0.854991
778.274024	0.854089
778.598359	0.856781
778.922647	0.855096
779.246889	0.855956
779.571086	0.859465
779.895236	0.863079
780.219339	0.858877
780.543397	0.856119
780.867409	0.855059
781.191374	0.856465
781.515294	0.858284
781.839167	0.856671
782.162995	0.860007
782.486776	0.857122
782.810511	0.858748
783.134201	0.863165
783.457844	0.860570
783.781441	0.862742
784.104993	0.868417
784.428498	0.867871
784.751958	0.864661
785.075372	0.867216
785.398739	0.870393
785.722061	0.866676
786.045337	0.862680
786.368568	0.867556
786.691752	0.871084
787.014891	0.855725
787.337983	0.845598
787.661030	0.838825
787.984031	0.821592
788.306987	0.808556
788.629897	0.810469
788.952760	0.814313
789.275579	0.819547
789.598351	0.834063
789.921078	0.847106
790.243759	0.849453
790.566395	0.854571
790.888984	0.862391
791.211529	0.866343
791.534027	0.869800
791.856480	0.872109
792.178888	0.877168
792.501249	0.879460
792.823566	0.881488
793.145836	0.881209
793.468062	0.883500
793.790241	0.883244
794.112375	0.881704
794.434464	0.876835
794.756507	0.876211
795.078505	0.875363
795.400457	0.870091
795.722364	0.858175
796.044226	0.850661
796.366042	0.850169
796.687812	0.852955
797.009538	0.850717
797.331218	0.852450
797.652852	0.858316
797.974442	0.861847
798.295986	0.861761
798.617484	0.864553
798.938938	0.868771
799.260346	0.873159
799.581709	0.876655
799.903026	0.877849
800.224299	0.877851
800.545526	0.882923
800.866708	0.887168
801.187845	0.891459
801.508936	0.889466
801.829983	0.889050
802.150984	0.890757
802.471940	0.895078
802.792851	0.895427
803.113717	0.895916
803.434538	0.894717
803.755314	0.897546
804.076045	0.898318
804.396731	0.898077
804.717372	0.898051
805.037967	0.900617
805.358518	0.897293
805.679024	0.895568
805.999485	0.894725
806.319901	0.895283
806.640272	0.897756
806.960598	0.894535
807.280879	0.891542
807.601115	0.890262
807.921306	0.894857
808.241453	0.894278
808.561554	0.892071
808.881611	0.891924
809.201623	0.894899
809.521590	0.894796
809.841513	0.895115
810.161390	0.894605
810.481223	0.896142
810.801011	0.898733
811.120755	0.900661
811.440453	0.900561
811.760107	0.898771
812.079716	0.898670
812.399281	0.902093
812.718801	0.905157
813.038276	0.905471
813.357707	0.904364
813.677093	0.902418
813.996434	0.905113
814.315731	0.906857
814.634983	0.907809
814.954191	0.906435
815.273354	0.904128
815.592473	0.899477
815.911547	0.900525
816.230577	0.897461
816.549562	0.894121
816.868502	0.894647
817.187399	0.891564
817.506250	0.886271
817.825058	0.888042
818.143821	0.883630
818.462539	0.878918
818.781213	0.870395
819.099843	0.859888
819.418429	0.843225
819.736970	0.826476
820.055466	0.806709
820.373919	0.781487
820.692327	0.747931
821.010691	0.712063
821.329011	0.633368
821.647286	0.516697
821.965517	0.401254
822.283704	0.358734
822.601847	0.359065
822.919945	0.394896
823.237999	0.429166
823.556010	0.477012
823.873976	0.533295
824.191897	0.584784
824.509775	0.628155
824.827609	0.674273
825.145398	0.696123
825.463144	0.699193
825.780845	0.682626
826.098502	0.663477
826.416116	0.616915
826.733685	0.572280
827.051210	0.563313
827.368692	0.577912
827.686129	0.616954
828.003522	0.670505
828.320872	0.717988
828.638177	0.762948
828.955439	0.794976
829.272656	0.818153
829.589830	0.837006
829.906960	0.851472
830.224046	0.863791
830.541088	0.874605
830.858086	0.879041
831.175041	0.885744
831.491952	0.883243
831.808819	0.881545
832.125642	0.874600
832.442421	0.859128
832.759157	0.837202
833.075849	0.789361
833.392497	0.725400
833.709101	0.684874
834.025662	0.693541
834.342179	0.726111
834.658653	0.765107
834.975083	0.802084
835.291469	0.827637
835.607811	0.852306
835.924110	0.868668
836.240366	0.884144
836.556578	0.898544
836.872746	0.906398
837.188871	0.912656
837.504952	0.918098
837.820990	0.922211
838.136984	0.925787
838.452935	0.928275
838.768842	0.929936
839.084706	0.923347
839.400526	0.896674
839.716303	0.857096
840.032037	0.833501
840.347727	0.836361
840.663373	0.856256
840.978977	0.878055
841.294537	0.900545
841.610054	0.916127
841.925527	0.924278
842.240957	0.930514
842.556344	0.938046
842.871687	0.943859
843.186987	0.948288
843.502244	0.949192
843.817458	0.950666
844.132629	0.954835
844.447756	0.958870
844.762840	0.958956
845.077881	0.959213
845.392879	0.959066
845.707833	0.962452
846.022745	0.964536
846.337613	0.964091
846.652438	0.964720
846.967221	0.962845
847.281960	0.963539
847.596656	0.966103
847.911309	0.965103
848.225919	0.967359
848.540485	0.967158
848.855009	0.968136
849.169490	0.966338
849.483928	0.968035
849.798323	0.968108
850.112675	0.970184
850.426984	0.968078
850.741251	0.969058
851.055474	0.969300
851.369654	0.967012
851.683792	0.969569
851.997887	0.969533
852.311938	0.969861
852.625947	0.969445
852.939914	0.967200
853.253837	0.968987
853.567718	0.969447
853.881555	0.968765
854.195350	0.968291
854.509103	0.969280
854.822812	0.969252
855.136479	0.970141
855.450103	0.968626
855.763685	0.967464
856.077224	0.968143
856.390720	0.969573
856.704173	0.970184
857.017584	0.967998
857.330953	0.966861
857.644278	0.966819
857.957561	0.967379
858.270802	0.967232
858.584000	0.967010
858.897155	0.965523
859.210268	0.967376
859.523339	0.967367
859.836367	0.968837
860.149352	0.969010
860.462295	0.967895
860.775195	0.968452
861.088054	0.968754
861.400869	0.968698
861.713642	0.968499
862.026373	0.969884
862.339062	0.969238
862.651708	0.966774
862.964312	0.966625
863.276873	0.967661
863.589392	0.967306
863.901869	0.965564
864.214303	0.965084
864.526696	0.963709
864.839045	0.962997
865.151353	0.960582
865.463619	0.961564
865.775842	0.961475
866.088023	0.961766
866.400162	0.960524
866.712258	0.961983
867.024313	0.960916
867.336325	0.962392
867.648296	0.962086
867.960224	0.961298
868.272110	0.959587
868.583954	0.962833
868.895755	0.962285
869.207515	0.960919
869.519233	0.958049
869.830909	0.960585
870.142542	0.960847
870.454134	0.959529
870.765684	0.958718
871.077191	0.957883
871.388657	0.958042
871.700081	0.956044
872.011463	0.958245
872.322803	0.955875
872.634101	0.955426
872.945357	0.953643
873.256571	0.953005
873.567744	0.951619
873.878874	0.952016
874.189963	0.950921
874.501010	0.950861
874.812015	0.948535
875.122979	0.950156
875.433900	0.951697
875.744780	0.952293
876.055618	0.949269
876.366415	0.948679
876.677169	0.947835
876.987882	0.950261
877.298554	0.949694
877.609183	0.945457
877.919771	0.943643
878.230317	0.940178
878.540822	0.938755
878.851285	0.932923
879.161707	0.925106
879.472087	0.912708
879.782425	0.895776
880.092722	0.861478
880.402977	0.807492
880.713191	0.745364
881.023363	0.684199
881.333494	0.649525
881.643583	0.621215
881.953631	0.621170
882.263637	0.650548
882.573602	0.689907
882.883526	0.716158
883.193408	0.741105
883.503248	0.763921
883.813048	0.791205
884.122806	0.822889
884.432522	0.845625
884.742197	0.866050
885.051831	0.877889
885.361424	0.887773
885.670975	0.900955
885.980485	0.910157
886.289954	0.916930
886.599382	0.922145
886.908768	0.924914
887.218113	0.932284
887.527417	0.936379
887.836680	0.940780
888.145901	0.942292
888.455082	0.944810
888.764221	0.948371
889.073319	0.951689
889.382376	0.951430
889.691392	0.951731
890.000366	0.949907
890.309300	0.952141
890.618193	0.951422
890.927044	0.950164
891.235855	0.949581
891.544625	0.949271
891.853353	0.950481
892.162041	0.947921
892.470687	0.940804
892.779293	0.934564
893.087858	0.931237
893.396381	0.924374
893.704864	0.910651
894.013306	0.886120
894.321707	0.858288
894.630068	0.843087
894.938387	0.838238
895.246665	0.839363
895.554903	0.851983
895.863100	0.866416
896.171256	0.882702
896.479371	0.902459
896.787446	0.916400
897.095480	0.921405
897.403473	0.926663
897.711425	0.930609
898.019336	0.938131
898.327207	0.940945
898.635038	0.943932
898.942827	0.942724
899.250576	0.946372
899.558284	0.951072
899.865952	0.951802
900.173579	0.952541
900.481165	0.953643
900.788711	0.957071
901.096216	0.959444
901.403681	0.960026
901.711105	0.961477
902.018489	0.961823
902.325832	0.960166
902.633135	0.960824
902.940397	0.953518
903.247619	0.941715
903.554800	0.915182
903.861941	0.873067
904.169041	0.837391
904.476101	0.819708
904.783121	0.820367
905.090100	0.836006
905.397039	0.859002
905.703938	0.881399
906.010796	0.902969
906.317614	0.919993
906.624391	0.931454
906.931129	0.942184
907.237826	0.950108
907.544483	0.956920
907.851099	0.960593
908.157675	0.965188
908.464211	0.968947
908.770707	0.971195
909.077163	0.972535
909.383578	0.973429
909.689954	0.973660
909.996289	0.974813
910.302584	0.976881
910.608839	0.978549
910.915054	0.977881
911.221229	0.976596
911.527363	0.975924
911.833458	0.976300
912.139513	0.976195
912.445527	0.973448
912.751502	0.972890
913.057436	0.970588
913.363331	0.969156
913.669186	0.965194
913.975000	0.958833
914.280775	0.953133
914.586510	0.945607
914.892205	0.931408
915.197859	0.909903
915.503475	0.881811
915.809050	0.861937
916.114585	0.854652
916.420081	0.852814
916.725536	0.848550
917.030952	0.858397
917.336328	0.871756
917.641665	0.886789
917.946961	0.902908
918.252218	0.915031
918.557435	0.924336
918.862612	0.932616
919.167750	0.939121
919.472848	0.944276
919.777906	0.950035
920.082925	0.956461
920.387904	0.960855
920.692843	0.961207
920.997743	0.963047
921.302603	0.965767
921.607423	0.967805
921.912204	0.970815
922.216946	0.970877
922.521647	0.971820
922.826310	0.974034
923.130932	0.975640
923.435516	0.977098
923.740059	0.979647
924.044564	0.977930
924.349028	0.979230
924.653454	0.981268
924.957840	0.983733
925.262186	0.983894
925.566493	0.982705
925.870761	0.983709
926.174989	0.986108
926.479178	0.987543
926.783328	0.987350
927.087438	0.988555
927.391509	0.986530
927.695541	0.988080
927.999533	0.988484
928.303486	0.988929
928.607400	0.990795
928.911275	0.988961
929.215110	0.988394
929.518906	0.991116
929.822663	0.989091
930.126381	0.990791
930.430060	0.989564
930.733699	0.989545
931.037299	0.988447
931.340861	0.989858
931.644383	0.988926
931.947866	0.988084
932.251309	0.988602
932.554714	0.989576
932.858080	0.988646
933.161407	0.989646
933.464694	0.990797
933.767943	0.988347
934.071153	0.990635
934.374323	0.990459
934.677455	0.990505
934.980548	0.991126
935.283602	0.990205
935.586617	0.990329
935.889593	0.989102
936.192530	0.990524
936.495428	0.989156
936.798287	0.989721
937.101108	0.990975
937.403890	0.988402
937.706632	0.987790
938.009336	0.986387
938.312002	0.985250
938.614628	0.983470
938.917216	0.982674
939.219765	0.980563
939.522275	0.981867
939.824747	0.982676
940.127179	0.982620
940.429573	0.983787
940.731929	0.983215
941.034246	0.983430
941.336524	0.984553
941.638763	0.985876
941.940964	0.985086
942.243126	0.986114
942.545250	0.985609
942.847335	0.985862
943.149381	0.986915
943.451389	0.987547
943.753359	0.987719
944.055290	0.990314
944.357182	0.988104
944.659036	0.987242
944.960851	0.989051
945.262628	0.989720
945.564367	0.990063
945.866067	0.987672
946.167729	0.990314
946.469352	0.988747
946.770937	0.988052
947.072484	0.990461
947.373992	0.989999
947.675462	0.989821
947.976893	0.989299
948.278286	0.990176
948.579641	0.990745
948.880958	0.989400
949.182236	0.989799
949.483476	0.989238
949.784678	0.990366
950.085841	0.990320
950.386967	0.990191
950.688054	0.989878
950.989103	0.990454
951.290114	0.988112
951.591087	0.988403
951.892021	0.989090
952.192917	0.987903
952.493776	0.987926
952.794596	0.986963
953.095378	0.986823
953.396122	0.986869
953.696828	0.987117
953.997496	0.988525
954.298126	0.990725
954.598718	0.989514
954.899272	0.991040
955.199788	0.990654
955.500266	0.991970
955.800706	0.991661
956.101108	0.992172
956.401472	0.993138
956.701798	0.993598
957.002087	0.993052
957.302337	0.993091
957.602550	0.995469
957.902724	0.994318
958.202861	0.994919
958.502960	0.995774
958.803022	0.993313
959.103045	0.995403
959.403031	0.995707
959.702979	0.995620
960.002889	0.995446
960.302762	0.994697
960.602596	0.995035
960.902393	0.995430
961.202153	0.997264
961.501875	0.996734
961.801559	0.994722
962.101205	0.995736
962.400814	0.995780
962.700385	0.996790
962.999918	0.996684
963.299414	0.996082
963.598873	0.994822
963.898293	0.997136
964.197677	0.995766
964.497022	0.996388
964.796331	0.996925
965.095601	0.995785
965.394835	0.996518
965.694030	0.996374
965.993189	0.997266
966.292309	0.995787
966.591393	0.996517
966.890439	0.996337
967.189447	0.995967
967.488419	0.997546
967.787353	0.995154
968.086249	0.995894
968.385108	0.996988
968.683930	0.996885
968.982714	0.997366
969.281462	0.997099
969.580172	0.996487
969.878844	0.996466
970.177480	0.996311
970.476078	0.996544
970.774639	0.996773
971.073162	0.996718
971.371649	0.996322
971.670098	0.995733
971.968510	0.997426
972.266885	0.996460
972.565223	0.995883
972.863524	0.996096
973.161788	0.995818
973.460014	0.997156
973.758204	0.994875
974.056356	0.995806
974.354471	0.993611
974.652550	0.996180
974.950591	0.996066
975.248595	0.996147
975.546563	0.996903
975.844493	0.997093
976.142386	0.996295
976.440243	0.996951
976.738062	0.997624
977.035845	0.996480
977.333590	0.996751
977.631299	0.997902
977.928971	0.996744
978.226606	0.996225
978.524204	0.996031
978.821765	0.998827
979.119290	0.996031
979.416777	0.996818
979.714228	0.996598
980.011642	0.995592
980.309020	0.997829
980.606360	0.996571
980.903664	0.998229
981.200931	0.996230
981.498162	0.995194
981.795356	0.994493
982.092513	0.993153
982.389633	0.993715
982.686717	0.991093
982.983764	0.991334
983.280775	0.990229
983.577749	0.990547
983.874686	0.990439
984.171587	0.991177
984.468451	0.994715
984.765279	0.994429
985.062070	0.992999
985.358824	0.995812
985.655543	0.995417
985.952224	0.996067
986.248869	0.996563
986.545478	0.997027
986.842050	0.998403
987.138586	0.994087
987.435086	0.997759
987.731549	0.998901
988.027975	0.997670
988.324366	0.997887
988.620719	0.996569
988.917037	0.997429
989.213318	0.996894
989.509563	0.998558
989.805772	0.997337
990.101944	0.998939
990.398080	0.997828
990.694180	0.997594
990.990244	0.997130
991.286271	0.997544
991.582262	0.998123
991.878217	0.997800
992.174136	0.998873
992.470019	0.998557
992.765865	0.998482
993.061676	0.998010
993.357450	0.998087
993.653188	0.997020
993.948890	0.997815
994.244556	0.997231
994.540186	0.997278
994.835780	0.995958
995.131337	0.997470
995.426859	0.996495
995.722345	0.996278
996.017795	0.995698
996.313208	0.995474
996.608586	0.994886
996.903928	0.995138
997.199234	0.995254
997.494504	0.995823
997.789738	0.995430
998.084936	0.996705
998.380099	0.996443
998.675225	0.997141
998.970316	0.998856
999.265371	0.997719
999.560390	0.997659
999.855373	0.997986
1000.150320	0.998752
1000.445232	0.998771
1000.740108	0.997657
1001.034948	0.997268
1001.329752	0.999070
1001.624521	0.998093
1001.919254	0.998114
1002.213951	0.998263
1002.508613	0.997106
1002.803239	0.999327
1003.097829	0.998462
1003.392384	0.998079
1003.686903	0.998205
1003.981386	0.999121
1004.275834	0.998021
1004.570246	0.997931
1004.864623	0.999301
1005.158964	1.000517
1005.453270	0.998260
1005.747540	0.997405
1006.041775	0.998583
1006.335974	0.999281
1006.630138	0.998412
1006.924266	1.000077
1007.218359	0.999210
1007.512416	0.999376
1007.806438	0.998765
1008.100425	0.999724
1008.394376	0.997971
1008.688292	0.998873
1008.982172	1.000419
1009.276017	0.998412
1009.569827	0.998052
1009.863602	0.999136
1010.157341	1.000169
1010.451045	0.999133
1010.744714	0.998686
1011.038347	0.998701
1011.331945	0.997610
1011.625508	0.996828
1011.919036	0.998815
1012.212528	0.998569
1012.505986	0.998092
1012.799408	0.998789
1013.092795	0.998964
1013.386147	0.998442
1013.679464	1.000604
1013.972745	0.997623
1014.265992	0.997891
1014.559204	0.998794
1014.852380	0.998944
1015.145521	0.998882
1015.438628	0.998780
1015.731699	0.999227
1016.024736	0.999632
1016.317737	0.998215
1016.610703	0.998565
1016.903635	0.998959
1017.196531	0.999392
1017.489393	0.999239
1017.782219	0.998657
1018.075011	0.999542
1018.367768	0.998550
1018.660490	1.000274
1018.953177	1.000274
1019.245829	1.000274
