Dividing Wavelength (nm)	Counts (n)	Blue Motor Position (mm): 0.000000	Red Motor Position (mm): 24.400000	
326.493990	1.000548
326.888308	1.000548
327.282561	1.000548
327.676750	0.999709
328.070874	0.999189
328.464933	0.998729
328.858929	0.999710
329.252859	0.999294
329.646726	0.998653
330.040528	1.000182
330.434265	0.999358
330.827938	1.000368
331.221547	1.001282
331.615091	0.999375
332.008571	0.999047
332.401986	0.999082
332.795338	0.999130
333.188625	0.997858
333.581847	0.999489
333.975006	0.998572
334.368100	0.998755
334.761129	0.999634
335.154095	1.000230
335.546996	0.997544
335.939833	0.991893
336.332606	0.995155
336.725315	0.993639
337.117960	0.995092
337.510540	0.993536
337.903056	0.995402
338.295508	0.993590
338.687896	0.994209
339.080220	0.994466
339.472480	0.994400
339.864676	0.993680
340.256807	0.993796
340.648875	0.995415
341.040879	0.995396
341.432818	0.994357
341.824694	0.993789
342.216506	0.995175
342.608253	0.994058
342.999937	0.994627
343.391557	0.994921
343.783113	0.994689
344.174605	0.995128
344.566033	0.994101
344.957397	0.993693
345.348697	0.994072
345.739934	0.994092
346.131106	0.993087
346.522215	0.991826
346.913260	0.995477
347.304241	0.993408
347.695159	0.993372
348.086012	0.993838
348.476802	0.993655
348.867528	0.994471
349.258191	0.993708
349.648789	0.995659
350.039324	0.993420
350.429796	0.994671
350.820203	0.995228
351.210548	0.993788
351.600828	0.993686
351.991045	0.993967
352.381198	0.994247
352.771288	0.994513
353.161314	0.993864
353.551276	0.994970
353.941175	0.993234
354.331010	0.994198
354.720782	0.994080
355.110490	0.994600
355.500135	0.995652
355.889717	0.994827
356.279235	0.993555
356.668689	0.993773
357.058080	0.994543
357.447408	0.995115
357.836672	0.994400
358.225873	0.994708
358.615010	0.995201
359.004084	0.994762
359.393095	0.994370
359.782043	0.995347
360.170927	0.994923
360.559748	0.993963
360.948505	0.993743
361.337199	0.993629
361.725830	0.994882
362.114398	0.994406
362.502903	0.993994
362.891344	0.995367
363.279722	0.993560
363.668037	0.993987
364.056289	0.994222
364.444478	0.994809
364.832603	0.995169
365.220665	0.994002
365.608665	0.994512
365.996601	0.994545
366.384474	0.995221
366.772284	0.993310
367.160031	0.991961
367.547715	0.993247
367.935336	0.994058
368.322893	0.993586
368.710388	0.992441
369.097820	0.994986
369.485189	0.994155
369.872495	0.993802
370.259738	0.992549
370.646918	0.994959
371.034035	0.995434
371.421090	0.993894
371.808081	0.993070
372.195010	0.995876
372.581875	0.994833
372.968678	0.995312
373.355418	0.994763
373.742096	0.993918
374.128710	0.995691
374.515262	0.993731
374.901751	0.994899
375.288177	0.993675
375.674540	0.995896
376.060841	0.993856
376.447079	0.995627
376.833254	0.995146
377.219367	0.995518
377.605417	0.995039
377.991404	0.995171
378.377329	0.994376
378.763191	0.995264
379.148991	0.996701
379.534727	0.994206
379.920402	0.995312
380.306013	0.995374
380.691563	0.996456
381.077049	0.995517
381.462474	0.995292
381.847835	0.996502
382.233134	0.994990
382.618371	0.995482
383.003545	0.995658
383.388657	0.995764
383.773706	0.996190
384.158693	0.995570
384.543618	0.995642
384.928480	0.996861
385.313280	0.995960
385.698017	0.996050
386.082692	0.997675
386.467305	0.996359
386.851856	0.996352
387.236344	0.995694
387.620770	0.996478
388.005133	0.996816
388.389435	0.997347
388.773674	0.996174
389.157851	0.997968
389.541965	0.996769
389.926018	0.996216
390.310008	0.997712
390.693936	0.996428
391.077802	0.997682
391.461606	0.996837
391.845348	0.996300
392.229027	0.998471
392.612645	0.997356
392.996200	0.999167
393.379694	0.996898
393.763125	0.998333
394.146494	0.997575
394.529801	0.996747
394.913047	0.997840
395.296230	0.997280
395.679351	0.997116
396.062410	0.997392
396.445408	0.997358
396.828343	0.997478
397.211217	0.996331
397.594028	0.997891
397.976778	0.996975
398.359466	0.997436
398.742092	0.996878
399.124656	0.997125
399.507158	0.997589
399.889598	0.997133
400.271977	0.998363
400.654294	0.997563
401.036549	0.997857
401.418742	0.997596
401.800874	0.997369
402.182944	0.997049
402.564952	0.997151
402.946898	0.998046
403.328783	0.998015
403.710606	0.997060
404.092367	0.997514
404.474067	0.998078
404.855705	0.997623
405.237282	0.997885
405.618797	0.997009
406.000250	0.997713
406.381642	0.998211
406.762972	0.997440
407.144240	0.998532
407.525447	0.997590
407.906593	0.997852
408.287677	0.998574
408.668700	0.998948
409.049661	0.996973
409.430560	0.997751
409.811399	0.996172
410.192176	0.997408
410.572891	0.997315
410.953545	0.997544
411.334138	0.996560
411.714669	0.998415
412.095139	0.996957
412.475547	0.998886
412.855894	0.997505
413.236180	0.998711
413.616405	0.998320
413.996568	0.999629
414.376670	0.997217
414.756711	0.997942
415.136691	0.997323
415.516609	0.998019
415.896466	0.996637
416.276262	0.997121
416.655997	0.998356
417.035670	0.996904
417.415283	0.997484
417.794834	0.997307
418.174324	0.997820
418.553753	0.997739
418.933121	0.997089
419.312428	0.996692
419.691674	0.997561
420.070859	0.996980
420.449983	0.997695
420.829045	0.997950
421.208047	0.998083
421.586988	0.998404
421.965867	0.996073
422.344686	0.998393
422.723444	0.997747
423.102141	0.997825
423.480777	0.997470
423.859352	0.997251
424.237866	0.997144
424.616319	0.997453
424.994712	0.997549
425.373044	0.997932
425.751314	0.997929
426.129524	0.997249
426.507673	0.997607
426.885762	0.997010
427.263789	0.996739
427.641756	0.996871
428.019662	0.997068
428.397508	0.996269
428.775292	0.995556
429.153016	0.995813
429.530679	0.995781
429.908282	0.995360
430.285824	0.994328
430.663305	0.992790
431.040726	0.993039
431.418086	0.994002
431.795385	0.991993
432.172624	0.989841
432.549802	0.990329
432.926920	0.988695
433.303977	0.987505
433.680974	0.986900
434.057910	0.984499
434.434786	0.984067
434.811601	0.981646
435.188355	0.979058
435.565050	0.978719
435.941683	0.976666
436.318257	0.974179
436.694770	0.971387
437.071222	0.969846
437.447614	0.966836
437.823946	0.964845
438.200218	0.961781
438.576429	0.959530
438.952580	0.956695
439.328670	0.952160
439.704700	0.948778
440.080670	0.946614
440.456580	0.940391
440.832429	0.936916
441.208218	0.934836
441.583947	0.930288
441.959616	0.926110
442.335224	0.922190
442.710773	0.916933
443.086261	0.910211
443.461689	0.908381
443.837057	0.901294
444.212365	0.894565
444.587612	0.890082
444.962800	0.883680
445.337927	0.878004
445.712995	0.877341
446.088002	0.863652
446.462949	0.859546
446.837837	0.852948
447.212664	0.845222
447.587431	0.835204
447.962139	0.818342
448.336786	0.799100
448.711374	0.796621
449.085901	0.803029
449.460369	0.796555
449.834776	0.788984
450.209124	0.774161
450.583412	0.761719
450.957640	0.753148
451.331808	0.749229
451.705917	0.749101
452.079965	0.743249
452.453954	0.729714
452.827883	0.724811
453.201752	0.714750
453.575562	0.711821
453.949311	0.696456
454.323001	0.692762
454.696632	0.682378
455.070202	0.670017
455.443713	0.658076
455.817164	0.646466
456.190556	0.635782
456.563888	0.626200
456.937160	0.617233
457.310373	0.618448
457.683526	0.609083
458.056619	0.604436
458.429653	0.597198
458.802628	0.591386
459.175542	0.580577
459.548398	0.561080
459.921194	0.549248
460.293930	0.542834
460.666607	0.519487
461.039224	0.504780
461.411782	0.495006
461.784280	0.485907
462.156719	0.481367
462.529099	0.476200
462.901419	0.480893
463.273680	0.477148
463.645882	0.470763
464.018024	0.467861
464.390106	0.455834
464.762130	0.438794
465.134094	0.420498
465.505999	0.393396
465.877845	0.364877
466.249631	0.348092
466.621358	0.345941
466.993026	0.349609
467.364634	0.348672
467.736184	0.351022
468.107674	0.353476
468.479105	0.347973
468.850477	0.350074
469.221790	0.351494
469.593043	0.356159
469.964238	0.356227
470.335373	0.352125
470.706449	0.346800
471.077467	0.344534
471.448425	0.306710
471.819324	0.281362
472.190164	0.277909
472.560945	0.301886
472.931667	0.319883
473.302330	0.320892
473.672934	0.330219
474.043479	0.316688
474.413965	0.316426
474.784393	0.317882
475.154761	0.311202
475.525070	0.306302
475.895321	0.310565
476.265513	0.303349
476.635645	0.297705
477.005719	0.296215
477.375734	0.291975
477.745691	0.284110
478.115588	0.279423
478.485427	0.272183
478.855207	0.258547
479.224928	0.240770
479.594591	0.228525
479.964194	0.230939
480.333739	0.230887
480.703226	0.232094
481.072653	0.230123
481.442022	0.225213
481.811333	0.221329
482.180584	0.224277
482.549777	0.229146
482.918912	0.232031
483.287988	0.231279
483.657005	0.230767
484.025964	0.237021
484.394864	0.233903
484.763706	0.234343
485.132489	0.239102
485.501213	0.239703
485.869879	0.237714
486.238487	0.241064
486.607036	0.238701
486.975527	0.242820
487.343959	0.238853
487.712333	0.237717
488.080648	0.239069
488.448905	0.238236
488.817104	0.238991
489.185244	0.233467
489.553326	0.230445
489.921350	0.220178
490.289315	0.202832
490.657222	0.197541
491.025070	0.198748
491.392861	0.200913
491.760593	0.206355
492.128267	0.211934
492.495883	0.217315
492.863440	0.223440
493.230939	0.229908
493.598380	0.231205
493.965763	0.233054
494.333088	0.235248
494.700354	0.236834
495.067563	0.235757
495.434713	0.239024
495.801805	0.237125
496.168839	0.238220
496.535815	0.239760
496.902733	0.239529
497.269593	0.241000
497.636395	0.238861
498.003139	0.238915
498.369825	0.242045
498.736453	0.238258
499.103023	0.239919
499.469535	0.239313
499.835989	0.239427
500.202385	0.240526
500.568723	0.243713
500.935003	0.238823
501.301226	0.242850
501.667390	0.237217
502.033497	0.235601
502.399546	0.238336
502.765537	0.239998
503.131470	0.238598
503.497345	0.234662
503.863163	0.243265
504.228923	0.236573
504.594625	0.234940
504.960269	0.240359
505.325856	0.235694
505.691385	0.239998
506.056856	0.236775
506.422270	0.236062
506.787625	0.238336
507.152924	0.235828
507.518164	0.236349
507.883347	0.238080
508.248472	0.239641
508.613540	0.234878
508.978550	0.237020
509.343503	0.237596
509.708398	0.235357
510.073236	0.232950
510.438016	0.233010
510.802738	0.234001
511.167403	0.232652
511.532010	0.235089
511.896561	0.230231
512.261053	0.229139
512.625488	0.231222
512.989866	0.231437
513.354186	0.231816
513.718449	0.233516
514.082655	0.229882
514.446803	0.232021
514.810894	0.229730
515.174927	0.232369
515.538904	0.231740
515.902822	0.229159
516.266684	0.231387
516.630488	0.232483
516.994235	0.230956
517.357925	0.229891
517.721558	0.228301
518.085133	0.227714
518.448651	0.227925
518.812112	0.229959
519.175516	0.229862
519.538863	0.227464
519.902152	0.228961
520.265385	0.225776
520.628560	0.227491
520.991678	0.228164
521.354739	0.226767
521.717743	0.227856
522.080690	0.228700
522.443580	0.225995
522.806413	0.226849
523.169189	0.226236
523.531908	0.224886
523.894569	0.228626
524.257174	0.228628
524.619722	0.226152
524.982213	0.227536
525.344647	0.226177
525.707025	0.227222
526.069345	0.225352
526.431608	0.226958
526.793815	0.224986
527.155964	0.228879
527.518057	0.228089
527.880093	0.228966
528.242072	0.227633
528.603995	0.229606
528.965860	0.231351
529.327669	0.230084
529.689421	0.231150
530.051117	0.231478
530.412755	0.229542
530.774337	0.231875
531.135862	0.232122
531.497331	0.231444
531.858743	0.234345
532.220098	0.231035
532.581396	0.233428
532.942638	0.233905
533.303824	0.234767
533.664953	0.235034
534.026025	0.236758
534.387040	0.234407
534.747999	0.234503
535.108902	0.233533
535.469748	0.238264
535.830537	0.236428
536.191270	0.236776
536.551947	0.236309
536.912567	0.236285
537.273131	0.237811
537.633638	0.238063
537.994089	0.238470
538.354483	0.239449
538.714821	0.236533
539.075103	0.236062
539.435328	0.237072
539.795497	0.240723
540.155609	0.237423
540.515665	0.235469
540.875665	0.241100
541.235609	0.239534
541.595496	0.239914
541.955328	0.236546
542.315102	0.239050
542.674821	0.240039
543.034483	0.239841
543.394090	0.239845
543.753640	0.241715
544.113134	0.236390
544.472571	0.240086
544.831953	0.236998
545.191278	0.241159
545.550548	0.240405
545.909761	0.237315
546.268918	0.237764
546.628019	0.236460
546.987064	0.239116
547.346053	0.241160
547.704986	0.238549
548.063863	0.238986
548.422684	0.239083
548.781449	0.240862
549.140158	0.238640
549.498811	0.241602
549.857408	0.244601
550.215949	0.239286
550.574434	0.242477
550.932864	0.240403
551.291237	0.239089
551.649555	0.240667
552.007817	0.240028
552.366022	0.241106
552.724173	0.241307
553.082267	0.241511
553.440305	0.238667
553.798288	0.243046
554.156215	0.239482
554.514086	0.240016
554.871902	0.243450
555.229661	0.242531
555.587365	0.242947
555.945014	0.245629
556.302606	0.242645
556.660143	0.245113
557.017625	0.241364
557.375050	0.243783
557.732421	0.241028
558.089735	0.243005
558.446994	0.242794
558.804197	0.241998
559.161345	0.241992
559.518437	0.245567
559.875474	0.242975
560.232455	0.242872
560.589381	0.243942
560.946251	0.244339
561.303065	0.241543
561.659825	0.243130
562.016528	0.244239
562.373177	0.247262
562.729770	0.244484
563.086307	0.246825
563.442789	0.244528
563.799216	0.247285
564.155587	0.246167
564.511904	0.247177
564.868164	0.247531
565.224370	0.247183
565.580520	0.248884
565.936615	0.248677
566.292654	0.251740
566.648638	0.248755
567.004567	0.249563
567.360441	0.250370
567.716260	0.252482
568.072023	0.250147
568.427732	0.250971
568.783385	0.253414
569.138982	0.251325
569.494525	0.251102
569.850013	0.253879
570.205445	0.252219
570.560823	0.254821
570.916145	0.256615
571.271412	0.255161
571.626625	0.256427
571.981782	0.256742
572.336884	0.258013
572.691931	0.257579
573.046923	0.258613
573.401860	0.259913
573.756743	0.261424
574.111570	0.260383
574.466342	0.261183
574.821059	0.260262
575.175722	0.263155
575.530330	0.262984
575.884882	0.263390
576.239380	0.265086
576.593823	0.265672
576.948211	0.264958
577.302544	0.268254
577.656823	0.267841
578.011047	0.267822
578.365216	0.268577
578.719330	0.270582
579.073389	0.270485
579.427394	0.271802
579.781344	0.272360
580.135239	0.274315
580.489080	0.273592
580.842866	0.276516
581.196597	0.276457
581.550273	0.275241
581.903895	0.276135
582.257463	0.274135
582.610975	0.277445
582.964434	0.276853
583.317837	0.279510
583.671186	0.279886
584.024481	0.280095
584.377721	0.282435
584.730906	0.283157
585.084037	0.282259
585.437113	0.283936
585.790135	0.283515
586.143103	0.286334
586.496016	0.287507
586.848874	0.284853
587.201679	0.285614
587.554428	0.289100
587.907124	0.287643
588.259765	0.288380
588.612352	0.288945
588.964884	0.292919
589.317362	0.292491
589.669786	0.292451
590.022155	0.290669
590.374470	0.290154
590.726731	0.292760
591.078937	0.296998
591.431090	0.293440
591.783188	0.297398
592.135232	0.297919
592.487222	0.298247
592.839157	0.296425
593.191038	0.298480
593.542866	0.300125
593.894639	0.303714
594.246358	0.302031
594.598022	0.301342
594.949633	0.305033
595.301190	0.305989
595.652692	0.304777
596.004141	0.300935
596.355535	0.309060
596.706876	0.309466
597.058162	0.312190
597.409395	0.309320
597.760573	0.306627
598.111698	0.310503
598.462768	0.310556
598.813785	0.312076
599.164748	0.313181
599.515657	0.313512
599.866511	0.316950
600.217312	0.312087
600.568060	0.317702
600.918753	0.313649
601.269392	0.314727
601.619978	0.318064
601.970510	0.315545
602.320988	0.315787
602.671412	0.313618
603.021783	0.316142
603.372100	0.317304
603.722363	0.317000
604.072572	0.317900
604.422728	0.317795
604.772830	0.319875
605.122878	0.319261
605.472872	0.320066
605.822813	0.318184
606.172701	0.320743
606.522534	0.318114
606.872314	0.318282
607.222041	0.319151
607.571714	0.317630
607.921333	0.318682
608.270899	0.318318
608.620411	0.315318
608.969870	0.319394
609.319276	0.319378
609.668627	0.319123
610.017926	0.317507
610.367171	0.316328
610.716362	0.317158
611.065500	0.317024
611.414585	0.316063
611.763616	0.316325
612.112594	0.316976
612.461518	0.316040
612.810389	0.313997
613.159207	0.316314
613.507971	0.318173
613.856682	0.313847
614.205340	0.315507
614.553945	0.312571
614.902496	0.316176
615.250994	0.314432
615.599439	0.315177
615.947830	0.314223
616.296169	0.315346
616.644454	0.314773
616.992686	0.315089
617.340864	0.312688
617.688990	0.316316
618.037063	0.313223
618.385082	0.314558
618.733048	0.311572
619.080961	0.313907
619.428821	0.313689
619.776628	0.312810
620.124382	0.315215
620.472083	0.315072
620.819731	0.314249
621.167326	0.318380
621.514868	0.318819
621.862357	0.322559
622.209793	0.322287
622.557176	0.324406
622.904506	0.325454
623.251783	0.327883
623.599007	0.330055
623.946179	0.329429
624.293297	0.331175
624.640363	0.335288
624.987376	0.335762
625.334336	0.338558
625.681243	0.340619
626.028097	0.341436
626.374899	0.341990
626.721647	0.342836
627.068343	0.345770
627.414987	0.346872
627.761577	0.348899
628.108115	0.347426
628.454600	0.352504
628.801032	0.349292
629.147412	0.351848
629.493739	0.352004
629.840014	0.355190
630.186236	0.352906
630.532405	0.357896
630.878521	0.355455
631.224585	0.357694
631.570597	0.361393
631.916556	0.359839
632.262462	0.359823
632.608316	0.362300
632.954117	0.363160
633.299866	0.363644
633.645562	0.364681
633.991206	0.368699
634.336797	0.371293
634.682336	0.373699
635.027823	0.375038
635.373257	0.375979
635.718639	0.379641
636.063968	0.378580
636.409245	0.384597
636.754470	0.384816
637.099642	0.387293
637.444762	0.390496
637.789829	0.389586
638.134845	0.393223
638.479808	0.394145
638.824719	0.393822
639.169577	0.397601
639.514383	0.396498
639.859137	0.401394
640.203839	0.400820
640.548489	0.401584
640.893086	0.402730
641.237632	0.404380
641.582125	0.403052
641.926566	0.404336
642.270955	0.404397
642.615292	0.404921
642.959576	0.404175
643.303809	0.404283
643.647990	0.403958
643.992118	0.404532
644.336195	0.408182
644.680219	0.406368
645.024192	0.407124
645.368112	0.400937
645.711981	0.399850
646.055797	0.395300
646.399562	0.397224
646.743274	0.389618
647.086935	0.387347
647.430544	0.387213
647.774101	0.385981
648.117606	0.385535
648.461059	0.386076
648.804460	0.388514
649.147810	0.393329
649.491108	0.395604
649.834354	0.396998
650.177548	0.402299
650.520690	0.407432
650.863781	0.409432
651.206820	0.408475
651.549807	0.412902
651.892742	0.416744
652.235626	0.416206
652.578458	0.417267
652.921238	0.423060
653.263967	0.420932
653.606644	0.425407
653.949269	0.424326
654.291843	0.428938
654.634365	0.425095
654.976836	0.428653
655.319255	0.428589
655.661622	0.430985
656.003938	0.430293
656.346203	0.433521
656.688416	0.431259
657.030577	0.434818
657.372687	0.436212
657.714746	0.437567
658.056753	0.434218
658.398708	0.438270
658.740612	0.439160
659.082465	0.435337
659.424266	0.436227
659.766016	0.435801
660.107715	0.437650
660.449362	0.437367
660.790958	0.437675
661.132503	0.438263
661.473996	0.435944
661.815438	0.436412
662.156829	0.436971
662.498168	0.437690
662.839456	0.439465
663.180693	0.436841
663.521879	0.436907
663.863013	0.437758
664.204097	0.436325
664.545129	0.432873
664.886110	0.433673
665.227040	0.430817
665.567918	0.433427
665.908746	0.430938
666.249522	0.431037
666.590248	0.431727
666.930922	0.430448
667.271545	0.429170
667.612118	0.429483
667.952639	0.430785
668.293109	0.429572
668.633528	0.432717
668.973896	0.432461
669.314213	0.432414
669.654480	0.434140
669.994695	0.434444
670.334859	0.435418
670.674973	0.435927
671.015035	0.435693
671.355047	0.435445
671.695008	0.436994
672.034918	0.438541
672.374777	0.437990
672.714585	0.439409
673.054342	0.439067
673.394049	0.439311
673.733705	0.436537
674.073310	0.437656
674.412864	0.440770
674.752368	0.441916
675.091820	0.441516
675.431223	0.446446
675.770574	0.445652
676.109875	0.448789
676.449125	0.448520
676.788324	0.451423
677.127473	0.456432
677.466571	0.456889
677.805619	0.458079
678.144616	0.458919
678.483562	0.461004
678.822458	0.463263
679.161303	0.463884
679.500098	0.464644
679.838842	0.466236
680.177535	0.465986
680.516179	0.464521
680.854771	0.463813
681.193314	0.457369
681.531805	0.448200
681.870247	0.437008
682.208638	0.429381
682.546978	0.428675
682.885268	0.429957
683.223508	0.436470
683.561697	0.439483
683.899836	0.442786
684.237925	0.446113
684.575963	0.448341
684.913951	0.451325
685.251889	0.447564
685.589776	0.449486
685.927614	0.451885
686.265401	0.446130
686.603137	0.447714
686.940824	0.441118
687.278460	0.440091
687.616046	0.438542
687.953582	0.433937
688.291068	0.435219
688.628504	0.430910
688.965889	0.432846
689.303224	0.437664
689.640510	0.441249
689.977745	0.447185
690.314930	0.454912
690.652065	0.459449
690.989150	0.467270
691.326185	0.473202
691.663170	0.477644
692.000105	0.485627
692.336990	0.492010
692.673825	0.494715
693.010610	0.501661
693.347345	0.507157
693.684030	0.508424
694.020665	0.513127
694.357251	0.522057
694.693786	0.521774
695.030272	0.526532
695.366707	0.529145
695.703093	0.532600
696.039429	0.530634
696.375716	0.531990
696.711952	0.535044
697.048139	0.536781
697.384276	0.538907
697.720363	0.537236
698.056400	0.535950
698.392388	0.541069
698.728326	0.544835
699.064214	0.547684
699.400053	0.548481
699.735842	0.551674
700.071581	0.554825
700.407270	0.557910
700.742910	0.560318
701.078501	0.566920
701.414042	0.566839
701.749533	0.569994
702.084974	0.578829
702.420366	0.570943
702.755709	0.578654
703.091002	0.586352
703.426246	0.579590
703.761440	0.585758
704.096584	0.590178
704.431679	0.587447
704.766725	0.588985
705.101721	0.591083
705.436668	0.587012
705.771565	0.594092
706.106413	0.591419
706.441212	0.585686
706.775961	0.585206
707.110661	0.587713
707.445311	0.584242
707.779913	0.581211
708.114465	0.579221
708.448967	0.576805
708.783421	0.569006
709.117825	0.563517
709.452180	0.563010
709.786485	0.557238
710.120742	0.547027
710.454949	0.549541
710.789107	0.541892
711.123216	0.532798
711.457275	0.533847
711.791286	0.524963
712.125247	0.523667
712.459159	0.534959
712.793023	0.527294
713.126837	0.531538
713.460602	0.531702
713.794318	0.540868
714.127985	0.539469
714.461602	0.550651
714.795171	0.552821
715.128691	0.561111
715.462162	0.568085
715.795584	0.573389
716.128957	0.577350
716.462281	0.583486
716.795556	0.586957
717.128782	0.591534
717.461960	0.601943
717.795088	0.599545
718.128167	0.605336
718.461198	0.614637
718.794180	0.614991
719.127113	0.618578
719.459997	0.621336
719.792833	0.627830
720.125619	0.628991
720.458357	0.634677
720.791046	0.634165
721.123686	0.638330
721.456278	0.644599
721.788821	0.641984
722.121315	0.646535
722.453761	0.650527
722.786158	0.648917
723.118506	0.645062
723.450805	0.652837
723.783056	0.648605
724.115259	0.646414
724.447412	0.645741
724.779518	0.646993
725.111574	0.645488
725.443582	0.641790
725.775542	0.642977
726.107453	0.635881
726.439315	0.635377
726.771129	0.633641
727.102895	0.627024
727.434612	0.620480
727.766281	0.618264
728.097901	0.617656
728.429473	0.617617
728.760996	0.616491
729.092471	0.616290
729.423897	0.619506
729.755276	0.618738
730.086606	0.619678
730.417887	0.613246
730.749120	0.604375
731.080305	0.595252
731.411442	0.591451
731.742530	0.596505
732.073570	0.595615
732.404562	0.588265
732.735506	0.589073
733.066401	0.593160
733.397249	0.602640
733.728048	0.614312
734.058798	0.626861
734.389501	0.637339
734.720156	0.646791
735.050762	0.654884
735.381320	0.656389
735.711831	0.665505
736.042293	0.670757
736.372707	0.665748
736.703073	0.670488
737.033391	0.672281
737.363661	0.669660
737.693883	0.664920
738.024056	0.663930
738.354182	0.664666
738.684260	0.653639
739.014290	0.649202
739.344272	0.650005
739.674207	0.643986
740.004093	0.642811
740.333931	0.644244
740.663722	0.643872
740.993464	0.644463
741.323159	0.648799
741.652806	0.653391
741.982405	0.657834
742.311956	0.662394
742.641460	0.664706
742.970915	0.668321
743.300323	0.675884
743.629683	0.681875
743.958996	0.683783
744.288260	0.688386
744.617477	0.694358
744.946647	0.695822
745.275768	0.701121
745.604842	0.701592
745.933869	0.710950
746.262847	0.711212
746.591778	0.705287
746.920662	0.710985
747.249498	0.718012
747.578286	0.709577
747.907027	0.704963
748.235720	0.706245
748.564365	0.700699
748.892963	0.700754
749.221514	0.703618
749.550017	0.708706
749.878473	0.709212
750.206881	0.714312
750.535242	0.716418
750.863555	0.715892
751.191821	0.716830
751.520039	0.720527
751.848210	0.724823
752.176334	0.717386
752.504411	0.716232
752.832440	0.725316
753.160421	0.729180
753.488356	0.727197
753.816243	0.724332
754.144082	0.732935
754.471875	0.735583
754.799620	0.731765
755.127318	0.732675
755.454969	0.732340
755.782572	0.732536
756.110129	0.737394
756.437638	0.738692
756.765100	0.735878
757.092515	0.733894
757.419882	0.733674
757.747203	0.738211
758.074477	0.738751
758.401703	0.734757
758.728882	0.730406
759.056014	0.729007
759.383099	0.728038
759.710138	0.729312
760.037129	0.726223
760.364073	0.719619
760.690970	0.721839
761.017820	0.728193
761.344623	0.723376
761.671379	0.713943
761.998088	0.702139
762.324751	0.680101
762.651366	0.638509
762.977935	0.571929
763.304456	0.519674
763.630931	0.510392
763.957359	0.549359
764.283740	0.594085
764.610074	0.621630
764.936362	0.651068
765.262602	0.678452
765.588796	0.699358
765.914943	0.716735
766.241044	0.734945
766.567097	0.742587
766.893104	0.750961
767.219064	0.757998
767.544978	0.764493
767.870845	0.779220
768.196665	0.781856
768.522438	0.779374
768.848165	0.780469
769.173846	0.789640
769.499479	0.794598
769.825066	0.797511
770.150607	0.802492
770.476101	0.797694
770.801548	0.799265
771.126949	0.810319
771.452303	0.814128
771.777611	0.813391
772.102872	0.812589
772.428087	0.818099
772.753256	0.821283
773.078378	0.823267
773.403453	0.832414
773.728482	0.836709
774.053465	0.830217
774.378401	0.833060
774.703291	0.841277
775.028135	0.841895
775.352932	0.842986
775.677683	0.846155
776.002388	0.846980
776.327046	0.845185
776.651658	0.849151
776.976224	0.852442
777.300743	0.853347
777.625216	0.854512
777.949643	0.856486
778.274024	0.856475
778.598359	0.859381
778.922647	0.857091
779.246889	0.857334
779.571086	0.861895
779.895236	0.864656
780.219339	0.860921
780.543397	0.858355
780.867409	0.856188
781.191374	0.859255
781.515294	0.860325
781.839167	0.859001
782.162995	0.862097
782.486776	0.859597
782.810511	0.860299
783.134201	0.864152
783.457844	0.861370
783.781441	0.864252
784.104993	0.869958
784.428498	0.870281
784.751958	0.866796
785.075372	0.869052
785.398739	0.872837
785.722061	0.867772
786.045337	0.865184
786.368568	0.868553
786.691752	0.871644
787.014891	0.857582
787.337983	0.848210
787.661030	0.840674
787.984031	0.824635
788.306987	0.810514
788.629897	0.813686
788.952760	0.817756
789.275579	0.821537
789.598351	0.835962
789.921078	0.849552
790.243759	0.851257
790.566395	0.856768
790.888984	0.864252
791.211529	0.869606
791.534027	0.871449
791.856480	0.873971
792.178888	0.879218
792.501249	0.881502
792.823566	0.883098
793.145836	0.882237
793.468062	0.884733
793.790241	0.885468
794.112375	0.882349
794.434464	0.877848
794.756507	0.877413
795.078505	0.878062
795.400457	0.872167
795.722364	0.860323
796.044226	0.852832
796.366042	0.851903
796.687812	0.855904
797.009538	0.852344
797.331218	0.854621
797.652852	0.859927
797.974442	0.864772
798.295986	0.863455
798.617484	0.867120
798.938938	0.871144
799.260346	0.875561
799.581709	0.876876
799.903026	0.880075
800.224299	0.880312
800.545526	0.885280
800.866708	0.888577
801.187845	0.891781
801.508936	0.892082
801.829983	0.889933
802.150984	0.892436
802.471940	0.897811
802.792851	0.897134
803.113717	0.897640
803.434538	0.895135
803.755314	0.898398
804.076045	0.900866
804.396731	0.900226
804.717372	0.899422
805.037967	0.902309
805.358518	0.898786
805.679024	0.896339
805.999485	0.896845
806.319901	0.896487
806.640272	0.899501
806.960598	0.897118
807.280879	0.894060
807.601115	0.892453
807.921306	0.895590
808.241453	0.896056
808.561554	0.894979
808.881611	0.894435
809.201623	0.895935
809.521590	0.896037
809.841513	0.896852
810.161390	0.896193
810.481223	0.897404
810.801011	0.900776
811.120755	0.902004
811.440453	0.901853
811.760107	0.899694
812.079716	0.900369
812.399281	0.904209
812.718801	0.906165
813.038276	0.907411
813.357707	0.907288
813.677093	0.904910
813.996434	0.907796
814.315731	0.908840
814.634983	0.909681
814.954191	0.908051
815.273354	0.904755
815.592473	0.901375
815.911547	0.902475
816.230577	0.898776
816.549562	0.896548
816.868502	0.896927
817.187399	0.893406
817.506250	0.888481
817.825058	0.889852
818.143821	0.886399
818.462539	0.881944
818.781213	0.872648
819.099843	0.862162
819.418429	0.845952
819.736970	0.829109
820.055466	0.809835
820.373919	0.784193
820.692327	0.752107
821.010691	0.718723
821.329011	0.641221
821.647286	0.526468
821.965517	0.412694
822.283704	0.370438
822.601847	0.371778
822.919945	0.407880
823.237999	0.440725
823.556010	0.487297
823.873976	0.542701
824.191897	0.593295
824.509775	0.635551
824.827609	0.680171
825.145398	0.703378
825.463144	0.705967
825.780845	0.688696
826.098502	0.670295
826.416116	0.624339
826.733685	0.580768
827.051210	0.572139
827.368692	0.586681
827.686129	0.624222
828.003522	0.677388
828.320872	0.724773
828.638177	0.768056
828.955439	0.800414
829.272656	0.823011
829.589830	0.839525
829.906960	0.855344
830.224046	0.866535
830.541088	0.877382
830.858086	0.881042
831.175041	0.887838
831.491952	0.886666
831.808819	0.883913
832.125642	0.877166
832.442421	0.862681
832.759157	0.840526
833.075849	0.795042
833.392497	0.731499
833.709101	0.690163
834.025662	0.700034
834.342179	0.731546
834.658653	0.770537
834.975083	0.806444
835.291469	0.831413
835.607811	0.854162
835.924110	0.871021
836.240366	0.888466
836.556578	0.901970
836.872746	0.908568
837.188871	0.914429
837.504952	0.919825
837.820990	0.923615
838.136984	0.926342
838.452935	0.929546
838.768842	0.932295
839.084706	0.923638
839.400526	0.900309
839.716303	0.859279
840.032037	0.836916
840.347727	0.840586
840.663373	0.858491
840.978977	0.880096
841.294537	0.902748
841.610054	0.918647
841.925527	0.925187
842.240957	0.933568
842.556344	0.939516
842.871687	0.946342
843.186987	0.949563
843.502244	0.949971
843.817458	0.952698
844.132629	0.954515
844.447756	0.960519
844.762840	0.960931
845.077881	0.959685
845.392879	0.959636
845.707833	0.962674
846.022745	0.964315
846.337613	0.964951
846.652438	0.966286
846.967221	0.964482
847.281960	0.965305
847.596656	0.967183
847.911309	0.965583
848.225919	0.968582
848.540485	0.968912
848.855009	0.968224
849.169490	0.968231
849.483928	0.968478
849.798323	0.969047
850.112675	0.970338
850.426984	0.969322
850.741251	0.970330
851.055474	0.970860
851.369654	0.967196
851.683792	0.969045
851.997887	0.968976
852.311938	0.970627
852.625947	0.969442
852.939914	0.968290
853.253837	0.969401
853.567718	0.969476
853.881555	0.970008
854.195350	0.969008
854.509103	0.968547
854.822812	0.969856
855.136479	0.970172
855.450103	0.969498
855.763685	0.967832
856.077224	0.968716
856.390720	0.970351
856.704173	0.970892
857.017584	0.967962
857.330953	0.966380
857.644278	0.968449
857.957561	0.968481
858.270802	0.969322
858.584000	0.967781
858.897155	0.966499
859.210268	0.967736
859.523339	0.969275
859.836367	0.970571
860.149352	0.970565
860.462295	0.968156
860.775195	0.969001
861.088054	0.968705
861.400869	0.969659
861.713642	0.969967
862.026373	0.969671
862.339062	0.970607
862.651708	0.968037
862.964312	0.967916
863.276873	0.969692
863.589392	0.967667
863.901869	0.965431
864.214303	0.965737
864.526696	0.962927
864.839045	0.964081
865.151353	0.960548
865.463619	0.961213
865.775842	0.962901
866.088023	0.962587
866.400162	0.961857
866.712258	0.962868
867.024313	0.963844
867.336325	0.963210
867.648296	0.963558
867.960224	0.962584
868.272110	0.960996
868.583954	0.964724
868.895755	0.963621
869.207515	0.962034
869.519233	0.957774
869.830909	0.960396
870.142542	0.962295
870.454134	0.961372
870.765684	0.959661
871.077191	0.957670
871.388657	0.958730
871.700081	0.958076
872.011463	0.958707
872.322803	0.957998
872.634101	0.957603
872.945357	0.953780
873.256571	0.952488
873.567744	0.952460
873.878874	0.953042
874.189963	0.952028
874.501010	0.951578
874.812015	0.950653
875.122979	0.951594
875.433900	0.953901
875.744780	0.953342
876.055618	0.951358
876.366415	0.949731
876.677169	0.950656
876.987882	0.951612
877.298554	0.951530
877.609183	0.947255
877.919771	0.945867
878.230317	0.942593
878.540822	0.941120
878.851285	0.936053
879.161707	0.927571
879.472087	0.915362
879.782425	0.900259
880.092722	0.866417
880.402977	0.814574
880.713191	0.755078
881.023363	0.696746
881.333494	0.662441
881.643583	0.634921
881.953631	0.634112
882.263637	0.662988
882.573602	0.702066
882.883526	0.727112
883.193408	0.750349
883.503248	0.773179
883.813048	0.799633
884.122806	0.829607
884.432522	0.852362
884.742197	0.871679
885.051831	0.881983
885.361424	0.892519
885.670975	0.904175
885.980485	0.913924
886.289954	0.920502
886.599382	0.925829
886.908768	0.929623
887.218113	0.934718
887.527417	0.938561
887.836680	0.941878
888.145901	0.943758
888.455082	0.946662
888.764221	0.951557
889.073319	0.952792
889.382376	0.952879
889.691392	0.952985
890.000366	0.952196
890.309300	0.954647
890.618193	0.953289
890.927044	0.950965
891.235855	0.951395
891.544625	0.952093
891.853353	0.951524
892.162041	0.949519
892.470687	0.943183
892.779293	0.936551
893.087858	0.935436
893.396381	0.925726
893.704864	0.914218
894.013306	0.890318
894.321707	0.863807
894.630068	0.850552
894.938387	0.845393
895.246665	0.846105
895.554903	0.858024
895.863100	0.871857
896.171256	0.888138
896.479371	0.907301
896.787446	0.920147
897.095480	0.925401
897.403473	0.930055
897.711425	0.933259
898.019336	0.940923
898.327207	0.943423
898.635038	0.944757
898.942827	0.945240
899.250576	0.949104
899.558284	0.953023
899.865952	0.954058
900.173579	0.954813
900.481165	0.955777
900.788711	0.959347
901.096216	0.961017
901.403681	0.962400
901.711105	0.962163
902.018489	0.964587
902.325832	0.962305
902.633135	0.962111
902.940397	0.955863
903.247619	0.944477
903.554800	0.919588
903.861941	0.879333
904.169041	0.845965
904.476101	0.828626
904.783121	0.829186
905.090100	0.845262
905.397039	0.865953
905.703938	0.886672
906.010796	0.906692
906.317614	0.923821
906.624391	0.935646
906.931129	0.944261
907.237826	0.951959
907.544483	0.958449
907.851099	0.963167
908.157675	0.968308
908.464211	0.971412
908.770707	0.972369
909.077163	0.974719
909.383578	0.974654
909.689954	0.975491
909.996289	0.975272
910.302584	0.977978
910.608839	0.979717
910.915054	0.977963
911.221229	0.977234
911.527363	0.976645
911.833458	0.977241
912.139513	0.976847
912.445527	0.974986
912.751502	0.974250
913.057436	0.972503
913.363331	0.970412
913.669186	0.967330
913.975000	0.962054
914.280775	0.955596
914.586510	0.949357
914.892205	0.935694
915.197859	0.915538
915.503475	0.888192
915.809050	0.868630
916.114585	0.863895
916.420081	0.861228
916.725536	0.858245
917.030952	0.866386
917.336328	0.878078
917.641665	0.893327
917.946961	0.908566
918.252218	0.919704
918.557435	0.928162
918.862612	0.936695
919.167750	0.942342
919.472848	0.947090
919.777906	0.952020
920.082925	0.958046
920.387904	0.962354
920.692843	0.964209
920.997743	0.963536
921.302603	0.967443
921.607423	0.969165
921.912204	0.972454
922.216946	0.971893
922.521647	0.973655
922.826310	0.976063
923.130932	0.977257
923.435516	0.977908
923.740059	0.979938
924.044564	0.979225
924.349028	0.980635
924.653454	0.982336
924.957840	0.984003
925.262186	0.983339
925.566493	0.983696
925.870761	0.984398
926.174989	0.986812
926.479178	0.987963
926.783328	0.988506
927.087438	0.987756
927.391509	0.987672
927.695541	0.989502
927.999533	0.988523
928.303486	0.989900
928.607400	0.992029
928.911275	0.989180
929.215110	0.990830
929.518906	0.990970
929.822663	0.987964
930.126381	0.990911
930.430060	0.990493
930.733699	0.990467
931.037299	0.989201
931.340861	0.990246
931.644383	0.990229
931.947866	0.989407
932.251309	0.989954
932.554714	0.990629
932.858080	0.990191
933.161407	0.989951
933.464694	0.990123
933.767943	0.989617
934.071153	0.991146
934.374323	0.991921
934.677455	0.990461
934.980548	0.990946
935.283602	0.989639
935.586617	0.990936
935.889593	0.991037
936.192530	0.990335
936.495428	0.990038
936.798287	0.991335
937.101108	0.990776
937.403890	0.989472
937.706632	0.988334
938.009336	0.987574
938.312002	0.985045
938.614628	0.984281
938.917216	0.982996
939.219765	0.982127
939.522275	0.983102
939.824747	0.982928
940.127179	0.983044
940.429573	0.984326
940.731929	0.983831
941.034246	0.984957
941.336524	0.985079
941.638763	0.986076
941.940964	0.986065
942.243126	0.986672
942.545250	0.987252
942.847335	0.988178
943.149381	0.988062
943.451389	0.987733
943.753359	0.988326
944.055290	0.990480
944.357182	0.989507
944.659036	0.987724
944.960851	0.988977
945.262628	0.990341
945.564367	0.989941
945.866067	0.989365
946.167729	0.989850
946.469352	0.989022
946.770937	0.988117
947.072484	0.991839
947.373992	0.991256
947.675462	0.990454
947.976893	0.988731
948.278286	0.989707
948.579641	0.991313
948.880958	0.990095
949.182236	0.990865
949.483476	0.991339
949.784678	0.989880
950.085841	0.990479
950.386967	0.989807
950.688054	0.990419
950.989103	0.991493
951.290114	0.988383
951.591087	0.988153
951.892021	0.989187
952.192917	0.988297
952.493776	0.987373
952.794596	0.988593
953.095378	0.987963
953.396122	0.987692
953.696828	0.988186
953.997496	0.989875
954.298126	0.990294
954.598718	0.989652
954.899272	0.991386
955.199788	0.990373
955.500266	0.993253
955.800706	0.992828
956.101108	0.992679
956.401472	0.993117
956.701798	0.993568
957.002087	0.994384
957.302337	0.994572
957.602550	0.994528
957.902724	0.994768
958.202861	0.993878
958.502960	0.995359
958.803022	0.993917
959.103045	0.995660
959.403031	0.996345
959.702979	0.993462
960.002889	0.995578
960.302762	0.993926
960.602596	0.995683
960.902393	0.993925
961.202153	0.996663
961.501875	0.996505
961.801559	0.995673
962.101205	0.994963
962.400814	0.995184
962.700385	0.996790
962.999918	0.996204
963.299414	0.996500
963.598873	0.994144
963.898293	0.996471
964.197677	0.994837
964.497022	0.995675
964.796331	0.996702
965.095601	0.997121
965.394835	0.995954
965.694030	0.997536
965.993189	0.996159
966.292309	0.995909
966.591393	0.996245
966.890439	0.997824
967.189447	0.995768
967.488419	0.996664
967.787353	0.996701
968.086249	0.995421
968.385108	0.996462
968.683930	0.996351
968.982714	0.997548
969.281462	0.998215
969.580172	0.995573
969.878844	0.997091
970.177480	0.996318
970.476078	0.996549
970.774639	0.996088
971.073162	0.996783
971.371649	0.995906
971.670098	0.996871
971.968510	0.997378
972.266885	0.994976
972.565223	0.996060
972.863524	0.996518
973.161788	0.996279
973.460014	0.997159
973.758204	0.994717
974.056356	0.996823
974.354471	0.994126
974.652550	0.995942
974.950591	0.995690
975.248595	0.996523
975.546563	0.996809
975.844493	0.998078
976.142386	0.996683
976.440243	0.996958
976.738062	0.997254
977.035845	0.997173
977.333590	0.996433
977.631299	0.997472
977.928971	0.996020
978.226606	0.996628
978.524204	0.995176
978.821765	0.996993
979.119290	0.995325
979.416777	0.996262
979.714228	0.996747
980.011642	0.994029
980.309020	0.996718
980.606360	0.996290
980.903664	0.996907
981.200931	0.995357
981.498162	0.994543
981.795356	0.994551
982.092513	0.993774
982.389633	0.994179
982.686717	0.990490
982.983764	0.990829
983.280775	0.989938
983.577749	0.990944
983.874686	0.991789
984.171587	0.990838
984.468451	0.993653
984.765279	0.994376
985.062070	0.994266
985.358824	0.995394
985.655543	0.995742
985.952224	0.995541
986.248869	0.996437
986.545478	0.996114
986.842050	0.996752
987.138586	0.994987
987.435086	0.996515
987.731549	0.998230
988.027975	0.997331
988.324366	0.997898
988.620719	0.997566
988.917037	0.996284
989.213318	0.997747
989.509563	0.997705
989.805772	0.997928
990.101944	0.997556
990.398080	0.996717
990.694180	0.998075
990.990244	0.996443
991.286271	0.998026
991.582262	0.997677
991.878217	0.996838
992.174136	0.998155
992.470019	0.998289
992.765865	0.997623
993.061676	0.998638
993.357450	0.997246
993.653188	0.995933
993.948890	0.996758
994.244556	0.997010
994.540186	0.996752
994.835780	0.996398
995.131337	0.997268
995.426859	0.996765
995.722345	0.996632
996.017795	0.995998
996.313208	0.996026
996.608586	0.994647
996.903928	0.996728
997.199234	0.995730
997.494504	0.996574
997.789738	0.995454
998.084936	0.996563
998.380099	0.997548
998.675225	0.997472
998.970316	0.997335
999.265371	0.997523
999.560390	0.997437
999.855373	0.998095
1000.150320	0.997326
1000.445232	0.998194
1000.740108	0.997088
1001.034948	0.998863
1001.329752	0.998175
1001.624521	0.998520
1001.919254	0.998339
1002.213951	0.998254
1002.508613	0.997664
1002.803239	0.997239
1003.097829	0.998827
1003.392384	0.999750
1003.686903	0.998242
1003.981386	0.998368
1004.275834	0.999165
1004.570246	0.998137
1004.864623	0.998647
1005.158964	0.998387
1005.453270	0.997973
1005.747540	0.997399
1006.041775	0.998896
1006.335974	0.998949
1006.630138	0.998390
1006.924266	0.999539
1007.218359	1.000136
1007.512416	0.999550
1007.806438	0.998497
1008.100425	0.999012
1008.394376	0.999471
1008.688292	0.997775
1008.982172	1.000788
1009.276017	0.999050
1009.569827	0.998195
1009.863602	0.998232
1010.157341	0.998674
1010.451045	0.997728
1010.744714	0.998169
1011.038347	0.998074
1011.331945	0.999020
1011.625508	0.997976
1011.919036	0.997359
1012.212528	0.998497
1012.505986	0.996963
1012.799408	0.998011
1013.092795	0.998488
1013.386147	0.998351
1013.679464	0.998694
1013.972745	0.997583
1014.265992	0.996791
1014.559204	0.998626
1014.852380	0.999174
1015.145521	0.998130
1015.438628	0.999166
1015.731699	0.997947
1016.024736	0.998036
1016.317737	0.998308
1016.610703	0.997965
1016.903635	0.999389
1017.196531	0.998042
1017.489393	0.998567
1017.782219	0.998147
1018.075011	0.998835
1018.367768	0.998617
1018.660490	0.997972
1018.953177	0.997972
1019.245829	0.997972
