Dividing Wavelength (nm)	Counts (n)	Blue Motor Position (mm): 0.000000	Red Motor Position (mm): 39.900000	
326.493990	1.001495
326.888308	1.001495
327.282561	1.001495
327.676750	0.999881
328.070874	0.997408
328.464933	1.000100
328.858929	0.998770
329.252859	0.999975
329.646726	1.000019
330.040528	1.001286
330.434265	0.999363
330.827938	1.000303
331.221547	0.999666
331.615091	0.999225
332.008571	0.999640
332.401986	0.999930
332.795338	1.000197
333.188625	0.999029
333.581847	1.000183
333.975006	0.999001
334.368100	0.998717
334.761129	1.000657
335.154095	1.001141
335.546996	0.999098
335.939833	0.996786
336.332606	0.997989
336.725315	0.997946
337.117960	0.997764
337.510540	0.996922
337.903056	0.998469
338.295508	0.997544
338.687896	0.996873
339.080220	0.997848
339.472480	0.996230
339.864676	0.997850
340.256807	0.998569
340.648875	0.998593
341.040879	0.999307
341.432818	0.997494
341.824694	0.996888
342.216506	0.999017
342.608253	0.997293
342.999937	0.996874
343.391557	0.997126
343.783113	0.998183
344.174605	0.996794
344.566033	0.998147
344.957397	0.996885
345.348697	0.997370
345.739934	0.997027
346.131106	0.996712
346.522215	0.995963
346.913260	0.999069
347.304241	0.996946
347.695159	0.997612
348.086012	0.996160
348.476802	0.997420
348.867528	0.997526
349.258191	0.997143
349.648789	0.998250
350.039324	0.997873
350.429796	0.998656
350.820203	0.998849
351.210548	0.997041
351.600828	0.997947
351.991045	0.997513
352.381198	0.997219
352.771288	0.997366
353.161314	0.998297
353.551276	0.998142
353.941175	0.997683
354.331010	0.996911
354.720782	0.997456
355.110490	0.996809
355.500135	0.997603
355.889717	0.997205
356.279235	0.997229
356.668689	0.998083
357.058080	0.997458
357.447408	0.998785
357.836672	0.998298
358.225873	0.998961
358.615010	0.998128
359.004084	0.998574
359.393095	0.998024
359.782043	0.997428
360.170927	0.999338
360.559748	0.997625
360.948505	0.997466
361.337199	0.998544
361.725830	0.998200
362.114398	0.997171
362.502903	0.998288
362.891344	0.999450
363.279722	0.997429
363.668037	0.997984
364.056289	0.996862
364.444478	0.999192
364.832603	0.998372
365.220665	0.997805
365.608665	0.997268
365.996601	0.998340
366.384474	0.997627
366.772284	0.998283
367.160031	0.996698
367.547715	0.997174
367.935336	0.997989
368.322893	0.997653
368.710388	0.997578
369.097820	0.997563
369.485189	0.997378
369.872495	0.998205
370.259738	0.995961
370.646918	0.998110
371.034035	0.997935
371.421090	0.997475
371.808081	0.997264
372.195010	0.998504
372.581875	0.999083
372.968678	0.996920
373.355418	0.997633
373.742096	0.997367
374.128710	0.999038
374.515262	0.996901
374.901751	0.997498
375.288177	0.997185
375.674540	0.998399
376.060841	0.997086
376.447079	0.998033
376.833254	0.997660
377.219367	0.998018
377.605417	0.998219
377.991404	0.998633
378.377329	0.997138
378.763191	0.998223
379.148991	0.999968
379.534727	0.998163
379.920402	0.998526
380.306013	0.998322
380.691563	0.998984
381.077049	0.998657
381.462474	0.998480
381.847835	0.998525
382.233134	0.998215
382.618371	0.999046
383.003545	0.998213
383.388657	0.998073
383.773706	0.999323
384.158693	0.998656
384.543618	0.998579
384.928480	0.999400
385.313280	0.998737
385.698017	0.998850
386.082692	0.998545
386.467305	0.997835
386.851856	0.998754
387.236344	0.999750
387.620770	0.997521
388.005133	0.999419
388.389435	0.999739
388.773674	0.999331
389.157851	0.998595
389.541965	0.999116
389.926018	0.999245
390.310008	0.999679
390.693936	0.998643
391.077802	0.998966
391.461606	0.998490
391.845348	0.999845
392.229027	0.999411
392.612645	0.999215
392.996200	0.999866
393.379694	0.999434
393.763125	0.999992
394.146494	0.999426
394.529801	0.998600
394.913047	0.999500
395.296230	0.999517
395.679351	0.998433
396.062410	0.998796
396.445408	0.999223
396.828343	0.997683
397.211217	0.998739
397.594028	0.998699
397.976778	0.999417
398.359466	0.998033
398.742092	0.998797
399.124656	0.998685
399.507158	0.999674
399.889598	1.000142
400.271977	0.999652
400.654294	0.998754
401.036549	0.999533
401.418742	1.000600
401.800874	0.998973
402.182944	0.999517
402.564952	0.998918
402.946898	0.999796
403.328783	0.999313
403.710606	0.999744
404.092367	0.999299
404.474067	0.999384
404.855705	0.999591
405.237282	0.999256
405.618797	0.999645
406.000250	0.999449
406.381642	0.999247
406.762972	0.999135
407.144240	1.000247
407.525447	1.000606
407.906593	0.999858
408.287677	0.998730
408.668700	0.999598
409.049661	0.999147
409.430560	0.999142
409.811399	0.998308
410.192176	0.998706
410.572891	0.998604
410.953545	0.999446
411.334138	0.997488
411.714669	0.999301
412.095139	0.998826
412.475547	1.000259
412.855894	1.000124
413.236180	1.000615
413.616405	0.999437
413.996568	1.000169
414.376670	0.999995
414.756711	0.999368
415.136691	0.999348
415.516609	0.999732
415.896466	0.998784
416.276262	0.997927
416.655997	1.000004
417.035670	0.999123
417.415283	0.999352
417.794834	0.999439
418.174324	0.999442
418.553753	0.999588
418.933121	0.998730
419.312428	0.999057
419.691674	0.998870
420.070859	0.999455
420.449983	0.999578
420.829045	0.999969
421.208047	1.000591
421.586988	1.000312
421.965867	0.999648
422.344686	1.000506
422.723444	0.999295
423.102141	0.999626
423.480777	0.999479
423.859352	0.999348
424.237866	0.998971
424.616319	0.999493
424.994712	0.999903
425.373044	0.999953
425.751314	0.999587
426.129524	0.999589
426.507673	0.999681
426.885762	1.000005
427.263789	1.000083
427.641756	1.000329
428.019662	1.000530
428.397508	0.999049
428.775292	0.999092
429.153016	1.000273
429.530679	1.000196
429.908282	1.000072
430.285824	0.999581
430.663305	0.999484
431.040726	0.999985
431.418086	1.000818
431.795385	1.000011
432.172624	0.999579
432.549802	1.000015
432.926920	1.000932
433.303977	0.999262
433.680974	1.000355
434.057910	0.999574
434.434786	1.000106
434.811601	0.999072
435.188355	0.998772
435.565050	0.998897
435.941683	0.999958
436.318257	1.000260
436.694770	0.998943
437.071222	0.999606
437.447614	0.999847
437.823946	1.000249
438.200218	0.999170
438.576429	0.999600
438.952580	1.000114
439.328670	0.999699
439.704700	1.000782
440.080670	1.000353
440.456580	1.000083
440.832429	1.000035
441.208218	1.000330
441.583947	0.999278
441.959616	0.999925
442.335224	0.999721
442.710773	1.000871
443.086261	0.999367
443.461689	1.000428
443.837057	0.999377
444.212365	1.000541
444.587612	0.999400
444.962800	0.999392
445.337927	1.000128
445.712995	0.999811
446.088002	1.000176
446.462949	1.000241
446.837837	0.999712
447.212664	0.999652
447.587431	0.999691
447.962139	0.999157
448.336786	0.999401
448.711374	0.999978
449.085901	0.999207
449.460369	0.999626
449.834776	0.999299
450.209124	0.999835
450.583412	1.000046
450.957640	1.000326
451.331808	1.000163
451.705917	0.999490
452.079965	0.999365
452.453954	0.999863
452.827883	0.999721
453.201752	0.999817
453.575562	1.000819
453.949311	1.000310
454.323001	0.999989
454.696632	0.999476
455.070202	1.000166
455.443713	0.999190
455.817164	0.999728
456.190556	0.999839
456.563888	1.000452
456.937160	0.999992
457.310373	0.999231
457.683526	0.999442
458.056619	0.999540
458.429653	0.999801
458.802628	0.999241
459.175542	0.999651
459.548398	0.999303
459.921194	1.000052
460.293930	1.000486
460.666607	0.999155
461.039224	0.998848
461.411782	0.999485
461.784280	0.999696
462.156719	1.000066
462.529099	0.999512
462.901419	0.999717
463.273680	0.999639
463.645882	0.999646
464.018024	0.999648
464.390106	1.000399
464.762130	1.000698
465.134094	0.999563
465.505999	1.000176
465.877845	1.000086
466.249631	1.000045
466.621358	0.999796
466.993026	0.999723
467.364634	0.999993
467.736184	0.999999
468.107674	0.999265
468.479105	0.999491
468.850477	0.999769
469.221790	1.000096
469.593043	1.000408
469.964238	1.001383
470.335373	0.999549
470.706449	0.999029
471.077467	1.000409
471.448425	0.999787
471.819324	1.000315
472.190164	0.999345
472.560945	1.000016
472.931667	0.999430
473.302330	0.999527
473.672934	0.999995
474.043479	1.000253
474.413965	1.000082
474.784393	1.000598
475.154761	0.999748
475.525070	0.998450
475.895321	0.999999
476.265513	1.000151
476.635645	0.999456
477.005719	0.999874
477.375734	0.999158
477.745691	0.999940
478.115588	0.999491
478.485427	1.000435
478.855207	0.999694
479.224928	1.000149
479.594591	1.000196
479.964194	0.999652
480.333739	0.999561
480.703226	0.999559
481.072653	1.000177
481.442022	0.999995
481.811333	0.999512
482.180584	0.999784
482.549777	0.999387
482.918912	1.000039
483.287988	1.000379
483.657005	0.999771
484.025964	1.000526
484.394864	1.000021
484.763706	1.000221
485.132489	1.000198
485.501213	0.999543
485.869879	0.999785
486.238487	0.999370
486.607036	1.000135
486.975527	0.999279
487.343959	0.999270
487.712333	0.999915
488.080648	0.999396
488.448905	1.000015
488.817104	1.000182
489.185244	0.999768
489.553326	0.999894
489.921350	0.999491
490.289315	0.999658
490.657222	1.000477
491.025070	0.999595
491.392861	1.000422
491.760593	0.999985
492.128267	0.999885
492.495883	0.999749
492.863440	1.000176
493.230939	1.000371
493.598380	0.999732
493.965763	0.999397
494.333088	0.999860
494.700354	0.999515
495.067563	1.000032
495.434713	0.999665
495.801805	1.000363
496.168839	0.999592
496.535815	0.999693
496.902733	0.999846
497.269593	0.999223
497.636395	1.000090
498.003139	0.999771
498.369825	1.000612
498.736453	0.999590
499.103023	0.999337
499.469535	1.000347
499.835989	0.999858
500.202385	1.000064
500.568723	1.000105
500.935003	0.999790
501.301226	0.999990
501.667390	0.999345
502.033497	1.000016
502.399546	1.000721
502.765537	0.999532
503.131470	0.998851
503.497345	0.999408
503.863163	1.000629
504.228923	0.999533
504.594625	0.999871
504.960269	1.000466
505.325856	1.000226
505.691385	0.999471
506.056856	0.999830
506.422270	0.999831
506.787625	1.000123
507.152924	0.999625
507.518164	0.999201
507.883347	0.999182
508.248472	0.999496
508.613540	0.999470
508.978550	1.000000
509.343503	0.998815
509.708398	0.999345
510.073236	0.999520
510.438016	0.999558
510.802738	0.999244
511.167403	0.999370
511.532010	0.999709
511.896561	0.999365
512.261053	1.000218
512.625488	0.999549
512.989866	0.999378
513.354186	0.999278
513.718449	0.999713
514.082655	0.999402
514.446803	0.999037
514.810894	1.000117
515.174927	0.999777
515.538904	0.999628
515.902822	0.999355
516.266684	0.999403
516.630488	0.999759
516.994235	0.999285
517.357925	0.998741
517.721558	0.999561
518.085133	0.998689
518.448651	1.000048
518.812112	0.999287
519.175516	0.999246
519.538863	0.999434
519.902152	0.998883
520.265385	0.999016
520.628560	0.998966
520.991678	0.999456
521.354739	0.999347
521.717743	0.999492
522.080690	0.999800
522.443580	0.999086
522.806413	0.998962
523.169189	0.998721
523.531908	0.998716
523.894569	0.999097
524.257174	0.999282
524.619722	0.999038
524.982213	0.999440
525.344647	0.999057
525.707025	0.998143
526.069345	0.997997
526.431608	0.998432
526.793815	0.999168
527.155964	0.998628
527.518057	0.999364
527.880093	0.999086
528.242072	0.998381
528.603995	0.998524
528.965860	0.999639
529.327669	0.998591
529.689421	0.998627
530.051117	0.999220
530.412755	0.998683
530.774337	0.999698
531.135862	0.998216
531.497331	0.998842
531.858743	0.998491
532.220098	0.998550
532.581396	0.998821
532.942638	0.998908
533.303824	0.998119
533.664953	0.999038
534.026025	0.998368
534.387040	0.998353
534.747999	0.998465
535.108902	0.998470
535.469748	0.997673
535.830537	0.998330
536.191270	0.998173
536.551947	0.997981
536.912567	0.998641
537.273131	0.999066
537.633638	0.997373
537.994089	0.998599
538.354483	0.997903
538.714821	0.997388
539.075103	0.998151
539.435328	0.998276
539.795497	0.998009
540.155609	0.997829
540.515665	0.997730
540.875665	0.997432
541.235609	0.997966
541.595496	0.997377
541.955328	0.996753
542.315102	0.997712
542.674821	0.998125
543.034483	0.997525
543.394090	0.997239
543.753640	0.997793
544.113134	0.997786
544.472571	0.997503
544.831953	0.997275
545.191278	0.997321
545.550548	0.998014
545.909761	0.997064
546.268918	0.997860
546.628019	0.997248
546.987064	0.997337
547.346053	0.998278
547.704986	0.997825
548.063863	0.997892
548.422684	0.997435
548.781449	0.997975
549.140158	0.996576
549.498811	0.997783
549.857408	0.997537
550.215949	0.997271
550.574434	0.997260
550.932864	0.997181
551.291237	0.997155
551.649555	0.997217
552.007817	0.996885
552.366022	0.996425
552.724173	0.997170
553.082267	0.996405
553.440305	0.997022
553.798288	0.997202
554.156215	0.996070
554.514086	0.996721
554.871902	0.996249
555.229661	0.996373
555.587365	0.996471
555.945014	0.997482
556.302606	0.995935
556.660143	0.996727
557.017625	0.995995
557.375050	0.996272
557.732421	0.995996
558.089735	0.995700
558.446994	0.996595
558.804197	0.996243
559.161345	0.996505
559.518437	0.997029
559.875474	0.994532
560.232455	0.995022
560.589381	0.995561
560.946251	0.994364
561.303065	0.994619
561.659825	0.994828
562.016528	0.994559
562.373177	0.994829
562.729770	0.994523
563.086307	0.994458
563.442789	0.994325
563.799216	0.993816
564.155587	0.993711
564.511904	0.993315
564.868164	0.993448
565.224370	0.993429
565.580520	0.993637
565.936615	0.992951
566.292654	0.992178
566.648638	0.992617
567.004567	0.991973
567.360441	0.992155
567.716260	0.992213
568.072023	0.991600
568.427732	0.991750
568.783385	0.991906
569.138982	0.990908
569.494525	0.990231
569.850013	0.990558
570.205445	0.990021
570.560823	0.989316
570.916145	0.989332
571.271412	0.989526
571.626625	0.988371
571.981782	0.987697
572.336884	0.988419
572.691931	0.987573
573.046923	0.986575
573.401860	0.987152
573.756743	0.986696
574.111570	0.986332
574.466342	0.985670
574.821059	0.985369
575.175722	0.984587
575.530330	0.985050
575.884882	0.983475
576.239380	0.983474
576.593823	0.982748
576.948211	0.982722
577.302544	0.982517
577.656823	0.981638
578.011047	0.981059
578.365216	0.980031
578.719330	0.979212
579.073389	0.978793
579.427394	0.978489
579.781344	0.977723
580.135239	0.976818
580.489080	0.976668
580.842866	0.975956
581.196597	0.974168
581.550273	0.973427
581.903895	0.972886
582.257463	0.972249
582.610975	0.971264
582.964434	0.971183
583.317837	0.971046
583.671186	0.969387
584.024481	0.968241
584.377721	0.967040
584.730906	0.966303
585.084037	0.965404
585.437113	0.965026
585.790135	0.963130
586.143103	0.961947
586.496016	0.962177
586.848874	0.960156
587.201679	0.959506
587.554428	0.957931
587.907124	0.957151
588.259765	0.955654
588.612352	0.954755
588.964884	0.953447
589.317362	0.952739
589.669786	0.951357
590.022155	0.950194
590.374470	0.947844
590.726731	0.946934
591.078937	0.945453
591.431090	0.944074
591.783188	0.944012
592.135232	0.942440
592.487222	0.941579
592.839157	0.939289
593.191038	0.938547
593.542866	0.937324
593.894639	0.936395
594.246358	0.934014
594.598022	0.932512
594.949633	0.931345
595.301190	0.929276
595.652692	0.928749
596.004141	0.926577
596.355535	0.925847
596.706876	0.923410
597.058162	0.921844
597.409395	0.920698
597.760573	0.918435
598.111698	0.917181
598.462768	0.914660
598.813785	0.913572
599.164748	0.911784
599.515657	0.910339
599.866511	0.908372
600.217312	0.906047
600.568060	0.904898
600.918753	0.902771
601.269392	0.901137
601.619978	0.899215
601.970510	0.897514
602.320988	0.895296
602.671412	0.892230
603.021783	0.891463
603.372100	0.890269
603.722363	0.887788
604.072572	0.885159
604.422728	0.883271
604.772830	0.882008
605.122878	0.879172
605.472872	0.877974
605.822813	0.873749
606.172701	0.873441
606.522534	0.871312
606.872314	0.868390
607.222041	0.866404
607.571714	0.864402
607.921333	0.861629
608.270899	0.859327
608.620411	0.857585
608.969870	0.855530
609.319276	0.852796
609.668627	0.851013
610.017926	0.847676
610.367171	0.843850
610.716362	0.842180
611.065500	0.839519
611.414585	0.836705
611.763616	0.834787
612.112594	0.832077
612.461518	0.828783
612.810389	0.826292
613.159207	0.824528
613.507971	0.822190
613.856682	0.818511
614.205340	0.816954
614.553945	0.812792
614.902496	0.811331
615.250994	0.808626
615.599439	0.806066
615.947830	0.803300
616.296169	0.800365
616.644454	0.797853
616.992686	0.795800
617.340864	0.790939
617.688990	0.790504
618.037063	0.786896
618.385082	0.784753
618.733048	0.780152
619.080961	0.779139
619.428821	0.777072
619.776628	0.773023
620.124382	0.771428
620.472083	0.767835
620.819731	0.766513
621.167326	0.764845
621.514868	0.762239
621.862357	0.761312
622.209793	0.759557
622.557176	0.756097
622.904506	0.754885
623.251783	0.753614
623.599007	0.751912
623.946179	0.749137
624.293297	0.746838
624.640363	0.745904
624.987376	0.743797
625.334336	0.742989
625.681243	0.740718
626.028097	0.738514
626.374899	0.736642
626.721647	0.733064
627.068343	0.733739
627.414987	0.730384
627.761577	0.728986
628.108115	0.726390
628.454600	0.725518
628.801032	0.720653
629.147412	0.721140
629.493739	0.717767
629.840014	0.716801
630.186236	0.712345
630.532405	0.712930
630.878521	0.709227
631.224585	0.707903
631.570597	0.707682
631.916556	0.703665
632.262462	0.701051
632.608316	0.699231
632.954117	0.697531
633.299866	0.696284
633.645562	0.692998
633.991206	0.693644
634.336797	0.692221
634.682336	0.690809
635.027823	0.689031
635.373257	0.687506
635.718639	0.686956
636.063968	0.683903
636.409245	0.685104
636.754470	0.682240
637.099642	0.682015
637.444762	0.680550
637.789829	0.676893
638.134845	0.677749
638.479808	0.674786
638.824719	0.672967
639.169577	0.672606
639.514383	0.669990
639.859137	0.670022
640.203839	0.668986
640.548489	0.665342
640.893086	0.664831
641.237632	0.663603
641.582125	0.659617
641.926566	0.658932
642.270955	0.657062
642.615292	0.654986
642.959576	0.651756
643.303809	0.650636
643.647990	0.647331
643.992118	0.646692
644.336195	0.647033
644.680219	0.643027
645.024192	0.643020
645.368112	0.636096
645.711981	0.633626
646.055797	0.628734
646.399562	0.628531
646.743274	0.620991
647.086935	0.618549
647.430544	0.616100
647.774101	0.613038
648.117606	0.611743
648.461059	0.609954
648.804460	0.609224
649.147810	0.610335
649.491108	0.609078
649.834354	0.608148
650.177548	0.609627
650.520690	0.610472
650.863781	0.609638
651.206820	0.607223
651.549807	0.608413
651.892742	0.609066
652.235626	0.606425
652.578458	0.605070
652.921238	0.607806
653.263967	0.604819
653.606644	0.606433
653.949269	0.603094
654.291843	0.605177
654.634365	0.600148
654.976836	0.600738
655.319255	0.599872
655.661622	0.599329
656.003938	0.596134
656.346203	0.598109
656.688416	0.594189
657.030577	0.595496
657.372687	0.595234
657.714746	0.593733
658.056753	0.590029
658.398708	0.590961
658.740612	0.590832
659.082465	0.585449
659.424266	0.585138
659.766016	0.582998
660.107715	0.582603
660.449362	0.580893
660.790958	0.579762
661.132503	0.578112
661.473996	0.575075
661.815438	0.574539
662.156829	0.573398
662.498168	0.572441
662.839456	0.572564
663.180693	0.568574
663.521879	0.567505
663.863013	0.566199
664.204097	0.563268
664.545129	0.559929
664.886110	0.558923
665.227040	0.554591
665.567918	0.557034
665.908746	0.553100
666.249522	0.552173
666.590248	0.552190
666.930922	0.549601
667.271545	0.547035
667.612118	0.546178
667.952639	0.546127
668.293109	0.542883
668.633528	0.544390
668.973896	0.542793
669.314213	0.541691
669.654480	0.542118
669.994695	0.541211
670.334859	0.540308
670.674973	0.538678
671.015035	0.538330
671.355047	0.536437
671.695008	0.536934
672.034918	0.537887
672.374777	0.536225
672.714585	0.535917
673.054342	0.534588
673.394049	0.533695
673.733705	0.530698
674.073310	0.530424
674.412864	0.532519
674.752368	0.531712
675.091820	0.530613
675.431223	0.533144
675.770574	0.531475
676.109875	0.533616
676.449125	0.531694
676.788324	0.532791
677.127473	0.536056
677.466571	0.534078
677.805619	0.534429
678.144616	0.534363
678.483562	0.534845
678.822458	0.536165
679.161303	0.536849
679.500098	0.534898
679.838842	0.536503
680.177535	0.534877
680.516179	0.532869
680.854771	0.531044
681.193314	0.525135
681.531805	0.517371
681.870247	0.506761
682.208638	0.500157
682.546978	0.498349
682.885268	0.498850
683.223508	0.502892
683.561697	0.505372
683.899836	0.507077
684.237925	0.509571
684.575963	0.510948
684.913951	0.513584
685.251889	0.508919
685.589776	0.510160
685.927614	0.512114
686.265401	0.506421
686.603137	0.507004
686.940824	0.500838
687.278460	0.500365
687.616046	0.498930
687.953582	0.494839
688.291068	0.495779
688.628504	0.490852
688.965889	0.492565
689.303224	0.495656
689.640510	0.497877
689.977745	0.502241
690.314930	0.508413
690.652065	0.511043
690.989150	0.517431
691.326185	0.522055
691.663170	0.525070
692.000105	0.530901
692.336990	0.536418
692.673825	0.537771
693.010610	0.543626
693.347345	0.547895
693.684030	0.548660
694.020665	0.552525
694.357251	0.559833
694.693786	0.559494
695.030272	0.563061
695.366707	0.565279
695.703093	0.568193
696.039429	0.565284
696.375716	0.566483
696.711952	0.568750
697.048139	0.570918
697.384276	0.572011
697.720363	0.569819
698.056400	0.569026
698.392388	0.574033
698.728326	0.576790
699.064214	0.578764
699.400053	0.578497
699.735842	0.581720
700.071581	0.584050
700.407270	0.585788
700.742910	0.587833
701.078501	0.593710
701.414042	0.593531
701.749533	0.596057
702.084974	0.603958
702.420366	0.595744
702.755709	0.602907
703.091002	0.610427
703.426246	0.603274
703.761440	0.608483
704.096584	0.612666
704.431679	0.610079
704.766725	0.611054
705.101721	0.612742
705.436668	0.608237
705.771565	0.615456
706.106413	0.612424
706.441212	0.606771
706.775961	0.605302
707.110661	0.609457
707.445311	0.604614
707.779913	0.602187
708.114465	0.600284
708.448967	0.596841
708.783421	0.588837
709.117825	0.583470
709.452180	0.583491
709.786485	0.577823
710.120742	0.567760
710.454949	0.570193
710.789107	0.562877
711.123216	0.554252
711.457275	0.555880
711.791286	0.547067
712.125247	0.546385
712.459159	0.556665
712.793023	0.549303
713.126837	0.552565
713.460602	0.552244
713.794318	0.561876
714.127985	0.559553
714.461602	0.568444
714.795171	0.572304
715.128691	0.578804
715.462162	0.585737
715.795584	0.590291
716.128957	0.592662
716.462281	0.599046
716.795556	0.602280
717.128782	0.606793
717.461960	0.616129
717.795088	0.613890
718.128167	0.620427
718.461198	0.628412
718.794180	0.629453
719.127113	0.630882
719.459997	0.635116
719.792833	0.640462
720.125619	0.641457
720.458357	0.647630
720.791046	0.646668
721.123686	0.649840
721.456278	0.656721
721.788821	0.653992
722.121315	0.657841
722.453761	0.662323
722.786158	0.659592
723.118506	0.656217
723.450805	0.663465
723.783056	0.660459
724.115259	0.656422
724.447412	0.656846
724.779518	0.658620
725.111574	0.656280
725.443582	0.652178
725.775542	0.653716
726.107453	0.646758
726.439315	0.646999
726.771129	0.645397
727.102895	0.638855
727.434612	0.631690
727.766281	0.629574
728.097901	0.629391
728.429473	0.628156
728.760996	0.626974
729.092471	0.626657
729.423897	0.630785
729.755276	0.629143
730.086606	0.629904
730.417887	0.624507
730.749120	0.615143
731.080305	0.605593
731.411442	0.602038
731.742530	0.606711
732.073570	0.605264
732.404562	0.598158
732.735506	0.599365
733.066401	0.603714
733.397249	0.612669
733.728048	0.623655
734.058798	0.636398
734.389501	0.645453
734.720156	0.655674
735.050762	0.663946
735.381320	0.664724
735.711831	0.673757
736.042293	0.678260
736.372707	0.672990
736.703073	0.678335
737.033391	0.681022
737.363661	0.677215
737.693883	0.672040
738.024056	0.672621
738.354182	0.672253
738.684260	0.661559
739.014290	0.657843
739.344272	0.659344
739.674207	0.652649
740.004093	0.651177
740.333931	0.652353
740.663722	0.651796
740.993464	0.652711
741.323159	0.656375
741.652806	0.660119
741.982405	0.665282
742.311956	0.670427
742.641460	0.672082
742.970915	0.675310
743.300323	0.683927
743.629683	0.689547
743.958996	0.691357
744.288260	0.695438
744.617477	0.700951
744.946647	0.703002
745.275768	0.708136
745.604842	0.707867
745.933869	0.717866
746.262847	0.718076
746.591778	0.712120
746.920662	0.717654
747.249498	0.723799
747.578286	0.714780
747.907027	0.711490
748.235720	0.712720
748.564365	0.707343
748.892963	0.706773
749.221514	0.709828
749.550017	0.715139
749.878473	0.714842
750.206881	0.720868
750.535242	0.722035
750.863555	0.722192
751.191821	0.723544
751.520039	0.726610
751.848210	0.730899
752.176334	0.723295
752.504411	0.722565
752.832440	0.730171
753.160421	0.735020
753.488356	0.732026
753.816243	0.730421
754.144082	0.738737
754.471875	0.742240
754.799620	0.737411
755.127318	0.739093
755.454969	0.738961
755.782572	0.737911
756.110129	0.743091
756.437638	0.745855
756.765100	0.741343
757.092515	0.739716
757.419882	0.738730
757.747203	0.743867
758.074477	0.744453
758.401703	0.740878
758.728882	0.735717
759.056014	0.734504
759.383099	0.732650
759.710138	0.735929
760.037129	0.731476
760.364073	0.725382
760.690970	0.727869
761.017820	0.733661
761.344623	0.729476
761.671379	0.720184
761.998088	0.708434
762.324751	0.686350
762.651366	0.645017
762.977935	0.580393
763.304456	0.528314
763.630931	0.518824
763.957359	0.557238
764.283740	0.601414
764.610074	0.628506
764.936362	0.658595
765.262602	0.684411
765.588796	0.705723
765.914943	0.723661
766.241044	0.741881
766.567097	0.747139
766.893104	0.756896
767.219064	0.763292
767.544978	0.769163
767.870845	0.783091
768.196665	0.786560
768.522438	0.784185
768.848165	0.785866
769.173846	0.794984
769.499479	0.798746
769.825066	0.802127
770.150607	0.807675
770.476101	0.802505
770.801548	0.804078
771.126949	0.814585
771.452303	0.818642
771.777611	0.817902
772.102872	0.816835
772.428087	0.822011
772.753256	0.825677
773.078378	0.827180
773.403453	0.836072
773.728482	0.840607
774.053465	0.835008
774.378401	0.837273
774.703291	0.846359
775.028135	0.846098
775.352932	0.847528
775.677683	0.849827
776.002388	0.850484
776.327046	0.849303
776.651658	0.853087
776.976224	0.856235
777.300743	0.856483
777.625216	0.859791
777.949643	0.860865
778.274024	0.860668
778.598359	0.862307
778.922647	0.861184
779.246889	0.861999
779.571086	0.864937
779.895236	0.868156
780.219339	0.864946
780.543397	0.861575
780.867409	0.860034
781.191374	0.863605
781.515294	0.864492
781.839167	0.862666
782.162995	0.866481
782.486776	0.863529
782.810511	0.864903
783.134201	0.867324
783.457844	0.864767
783.781441	0.868407
784.104993	0.874679
784.428498	0.873822
784.751958	0.869579
785.075372	0.872684
785.398739	0.876529
785.722061	0.872752
786.045337	0.868575
786.368568	0.873820
786.691752	0.875355
787.014891	0.861299
787.337983	0.852820
787.661030	0.845849
787.984031	0.827543
788.306987	0.814983
788.629897	0.817466
788.952760	0.821031
789.275579	0.826143
789.598351	0.840824
789.921078	0.853482
790.243759	0.855544
790.566395	0.860685
790.888984	0.867491
791.211529	0.872478
791.534027	0.874864
791.856480	0.877116
792.178888	0.882126
792.501249	0.885379
792.823566	0.886390
793.145836	0.886972
793.468062	0.888581
793.790241	0.888524
794.112375	0.886773
794.434464	0.882682
794.756507	0.880913
795.078505	0.881149
795.400457	0.875380
795.722364	0.863970
796.044226	0.857517
796.366042	0.857549
796.687812	0.859668
797.009538	0.855853
797.331218	0.857897
797.652852	0.863903
797.974442	0.868950
798.295986	0.868199
798.617484	0.870876
798.938938	0.874931
799.260346	0.880656
799.581709	0.881509
799.903026	0.884688
800.224299	0.883750
800.545526	0.888250
800.866708	0.892183
801.187845	0.896673
801.508936	0.895059
801.829983	0.893658
802.150984	0.895377
802.471940	0.902303
802.792851	0.900846
803.113717	0.901621
803.434538	0.899490
803.755314	0.901882
804.076045	0.903774
804.396731	0.904491
804.717372	0.903059
805.037967	0.905434
805.358518	0.903541
805.679024	0.900284
805.999485	0.899725
806.319901	0.900958
806.640272	0.901358
806.960598	0.899377
807.280879	0.896851
807.601115	0.895766
807.921306	0.898795
808.241453	0.900014
808.561554	0.897618
808.881611	0.897457
809.201623	0.899797
809.521590	0.900211
809.841513	0.901249
810.161390	0.899867
810.481223	0.901499
810.801011	0.906329
811.120755	0.907422
811.440453	0.905254
811.760107	0.902779
812.079716	0.903394
812.399281	0.906621
812.718801	0.910212
813.038276	0.911388
813.357707	0.909418
813.677093	0.907408
813.996434	0.909930
814.315731	0.912542
814.634983	0.913401
814.954191	0.911410
815.273354	0.908799
815.592473	0.905201
815.911547	0.905447
816.230577	0.903300
816.549562	0.899587
816.868502	0.900936
817.187399	0.896989
817.506250	0.891773
817.825058	0.893380
818.143821	0.890605
818.462539	0.886027
818.781213	0.877149
819.099843	0.867205
819.418429	0.851238
819.736970	0.834595
820.055466	0.815525
820.373919	0.790411
820.692327	0.758242
821.010691	0.724652
821.329011	0.649367
821.647286	0.537125
821.965517	0.425651
822.283704	0.383297
822.601847	0.385508
822.919945	0.420592
823.237999	0.453026
823.556010	0.498457
823.873976	0.553090
824.191897	0.602521
824.509775	0.643855
824.827609	0.688022
825.145398	0.710269
825.463144	0.713388
825.780845	0.696136
826.098502	0.678084
826.416116	0.633563
826.733685	0.590864
827.051210	0.582392
827.368692	0.596834
827.686129	0.633103
828.003522	0.685133
828.320872	0.731210
828.638177	0.774537
828.955439	0.805346
829.272656	0.827327
829.589830	0.843371
829.906960	0.859500
830.224046	0.871704
830.541088	0.881553
830.858086	0.886403
831.175041	0.892327
831.491952	0.890675
831.808819	0.889478
832.125642	0.882191
832.442421	0.867627
832.759157	0.846356
833.075849	0.801342
833.392497	0.738655
833.709101	0.698704
834.025662	0.708319
834.342179	0.739500
834.658653	0.777727
834.975083	0.812752
835.291469	0.837766
835.607811	0.859889
835.924110	0.874975
836.240366	0.891044
836.556578	0.905335
836.872746	0.912903
837.188871	0.918953
837.504952	0.924566
837.820990	0.927390
838.136984	0.930056
838.452935	0.933306
838.768842	0.935013
839.084706	0.928690
839.400526	0.904081
839.716303	0.864264
840.032037	0.843069
840.347727	0.846395
840.663373	0.864010
840.978977	0.884784
841.294537	0.906529
841.610054	0.923294
841.925527	0.929154
842.240957	0.936543
842.556344	0.942372
842.871687	0.949044
843.186987	0.953336
843.502244	0.952875
843.817458	0.955235
844.132629	0.958104
844.447756	0.964138
844.762840	0.963962
845.077881	0.962126
845.392879	0.963458
845.707833	0.965394
846.022745	0.966506
846.337613	0.967582
846.652438	0.968556
846.967221	0.967042
847.281960	0.967309
847.596656	0.970068
847.911309	0.968286
848.225919	0.970323
848.540485	0.969797
848.855009	0.971246
849.169490	0.970709
849.483928	0.971789
849.798323	0.971538
850.112675	0.972186
850.426984	0.972943
850.741251	0.971890
851.055474	0.971985
851.369654	0.970736
851.683792	0.973373
851.997887	0.972664
852.311938	0.973976
852.625947	0.972727
852.939914	0.970452
853.253837	0.971894
853.567718	0.973600
853.881555	0.974396
854.195350	0.969417
854.509103	0.971726
854.822812	0.973033
855.136479	0.972198
855.450103	0.972888
855.763685	0.970778
856.077224	0.971587
856.390720	0.972851
856.704173	0.972495
857.017584	0.970761
857.330953	0.969664
857.644278	0.971423
857.957561	0.971518
858.270802	0.971238
858.584000	0.970987
858.897155	0.969245
859.210268	0.970253
859.523339	0.970439
859.836367	0.972456
860.149352	0.973943
860.462295	0.970772
860.775195	0.972670
861.088054	0.972576
861.400869	0.971975
861.713642	0.972720
862.026373	0.973584
862.339062	0.973763
862.651708	0.971494
862.964312	0.970537
863.276873	0.972534
863.589392	0.970152
863.901869	0.969294
864.214303	0.967113
864.526696	0.967228
864.839045	0.966459
865.151353	0.965099
865.463619	0.965255
865.775842	0.965613
866.088023	0.964345
866.400162	0.965112
866.712258	0.965741
867.024313	0.966215
867.336325	0.966066
867.648296	0.966153
867.960224	0.965566
868.272110	0.965188
868.583954	0.966015
868.895755	0.968068
869.207515	0.965951
869.519233	0.962691
869.830909	0.963548
870.142542	0.966689
870.454134	0.965760
870.765684	0.963348
871.077191	0.961793
871.388657	0.962456
871.700081	0.961922
872.011463	0.961477
872.322803	0.961973
872.634101	0.960145
872.945357	0.958758
873.256571	0.957284
873.567744	0.956803
873.878874	0.957775
874.189963	0.956320
874.501010	0.955620
874.812015	0.953580
875.122979	0.954985
875.433900	0.956176
875.744780	0.957664
876.055618	0.954346
876.366415	0.953840
876.677169	0.953334
876.987882	0.954850
877.298554	0.954781
877.609183	0.952552
877.919771	0.949126
878.230317	0.946140
878.540822	0.944932
878.851285	0.939637
879.161707	0.931544
879.472087	0.920778
879.782425	0.905391
880.092722	0.872940
880.402977	0.823885
880.713191	0.765264
881.023363	0.708971
881.333494	0.676439
881.643583	0.648873
881.953631	0.647734
882.263637	0.676687
882.573602	0.715351
882.883526	0.739907
883.193408	0.761696
883.503248	0.782736
883.813048	0.808918
884.122806	0.838632
884.432522	0.860555
884.742197	0.879014
885.051831	0.888198
885.361424	0.897874
885.670975	0.909730
885.980485	0.919784
886.289954	0.925647
886.599382	0.930619
886.908768	0.934092
887.218113	0.939547
887.527417	0.944299
887.836680	0.945968
888.145901	0.949425
888.455082	0.951267
888.764221	0.955755
889.073319	0.958287
889.382376	0.957589
889.691392	0.957051
890.000366	0.956758
890.309300	0.957727
890.618193	0.958118
890.927044	0.957219
891.235855	0.956113
891.544625	0.956378
891.853353	0.957222
892.162041	0.953904
892.470687	0.948579
892.779293	0.942384
893.087858	0.939242
893.396381	0.932439
893.704864	0.920126
894.013306	0.897264
894.321707	0.871098
894.630068	0.857456
894.938387	0.853718
895.246665	0.854689
895.554903	0.866632
895.863100	0.879124
896.171256	0.895313
896.479371	0.913455
896.787446	0.926378
897.095480	0.931794
897.403473	0.934099
897.711425	0.938032
898.019336	0.945831
898.327207	0.947526
898.635038	0.949986
898.942827	0.949521
899.250576	0.952420
899.558284	0.956467
899.865952	0.959127
900.173579	0.958963
900.481165	0.959784
900.788711	0.964124
901.096216	0.965398
901.403681	0.964965
901.711105	0.966859
902.018489	0.967758
902.325832	0.966809
902.633135	0.966009
902.940397	0.959665
903.247619	0.949667
903.554800	0.923877
903.861941	0.887193
904.169041	0.854498
904.476101	0.838815
904.783121	0.839394
905.090100	0.854431
905.397039	0.874510
905.703938	0.894710
906.010796	0.913749
906.317614	0.929505
906.624391	0.939676
906.931129	0.949984
907.237826	0.956649
907.544483	0.962800
907.851099	0.966866
908.157675	0.971877
908.464211	0.973416
908.770707	0.976245
909.077163	0.978710
909.383578	0.978399
909.689954	0.978357
909.996289	0.979280
910.302584	0.981345
910.608839	0.982453
910.915054	0.981420
911.221229	0.980736
911.527363	0.980020
911.833458	0.980752
912.139513	0.980774
912.445527	0.978745
912.751502	0.977056
913.057436	0.975650
913.363331	0.973735
913.669186	0.970304
913.975000	0.965624
914.280775	0.960346
914.586510	0.954873
914.892205	0.941694
915.197859	0.922040
915.503475	0.895845
915.809050	0.877408
916.114585	0.873100
916.420081	0.872098
916.725536	0.866947
917.030952	0.875032
917.336328	0.887273
917.641665	0.901390
917.946961	0.916895
918.252218	0.926666
918.557435	0.934825
918.862612	0.942369
919.167750	0.948167
919.472848	0.952602
919.777906	0.957668
920.082925	0.963173
920.387904	0.967282
920.692843	0.967028
920.997743	0.969318
921.302603	0.970842
921.607423	0.972332
921.912204	0.975650
922.216946	0.975750
922.521647	0.977116
922.826310	0.978920
923.130932	0.980672
923.435516	0.980845
923.740059	0.982719
924.044564	0.981011
924.349028	0.983445
924.653454	0.986016
924.957840	0.986724
925.262186	0.988364
925.566493	0.986071
925.870761	0.988670
926.174989	0.990168
926.479178	0.990772
926.783328	0.991986
927.087438	0.991701
927.391509	0.989881
927.695541	0.992385
927.999533	0.992044
928.303486	0.991409
928.607400	0.993781
928.911275	0.991325
929.215110	0.992819
929.518906	0.993104
929.822663	0.991568
930.126381	0.993784
930.430060	0.992966
930.733699	0.992608
931.037299	0.991592
931.340861	0.992356
931.644383	0.992201
931.947866	0.992050
932.251309	0.993589
932.554714	0.993572
932.858080	0.992982
933.161407	0.993349
933.464694	0.993087
933.767943	0.991924
934.071153	0.992940
934.374323	0.993318
934.677455	0.993571
934.980548	0.994096
935.283602	0.991566
935.586617	0.992964
935.889593	0.992711
936.192530	0.992676
936.495428	0.992664
936.798287	0.992059
937.101108	0.991788
937.403890	0.991363
937.706632	0.991212
938.009336	0.989951
938.312002	0.987639
938.614628	0.987750
938.917216	0.985994
939.219765	0.984719
939.522275	0.986198
939.824747	0.986805
940.127179	0.986131
940.429573	0.987174
940.731929	0.986976
941.034246	0.988433
941.336524	0.989209
941.638763	0.988844
941.940964	0.988779
942.243126	0.990348
942.545250	0.990044
942.847335	0.991207
943.149381	0.990032
943.451389	0.990774
943.753359	0.990916
944.055290	0.993315
944.357182	0.992483
944.659036	0.990555
944.960851	0.992132
945.262628	0.992315
945.564367	0.993826
945.866067	0.991759
946.167729	0.992284
946.469352	0.992604
946.770937	0.991505
947.072484	0.994729
947.373992	0.993151
947.675462	0.992478
947.976893	0.992505
948.278286	0.993448
948.579641	0.993596
948.880958	0.992922
949.182236	0.992468
949.483476	0.992989
949.784678	0.992486
950.085841	0.993398
950.386967	0.992814
950.688054	0.993417
950.989103	0.993090
951.290114	0.991886
951.591087	0.990954
951.892021	0.991746
952.192917	0.990100
952.493776	0.990957
952.794596	0.990252
953.095378	0.990942
953.396122	0.990972
953.696828	0.989477
953.997496	0.991882
954.298126	0.992983
954.598718	0.992517
954.899272	0.992247
955.199788	0.992645
955.500266	0.993990
955.800706	0.994725
956.101108	0.995137
956.401472	0.994758
956.701798	0.996190
957.002087	0.995185
957.302337	0.995890
957.602550	0.996860
957.902724	0.996054
958.202861	0.997501
958.502960	0.995643
958.803022	0.995049
959.103045	0.997836
959.403031	0.997637
959.702979	0.997493
960.002889	0.996368
960.302762	0.997629
960.602596	0.996811
960.902393	0.996014
961.202153	0.998583
961.501875	0.999795
961.801559	0.997116
962.101205	0.996714
962.400814	0.998386
962.700385	0.996489
962.999918	0.999149
963.299414	0.997241
963.598873	0.996369
963.898293	0.998018
964.197677	0.997610
964.497022	0.997446
964.796331	0.998724
965.095601	0.998998
965.394835	0.996631
965.694030	0.998465
965.993189	0.999454
966.292309	0.997520
966.591393	0.998324
966.890439	0.998287
967.189447	0.997611
967.488419	0.998882
967.787353	0.998500
968.086249	0.997049
968.385108	0.998152
968.683930	0.997161
968.982714	0.999700
969.281462	0.997736
969.580172	0.997416
969.878844	0.998299
970.177480	0.999042
970.476078	0.997867
970.774639	0.998611
971.073162	0.998348
971.371649	0.997905
971.670098	0.998651
971.968510	0.998505
972.266885	0.997183
972.565223	0.997322
972.863524	0.997486
973.161788	0.997193
973.460014	0.998377
973.758204	0.996518
974.056356	0.997695
974.354471	0.996134
974.652550	0.996880
974.950591	0.998884
975.248595	0.997763
975.546563	0.998029
975.844493	0.999595
976.142386	0.998794
976.440243	0.998701
976.738062	0.998646
977.035845	0.998286
977.333590	0.997816
977.631299	0.999219
977.928971	0.997356
978.226606	0.997793
978.524204	0.997821
978.821765	1.000156
979.119290	0.997959
979.416777	0.997796
979.714228	0.999157
980.011642	0.997806
980.309020	0.998358
980.606360	0.998110
980.903664	0.999639
981.200931	0.997728
981.498162	0.996708
981.795356	0.996444
982.092513	0.995412
982.389633	0.997224
982.686717	0.992596
982.983764	0.993609
983.280775	0.991485
983.577749	0.991717
983.874686	0.993097
984.171587	0.993687
984.468451	0.996223
984.765279	0.996170
985.062070	0.995910
985.358824	0.997223
985.655543	0.996885
985.952224	0.996219
986.248869	0.998397
986.545478	0.998262
986.842050	0.999929
987.138586	0.997288
987.435086	0.997925
987.731549	0.999479
988.027975	0.999821
988.324366	0.998230
988.620719	0.998711
988.917037	0.997799
989.213318	0.998954
989.509563	0.999038
989.805772	0.999997
990.101944	1.000260
990.398080	0.997601
990.694180	0.998403
990.990244	0.998140
991.286271	0.998040
991.582262	0.997692
991.878217	0.998113
992.174136	0.999895
992.470019	1.000173
992.765865	0.998501
993.061676	0.999082
993.357450	0.999315
993.653188	0.997023
993.948890	0.998424
994.244556	0.999418
994.540186	0.997692
994.835780	0.997726
995.131337	0.998960
995.426859	0.997797
995.722345	0.999189
996.017795	0.997255
996.313208	0.996836
996.608586	0.997886
996.903928	0.998004
997.199234	0.997515
997.494504	0.998264
997.789738	0.997379
998.084936	0.997915
998.380099	0.999397
998.675225	0.998279
998.970316	0.998815
999.265371	0.999774
999.560390	1.000023
999.855373	0.999307
1000.150320	0.999396
1000.445232	0.999546
1000.740108	0.998764
1001.034948	0.999571
1001.329752	0.998265
1001.624521	1.000247
1001.919254	0.999910
1002.213951	0.997978
1002.508613	0.999358
1002.803239	1.000402
1003.097829	0.999074
1003.392384	0.999049
1003.686903	0.998888
1003.981386	0.999388
1004.275834	1.000776
1004.570246	0.999654
1004.864623	0.998642
1005.158964	0.999284
1005.453270	0.999763
1005.747540	0.997907
1006.041775	0.998051
1006.335974	0.999444
1006.630138	0.999811
1006.924266	1.000711
1007.218359	1.000832
1007.512416	1.000283
1007.806438	1.000023
1008.100425	0.999221
1008.394376	0.999050
1008.688292	0.999423
1008.982172	1.001544
1009.276017	1.000378
1009.569827	0.999144
1009.863602	0.999859
1010.157341	0.999424
1010.451045	1.000711
1010.744714	0.999623
1011.038347	1.000486
1011.331945	0.999236
1011.625508	0.998387
1011.919036	0.999521
1012.212528	0.999951
1012.505986	0.999181
1012.799408	0.998993
1013.092795	1.000470
1013.386147	0.999520
1013.679464	1.000454
1013.972745	0.998625
1014.265992	0.998809
1014.559204	1.000124
1014.852380	0.999670
1015.145521	0.999825
1015.438628	1.000206
1015.731699	0.999900
1016.024736	0.999549
1016.317737	1.000074
1016.610703	0.999117
1016.903635	1.001049
1017.196531	0.999202
1017.489393	1.000897
1017.782219	0.997988
1018.075011	0.998522
1018.367768	0.999924
1018.660490	1.001208
1018.953177	1.001208
1019.245829	1.001208
