Dividing Wavelength (nm)	Counts (n)	Blue Motor Position (mm): 0.000000	Red Motor Position (mm): 13.200000	
326.493990	1.000806
326.888308	1.000806
327.282561	1.000806
327.676750	1.000132
328.070874	0.999537
328.464933	1.001034
328.858929	0.998983
329.252859	1.000338
329.646726	0.999995
330.040528	0.999978
330.434265	0.999863
330.827938	1.000804
331.221547	1.000471
331.615091	0.999723
332.008571	1.000481
332.401986	0.999959
332.795338	1.000657
333.188625	0.998726
333.581847	1.001481
333.975006	1.000745
334.368100	1.000258
334.761129	1.000584
335.154095	1.000981
335.546996	0.997973
335.939833	0.993520
336.332606	0.994105
336.725315	0.994182
337.117960	0.996074
337.510540	0.994350
337.903056	0.994950
338.295508	0.992581
338.687896	0.994848
339.080220	0.993412
339.472480	0.993885
339.864676	0.993483
340.256807	0.995018
340.648875	0.995303
341.040879	0.994517
341.432818	0.993972
341.824694	0.994048
342.216506	0.994922
342.608253	0.994473
342.999937	0.993685
343.391557	0.994035
343.783113	0.993096
344.174605	0.994622
344.566033	0.994354
344.957397	0.994646
345.348697	0.993895
345.739934	0.995150
346.131106	0.993793
346.522215	0.992806
346.913260	0.993671
347.304241	0.993735
347.695159	0.993549
348.086012	0.992331
348.476802	0.994004
348.867528	0.993075
349.258191	0.992571
349.648789	0.995398
350.039324	0.993356
350.429796	0.993476
350.820203	0.993991
351.210548	0.993361
351.600828	0.993333
351.991045	0.993382
352.381198	0.992072
352.771288	0.993042
353.161314	0.994084
353.551276	0.995014
353.941175	0.992819
354.331010	0.992843
354.720782	0.994048
355.110490	0.993560
355.500135	0.994491
355.889717	0.994808
356.279235	0.993224
356.668689	0.993021
357.058080	0.994188
357.447408	0.994251
357.836672	0.994418
358.225873	0.993892
358.615010	0.995125
359.004084	0.994367
359.393095	0.994959
359.782043	0.993882
360.170927	0.994677
360.559748	0.994524
360.948505	0.992723
361.337199	0.993733
361.725830	0.993456
362.114398	0.993646
362.502903	0.994333
362.891344	0.995903
363.279722	0.993388
363.668037	0.994430
364.056289	0.993296
364.444478	0.994304
364.832603	0.994657
365.220665	0.993399
365.608665	0.993076
365.996601	0.993358
366.384474	0.993422
366.772284	0.993250
367.160031	0.991955
367.547715	0.991675
367.935336	0.993334
368.322893	0.992696
368.710388	0.992199
369.097820	0.993809
369.485189	0.993379
369.872495	0.993197
370.259738	0.991245
370.646918	0.994733
371.034035	0.993694
371.421090	0.992761
371.808081	0.993321
372.195010	0.993626
372.581875	0.992970
372.968678	0.993194
373.355418	0.993094
373.742096	0.992803
374.128710	0.993348
374.515262	0.992119
374.901751	0.993862
375.288177	0.993561
375.674540	0.993384
376.060841	0.993053
376.447079	0.993176
376.833254	0.992880
377.219367	0.992747
377.605417	0.992960
377.991404	0.992775
378.377329	0.992327
378.763191	0.992646
379.148991	0.993747
379.534727	0.993751
379.920402	0.993275
380.306013	0.992514
380.691563	0.993743
381.077049	0.993722
381.462474	0.993408
381.847835	0.993726
382.233134	0.992976
382.618371	0.992219
383.003545	0.993271
383.388657	0.993045
383.773706	0.993466
384.158693	0.993240
384.543618	0.992189
384.928480	0.993823
385.313280	0.992418
385.698017	0.992951
386.082692	0.993592
386.467305	0.993799
386.851856	0.992145
387.236344	0.991822
387.620770	0.991445
388.005133	0.991261
388.389435	0.990437
388.773674	0.988662
389.157851	0.987878
389.541965	0.986037
389.926018	0.984900
390.310008	0.983137
390.693936	0.979457
391.077802	0.977086
391.461606	0.973504
391.845348	0.969200
392.229027	0.966814
392.612645	0.961348
392.996200	0.955804
393.379694	0.950441
393.763125	0.944699
394.146494	0.939950
394.529801	0.932220
394.913047	0.925776
395.296230	0.920456
395.679351	0.912284
396.062410	0.904765
396.445408	0.898590
396.828343	0.889150
397.211217	0.881512
397.594028	0.878767
397.976778	0.866863
398.359466	0.857611
398.742092	0.847894
399.124656	0.844317
399.507158	0.832268
399.889598	0.822969
400.271977	0.810912
400.654294	0.803395
401.036549	0.793820
401.418742	0.788378
401.800874	0.771326
402.182944	0.761913
402.564952	0.747376
402.946898	0.741597
403.328783	0.732129
403.710606	0.731227
404.092367	0.705875
404.474067	0.702177
404.855705	0.693693
405.237282	0.693569
405.618797	0.675060
406.000250	0.663885
406.381642	0.650681
406.762972	0.647181
407.144240	0.640010
407.525447	0.633798
407.906593	0.620871
408.287677	0.611621
408.668700	0.612584
409.049661	0.602017
409.430560	0.592854
409.811399	0.595606
410.192176	0.574086
410.572891	0.576693
410.953545	0.561579
411.334138	0.570117
411.714669	0.560178
412.095139	0.567856
412.475547	0.550000
412.855894	0.549186
413.236180	0.545912
413.616405	0.548358
413.996568	0.536639
414.376670	0.541181
414.756711	0.543530
415.136691	0.538717
415.516609	0.529248
415.896466	0.524293
416.276262	0.519493
416.655997	0.520132
417.035670	0.500739
417.415283	0.491485
417.794834	0.495222
418.174324	0.500079
418.553753	0.509150
418.933121	0.491002
419.312428	0.484126
419.691674	0.488994
420.070859	0.478111
420.449983	0.485226
420.829045	0.474679
421.208047	0.483244
421.586988	0.476428
421.965867	0.475442
422.344686	0.464306
422.723444	0.476158
423.102141	0.492729
423.480777	0.466250
423.859352	0.485986
424.237866	0.462780
424.616319	0.464253
424.994712	0.454791
425.373044	0.465425
425.751314	0.453020
426.129524	0.469286
426.507673	0.453609
426.885762	0.447482
427.263789	0.452688
427.641756	0.461947
428.019662	0.452432
428.397508	0.451288
428.775292	0.455532
429.153016	0.447445
429.530679	0.453956
429.908282	0.447279
430.285824	0.457386
430.663305	0.435165
431.040726	0.456525
431.418086	0.456642
431.795385	0.448359
432.172624	0.446636
432.549802	0.447921
432.926920	0.446314
433.303977	0.445855
433.680974	0.443288
434.057910	0.441526
434.434786	0.441272
434.811601	0.443440
435.188355	0.425572
435.565050	0.434820
435.941683	0.436536
436.318257	0.421119
436.694770	0.421508
437.071222	0.419637
437.447614	0.423827
437.823946	0.430609
438.200218	0.419759
438.576429	0.429486
438.952580	0.422838
439.328670	0.419347
439.704700	0.426608
440.080670	0.427457
440.456580	0.408266
440.832429	0.416314
441.208218	0.427055
441.583947	0.416433
441.959616	0.415972
442.335224	0.421096
442.710773	0.411887
443.086261	0.409800
443.461689	0.423511
443.837057	0.413692
444.212365	0.403754
444.587612	0.410434
444.962800	0.400623
445.337927	0.402133
445.712995	0.428325
446.088002	0.390805
446.462949	0.401036
446.837837	0.405265
447.212664	0.394407
447.587431	0.385843
447.962139	0.356702
448.336786	0.316013
448.711374	0.326311
449.085901	0.370457
449.460369	0.374486
449.834776	0.377844
450.209124	0.357580
450.583412	0.349919
450.957640	0.343236
451.331808	0.354515
451.705917	0.377719
452.079965	0.382165
452.453954	0.370599
452.827883	0.377375
453.201752	0.372289
453.575562	0.383418
453.949311	0.372137
454.323001	0.378035
454.696632	0.373682
455.070202	0.366332
455.443713	0.358488
455.817164	0.353800
456.190556	0.349420
456.563888	0.345921
456.937160	0.343649
457.310373	0.360758
457.683526	0.359612
458.056619	0.365323
458.429653	0.365712
458.802628	0.369591
459.175542	0.363388
459.548398	0.346009
459.921194	0.338653
460.293930	0.338855
460.666607	0.316432
461.039224	0.304474
461.411782	0.300537
461.784280	0.299422
462.156719	0.303907
462.529099	0.308385
462.901419	0.324150
463.273680	0.328631
463.645882	0.328563
464.018024	0.334201
464.390106	0.326933
464.762130	0.311645
465.134094	0.294667
465.505999	0.263931
465.877845	0.234457
466.249631	0.221823
466.621358	0.228991
466.993026	0.242939
467.364634	0.248919
467.736184	0.257629
468.107674	0.266114
468.479105	0.265371
468.850477	0.272519
469.221790	0.279166
469.593043	0.289255
469.964238	0.294116
470.335373	0.293600
470.706449	0.291792
471.077467	0.292457
471.448425	0.254789
471.819324	0.230422
472.190164	0.229515
472.560945	0.258238
472.931667	0.280442
473.302330	0.284675
473.672934	0.296543
474.043479	0.284283
474.413965	0.286593
474.784393	0.289901
475.154761	0.285085
475.525070	0.281817
475.895321	0.287720
476.265513	0.281850
476.635645	0.277151
477.005719	0.277236
477.375734	0.273985
477.745691	0.267093
478.115588	0.263869
478.485427	0.257274
478.855207	0.244059
479.224928	0.226454
479.594591	0.214854
479.964194	0.217925
480.333739	0.219069
480.703226	0.220939
481.072653	0.219377
481.442022	0.214726
481.811333	0.211324
482.180584	0.214985
482.549777	0.220146
482.918912	0.223507
483.287988	0.223100
483.657005	0.222649
484.025964	0.229394
484.394864	0.226717
484.763706	0.227186
485.132489	0.232109
485.501213	0.232875
485.869879	0.231096
486.238487	0.234735
486.607036	0.232411
486.975527	0.237004
487.343959	0.232710
487.712333	0.231785
488.080648	0.233338
488.448905	0.232562
488.817104	0.233770
489.185244	0.228341
489.553326	0.225196
489.921350	0.215163
490.289315	0.197641
490.657222	0.192556
491.025070	0.193809
491.392861	0.195734
491.760593	0.201752
492.128267	0.207216
492.495883	0.212668
492.863440	0.219166
493.230939	0.225240
493.598380	0.226548
493.965763	0.229099
494.333088	0.231211
494.700354	0.232513
495.067563	0.231473
495.434713	0.234909
495.801805	0.232658
496.168839	0.234250
496.535815	0.235305
496.902733	0.235540
497.269593	0.236842
497.636395	0.235112
498.003139	0.235262
498.369825	0.238033
498.736453	0.234629
499.103023	0.235930
499.469535	0.235615
499.835989	0.235946
500.202385	0.236701
500.568723	0.239954
500.935003	0.234901
501.301226	0.239225
501.667390	0.233933
502.033497	0.231723
502.399546	0.234958
502.765537	0.236649
503.131470	0.234959
503.497345	0.231183
503.863163	0.240030
504.228923	0.232910
504.594625	0.231705
504.960269	0.237055
505.325856	0.232112
505.691385	0.236519
506.056856	0.233326
506.422270	0.232552
506.787625	0.235141
507.152924	0.232800
507.518164	0.233172
507.883347	0.234824
508.248472	0.236610
508.613540	0.231504
508.978550	0.234193
509.343503	0.234624
509.708398	0.232233
510.073236	0.229889
510.438016	0.229968
510.802738	0.230672
511.167403	0.229596
511.532010	0.231799
511.896561	0.226843
512.261053	0.226093
512.625488	0.227973
512.989866	0.228598
513.354186	0.228559
513.718449	0.230367
514.082655	0.226694
514.446803	0.229119
514.810894	0.226645
515.174927	0.229291
515.538904	0.228653
515.902822	0.225766
516.266684	0.227971
516.630488	0.229355
516.994235	0.227889
517.357925	0.226748
517.721558	0.225296
518.085133	0.224829
518.448651	0.224808
518.812112	0.227090
519.175516	0.226692
519.538863	0.224205
519.902152	0.225791
520.265385	0.222456
520.628560	0.224275
520.991678	0.224771
521.354739	0.223696
521.717743	0.224984
522.080690	0.225580
522.443580	0.222534
522.806413	0.223664
523.169189	0.223110
523.531908	0.221710
523.894569	0.225391
524.257174	0.225539
524.619722	0.223039
524.982213	0.224186
525.344647	0.223091
525.707025	0.223880
526.069345	0.222223
526.431608	0.223881
526.793815	0.221941
527.155964	0.225851
527.518057	0.224704
527.880093	0.225784
528.242072	0.224392
528.603995	0.226419
528.965860	0.228093
529.327669	0.226686
529.689421	0.227714
530.051117	0.228659
530.412755	0.226179
530.774337	0.228610
531.135862	0.228872
531.497331	0.228251
531.858743	0.230953
532.220098	0.227856
532.581396	0.230317
532.942638	0.230998
533.303824	0.231760
533.664953	0.231638
534.026025	0.233337
534.387040	0.231310
534.747999	0.231373
535.108902	0.230067
535.469748	0.235315
535.830537	0.232970
536.191270	0.233296
536.551947	0.232936
536.912567	0.233058
537.273131	0.234692
537.633638	0.234711
537.994089	0.235168
538.354483	0.236172
538.714821	0.233279
539.075103	0.233128
539.435328	0.234042
539.795497	0.237522
540.155609	0.234224
540.515665	0.232288
540.875665	0.238164
541.235609	0.236621
541.595496	0.236291
541.955328	0.233008
542.315102	0.235823
542.674821	0.236958
543.034483	0.236641
543.394090	0.236557
543.753640	0.238336
544.113134	0.233239
544.472571	0.236669
544.831953	0.233748
545.191278	0.237739
545.550548	0.237111
545.909761	0.233918
546.268918	0.234541
546.628019	0.232901
546.987064	0.235865
547.346053	0.237607
547.704986	0.235267
548.063863	0.235735
548.422684	0.235781
548.781449	0.237577
549.140158	0.235227
549.498811	0.238254
549.857408	0.241322
550.215949	0.236184
550.574434	0.239338
550.932864	0.237093
551.291237	0.235690
551.649555	0.237095
552.007817	0.236689
552.366022	0.237398
552.724173	0.238036
553.082267	0.238208
553.440305	0.235131
553.798288	0.239632
554.156215	0.235942
554.514086	0.236765
554.871902	0.239831
555.229661	0.239159
555.587365	0.239375
555.945014	0.242161
556.302606	0.238834
556.660143	0.241715
557.017625	0.238180
557.375050	0.240678
557.732421	0.237350
558.089735	0.239449
558.446994	0.239667
558.804197	0.238688
559.161345	0.238614
559.518437	0.241946
559.875474	0.240009
560.232455	0.239287
560.589381	0.240615
560.946251	0.240335
561.303065	0.238180
561.659825	0.239363
562.016528	0.240883
562.373177	0.243882
562.729770	0.241317
563.086307	0.243168
563.442789	0.241245
563.799216	0.244019
564.155587	0.242631
564.511904	0.243865
564.868164	0.243744
565.224370	0.243845
565.580520	0.245261
565.936615	0.245178
566.292654	0.248414
566.648638	0.245386
567.004567	0.246224
567.360441	0.246831
567.716260	0.248801
568.072023	0.246597
568.427732	0.247472
568.783385	0.249883
569.138982	0.247869
569.494525	0.247495
569.850013	0.250463
570.205445	0.248725
570.560823	0.251427
570.916145	0.253172
571.271412	0.251547
571.626625	0.252873
571.981782	0.253707
572.336884	0.254361
572.691931	0.254167
573.046923	0.255099
573.401860	0.256694
573.756743	0.258182
574.111570	0.257030
574.466342	0.257662
574.821059	0.256787
575.175722	0.259551
575.530330	0.259153
575.884882	0.259761
576.239380	0.261867
576.593823	0.262445
576.948211	0.261346
577.302544	0.264957
577.656823	0.264719
578.011047	0.264563
578.365216	0.265265
578.719330	0.267041
579.073389	0.267043
579.427394	0.268206
579.781344	0.269094
580.135239	0.270660
580.489080	0.270233
580.842866	0.273058
581.196597	0.273196
581.550273	0.271943
581.903895	0.272787
582.257463	0.271068
582.610975	0.274462
582.964434	0.273614
583.317837	0.275996
583.671186	0.276559
584.024481	0.276836
584.377721	0.278971
584.730906	0.279668
585.084037	0.278920
585.437113	0.280563
585.790135	0.279986
586.143103	0.282832
586.496016	0.284370
586.848874	0.281521
587.201679	0.282572
587.554428	0.285813
587.907124	0.284652
588.259765	0.285094
588.612352	0.285935
588.964884	0.289251
589.317362	0.288741
589.669786	0.288870
590.022155	0.287407
590.374470	0.286997
590.726731	0.288997
591.078937	0.293656
591.431090	0.289998
591.783188	0.294301
592.135232	0.294475
592.487222	0.294879
592.839157	0.292853
593.191038	0.295148
593.542866	0.296902
593.894639	0.300714
594.246358	0.298246
594.598022	0.298095
594.949633	0.301751
595.301190	0.302438
595.652692	0.301783
596.004141	0.297456
596.355535	0.305625
596.706876	0.306452
597.058162	0.308685
597.409395	0.306026
597.760573	0.303682
598.111698	0.306973
598.462768	0.307499
598.813785	0.308668
599.164748	0.310203
599.515657	0.310176
599.866511	0.313326
600.217312	0.308837
600.568060	0.314227
600.918753	0.310394
601.269392	0.311329
601.619978	0.314695
601.970510	0.312295
602.320988	0.313098
602.671412	0.310445
603.021783	0.312859
603.372100	0.313789
603.722363	0.313988
604.072572	0.314653
604.422728	0.314693
604.772830	0.316491
605.122878	0.316063
605.472872	0.316804
605.822813	0.314674
606.172701	0.317567
606.522534	0.314798
606.872314	0.315050
607.222041	0.315812
607.571714	0.314236
607.921333	0.315574
608.270899	0.314999
608.620411	0.311954
608.969870	0.315652
609.319276	0.315907
609.668627	0.316065
610.017926	0.314331
610.367171	0.313059
610.716362	0.313668
611.065500	0.313978
611.414585	0.313160
611.763616	0.313104
612.112594	0.313784
612.461518	0.313012
612.810389	0.311074
613.159207	0.313099
613.507971	0.314930
613.856682	0.310635
614.205340	0.312239
614.553945	0.308936
614.902496	0.312818
615.250994	0.311004
615.599439	0.311331
615.947830	0.311242
616.296169	0.311948
616.644454	0.311520
616.992686	0.311496
617.340864	0.309565
617.688990	0.312926
618.037063	0.309929
618.385082	0.311748
618.733048	0.308559
619.080961	0.310709
619.428821	0.310566
619.776628	0.309727
620.124382	0.311704
620.472083	0.312040
620.819731	0.311174
621.167326	0.314977
621.514868	0.315165
621.862357	0.319290
622.209793	0.319014
622.557176	0.321199
622.904506	0.322353
623.251783	0.324415
623.599007	0.326806
623.946179	0.326409
624.293297	0.328585
624.640363	0.332071
624.987376	0.332959
625.334336	0.335058
625.681243	0.337356
626.028097	0.338090
626.374899	0.339048
626.721647	0.339047
627.068343	0.342994
627.414987	0.343828
627.761577	0.345832
628.108115	0.344298
628.454600	0.349072
628.801032	0.346418
629.147412	0.348828
629.493739	0.349285
629.840014	0.352161
630.186236	0.349213
630.532405	0.354801
630.878521	0.352752
631.224585	0.355068
631.570597	0.358545
631.916556	0.356745
632.262462	0.357192
632.608316	0.358751
632.954117	0.360292
633.299866	0.360873
633.645562	0.361084
633.991206	0.365515
634.336797	0.368553
634.682336	0.370543
635.027823	0.372324
635.373257	0.373202
635.718639	0.376398
636.063968	0.375521
636.409245	0.381491
636.754470	0.381792
637.099642	0.384366
637.444762	0.387431
637.789829	0.386874
638.134845	0.389997
638.479808	0.391219
638.824719	0.391117
639.169577	0.395443
639.514383	0.394006
639.859137	0.398243
640.203839	0.397803
640.548489	0.398546
640.893086	0.399787
641.237632	0.401308
641.582125	0.400054
641.926566	0.400863
642.270955	0.401563
642.615292	0.402068
642.959576	0.400752
643.303809	0.401886
643.647990	0.401473
643.992118	0.401761
644.336195	0.405413
644.680219	0.403804
645.024192	0.404650
645.368112	0.397818
645.711981	0.396734
646.055797	0.392541
646.399562	0.394619
646.743274	0.387047
647.086935	0.384002
647.430544	0.384319
647.774101	0.383032
648.117606	0.383031
648.461059	0.383023
648.804460	0.384966
649.147810	0.390628
649.491108	0.392700
649.834354	0.393763
650.177548	0.399556
650.520690	0.405121
650.863781	0.405967
651.206820	0.405528
651.549807	0.410022
651.892742	0.414532
652.235626	0.413542
652.578458	0.414967
652.921238	0.420651
653.263967	0.418190
653.606644	0.421815
653.949269	0.421982
654.291843	0.426323
654.634365	0.422710
654.976836	0.425853
655.319255	0.425802
655.661622	0.428275
656.003938	0.427689
656.346203	0.430975
656.688416	0.428520
657.030577	0.431945
657.372687	0.433515
657.714746	0.434465
658.056753	0.431706
658.398708	0.435649
658.740612	0.436550
659.082465	0.432289
659.424266	0.433342
659.766016	0.432576
660.107715	0.435923
660.449362	0.434039
660.790958	0.434919
661.132503	0.435139
661.473996	0.432963
661.815438	0.433707
662.156829	0.434112
662.498168	0.434690
662.839456	0.436944
663.180693	0.434355
663.521879	0.434026
663.863013	0.435530
664.204097	0.433624
664.545129	0.430770
664.886110	0.430912
665.227040	0.427869
665.567918	0.430706
665.908746	0.428386
666.249522	0.428317
666.590248	0.429681
666.930922	0.427777
667.271545	0.426332
667.612118	0.426760
667.952639	0.428660
668.293109	0.426896
668.633528	0.429903
668.973896	0.429421
669.314213	0.430175
669.654480	0.431157
669.994695	0.431720
670.334859	0.432546
670.674973	0.432782
671.015035	0.433226
671.355047	0.432929
671.695008	0.433969
672.034918	0.436002
672.374777	0.435617
672.714585	0.436792
673.054342	0.436628
673.394049	0.436464
673.733705	0.433733
674.073310	0.435418
674.412864	0.438575
674.752368	0.439133
675.091820	0.439242
675.431223	0.443419
675.770574	0.443784
676.109875	0.446255
676.449125	0.446535
676.788324	0.448370
677.127473	0.454334
677.466571	0.453339
677.805619	0.455454
678.144616	0.456410
678.483562	0.458001
678.822458	0.460756
679.161303	0.461573
679.500098	0.462485
679.838842	0.464377
680.177535	0.463393
680.516179	0.462129
680.854771	0.460852
681.193314	0.454478
681.531805	0.446154
681.870247	0.434042
682.208638	0.426633
682.546978	0.425500
682.885268	0.427086
683.223508	0.433897
683.561697	0.437567
683.899836	0.439995
684.237925	0.443428
684.575963	0.445485
684.913951	0.449538
685.251889	0.444847
685.589776	0.446519
685.927614	0.449579
686.265401	0.443459
686.603137	0.444599
686.940824	0.438827
687.278460	0.437355
687.616046	0.436554
687.953582	0.431539
688.291068	0.432932
688.628504	0.428390
688.965889	0.430610
689.303224	0.434432
689.640510	0.438265
689.977745	0.444690
690.314930	0.453050
690.652065	0.457079
690.989150	0.464600
691.326185	0.471044
691.663170	0.475642
692.000105	0.483038
692.336990	0.490031
692.673825	0.492612
693.010610	0.498757
693.347345	0.504391
693.684030	0.506126
694.020665	0.511064
694.357251	0.520067
694.693786	0.519697
695.030272	0.524199
695.366707	0.527161
695.703093	0.530754
696.039429	0.528595
696.375716	0.530109
696.711952	0.532592
697.048139	0.534390
697.384276	0.535929
697.720363	0.534694
698.056400	0.533508
698.392388	0.539389
698.728326	0.542243
699.064214	0.544898
699.400053	0.546431
699.735842	0.549654
700.071581	0.552369
700.407270	0.556055
700.742910	0.557414
701.078501	0.564448
701.414042	0.564570
701.749533	0.567558
702.084974	0.576925
702.420366	0.569435
702.755709	0.576273
703.091002	0.584482
703.426246	0.577536
703.761440	0.583228
704.096584	0.589067
704.431679	0.586242
704.766725	0.587528
705.101721	0.588874
705.436668	0.585781
705.771565	0.592535
706.106413	0.589149
706.441212	0.584160
706.775961	0.582763
707.110661	0.585815
707.445311	0.582392
707.779913	0.579459
708.114465	0.577018
708.448967	0.574986
708.783421	0.566472
709.117825	0.560842
709.452180	0.561606
709.786485	0.554690
710.120742	0.544740
710.454949	0.547160
710.789107	0.539120
711.123216	0.529661
711.457275	0.531263
711.791286	0.522504
712.125247	0.521624
712.459159	0.532483
712.793023	0.525008
713.126837	0.528476
713.460602	0.529247
713.794318	0.539027
714.127985	0.537383
714.461602	0.547855
714.795171	0.550350
715.128691	0.558324
715.462162	0.566395
715.795584	0.572092
716.128957	0.574894
716.462281	0.581169
716.795556	0.585081
717.128782	0.590444
717.461960	0.599774
717.795088	0.598441
718.128167	0.603734
718.461198	0.613216
718.794180	0.612823
719.127113	0.616293
719.459997	0.620324
719.792833	0.626622
720.125619	0.627509
720.458357	0.633476
720.791046	0.633165
721.123686	0.636178
721.456278	0.643173
721.788821	0.640510
722.121315	0.644774
722.453761	0.648897
722.786158	0.646655
723.118506	0.642976
723.450805	0.651031
723.783056	0.646711
724.115259	0.643997
724.447412	0.644247
724.779518	0.645608
725.111574	0.644216
725.443582	0.639664
725.775542	0.641228
726.107453	0.633521
726.439315	0.633913
726.771129	0.632155
727.102895	0.625948
727.434612	0.618255
727.766281	0.616845
728.097901	0.615284
728.429473	0.615569
728.760996	0.613957
729.092471	0.613929
729.423897	0.618254
729.755276	0.616639
730.086606	0.616555
730.417887	0.611572
730.749120	0.602052
731.080305	0.593148
731.411442	0.589143
731.742530	0.594508
732.073570	0.593314
732.404562	0.585363
732.735506	0.587143
733.066401	0.591459
733.397249	0.600908
733.728048	0.612425
734.058798	0.624349
734.389501	0.635661
734.720156	0.645311
735.050762	0.652706
735.381320	0.654588
735.711831	0.662896
736.042293	0.668759
736.372707	0.663473
736.703073	0.669166
737.033391	0.671276
737.363661	0.666939
737.693883	0.662841
738.024056	0.662234
738.354182	0.662864
738.684260	0.652099
739.014290	0.647570
739.344272	0.648611
739.674207	0.642263
740.004093	0.642028
740.333931	0.641371
740.663722	0.641662
740.993464	0.642397
741.323159	0.645607
741.652806	0.650668
741.982405	0.655937
742.311956	0.661473
742.641460	0.662831
742.970915	0.666092
743.300323	0.674114
743.629683	0.680511
743.958996	0.682143
744.288260	0.687042
744.617477	0.692420
744.946647	0.694788
745.275768	0.699170
745.604842	0.700221
745.933869	0.708860
746.262847	0.710466
746.591778	0.703077
746.920662	0.709623
747.249498	0.716343
747.578286	0.707496
747.907027	0.703394
748.235720	0.704333
748.564365	0.698447
748.892963	0.698930
749.221514	0.701674
749.550017	0.706965
749.878473	0.707015
750.206881	0.712765
750.535242	0.715895
750.863555	0.715127
751.191821	0.715641
751.520039	0.718235
751.848210	0.723922
752.176334	0.715956
752.504411	0.714388
752.832440	0.723234
753.160421	0.726448
753.488356	0.725152
753.816243	0.722731
754.144082	0.730513
754.471875	0.734477
754.799620	0.730032
755.127318	0.730853
755.454969	0.731634
755.782572	0.730247
756.110129	0.735208
756.437638	0.738077
756.765100	0.734812
757.092515	0.732770
757.419882	0.731724
757.747203	0.737379
758.074477	0.736859
758.401703	0.734227
758.728882	0.728152
759.056014	0.727102
759.383099	0.726532
759.710138	0.727685
760.037129	0.724013
760.364073	0.718218
760.690970	0.719473
761.017820	0.726842
761.344623	0.721837
761.671379	0.713287
761.998088	0.700190
762.324751	0.678524
762.651366	0.635951
762.977935	0.568383
763.304456	0.516910
763.630931	0.507868
763.957359	0.546306
764.283740	0.591169
764.610074	0.618702
764.936362	0.649347
765.262602	0.676138
765.588796	0.697499
765.914943	0.715613
766.241044	0.733163
766.567097	0.739666
766.893104	0.750646
767.219064	0.756896
767.544978	0.763715
767.870845	0.776805
768.196665	0.780419
768.522438	0.777851
768.848165	0.779353
769.173846	0.788424
769.499479	0.793068
769.825066	0.796334
770.150607	0.801372
770.476101	0.797037
770.801548	0.798427
771.126949	0.809628
771.452303	0.812817
771.777611	0.812565
772.102872	0.812024
772.428087	0.815841
772.753256	0.820253
773.078378	0.822870
773.403453	0.831737
773.728482	0.835588
774.053465	0.829401
774.378401	0.831683
774.703291	0.840944
775.028135	0.840838
775.352932	0.842125
775.677683	0.845163
776.002388	0.846059
776.327046	0.845139
776.651658	0.849247
776.976224	0.851837
777.300743	0.852062
777.625216	0.854384
777.949643	0.855040
778.274024	0.854904
778.598359	0.857560
778.922647	0.856153
779.246889	0.856994
779.571086	0.860030
779.895236	0.862505
780.219339	0.860060
780.543397	0.857798
780.867409	0.855103
781.191374	0.857754
781.515294	0.859341
781.839167	0.857299
782.162995	0.861032
782.486776	0.858900
782.810511	0.859477
783.134201	0.862846
783.457844	0.860071
783.781441	0.862368
784.104993	0.870150
784.428498	0.869850
784.751958	0.865291
785.075372	0.868550
785.398739	0.871467
785.722061	0.867948
786.045337	0.863256
786.368568	0.867809
786.691752	0.871383
787.014891	0.855511
787.337983	0.847138
787.661030	0.839537
787.984031	0.822143
788.306987	0.809199
788.629897	0.812501
788.952760	0.815346
789.275579	0.820278
789.598351	0.835601
789.921078	0.847391
790.243759	0.850340
790.566395	0.855525
790.888984	0.862530
791.211529	0.868434
791.534027	0.871188
791.856480	0.874137
792.178888	0.878106
792.501249	0.881268
792.823566	0.882327
793.145836	0.882030
793.468062	0.883815
793.790241	0.884775
794.112375	0.882436
794.434464	0.876401
794.756507	0.877659
795.078505	0.876799
795.400457	0.870702
795.722364	0.859244
796.044226	0.851786
796.366042	0.851383
796.687812	0.854612
797.009538	0.850127
797.331218	0.853931
797.652852	0.858528
797.974442	0.863633
798.295986	0.861942
798.617484	0.865963
798.938938	0.870599
799.260346	0.874776
799.581709	0.876531
799.903026	0.879246
800.224299	0.879841
800.545526	0.883487
800.866708	0.887053
801.187845	0.891389
801.508936	0.891399
801.829983	0.888636
802.150984	0.890754
802.471940	0.897262
802.792851	0.896955
803.113717	0.896921
803.434538	0.894674
803.755314	0.896841
804.076045	0.899628
804.396731	0.898781
804.717372	0.899276
805.037967	0.900725
805.358518	0.898729
805.679024	0.895907
805.999485	0.895506
806.319901	0.895962
806.640272	0.897665
806.960598	0.895522
807.280879	0.892031
807.601115	0.891465
807.921306	0.894601
808.241453	0.895453
808.561554	0.893404
808.881611	0.892541
809.201623	0.896199
809.521590	0.894700
809.841513	0.896688
810.161390	0.895526
810.481223	0.897452
810.801011	0.900041
811.120755	0.902855
811.440453	0.901567
811.760107	0.900244
812.079716	0.900136
812.399281	0.902877
812.718801	0.905121
813.038276	0.906488
813.357707	0.905916
813.677093	0.901772
813.996434	0.906996
814.315731	0.907740
814.634983	0.909987
814.954191	0.906968
815.273354	0.905190
815.592473	0.901192
815.911547	0.900906
816.230577	0.897687
816.549562	0.895573
816.868502	0.896008
817.187399	0.892146
817.506250	0.886516
817.825058	0.889409
818.143821	0.885472
818.462539	0.880544
818.781213	0.871101
819.099843	0.860867
819.418429	0.845492
819.736970	0.827537
820.055466	0.807891
820.373919	0.782174
820.692327	0.749207
821.010691	0.714208
821.329011	0.636763
821.647286	0.519769
821.965517	0.405920
822.283704	0.362900
822.601847	0.363371
822.919945	0.399353
823.237999	0.433057
823.556010	0.480487
823.873976	0.537511
824.191897	0.587949
824.509775	0.630799
824.827609	0.676998
825.145398	0.698482
825.463144	0.702288
825.780845	0.684490
826.098502	0.665622
826.416116	0.619168
826.733685	0.575913
827.051210	0.566451
827.368692	0.581540
827.686129	0.619299
828.003522	0.672561
828.320872	0.720098
828.638177	0.765032
828.955439	0.798653
829.272656	0.820204
829.589830	0.837327
829.906960	0.852910
830.224046	0.865808
830.541088	0.877065
830.858086	0.880462
831.175041	0.886339
831.491952	0.885967
831.808819	0.882628
832.125642	0.875071
832.442421	0.860763
832.759157	0.837659
833.075849	0.790931
833.392497	0.728094
833.709101	0.686731
834.025662	0.696623
834.342179	0.728221
834.658653	0.767328
834.975083	0.804258
835.291469	0.830126
835.607811	0.852060
835.924110	0.869561
836.240366	0.885744
836.556578	0.900160
836.872746	0.908213
837.188871	0.913256
837.504952	0.918752
837.820990	0.923149
838.136984	0.925617
838.452935	0.928938
838.768842	0.929971
839.084706	0.923543
839.400526	0.898756
839.716303	0.857967
840.032037	0.834377
840.347727	0.837962
840.663373	0.857026
840.978977	0.878568
841.294537	0.901826
841.610054	0.917610
841.925527	0.926193
842.240957	0.932692
842.556344	0.938588
842.871687	0.944976
843.186987	0.950471
843.502244	0.950843
843.817458	0.951238
844.132629	0.954629
844.447756	0.959608
844.762840	0.960019
845.077881	0.959169
845.392879	0.959151
845.707833	0.962424
846.022745	0.964086
846.337613	0.964600
846.652438	0.965552
846.967221	0.964466
847.281960	0.964815
847.596656	0.966891
847.911309	0.966061
848.225919	0.967075
848.540485	0.967675
848.855009	0.969184
849.169490	0.968715
849.483928	0.968261
849.798323	0.969433
850.112675	0.970503
850.426984	0.969217
850.741251	0.968912
851.055474	0.970077
851.369654	0.967869
851.683792	0.969009
851.997887	0.969344
852.311938	0.970908
852.625947	0.969346
852.939914	0.967274
853.253837	0.968427
853.567718	0.969373
853.881555	0.970077
854.195350	0.967713
854.509103	0.969913
854.822812	0.969710
855.136479	0.969896
855.450103	0.968571
855.763685	0.968630
856.077224	0.968499
856.390720	0.970558
856.704173	0.970922
857.017584	0.967411
857.330953	0.966990
857.644278	0.968559
857.957561	0.968420
858.270802	0.968982
858.584000	0.967441
858.897155	0.966134
859.210268	0.967370
859.523339	0.967956
859.836367	0.971454
860.149352	0.970798
860.462295	0.968561
860.775195	0.969571
861.088054	0.968900
861.400869	0.969940
861.713642	0.969157
862.026373	0.970026
862.339062	0.971283
862.651708	0.967648
862.964312	0.967221
863.276873	0.969715
863.589392	0.968738
863.901869	0.966280
864.214303	0.964957
864.526696	0.964014
864.839045	0.964111
865.151353	0.960611
865.463619	0.961415
865.775842	0.961532
866.088023	0.963425
866.400162	0.961955
866.712258	0.962226
867.024313	0.961011
867.336325	0.963250
867.648296	0.963130
867.960224	0.961453
868.272110	0.962172
868.583954	0.963759
868.895755	0.962805
869.207515	0.960901
869.519233	0.959333
869.830909	0.961147
870.142542	0.961981
870.454134	0.962014
870.765684	0.959227
871.077191	0.958315
871.388657	0.958627
871.700081	0.956746
872.011463	0.958058
872.322803	0.957346
872.634101	0.955390
872.945357	0.954573
873.256571	0.952848
873.567744	0.952255
873.878874	0.953503
874.189963	0.951775
874.501010	0.951196
874.812015	0.950211
875.122979	0.950356
875.433900	0.952010
875.744780	0.952750
876.055618	0.950160
876.366415	0.949985
876.677169	0.948966
876.987882	0.951161
877.298554	0.950571
877.609183	0.946231
877.919771	0.943943
878.230317	0.940836
878.540822	0.938871
878.851285	0.933526
879.161707	0.926218
879.472087	0.913256
879.782425	0.897677
880.092722	0.862554
880.402977	0.810107
880.713191	0.748153
881.023363	0.688797
881.333494	0.654099
881.643583	0.625637
881.953631	0.626426
882.263637	0.654497
882.573602	0.693431
882.883526	0.720017
883.193408	0.743713
883.503248	0.767425
883.813048	0.795154
884.122806	0.824799
884.432522	0.846667
884.742197	0.868593
885.051831	0.879033
885.361424	0.889710
885.670975	0.902553
885.980485	0.911768
886.289954	0.918600
886.599382	0.924588
886.908768	0.927869
887.218113	0.933450
887.527417	0.938417
887.836680	0.941111
888.145901	0.942944
888.455082	0.945771
888.764221	0.949335
889.073319	0.952459
889.382376	0.952273
889.691392	0.953050
890.000366	0.951908
890.309300	0.953055
890.618193	0.952119
890.927044	0.950178
891.235855	0.951205
891.544625	0.949704
891.853353	0.951911
892.162041	0.948095
892.470687	0.941550
892.779293	0.936653
893.087858	0.933354
893.396381	0.925222
893.704864	0.911688
894.013306	0.888015
894.321707	0.860605
894.630068	0.845091
894.938387	0.840512
895.246665	0.842307
895.554903	0.854472
895.863100	0.868509
896.171256	0.885013
896.479371	0.904440
896.787446	0.917833
897.095480	0.924089
897.403473	0.926330
897.711425	0.930740
898.019336	0.938766
898.327207	0.941534
898.635038	0.944703
898.942827	0.944234
899.250576	0.947685
899.558284	0.952128
899.865952	0.953450
900.173579	0.954366
900.481165	0.954728
900.788711	0.959178
901.096216	0.960732
901.403681	0.960723
901.711105	0.961617
902.018489	0.963367
902.325832	0.961193
902.633135	0.960675
902.940397	0.955226
903.247619	0.943237
903.554800	0.916877
903.861941	0.877222
904.169041	0.840676
904.476101	0.822616
904.783121	0.823733
905.090100	0.839607
905.397039	0.861567
905.703938	0.883860
906.010796	0.904401
906.317614	0.921944
906.624391	0.932920
906.931129	0.942336
907.237826	0.950727
907.544483	0.959058
907.851099	0.961755
908.157675	0.967072
908.464211	0.969020
908.770707	0.971977
909.077163	0.973773
909.383578	0.974652
909.689954	0.975063
909.996289	0.974999
910.302584	0.977650
910.608839	0.978909
910.915054	0.978269
911.221229	0.977500
911.527363	0.975669
911.833458	0.976965
912.139513	0.975922
912.445527	0.975036
912.751502	0.972935
913.057436	0.972284
913.363331	0.968732
913.669186	0.965990
913.975000	0.960529
914.280775	0.955087
914.586510	0.946934
914.892205	0.933443
915.197859	0.912281
915.503475	0.884205
915.809050	0.864432
916.114585	0.857896
916.420081	0.855001
916.725536	0.852064
917.030952	0.861696
917.336328	0.874357
917.641665	0.890072
917.946961	0.905048
918.252218	0.916765
918.557435	0.925376
918.862612	0.934856
919.167750	0.940642
919.472848	0.944903
919.777906	0.951833
920.082925	0.956987
920.387904	0.960778
920.692843	0.962449
920.997743	0.963074
921.302603	0.966363
921.607423	0.968015
921.912204	0.970746
922.216946	0.970988
922.521647	0.972988
922.826310	0.973884
923.130932	0.976307
923.435516	0.978922
923.740059	0.979442
924.044564	0.978745
924.349028	0.978749
924.653454	0.982164
924.957840	0.984039
925.262186	0.984082
925.566493	0.983012
925.870761	0.985740
926.174989	0.986342
926.479178	0.988844
926.783328	0.988215
927.087438	0.987325
927.391509	0.987512
927.695541	0.988971
927.999533	0.988649
928.303486	0.989196
928.607400	0.990975
928.911275	0.988638
929.215110	0.990488
929.518906	0.990275
929.822663	0.990043
930.126381	0.991084
930.430060	0.991295
930.733699	0.990397
931.037299	0.989740
931.340861	0.989670
931.644383	0.989678
931.947866	0.989811
932.251309	0.990257
932.554714	0.990436
932.858080	0.989441
933.161407	0.990288
933.464694	0.990284
933.767943	0.989417
934.071153	0.991697
934.374323	0.991016
934.677455	0.990948
934.980548	0.992274
935.283602	0.990746
935.586617	0.991399
935.889593	0.991131
936.192530	0.990043
936.495428	0.990222
936.798287	0.989977
937.101108	0.990180
937.403890	0.988253
937.706632	0.988426
938.009336	0.987654
938.312002	0.984934
938.614628	0.983513
938.917216	0.983517
939.219765	0.981457
939.522275	0.982289
939.824747	0.981768
940.127179	0.982366
940.429573	0.983821
940.731929	0.983603
941.034246	0.984099
941.336524	0.985135
941.638763	0.986432
941.940964	0.987116
942.243126	0.986199
942.545250	0.986760
942.847335	0.987790
943.149381	0.988016
943.451389	0.987275
943.753359	0.987255
944.055290	0.990362
944.357182	0.989339
944.659036	0.987644
944.960851	0.989005
945.262628	0.990583
945.564367	0.989989
945.866067	0.988910
946.167729	0.989494
946.469352	0.988903
946.770937	0.987787
947.072484	0.990514
947.373992	0.989410
947.675462	0.989683
947.976893	0.988803
948.278286	0.989614
948.579641	0.990886
948.880958	0.990146
949.182236	0.990759
949.483476	0.990303
949.784678	0.990562
950.085841	0.990346
950.386967	0.990149
950.688054	0.991105
950.989103	0.990056
951.290114	0.989533
951.591087	0.989543
951.892021	0.989750
952.192917	0.989044
952.493776	0.988593
952.794596	0.988020
953.095378	0.987535
953.396122	0.988232
953.696828	0.986412
953.997496	0.990476
954.298126	0.991222
954.598718	0.990134
954.899272	0.991248
955.199788	0.990626
955.500266	0.992135
955.800706	0.993208
956.101108	0.992930
956.401472	0.993061
956.701798	0.994531
957.002087	0.993016
957.302337	0.994005
957.602550	0.994492
957.902724	0.994626
958.202861	0.995519
958.502960	0.995797
958.803022	0.993650
959.103045	0.996127
959.403031	0.995216
959.702979	0.994046
960.002889	0.995428
960.302762	0.995369
960.602596	0.996396
960.902393	0.994726
961.202153	0.996576
961.501875	0.995381
961.801559	0.994979
962.101205	0.996713
962.400814	0.996068
962.700385	0.997001
962.999918	0.996094
963.299414	0.996540
963.598873	0.995654
963.898293	0.995715
964.197677	0.995866
964.497022	0.995849
964.796331	0.997812
965.095601	0.996741
965.394835	0.996469
965.694030	0.996617
965.993189	0.996242
966.292309	0.996298
966.591393	0.998368
966.890439	0.996628
967.189447	0.996698
967.488419	0.997528
967.787353	0.995770
968.086249	0.995761
968.385108	0.998418
968.683930	0.997334
968.982714	0.996590
969.281462	0.998186
969.580172	0.996158
969.878844	0.996288
970.177480	0.996752
970.476078	0.997089
970.774639	0.997528
971.073162	0.997716
971.371649	0.996185
971.670098	0.997186
971.968510	0.996542
972.266885	0.995958
972.565223	0.995630
972.863524	0.997079
973.161788	0.996144
973.460014	0.997138
973.758204	0.995990
974.056356	0.996525
974.354471	0.993494
974.652550	0.997264
974.950591	0.996719
975.248595	0.996355
975.546563	0.996481
975.844493	0.997886
976.142386	0.996951
976.440243	0.997442
976.738062	0.998073
977.035845	0.997467
977.333590	0.997458
977.631299	0.998184
977.928971	0.996899
978.226606	0.996513
978.524204	0.995720
978.821765	0.998309
979.119290	0.996730
979.416777	0.996817
979.714228	0.998192
980.011642	0.996302
980.309020	0.998096
980.606360	0.996919
980.903664	0.998370
981.200931	0.996030
981.498162	0.995020
981.795356	0.995069
982.092513	0.993938
982.389633	0.994117
982.686717	0.990718
982.983764	0.990146
983.280775	0.990797
983.577749	0.990003
983.874686	0.991597
984.171587	0.991259
984.468451	0.993370
984.765279	0.993829
985.062070	0.994941
985.358824	0.995552
985.655543	0.994950
985.952224	0.995902
986.248869	0.997404
986.545478	0.997312
986.842050	0.998410
987.138586	0.996190
987.435086	0.997609
987.731549	0.999199
988.027975	0.997314
988.324366	0.997700
988.620719	0.997252
988.917037	0.996830
989.213318	0.998752
989.509563	0.998868
989.805772	0.999663
990.101944	0.998519
990.398080	0.997754
990.694180	0.998276
990.990244	0.997452
991.286271	0.998325
991.582262	0.999161
991.878217	0.997319
992.174136	0.997564
992.470019	0.998671
992.765865	0.998258
993.061676	0.998015
993.357450	0.998227
993.653188	0.997513
993.948890	0.998455
994.244556	0.998307
994.540186	0.997073
994.835780	0.996893
995.131337	0.997304
995.426859	0.997128
995.722345	0.997465
996.017795	0.995672
996.313208	0.995512
996.608586	0.995634
996.903928	0.996205
997.199234	0.995114
997.494504	0.996492
997.789738	0.995860
998.084936	0.996145
998.380099	0.998496
998.675225	0.997601
998.970316	0.999298
999.265371	0.997886
999.560390	0.998174
999.855373	0.998192
1000.150320	0.998546
1000.445232	0.998586
1000.740108	0.998077
1001.034948	0.998065
1001.329752	0.999318
1001.624521	0.998471
1001.919254	0.999337
1002.213951	0.997485
1002.508613	0.997651
1002.803239	0.999105
1003.097829	0.999320
1003.392384	0.998526
1003.686903	0.999446
1003.981386	0.998375
1004.275834	0.999906
1004.570246	0.999463
1004.864623	0.998215
1005.158964	1.000525
1005.453270	0.999543
1005.747540	0.997837
1006.041775	0.999828
1006.335974	0.999621
1006.630138	0.999345
1006.924266	1.000185
1007.218359	0.999435
1007.512416	0.999359
1007.806438	0.998776
1008.100425	0.999723
1008.394376	0.998325
1008.688292	0.998164
1008.982172	1.000637
1009.276017	1.000401
1009.569827	0.997638
1009.863602	0.998819
1010.157341	0.999873
1010.451045	0.998235
1010.744714	0.998376
1011.038347	0.999415
1011.331945	0.999503
1011.625508	0.996781
1011.919036	0.999127
1012.212528	0.999102
1012.505986	0.998939
1012.799408	0.998821
1013.092795	0.999388
1013.386147	0.999369
1013.679464	0.998237
1013.972745	0.998374
1014.265992	0.996790
1014.559204	0.999023
1014.852380	0.998693
1015.145521	0.998797
1015.438628	0.999731
1015.731699	0.998874
1016.024736	0.999233
1016.317737	0.999432
1016.610703	0.998803
1016.903635	0.999297
1017.196531	0.998274
1017.489393	0.999083
1017.782219	0.999763
1018.075011	0.998775
1018.367768	0.999391
1018.660490	0.999090
1018.953177	0.999090
1019.245829	0.999090
