Dividing Wavelength (nm)	Counts (n)	Blue Motor Position (mm): 0.000000	Red Motor Position (mm): 13.600000	
326.493990	1.001442
326.888308	1.001442
327.282561	1.001442
327.676750	1.000348
328.070874	0.998240
328.464933	0.999603
328.858929	1.000770
329.252859	1.000441
329.646726	1.000652
330.040528	1.000890
330.434265	1.000115
330.827938	1.001481
331.221547	1.000521
331.615091	0.999790
332.008571	1.000543
332.401986	0.999950
332.795338	1.000845
333.188625	0.999585
333.581847	1.000431
333.975006	0.999356
334.368100	0.999324
334.761129	1.001168
335.154095	1.001387
335.546996	0.998190
335.939833	0.992607
336.332606	0.993747
336.725315	0.993992
337.117960	0.994783
337.510540	0.994372
337.903056	0.994445
338.295508	0.993202
338.687896	0.994484
339.080220	0.994105
339.472480	0.995083
339.864676	0.993319
340.256807	0.994314
340.648875	0.994957
341.040879	0.994312
341.432818	0.994916
341.824694	0.993469
342.216506	0.995960
342.608253	0.994713
342.999937	0.994310
343.391557	0.993961
343.783113	0.994200
344.174605	0.993889
344.566033	0.993737
344.957397	0.992539
345.348697	0.994316
345.739934	0.994146
346.131106	0.994223
346.522215	0.993832
346.913260	0.992697
347.304241	0.994019
347.695159	0.993289
348.086012	0.993683
348.476802	0.994035
348.867528	0.993735
349.258191	0.992632
349.648789	0.994423
350.039324	0.993707
350.429796	0.994267
350.820203	0.994534
351.210548	0.994051
351.600828	0.993441
351.991045	0.993812
352.381198	0.992902
352.771288	0.994773
353.161314	0.993297
353.551276	0.995305
353.941175	0.994514
354.331010	0.993186
354.720782	0.993926
355.110490	0.994048
355.500135	0.995935
355.889717	0.993667
356.279235	0.992976
356.668689	0.993903
357.058080	0.993536
357.447408	0.995520
357.836672	0.993763
358.225873	0.994578
358.615010	0.994662
359.004084	0.994280
359.393095	0.993383
359.782043	0.995308
360.170927	0.994731
360.559748	0.995694
360.948505	0.992193
361.337199	0.993463
361.725830	0.994910
362.114398	0.993007
362.502903	0.995637
362.891344	0.993949
363.279722	0.994171
363.668037	0.993655
364.056289	0.993330
364.444478	0.994968
364.832603	0.993571
365.220665	0.992804
365.608665	0.993113
365.996601	0.993724
366.384474	0.993843
366.772284	0.993912
367.160031	0.993139
367.547715	0.992635
367.935336	0.994648
368.322893	0.992990
368.710388	0.992476
369.097820	0.993445
369.485189	0.993083
369.872495	0.992888
370.259738	0.992067
370.646918	0.993223
371.034035	0.994084
371.421090	0.992375
371.808081	0.993286
372.195010	0.995593
372.581875	0.993808
372.968678	0.993415
373.355418	0.992575
373.742096	0.992342
374.128710	0.993992
374.515262	0.992645
374.901751	0.992798
375.288177	0.992297
375.674540	0.994201
376.060841	0.992116
376.447079	0.994087
376.833254	0.992443
377.219367	0.993879
377.605417	0.993945
377.991404	0.992730
378.377329	0.993090
378.763191	0.993493
379.148991	0.995466
379.534727	0.993006
379.920402	0.994079
380.306013	0.993374
380.691563	0.994735
381.077049	0.993360
381.462474	0.993524
381.847835	0.993362
382.233134	0.992309
382.618371	0.993547
383.003545	0.994178
383.388657	0.993642
383.773706	0.993481
384.158693	0.994238
384.543618	0.992998
384.928480	0.994018
385.313280	0.993974
385.698017	0.993908
386.082692	0.994142
386.467305	0.993584
386.851856	0.993434
387.236344	0.992163
387.620770	0.991974
388.005133	0.993230
388.389435	0.993269
388.773674	0.991563
389.157851	0.992709
389.541965	0.991238
389.926018	0.989057
390.310008	0.989197
390.693936	0.986728
391.077802	0.984781
391.461606	0.982545
391.845348	0.980322
392.229027	0.978403
392.612645	0.974224
392.996200	0.970866
393.379694	0.966142
393.763125	0.961400
394.146494	0.957698
394.529801	0.951458
394.913047	0.945750
395.296230	0.940503
395.679351	0.934190
396.062410	0.928625
396.445408	0.923178
396.828343	0.915212
397.211217	0.907777
397.594028	0.904712
397.976778	0.894373
398.359466	0.886583
398.742092	0.876727
399.124656	0.873716
399.507158	0.861622
399.889598	0.853337
400.271977	0.842105
400.654294	0.835875
401.036549	0.826496
401.418742	0.819886
401.800874	0.803986
402.182944	0.795447
402.564952	0.781069
402.946898	0.774312
403.328783	0.765062
403.710606	0.761976
404.092367	0.739673
404.474067	0.735080
404.855705	0.725492
405.237282	0.723289
405.618797	0.706061
406.000250	0.694892
406.381642	0.681484
406.762972	0.676670
407.144240	0.668590
407.525447	0.661480
407.906593	0.648207
408.287677	0.637579
408.668700	0.637817
409.049661	0.625484
409.430560	0.616337
409.811399	0.616498
410.192176	0.595564
410.572891	0.596114
410.953545	0.581301
411.334138	0.587879
411.714669	0.576885
412.095139	0.583246
412.475547	0.565015
412.855894	0.562710
413.236180	0.559015
413.616405	0.560238
413.996568	0.548548
414.376670	0.550886
414.756711	0.553246
415.136691	0.547587
415.516609	0.537206
415.896466	0.531608
416.276262	0.526015
416.655997	0.526330
417.035670	0.506074
417.415283	0.496736
417.794834	0.500186
418.174324	0.503930
418.553753	0.512566
418.933121	0.493846
419.312428	0.486381
419.691674	0.491532
420.070859	0.479991
420.449983	0.487230
420.829045	0.476493
421.208047	0.484584
421.586988	0.478293
421.965867	0.476049
422.344686	0.464903
422.723444	0.477435
423.102141	0.493210
423.480777	0.466709
423.859352	0.487303
424.237866	0.464288
424.616319	0.464378
424.994712	0.455562
425.373044	0.466134
425.751314	0.454171
426.129524	0.469581
426.507673	0.454025
426.885762	0.447376
427.263789	0.452650
427.641756	0.462059
428.019662	0.453010
428.397508	0.451402
428.775292	0.455346
429.153016	0.447387
429.530679	0.454256
429.908282	0.447486
430.285824	0.457151
430.663305	0.435845
431.040726	0.456356
431.418086	0.456941
431.795385	0.448627
432.172624	0.446944
432.549802	0.447407
432.926920	0.446860
433.303977	0.445559
433.680974	0.442974
434.057910	0.441280
434.434786	0.441376
434.811601	0.443700
435.188355	0.425784
435.565050	0.435325
435.941683	0.436522
436.318257	0.421311
436.694770	0.421512
437.071222	0.420056
437.447614	0.423955
437.823946	0.430787
438.200218	0.420284
438.576429	0.429870
438.952580	0.423132
439.328670	0.419161
439.704700	0.426321
440.080670	0.427545
440.456580	0.408056
440.832429	0.416289
441.208218	0.427123
441.583947	0.416772
441.959616	0.415920
442.335224	0.420954
442.710773	0.411677
443.086261	0.409809
443.461689	0.423995
443.837057	0.413754
444.212365	0.403466
444.587612	0.410680
444.962800	0.400612
445.337927	0.402451
445.712995	0.428606
446.088002	0.390752
446.462949	0.401226
446.837837	0.405197
447.212664	0.394266
447.587431	0.386220
447.962139	0.356735
448.336786	0.316228
448.711374	0.326300
449.085901	0.370326
449.460369	0.375305
449.834776	0.378013
450.209124	0.357723
450.583412	0.350245
450.957640	0.343034
451.331808	0.354146
451.705917	0.378225
452.079965	0.382673
452.453954	0.370685
452.827883	0.377074
453.201752	0.372414
453.575562	0.383717
453.949311	0.372345
454.323001	0.378094
454.696632	0.373851
455.070202	0.366897
455.443713	0.358261
455.817164	0.353641
456.190556	0.349374
456.563888	0.346046
456.937160	0.343727
457.310373	0.360901
457.683526	0.360197
458.056619	0.365727
458.429653	0.366152
458.802628	0.369466
459.175542	0.363767
459.548398	0.345925
459.921194	0.338863
460.293930	0.339112
460.666607	0.316286
461.039224	0.304519
461.411782	0.300660
461.784280	0.299981
462.156719	0.304015
462.529099	0.308530
462.901419	0.324205
463.273680	0.328630
463.645882	0.328129
464.018024	0.333755
464.390106	0.327260
464.762130	0.311898
465.134094	0.295150
465.505999	0.264056
465.877845	0.234732
466.249631	0.221885
466.621358	0.228881
466.993026	0.243195
467.364634	0.249022
467.736184	0.257875
468.107674	0.266785
468.479105	0.265528
468.850477	0.272504
469.221790	0.279475
469.593043	0.289246
469.964238	0.294254
470.335373	0.293690
470.706449	0.291614
471.077467	0.292617
471.448425	0.255014
471.819324	0.230506
472.190164	0.229623
472.560945	0.258560
472.931667	0.280842
473.302330	0.284591
473.672934	0.296588
474.043479	0.284639
474.413965	0.286623
474.784393	0.289911
475.154761	0.285367
475.525070	0.282148
475.895321	0.288062
476.265513	0.281999
476.635645	0.277678
477.005719	0.277317
477.375734	0.274318
477.745691	0.267374
478.115588	0.263755
478.485427	0.257231
478.855207	0.244051
479.224928	0.226463
479.594591	0.214912
479.964194	0.218320
480.333739	0.219590
480.703226	0.221004
481.072653	0.219346
481.442022	0.215022
481.811333	0.211552
482.180584	0.214964
482.549777	0.220357
482.918912	0.223713
483.287988	0.223585
483.657005	0.222936
484.025964	0.229340
484.394864	0.226735
484.763706	0.227421
485.132489	0.232302
485.501213	0.233104
485.869879	0.231557
486.238487	0.234893
486.607036	0.232541
486.975527	0.237122
487.343959	0.233092
487.712333	0.232345
488.080648	0.233348
488.448905	0.232529
488.817104	0.234026
489.185244	0.228379
489.553326	0.225089
489.921350	0.215416
490.289315	0.197887
490.657222	0.192777
491.025070	0.194004
491.392861	0.196364
491.760593	0.201791
492.128267	0.207446
492.495883	0.212990
492.863440	0.219111
493.230939	0.225562
493.598380	0.226559
493.965763	0.229089
494.333088	0.231370
494.700354	0.232720
495.067563	0.231894
495.434713	0.234875
495.801805	0.232888
496.168839	0.234585
496.535815	0.235684
496.902733	0.235618
497.269593	0.237338
497.636395	0.234981
498.003139	0.235176
498.369825	0.238401
498.736453	0.234889
499.103023	0.236222
499.469535	0.235555
499.835989	0.236085
500.202385	0.236915
500.568723	0.239751
500.935003	0.235323
501.301226	0.239397
501.667390	0.234038
502.033497	0.232120
502.399546	0.235038
502.765537	0.236664
503.131470	0.234865
503.497345	0.231425
503.863163	0.239907
504.228923	0.233021
504.594625	0.231802
504.960269	0.237333
505.325856	0.232533
505.691385	0.236949
506.056856	0.233591
506.422270	0.232828
506.787625	0.235414
507.152924	0.233130
507.518164	0.233336
507.883347	0.235095
508.248472	0.236610
508.613540	0.231660
508.978550	0.234440
509.343503	0.234850
509.708398	0.232363
510.073236	0.229939
510.438016	0.230097
510.802738	0.230859
511.167403	0.229863
511.532010	0.231974
511.896561	0.227149
512.261053	0.226042
512.625488	0.228033
512.989866	0.228388
513.354186	0.228788
513.718449	0.230367
514.082655	0.227068
514.446803	0.229375
514.810894	0.227019
515.174927	0.229685
515.538904	0.228881
515.902822	0.225972
516.266684	0.228458
516.630488	0.229436
516.994235	0.228237
517.357925	0.226861
517.721558	0.225263
518.085133	0.224842
518.448651	0.224864
518.812112	0.227044
519.175516	0.226733
519.538863	0.224232
519.902152	0.226010
520.265385	0.222593
520.628560	0.224674
520.991678	0.225013
521.354739	0.223753
521.717743	0.225029
522.080690	0.225656
522.443580	0.222961
522.806413	0.223860
523.169189	0.222956
523.531908	0.221997
523.894569	0.225566
524.257174	0.225542
524.619722	0.223190
524.982213	0.224504
525.344647	0.223228
525.707025	0.224073
526.069345	0.222261
526.431608	0.223743
526.793815	0.221694
527.155964	0.226057
527.518057	0.225106
527.880093	0.226003
528.242072	0.224308
528.603995	0.226100
528.965860	0.228324
529.327669	0.227021
529.689421	0.227854
530.051117	0.228580
530.412755	0.226252
530.774337	0.228784
531.135862	0.229203
531.497331	0.228528
531.858743	0.231102
532.220098	0.228221
532.581396	0.230475
532.942638	0.231043
533.303824	0.232096
533.664953	0.231742
534.026025	0.233517
534.387040	0.231452
534.747999	0.231572
535.108902	0.230228
535.469748	0.235320
535.830537	0.232913
536.191270	0.233559
536.551947	0.232961
536.912567	0.233004
537.273131	0.234846
537.633638	0.234957
537.994089	0.235372
538.354483	0.236333
538.714821	0.233463
539.075103	0.233237
539.435328	0.233722
539.795497	0.237738
540.155609	0.234234
540.515665	0.232277
540.875665	0.238040
541.235609	0.236406
541.595496	0.236538
541.955328	0.233132
542.315102	0.235879
542.674821	0.236845
543.034483	0.236958
543.394090	0.236640
543.753640	0.238500
544.113134	0.233489
544.472571	0.236731
544.831953	0.233567
545.191278	0.237936
545.550548	0.237244
545.909761	0.234030
546.268918	0.234768
546.628019	0.233051
546.987064	0.235626
547.346053	0.237518
547.704986	0.235264
548.063863	0.235720
548.422684	0.236050
548.781449	0.237882
549.140158	0.235723
549.498811	0.238339
549.857408	0.241300
550.215949	0.236162
550.574434	0.239329
550.932864	0.237271
551.291237	0.235911
551.649555	0.236961
552.007817	0.236752
552.366022	0.238107
552.724173	0.238053
553.082267	0.238705
553.440305	0.235139
553.798288	0.239840
554.156215	0.236353
554.514086	0.237223
554.871902	0.240150
555.229661	0.239507
555.587365	0.239964
555.945014	0.242228
556.302606	0.239194
556.660143	0.241819
557.017625	0.238411
557.375050	0.240664
557.732421	0.237611
558.089735	0.239816
558.446994	0.239827
558.804197	0.238942
559.161345	0.238902
559.518437	0.242227
559.875474	0.239745
560.232455	0.239417
560.589381	0.240739
560.946251	0.240685
561.303065	0.237950
561.659825	0.239910
562.016528	0.240886
562.373177	0.244128
562.729770	0.241353
563.086307	0.243092
563.442789	0.241007
563.799216	0.243996
564.155587	0.242574
564.511904	0.243650
564.868164	0.243906
565.224370	0.243816
565.580520	0.245592
565.936615	0.245143
566.292654	0.248352
566.648638	0.245273
567.004567	0.246545
567.360441	0.246870
567.716260	0.249128
568.072023	0.246649
568.427732	0.247343
568.783385	0.250169
569.138982	0.248280
569.494525	0.247424
569.850013	0.250621
570.205445	0.248881
570.560823	0.251510
570.916145	0.253437
571.271412	0.251837
571.626625	0.253463
571.981782	0.253671
572.336884	0.254533
572.691931	0.254020
573.046923	0.255282
573.401860	0.256904
573.756743	0.258606
574.111570	0.257220
574.466342	0.257688
574.821059	0.256628
575.175722	0.259776
575.530330	0.259264
575.884882	0.259907
576.239380	0.261734
576.593823	0.262252
576.948211	0.261722
577.302544	0.264901
577.656823	0.264740
578.011047	0.264776
578.365216	0.265356
578.719330	0.267481
579.073389	0.267309
579.427394	0.268374
579.781344	0.269364
580.135239	0.270929
580.489080	0.270347
580.842866	0.273298
581.196597	0.272738
581.550273	0.271729
581.903895	0.273025
582.257463	0.270898
582.610975	0.274200
582.964434	0.273573
583.317837	0.276463
583.671186	0.276545
584.024481	0.276515
584.377721	0.279178
584.730906	0.280198
585.084037	0.278683
585.437113	0.280798
585.790135	0.280051
586.143103	0.282924
586.496016	0.284282
586.848874	0.282009
587.201679	0.282318
587.554428	0.285669
587.907124	0.284692
588.259765	0.285384
588.612352	0.286047
588.964884	0.289809
589.317362	0.289507
589.669786	0.289335
590.022155	0.287604
590.374470	0.287107
590.726731	0.288959
591.078937	0.293964
591.431090	0.290050
591.783188	0.294794
592.135232	0.294543
592.487222	0.294432
592.839157	0.293009
593.191038	0.295293
593.542866	0.297024
593.894639	0.300718
594.246358	0.298948
594.598022	0.298233
594.949633	0.301837
595.301190	0.302328
595.652692	0.301925
596.004141	0.298107
596.355535	0.305769
596.706876	0.306186
597.058162	0.308849
597.409395	0.305992
597.760573	0.303804
598.111698	0.307045
598.462768	0.307576
598.813785	0.308711
599.164748	0.310002
599.515657	0.310536
599.866511	0.313719
600.217312	0.308631
600.568060	0.314633
600.918753	0.310863
601.269392	0.311613
601.619978	0.315021
601.970510	0.312156
602.320988	0.312733
602.671412	0.310683
603.021783	0.312855
603.372100	0.314032
603.722363	0.314248
604.072572	0.314861
604.422728	0.314846
604.772830	0.316439
605.122878	0.316178
605.472872	0.316786
605.822813	0.315338
606.172701	0.317758
606.522534	0.315187
606.872314	0.315252
607.222041	0.316267
607.571714	0.314232
607.921333	0.315469
608.270899	0.315372
608.620411	0.312532
608.969870	0.316098
609.319276	0.316287
609.668627	0.315846
610.017926	0.314966
610.367171	0.313076
610.716362	0.313664
611.065500	0.314142
611.414585	0.313049
611.763616	0.313402
612.112594	0.313759
612.461518	0.313094
612.810389	0.310919
613.159207	0.313286
613.507971	0.315454
613.856682	0.310823
614.205340	0.312062
614.553945	0.309398
614.902496	0.313387
615.250994	0.311119
615.599439	0.311960
615.947830	0.311281
616.296169	0.312387
616.644454	0.311653
616.992686	0.311601
617.340864	0.309688
617.688990	0.313130
618.037063	0.309737
618.385082	0.311778
618.733048	0.308622
619.080961	0.310795
619.428821	0.310192
619.776628	0.310010
620.124382	0.311661
620.472083	0.312093
620.819731	0.311405
621.167326	0.315446
621.514868	0.315341
621.862357	0.319653
622.209793	0.318819
622.557176	0.321406
622.904506	0.322187
623.251783	0.324634
623.599007	0.327012
623.946179	0.326565
624.293297	0.328723
624.640363	0.332208
624.987376	0.332630
625.334336	0.335448
625.681243	0.337596
626.028097	0.338179
626.374899	0.339500
626.721647	0.339646
627.068343	0.342879
627.414987	0.344036
627.761577	0.346385
628.108115	0.344328
628.454600	0.349396
628.801032	0.346752
629.147412	0.348788
629.493739	0.349339
629.840014	0.352281
630.186236	0.349508
630.532405	0.355391
630.878521	0.352774
631.224585	0.354668
631.570597	0.358675
631.916556	0.357078
632.262462	0.356912
632.608316	0.359236
632.954117	0.359856
633.299866	0.360919
633.645562	0.361464
633.991206	0.365782
634.336797	0.368820
634.682336	0.370567
635.027823	0.372659
635.373257	0.372776
635.718639	0.377033
636.063968	0.375646
636.409245	0.381922
636.754470	0.382026
637.099642	0.384370
637.444762	0.387617
637.789829	0.387036
638.134845	0.390481
638.479808	0.391120
638.824719	0.391086
639.169577	0.395236
639.514383	0.394295
639.859137	0.398407
640.203839	0.397958
640.548489	0.398957
640.893086	0.400271
641.237632	0.401667
641.582125	0.399895
641.926566	0.401738
642.270955	0.401355
642.615292	0.402224
642.959576	0.400664
643.303809	0.401663
643.647990	0.400927
643.992118	0.401957
644.336195	0.405223
644.680219	0.403720
645.024192	0.404844
645.368112	0.398120
645.711981	0.397115
646.055797	0.392659
646.399562	0.394787
646.743274	0.387187
647.086935	0.384534
647.430544	0.384747
647.774101	0.383278
648.117606	0.382903
648.461059	0.383549
648.804460	0.385758
649.147810	0.390858
649.491108	0.393015
649.834354	0.394191
650.177548	0.399842
650.520690	0.404574
650.863781	0.406351
651.206820	0.405355
651.549807	0.410235
651.892742	0.414733
652.235626	0.413617
652.578458	0.414617
652.921238	0.420674
653.263967	0.418484
653.606644	0.422973
653.949269	0.422220
654.291843	0.426480
654.634365	0.422670
654.976836	0.425891
655.319255	0.426255
655.661622	0.428073
656.003938	0.428004
656.346203	0.430485
656.688416	0.428507
657.030577	0.432150
657.372687	0.434123
657.714746	0.435124
658.056753	0.431772
658.398708	0.435857
658.740612	0.436437
659.082465	0.432876
659.424266	0.433289
659.766016	0.432764
660.107715	0.435280
660.449362	0.434020
660.790958	0.435324
661.132503	0.435506
661.473996	0.433329
661.815438	0.434452
662.156829	0.434099
662.498168	0.435347
662.839456	0.436692
663.180693	0.434212
663.521879	0.434253
663.863013	0.435667
664.204097	0.433761
664.545129	0.430300
664.886110	0.431030
665.227040	0.428509
665.567918	0.430383
665.908746	0.428479
666.249522	0.428522
666.590248	0.429728
666.930922	0.427817
667.271545	0.426446
667.612118	0.426466
667.952639	0.428230
668.293109	0.427242
668.633528	0.430154
668.973896	0.429744
669.314213	0.430463
669.654480	0.431520
669.994695	0.432172
670.334859	0.433119
670.674973	0.432868
671.015035	0.433480
671.355047	0.433057
671.695008	0.434371
672.034918	0.436096
672.374777	0.435539
672.714585	0.436091
673.054342	0.436390
673.394049	0.436555
673.733705	0.434599
674.073310	0.435805
674.412864	0.438702
674.752368	0.439031
675.091820	0.439166
675.431223	0.444050
675.770574	0.444108
676.109875	0.446472
676.449125	0.446464
676.788324	0.448805
677.127473	0.454135
677.466571	0.454211
677.805619	0.455320
678.144616	0.456743
678.483562	0.458292
678.822458	0.460855
679.161303	0.461671
679.500098	0.462041
679.838842	0.464080
680.177535	0.463816
680.516179	0.461919
680.854771	0.461288
681.193314	0.454583
681.531805	0.445960
681.870247	0.434032
682.208638	0.426860
682.546978	0.425484
682.885268	0.427520
683.223508	0.434062
683.561697	0.437720
683.899836	0.439832
684.237925	0.443584
684.575963	0.446161
684.913951	0.448982
685.251889	0.445181
685.589776	0.446715
685.927614	0.449522
686.265401	0.443122
686.603137	0.445304
686.940824	0.439000
687.278460	0.437125
687.616046	0.436767
687.953582	0.431548
688.291068	0.432375
688.628504	0.428888
688.965889	0.430879
689.303224	0.435133
689.640510	0.438593
689.977745	0.444692
690.314930	0.452445
690.652065	0.456898
690.989150	0.465170
691.326185	0.471135
691.663170	0.475913
692.000105	0.482784
692.336990	0.489681
692.673825	0.492304
693.010610	0.499251
693.347345	0.504856
693.684030	0.506014
694.020665	0.510966
694.357251	0.519590
694.693786	0.519706
695.030272	0.523853
695.366707	0.527518
695.703093	0.530630
696.039429	0.528548
696.375716	0.530039
696.711952	0.532809
697.048139	0.534883
697.384276	0.536505
697.720363	0.535217
698.056400	0.534476
698.392388	0.539606
698.728326	0.542164
699.064214	0.546057
699.400053	0.546045
699.735842	0.549929
700.071581	0.552460
700.407270	0.555525
700.742910	0.557986
701.078501	0.565147
701.414042	0.565245
701.749533	0.567578
702.084974	0.576382
702.420366	0.568889
702.755709	0.576290
703.091002	0.584471
703.426246	0.577533
703.761440	0.584253
704.096584	0.588272
704.431679	0.586016
704.766725	0.587299
705.101721	0.589249
705.436668	0.585234
705.771565	0.592352
706.106413	0.588922
706.441212	0.584421
706.775961	0.582822
707.110661	0.585995
707.445311	0.582315
707.779913	0.579433
708.114465	0.578277
708.448967	0.574845
708.783421	0.566724
709.117825	0.561134
709.452180	0.561644
709.786485	0.555170
710.120742	0.544831
710.454949	0.546922
710.789107	0.538665
711.123216	0.530234
711.457275	0.531867
711.791286	0.522943
712.125247	0.521355
712.459159	0.532092
712.793023	0.524850
713.126837	0.529812
713.460602	0.529597
713.794318	0.538573
714.127985	0.537831
714.461602	0.547672
714.795171	0.550920
715.128691	0.559235
715.462162	0.566238
715.795584	0.571797
716.128957	0.575062
716.462281	0.581374
716.795556	0.584848
717.128782	0.590270
717.461960	0.600299
717.795088	0.598190
718.128167	0.604222
718.461198	0.613174
718.794180	0.613917
719.127113	0.616050
719.459997	0.620032
719.792833	0.625770
720.125619	0.626554
720.458357	0.634093
720.791046	0.632234
721.123686	0.636117
721.456278	0.644129
721.788821	0.640088
722.121315	0.644773
722.453761	0.649132
722.786158	0.647161
723.118506	0.642815
723.450805	0.651220
723.783056	0.646880
724.115259	0.644437
724.447412	0.644179
724.779518	0.645631
725.111574	0.644215
725.443582	0.639138
725.775542	0.642084
726.107453	0.634404
726.439315	0.633952
726.771129	0.631750
727.102895	0.625564
727.434612	0.618955
727.766281	0.617120
728.097901	0.616552
728.429473	0.616400
728.760996	0.614251
729.092471	0.614250
729.423897	0.617533
729.755276	0.617325
730.086606	0.617124
730.417887	0.611419
730.749120	0.602238
731.080305	0.593395
731.411442	0.589780
731.742530	0.593941
732.073570	0.593448
732.404562	0.585873
732.735506	0.587221
733.066401	0.592243
733.397249	0.600887
733.728048	0.611464
734.058798	0.625198
734.389501	0.635573
734.720156	0.645580
735.050762	0.653633
735.381320	0.654411
735.711831	0.663851
736.042293	0.668262
736.372707	0.664581
736.703073	0.669045
737.033391	0.671308
737.363661	0.667824
737.693883	0.662821
738.024056	0.662424
738.354182	0.663256
738.684260	0.652047
739.014290	0.647702
739.344272	0.648554
739.674207	0.642460
740.004093	0.642159
740.333931	0.642000
740.663722	0.641833
740.993464	0.642717
741.323159	0.646257
741.652806	0.651500
741.982405	0.655777
742.311956	0.661003
742.641460	0.663042
742.970915	0.666441
743.300323	0.674260
743.629683	0.680820
743.958996	0.682379
744.288260	0.687023
744.617477	0.692124
744.946647	0.694747
745.275768	0.700324
745.604842	0.699642
745.933869	0.709610
746.262847	0.709930
746.591778	0.703804
746.920662	0.710240
747.249498	0.716468
747.578286	0.707303
747.907027	0.703688
748.235720	0.705130
748.564365	0.699018
748.892963	0.698615
749.221514	0.701609
749.550017	0.706932
749.878473	0.706759
750.206881	0.713095
750.535242	0.714699
750.863555	0.713928
751.191821	0.715235
751.520039	0.719041
751.848210	0.723492
752.176334	0.716341
752.504411	0.715533
752.832440	0.723027
753.160421	0.727034
753.488356	0.725608
753.816243	0.723307
754.144082	0.731348
754.471875	0.734977
754.799620	0.730295
755.127318	0.731407
755.454969	0.731164
755.782572	0.730439
756.110129	0.736363
756.437638	0.738278
756.765100	0.735185
757.092515	0.732817
757.419882	0.731958
757.747203	0.737158
758.074477	0.736994
758.401703	0.733328
758.728882	0.728945
759.056014	0.727569
759.383099	0.727160
759.710138	0.727937
760.037129	0.723934
760.364073	0.718339
760.690970	0.721082
761.017820	0.726630
761.344623	0.722383
761.671379	0.712929
761.998088	0.700688
762.324751	0.678170
762.651366	0.636407
762.977935	0.568994
763.304456	0.517099
763.630931	0.507701
763.957359	0.546340
764.283740	0.591881
764.610074	0.618669
764.936362	0.650068
765.262602	0.676325
765.588796	0.697312
765.914943	0.715298
766.241044	0.734042
766.567097	0.740168
766.893104	0.749992
767.219064	0.757566
767.544978	0.762314
767.870845	0.776373
768.196665	0.780605
768.522438	0.778371
768.848165	0.779506
769.173846	0.789470
769.499479	0.793168
769.825066	0.797229
770.150607	0.802614
770.476101	0.797156
770.801548	0.798802
771.126949	0.809582
771.452303	0.812819
771.777611	0.812447
772.102872	0.812149
772.428087	0.817146
772.753256	0.821684
773.078378	0.822529
773.403453	0.830600
773.728482	0.835206
774.053465	0.828417
774.378401	0.832582
774.703291	0.840047
775.028135	0.840873
775.352932	0.843001
775.677683	0.844766
776.002388	0.845802
776.327046	0.844803
776.651658	0.848053
776.976224	0.851622
777.300743	0.852058
777.625216	0.854412
777.949643	0.856336
778.274024	0.855449
778.598359	0.857683
778.922647	0.857124
779.246889	0.856804
779.571086	0.860326
779.895236	0.862763
780.219339	0.859594
780.543397	0.857624
780.867409	0.855527
781.191374	0.858426
781.515294	0.859441
781.839167	0.858493
782.162995	0.861609
782.486776	0.858328
782.810511	0.859486
783.134201	0.862813
783.457844	0.861445
783.781441	0.864389
784.104993	0.869550
784.428498	0.869403
784.751958	0.865210
785.075372	0.868408
785.398739	0.870965
785.722061	0.868538
786.045337	0.862923
786.368568	0.868282
786.691752	0.871538
787.014891	0.856253
787.337983	0.847508
787.661030	0.840828
787.984031	0.823026
788.306987	0.810033
788.629897	0.811688
788.952760	0.816452
789.275579	0.819933
789.598351	0.836639
789.921078	0.848279
790.243759	0.851932
790.566395	0.856178
790.888984	0.862767
791.211529	0.868235
791.534027	0.870840
791.856480	0.873998
792.178888	0.878185
792.501249	0.880360
792.823566	0.882656
793.145836	0.882336
793.468062	0.885136
793.790241	0.884476
794.112375	0.882875
794.434464	0.878336
794.756507	0.876353
795.078505	0.877025
795.400457	0.871299
795.722364	0.859069
796.044226	0.852870
796.366042	0.851519
796.687812	0.854670
797.009538	0.851256
797.331218	0.853963
797.652852	0.858962
797.974442	0.864541
798.295986	0.864032
798.617484	0.866441
798.938938	0.870232
799.260346	0.875808
799.581709	0.877123
799.903026	0.879973
800.224299	0.879801
800.545526	0.883521
800.866708	0.888307
801.187845	0.891889
801.508936	0.891151
801.829983	0.888863
802.150984	0.892287
802.471940	0.896971
802.792851	0.896136
803.113717	0.897633
803.434538	0.895321
803.755314	0.897875
804.076045	0.899761
804.396731	0.899460
804.717372	0.898821
805.037967	0.901034
805.358518	0.898492
805.679024	0.896270
805.999485	0.896504
806.319901	0.896190
806.640272	0.897921
806.960598	0.896353
807.280879	0.893577
807.601115	0.891239
807.921306	0.895026
808.241453	0.895462
808.561554	0.893171
808.881611	0.893630
809.201623	0.895629
809.521590	0.895072
809.841513	0.896445
810.161390	0.895847
810.481223	0.897047
810.801011	0.901562
811.120755	0.902968
811.440453	0.900713
811.760107	0.899452
812.079716	0.899672
812.399281	0.902945
812.718801	0.904647
813.038276	0.907475
813.357707	0.906120
813.677093	0.902992
813.996434	0.906200
814.315731	0.908494
814.634983	0.909537
814.954191	0.907172
815.273354	0.904247
815.592473	0.900609
815.911547	0.900860
816.230577	0.898591
816.549562	0.896258
816.868502	0.896464
817.187399	0.892633
817.506250	0.887713
817.825058	0.888629
818.143821	0.886061
818.462539	0.879746
818.781213	0.872351
819.099843	0.860739
819.418429	0.844773
819.736970	0.828064
820.055466	0.808493
820.373919	0.783240
820.692327	0.749854
821.010691	0.714429
821.329011	0.636467
821.647286	0.520140
821.965517	0.406079
822.283704	0.362876
822.601847	0.363744
822.919945	0.399774
823.237999	0.433651
823.556010	0.481274
823.873976	0.537419
824.191897	0.588149
824.509775	0.630982
824.827609	0.676881
825.145398	0.699703
825.463144	0.702532
825.780845	0.685490
826.098502	0.666099
826.416116	0.619968
826.733685	0.575828
827.051210	0.566654
827.368692	0.581737
827.686129	0.619754
828.003522	0.673496
828.320872	0.720685
828.638177	0.765144
828.955439	0.797797
829.272656	0.820404
829.589830	0.838657
829.906960	0.854390
830.224046	0.865655
830.541088	0.876556
830.858086	0.880106
831.175041	0.885710
831.491952	0.884820
831.808819	0.882936
832.125642	0.876075
832.442421	0.860498
832.759157	0.838631
833.075849	0.792159
833.392497	0.727756
833.709101	0.687046
834.025662	0.696864
834.342179	0.727815
834.658653	0.768329
834.975083	0.804338
835.291469	0.831001
835.607811	0.853617
835.924110	0.869113
836.240366	0.885563
836.556578	0.900428
836.872746	0.909165
837.188871	0.913563
837.504952	0.919567
837.820990	0.922964
838.136984	0.926133
838.452935	0.930114
838.768842	0.931190
839.084706	0.924683
839.400526	0.898531
839.716303	0.857944
840.032037	0.835119
840.347727	0.838886
840.663373	0.857350
840.978977	0.878391
841.294537	0.901619
841.610054	0.917117
841.925527	0.926070
842.240957	0.932439
842.556344	0.939042
842.871687	0.945830
843.186987	0.949191
843.502244	0.949234
843.817458	0.952153
844.132629	0.955130
844.447756	0.961416
844.762840	0.959338
845.077881	0.959491
845.392879	0.958807
845.707833	0.962493
846.022745	0.964821
846.337613	0.965292
846.652438	0.965926
846.967221	0.963440
847.281960	0.964572
847.596656	0.967091
847.911309	0.965340
848.225919	0.967663
848.540485	0.968008
848.855009	0.969066
849.169490	0.968139
849.483928	0.968944
849.798323	0.968695
850.112675	0.969120
850.426984	0.969569
850.741251	0.970070
851.055474	0.969206
851.369654	0.967737
851.683792	0.969116
851.997887	0.969193
852.311938	0.970982
852.625947	0.968546
852.939914	0.968185
853.253837	0.969080
853.567718	0.969687
853.881555	0.970688
854.195350	0.968738
854.509103	0.969634
854.822812	0.970811
855.136479	0.970467
855.450103	0.969736
855.763685	0.966914
856.077224	0.968547
856.390720	0.969739
856.704173	0.970187
857.017584	0.969016
857.330953	0.966696
857.644278	0.968526
857.957561	0.967999
858.270802	0.969615
858.584000	0.967761
858.897155	0.966624
859.210268	0.966920
859.523339	0.967315
859.836367	0.970114
860.149352	0.970115
860.462295	0.967501
860.775195	0.968621
861.088054	0.968835
861.400869	0.969180
861.713642	0.970046
862.026373	0.970463
862.339062	0.970315
862.651708	0.967415
862.964312	0.967626
863.276873	0.968878
863.589392	0.967970
863.901869	0.965905
864.214303	0.964297
864.526696	0.964472
864.839045	0.962517
865.151353	0.961458
865.463619	0.961852
865.775842	0.963282
866.088023	0.962018
866.400162	0.962015
866.712258	0.963047
867.024313	0.961912
867.336325	0.963991
867.648296	0.962703
867.960224	0.962716
868.272110	0.961852
868.583954	0.963722
868.895755	0.963026
869.207515	0.960410
869.519233	0.958766
869.830909	0.960309
870.142542	0.962877
870.454134	0.961084
870.765684	0.960148
871.077191	0.956769
871.388657	0.958024
871.700081	0.957118
872.011463	0.957528
872.322803	0.958558
872.634101	0.956487
872.945357	0.954335
873.256571	0.951638
873.567744	0.953646
873.878874	0.952522
874.189963	0.952493
874.501010	0.951565
874.812015	0.948166
875.122979	0.950594
875.433900	0.953190
875.744780	0.953881
876.055618	0.951297
876.366415	0.949302
876.677169	0.949308
876.987882	0.950117
877.298554	0.950798
877.609183	0.947611
877.919771	0.944410
878.230317	0.940894
878.540822	0.939905
878.851285	0.934161
879.161707	0.926757
879.472087	0.913647
879.782425	0.896435
880.092722	0.862951
880.402977	0.810972
880.713191	0.748783
881.023363	0.688315
881.333494	0.653958
881.643583	0.626258
881.953631	0.626453
882.263637	0.654912
882.573602	0.694303
882.883526	0.720426
883.193408	0.743863
883.503248	0.766992
883.813048	0.795799
884.122806	0.824709
884.432522	0.849018
884.742197	0.868990
885.051831	0.879731
885.361424	0.890276
885.670975	0.902551
885.980485	0.912337
886.289954	0.918328
886.599382	0.924217
886.908768	0.927729
887.218113	0.932993
887.527417	0.937749
887.836680	0.941072
888.145901	0.942850
888.455082	0.945524
888.764221	0.949691
889.073319	0.951757
889.382376	0.952704
889.691392	0.952641
890.000366	0.952025
890.309300	0.953423
890.618193	0.952445
890.927044	0.950461
891.235855	0.951141
891.544625	0.950506
891.853353	0.951784
892.162041	0.948844
892.470687	0.941509
892.779293	0.937665
893.087858	0.933236
893.396381	0.926310
893.704864	0.911846
894.013306	0.887269
894.321707	0.860351
894.630068	0.845860
894.938387	0.840432
895.246665	0.842341
895.554903	0.855599
895.863100	0.868244
896.171256	0.885568
896.479371	0.905192
896.787446	0.917955
897.095480	0.923474
897.403473	0.928546
897.711425	0.931896
898.019336	0.939443
898.327207	0.942177
898.635038	0.944676
898.942827	0.945113
899.250576	0.947312
899.558284	0.951616
899.865952	0.952933
900.173579	0.954986
900.481165	0.954576
900.788711	0.958585
901.096216	0.961505
901.403681	0.961007
901.711105	0.962922
902.018489	0.962382
902.325832	0.962608
902.633135	0.962330
902.940397	0.954157
903.247619	0.942730
903.554800	0.917590
903.861941	0.876026
904.169041	0.840357
904.476101	0.822769
904.783121	0.823234
905.090100	0.840912
905.397039	0.861458
905.703938	0.884216
906.010796	0.903858
906.317614	0.921631
906.624391	0.933716
906.931129	0.943696
907.237826	0.951702
907.544483	0.958587
907.851099	0.963044
908.157675	0.967427
908.464211	0.970039
908.770707	0.972822
909.077163	0.973483
909.383578	0.974334
909.689954	0.975173
909.996289	0.975528
910.302584	0.976573
910.608839	0.979331
910.915054	0.978207
911.221229	0.977733
911.527363	0.977086
911.833458	0.976463
912.139513	0.976332
912.445527	0.975745
912.751502	0.973642
913.057436	0.971742
913.363331	0.970441
913.669186	0.965117
913.975000	0.961243
914.280775	0.954137
914.586510	0.947264
914.892205	0.934141
915.197859	0.912943
915.503475	0.884119
915.809050	0.863903
916.114585	0.859105
916.420081	0.856420
916.725536	0.853127
917.030952	0.861264
917.336328	0.874681
917.641665	0.888696
917.946961	0.906134
918.252218	0.918834
918.557435	0.926434
918.862612	0.935098
919.167750	0.940244
919.472848	0.946025
919.777906	0.951567
920.082925	0.957526
920.387904	0.960375
920.692843	0.962475
920.997743	0.962911
921.302603	0.966748
921.607423	0.968505
921.912204	0.971901
922.216946	0.971619
922.521647	0.972957
922.826310	0.974300
923.130932	0.975774
923.435516	0.977009
923.740059	0.979510
924.044564	0.979294
924.349028	0.980527
924.653454	0.982816
924.957840	0.984361
925.262186	0.985172
925.566493	0.984474
925.870761	0.984869
926.174989	0.986865
926.479178	0.987104
926.783328	0.989025
927.087438	0.988125
927.391509	0.988143
927.695541	0.990701
927.999533	0.990220
928.303486	0.989801
928.607400	0.990357
928.911275	0.989425
929.215110	0.990376
929.518906	0.991930
929.822663	0.990237
930.126381	0.990268
930.430060	0.990218
930.733699	0.989873
931.037299	0.989990
931.340861	0.989594
931.644383	0.988369
931.947866	0.988707
932.251309	0.990971
932.554714	0.989832
932.858080	0.990474
933.161407	0.990395
933.464694	0.990612
933.767943	0.989765
934.071153	0.990955
934.374323	0.991813
934.677455	0.991242
934.980548	0.992890
935.283602	0.991518
935.586617	0.990661
935.889593	0.990661
936.192530	0.991064
936.495428	0.991320
936.798287	0.991005
937.101108	0.990566
937.403890	0.988613
937.706632	0.988804
938.009336	0.987078
938.312002	0.985258
938.614628	0.984028
938.917216	0.983478
939.219765	0.981636
939.522275	0.983163
939.824747	0.984201
940.127179	0.983877
940.429573	0.985179
940.731929	0.983790
941.034246	0.984221
941.336524	0.985854
941.638763	0.985813
941.940964	0.986260
942.243126	0.986315
942.545250	0.986039
942.847335	0.989300
943.149381	0.988740
943.451389	0.988304
943.753359	0.988028
944.055290	0.989787
944.357182	0.989717
944.659036	0.987925
944.960851	0.988739
945.262628	0.990826
945.564367	0.990447
945.866067	0.990464
946.167729	0.990219
946.469352	0.990092
946.770937	0.988631
947.072484	0.991253
947.373992	0.989742
947.675462	0.990977
947.976893	0.988825
948.278286	0.990501
948.579641	0.991005
948.880958	0.990922
949.182236	0.991505
949.483476	0.991280
949.784678	0.990875
950.085841	0.990905
950.386967	0.991702
950.688054	0.991840
950.989103	0.991446
951.290114	0.988800
951.591087	0.989155
951.892021	0.989748
952.192917	0.988376
952.493776	0.987951
952.794596	0.988240
953.095378	0.988339
953.396122	0.987330
953.696828	0.986708
953.997496	0.990203
954.298126	0.990360
954.598718	0.990681
954.899272	0.990700
955.199788	0.991165
955.500266	0.992024
955.800706	0.992490
956.101108	0.994620
956.401472	0.993389
956.701798	0.993815
957.002087	0.992982
957.302337	0.993744
957.602550	0.995506
957.902724	0.994385
958.202861	0.994353
958.502960	0.995708
958.803022	0.993938
959.103045	0.995891
959.403031	0.996019
959.702979	0.994767
960.002889	0.995737
960.302762	0.993964
960.602596	0.996386
960.902393	0.995002
961.202153	0.997446
961.501875	0.996636
961.801559	0.995878
962.101205	0.995853
962.400814	0.996248
962.700385	0.997420
962.999918	0.996433
963.299414	0.996353
963.598873	0.996367
963.898293	0.996325
964.197677	0.996781
964.497022	0.995661
964.796331	0.996935
965.095601	0.996791
965.394835	0.997584
965.694030	0.997096
965.993189	0.997550
966.292309	0.996047
966.591393	0.998678
966.890439	0.997283
967.189447	0.997105
967.488419	0.996960
967.787353	0.996255
968.086249	0.996799
968.385108	0.996982
968.683930	0.997100
968.982714	0.997114
969.281462	0.997780
969.580172	0.996733
969.878844	0.997305
970.177480	0.997868
970.476078	0.996972
970.774639	0.996860
971.073162	0.997908
971.371649	0.996069
971.670098	0.996681
971.968510	0.998070
972.266885	0.995628
972.565223	0.996637
972.863524	0.996037
973.161788	0.996396
973.460014	0.996707
973.758204	0.995415
974.056356	0.995241
974.354471	0.994922
974.652550	0.996237
974.950591	0.996260
975.248595	0.996940
975.546563	0.998184
975.844493	0.999048
976.142386	0.997148
976.440243	0.998701
976.738062	0.996604
977.035845	0.998884
977.333590	0.997225
977.631299	0.998374
977.928971	0.997366
978.226606	0.995882
978.524204	0.996809
978.821765	0.998106
979.119290	0.996294
979.416777	0.997541
979.714228	0.996996
980.011642	0.996983
980.309020	0.997422
980.606360	0.996978
980.903664	0.998046
981.200931	0.996792
981.498162	0.995778
981.795356	0.994007
982.092513	0.992617
982.389633	0.994794
982.686717	0.990630
982.983764	0.991208
983.280775	0.989909
983.577749	0.990064
983.874686	0.991944
984.171587	0.992483
984.468451	0.994778
984.765279	0.995124
985.062070	0.994765
985.358824	0.994937
985.655543	0.994632
985.952224	0.996711
986.248869	0.995964
986.545478	0.997527
986.842050	0.998913
987.138586	0.995934
987.435086	0.998112
987.731549	0.999259
988.027975	0.997012
988.324366	0.997884
988.620719	0.997936
988.917037	0.997067
989.213318	0.997697
989.509563	0.998762
989.805772	0.998240
990.101944	0.998438
990.398080	0.997699
990.694180	0.998142
990.990244	0.997452
991.286271	0.997513
991.582262	0.998353
991.878217	0.997604
992.174136	0.998302
992.470019	0.999369
992.765865	0.998085
993.061676	0.997736
993.357450	0.998460
993.653188	0.997492
993.948890	0.997811
994.244556	0.998159
994.540186	0.997526
994.835780	0.996317
995.131337	0.997996
995.426859	0.996308
995.722345	0.997413
996.017795	0.996070
996.313208	0.995664
996.608586	0.996178
996.903928	0.995940
997.199234	0.997743
997.494504	0.995817
997.789738	0.995425
998.084936	0.995861
998.380099	0.998078
998.675225	0.997852
998.970316	0.998332
999.265371	0.998824
999.560390	0.997824
999.855373	0.998639
1000.150320	0.998440
1000.445232	0.998529
1000.740108	0.998484
1001.034948	0.998914
1001.329752	0.999187
1001.624521	0.999178
1001.919254	0.999166
1002.213951	0.998346
1002.508613	0.999251
1002.803239	0.998212
1003.097829	0.999215
1003.392384	0.999071
1003.686903	0.998760
1003.981386	0.998460
1004.275834	0.999664
1004.570246	0.998202
1004.864623	1.000123
1005.158964	0.999096
1005.453270	0.999331
1005.747540	0.998394
1006.041775	0.999108
1006.335974	0.998589
1006.630138	0.998763
1006.924266	0.999709
1007.218359	0.999914
1007.512416	0.999889
1007.806438	0.999574
1008.100425	0.999967
1008.394376	0.998596
1008.688292	0.999377
1008.982172	0.999830
1009.276017	0.999955
1009.569827	0.999098
1009.863602	0.999242
1010.157341	1.000449
1010.451045	0.998796
1010.744714	0.999154
1011.038347	0.999145
1011.331945	0.999445
1011.625508	0.998390
1011.919036	0.998917
1012.212528	0.998762
1012.505986	0.998449
1012.799408	0.998934
1013.092795	0.999008
1013.386147	1.000037
1013.679464	0.999367
1013.972745	0.998375
1014.265992	0.996998
1014.559204	0.999826
1014.852380	1.000186
1015.145521	0.999286
1015.438628	0.998938
1015.731699	0.999365
1016.024736	0.999783
1016.317737	0.997641
1016.610703	0.998825
1016.903635	1.000077
1017.196531	0.998635
1017.489393	0.999201
1017.782219	0.999863
1018.075011	0.997958
1018.367768	0.999619
1018.660490	0.999369
1018.953177	0.999369
1019.245829	0.999369
