Dividing Wavelength (nm)	Counts (n)	Blue Motor Position (mm): 0.000000	Red Motor Position (mm): 19.200000	
326.493990	1.000092
326.888308	1.000092
327.282561	1.000092
327.676750	0.999563
328.070874	0.998488
328.464933	0.999401
328.858929	0.998017
329.252859	0.999276
329.646726	0.998423
330.040528	1.000183
330.434265	0.998926
330.827938	0.999731
331.221547	0.999749
331.615091	0.999496
332.008571	0.999001
332.401986	0.999576
332.795338	1.000135
333.188625	0.998333
333.581847	0.999570
333.975006	0.999012
334.368100	0.998989
334.761129	0.999637
335.154095	1.000246
335.546996	0.997307
335.939833	0.992771
336.332606	0.992725
336.725315	0.993542
337.117960	0.994818
337.510540	0.993098
337.903056	0.994732
338.295508	0.993059
338.687896	0.992990
339.080220	0.993537
339.472480	0.993321
339.864676	0.993590
340.256807	0.993026
340.648875	0.994559
341.040879	0.993865
341.432818	0.993226
341.824694	0.993888
342.216506	0.994463
342.608253	0.993359
342.999937	0.992661
343.391557	0.994575
343.783113	0.993094
344.174605	0.993758
344.566033	0.993740
344.957397	0.992164
345.348697	0.994217
345.739934	0.993698
346.131106	0.992667
346.522215	0.993258
346.913260	0.992721
347.304241	0.994761
347.695159	0.993605
348.086012	0.993154
348.476802	0.993192
348.867528	0.993241
349.258191	0.991859
349.648789	0.994479
350.039324	0.992941
350.429796	0.994850
350.820203	0.993708
351.210548	0.994645
351.600828	0.993365
351.991045	0.993832
352.381198	0.993105
352.771288	0.992569
353.161314	0.993590
353.551276	0.995910
353.941175	0.993689
354.331010	0.992994
354.720782	0.994183
355.110490	0.993231
355.500135	0.994214
355.889717	0.993599
356.279235	0.993002
356.668689	0.992579
357.058080	0.992456
357.447408	0.994929
357.836672	0.994363
358.225873	0.994335
358.615010	0.994197
359.004084	0.994217
359.393095	0.993766
359.782043	0.993429
360.170927	0.994396
360.559748	0.994298
360.948505	0.993785
361.337199	0.993682
361.725830	0.994065
362.114398	0.993494
362.502903	0.994053
362.891344	0.994885
363.279722	0.993318
363.668037	0.993957
364.056289	0.992539
364.444478	0.994608
364.832603	0.994655
365.220665	0.993992
365.608665	0.993854
365.996601	0.993337
366.384474	0.993880
366.772284	0.994052
367.160031	0.993267
367.547715	0.992796
367.935336	0.993942
368.322893	0.992640
368.710388	0.992197
369.097820	0.992883
369.485189	0.993315
369.872495	0.992547
370.259738	0.992380
370.646918	0.994496
371.034035	0.994479
371.421090	0.992881
371.808081	0.993323
372.195010	0.994239
372.581875	0.994896
372.968678	0.993141
373.355418	0.994007
373.742096	0.994243
374.128710	0.994599
374.515262	0.994277
374.901751	0.994576
375.288177	0.994019
375.674540	0.995243
376.060841	0.993612
376.447079	0.994226
376.833254	0.993529
377.219367	0.993662
377.605417	0.995139
377.991404	0.994035
378.377329	0.993411
378.763191	0.993313
379.148991	0.994495
379.534727	0.993392
379.920402	0.993956
380.306013	0.994595
380.691563	0.994867
381.077049	0.994393
381.462474	0.995183
381.847835	0.994065
382.233134	0.994538
382.618371	0.994248
383.003545	0.994513
383.388657	0.993673
383.773706	0.995329
384.158693	0.995059
384.543618	0.993717
384.928480	0.995415
385.313280	0.994375
385.698017	0.995045
386.082692	0.996041
386.467305	0.996421
386.851856	0.994577
387.236344	0.994463
387.620770	0.993861
388.005133	0.995878
388.389435	0.995527
388.773674	0.994917
389.157851	0.995347
389.541965	0.994870
389.926018	0.994687
390.310008	0.995968
390.693936	0.995411
391.077802	0.995792
391.461606	0.995277
391.845348	0.995051
392.229027	0.996480
392.612645	0.995154
392.996200	0.995686
393.379694	0.994320
393.763125	0.995923
394.146494	0.995095
394.529801	0.995115
394.913047	0.995579
395.296230	0.995704
395.679351	0.995161
396.062410	0.995595
396.445408	0.995453
396.828343	0.994633
397.211217	0.994563
397.594028	0.995542
397.976778	0.994460
398.359466	0.994365
398.742092	0.994361
399.124656	0.994372
399.507158	0.994879
399.889598	0.994903
400.271977	0.994948
400.654294	0.994769
401.036549	0.995203
401.418742	0.995311
401.800874	0.994332
402.182944	0.994741
402.564952	0.993650
402.946898	0.994666
403.328783	0.994841
403.710606	0.994470
404.092367	0.995009
404.474067	0.993731
404.855705	0.994443
405.237282	0.993496
405.618797	0.993647
406.000250	0.992906
406.381642	0.993235
406.762972	0.992579
407.144240	0.993210
407.525447	0.991650
407.906593	0.991573
408.287677	0.989918
408.668700	0.989812
409.049661	0.986646
409.430560	0.985699
409.811399	0.984587
410.192176	0.983114
410.572891	0.980853
410.953545	0.978208
411.334138	0.976243
411.714669	0.973758
412.095139	0.971499
412.475547	0.969200
412.855894	0.965626
413.236180	0.962860
413.616405	0.959686
413.996568	0.955774
414.376670	0.951819
414.756711	0.948025
415.136691	0.944445
415.516609	0.938522
415.896466	0.934246
416.276262	0.927669
416.655997	0.923968
417.035670	0.915446
417.415283	0.908101
417.794834	0.904026
418.174324	0.899342
418.553753	0.896067
418.933121	0.885040
419.312428	0.877803
419.691674	0.871249
420.070859	0.862119
420.449983	0.856129
420.829045	0.845917
421.208047	0.841796
421.586988	0.831611
421.965867	0.823106
422.344686	0.809959
422.723444	0.807063
423.102141	0.805560
423.480777	0.786723
423.859352	0.785287
424.237866	0.766413
424.616319	0.759346
424.994712	0.746116
425.373044	0.742658
425.751314	0.727177
426.129524	0.725159
426.507673	0.708506
426.885762	0.697449
427.263789	0.690343
427.641756	0.687646
428.019662	0.672802
428.397508	0.663642
428.775292	0.656268
429.153016	0.643797
429.530679	0.639644
429.908282	0.627352
430.285824	0.626418
430.663305	0.602693
431.040726	0.609819
431.418086	0.602907
431.795385	0.589363
432.172624	0.581391
432.549802	0.575539
432.926920	0.567068
433.303977	0.559834
433.680974	0.551736
434.057910	0.544074
434.434786	0.538060
434.811601	0.534110
435.188355	0.513209
435.565050	0.516340
435.941683	0.512151
436.318257	0.494105
436.694770	0.489208
437.071222	0.483131
437.447614	0.482397
437.823946	0.484192
438.200218	0.470704
438.576429	0.475386
438.952580	0.465585
439.328670	0.459187
439.704700	0.462543
440.080670	0.460839
440.456580	0.439478
440.832429	0.444570
441.208218	0.452993
441.583947	0.440241
441.959616	0.437641
442.335224	0.440137
442.710773	0.430458
443.086261	0.426305
443.461689	0.438525
443.837057	0.427203
444.212365	0.415963
444.587612	0.421627
444.962800	0.411075
445.337927	0.411369
445.712995	0.436108
446.088002	0.398726
446.462949	0.408276
446.837837	0.412317
447.212664	0.400708
447.587431	0.391400
447.962139	0.361769
448.336786	0.321487
448.711374	0.331735
449.085901	0.373999
449.460369	0.378617
449.834776	0.381434
450.209124	0.360894
450.583412	0.353174
450.957640	0.346319
451.331808	0.357217
451.705917	0.380551
452.079965	0.384888
452.453954	0.373168
452.827883	0.380059
453.201752	0.374720
453.575562	0.385869
453.949311	0.374041
454.323001	0.380168
454.696632	0.375443
455.070202	0.368647
455.443713	0.360964
455.817164	0.355265
456.190556	0.350836
456.563888	0.347820
456.937160	0.345362
457.310373	0.362779
457.683526	0.361356
458.056619	0.366705
458.429653	0.367549
458.802628	0.370479
459.175542	0.364799
459.548398	0.347616
459.921194	0.340206
460.293930	0.339831
460.666607	0.317572
461.039224	0.306414
461.411782	0.301916
461.784280	0.301168
462.156719	0.305447
462.529099	0.309524
462.901419	0.325371
463.273680	0.329839
463.645882	0.329516
464.018024	0.335383
464.390106	0.328164
464.762130	0.313247
465.134094	0.296216
465.505999	0.265475
465.877845	0.236170
466.249631	0.223073
466.621358	0.230584
466.993026	0.244581
467.364634	0.250308
467.736184	0.259215
468.107674	0.268075
468.479105	0.267319
468.850477	0.274008
469.221790	0.280652
469.593043	0.291015
469.964238	0.295739
470.335373	0.294799
470.706449	0.293392
471.077467	0.293858
471.448425	0.255845
471.819324	0.232004
472.190164	0.231042
472.560945	0.259912
472.931667	0.281789
473.302330	0.286279
473.672934	0.298193
474.043479	0.286191
474.413965	0.288177
474.784393	0.291511
475.154761	0.286799
475.525070	0.283593
475.895321	0.289333
476.265513	0.283391
476.635645	0.279013
477.005719	0.278948
477.375734	0.275424
477.745691	0.268627
478.115588	0.265393
478.485427	0.258842
478.855207	0.246136
479.224928	0.228473
479.594591	0.216683
479.964194	0.220050
480.333739	0.221306
480.703226	0.222926
481.072653	0.221244
481.442022	0.216882
481.811333	0.213358
482.180584	0.216920
482.549777	0.222212
482.918912	0.225474
483.287988	0.225314
483.657005	0.224902
484.025964	0.231381
484.394864	0.228505
484.763706	0.229342
485.132489	0.234360
485.501213	0.234892
485.869879	0.233330
486.238487	0.236635
486.607036	0.234557
486.975527	0.239046
487.343959	0.235257
487.712333	0.233796
488.080648	0.235449
488.448905	0.234396
488.817104	0.235760
489.185244	0.230215
489.553326	0.227087
489.921350	0.216963
490.289315	0.199818
490.657222	0.194551
491.025070	0.195671
491.392861	0.197885
491.760593	0.203385
492.128267	0.209087
492.495883	0.214666
492.863440	0.220631
493.230939	0.226875
493.598380	0.228098
493.965763	0.230499
494.333088	0.232879
494.700354	0.234120
495.067563	0.233165
495.434713	0.236331
495.801805	0.234242
496.168839	0.235808
496.535815	0.237208
496.902733	0.237084
497.269593	0.238674
497.636395	0.236435
498.003139	0.236772
498.369825	0.239545
498.736453	0.236397
499.103023	0.237550
499.469535	0.237128
499.835989	0.237278
500.202385	0.238360
500.568723	0.241607
500.935003	0.236786
501.301226	0.240830
501.667390	0.235106
502.033497	0.233099
502.399546	0.236313
502.765537	0.238024
503.131470	0.236658
503.497345	0.233034
503.863163	0.241847
504.228923	0.234654
504.594625	0.233455
504.960269	0.238525
505.325856	0.233977
505.691385	0.238185
506.056856	0.235047
506.422270	0.234495
506.787625	0.236744
507.152924	0.234470
507.518164	0.234706
507.883347	0.236630
508.248472	0.238234
508.613540	0.233364
508.978550	0.235807
509.343503	0.236192
509.708398	0.233888
510.073236	0.231445
510.438016	0.231684
510.802738	0.232366
511.167403	0.231513
511.532010	0.233278
511.896561	0.228708
512.261053	0.227850
512.625488	0.229921
512.989866	0.230132
513.354186	0.230337
513.718449	0.232145
514.082655	0.228421
514.446803	0.230845
514.810894	0.228663
515.174927	0.230988
515.538904	0.230634
515.902822	0.227568
516.266684	0.229917
516.630488	0.231165
516.994235	0.229634
517.357925	0.228777
517.721558	0.226979
518.085133	0.226367
518.448651	0.226602
518.812112	0.228839
519.175516	0.228555
519.538863	0.225948
519.902152	0.227566
520.265385	0.224397
520.628560	0.226036
520.991678	0.226910
521.354739	0.225614
521.717743	0.226671
522.080690	0.227418
522.443580	0.224425
522.806413	0.225504
523.169189	0.224969
523.531908	0.223829
523.894569	0.227292
524.257174	0.227174
524.619722	0.224963
524.982213	0.226095
525.344647	0.224914
525.707025	0.225733
526.069345	0.224207
526.431608	0.225582
526.793815	0.223567
527.155964	0.227389
527.518057	0.226452
527.880093	0.227612
528.242072	0.226285
528.603995	0.228143
528.965860	0.229785
529.327669	0.228598
529.689421	0.229637
530.051117	0.230631
530.412755	0.228160
530.774337	0.230367
531.135862	0.230501
531.497331	0.230065
531.858743	0.232754
532.220098	0.229646
532.581396	0.232267
532.942638	0.232490
533.303824	0.233487
533.664953	0.233498
534.026025	0.235081
534.387040	0.233325
534.747999	0.232979
535.108902	0.232022
535.469748	0.236941
535.830537	0.234717
536.191270	0.235014
536.551947	0.234578
536.912567	0.234690
537.273131	0.236485
537.633638	0.236489
537.994089	0.237075
538.354483	0.238041
538.714821	0.235235
539.075103	0.235020
539.435328	0.235617
539.795497	0.239417
540.155609	0.235718
540.515665	0.234084
540.875665	0.239645
541.235609	0.238321
541.595496	0.238300
541.955328	0.235026
542.315102	0.237562
542.674821	0.238199
543.034483	0.238510
543.394090	0.238592
543.753640	0.240085
544.113134	0.235215
544.472571	0.238602
544.831953	0.235330
545.191278	0.239410
545.550548	0.238772
545.909761	0.235674
546.268918	0.236442
546.628019	0.234513
546.987064	0.237577
547.346053	0.239428
547.704986	0.237112
548.063863	0.237649
548.422684	0.237560
548.781449	0.239687
549.140158	0.237160
549.498811	0.240045
549.857408	0.243302
550.215949	0.237917
550.574434	0.241083
550.932864	0.239163
551.291237	0.237487
551.649555	0.238776
552.007817	0.238823
552.366022	0.239387
552.724173	0.239574
553.082267	0.239968
553.440305	0.237053
553.798288	0.241475
554.156215	0.237918
554.514086	0.238385
554.871902	0.241520
555.229661	0.241046
555.587365	0.241532
555.945014	0.243956
556.302606	0.240953
556.660143	0.243286
557.017625	0.239806
557.375050	0.242191
557.732421	0.238932
558.089735	0.241185
558.446994	0.241164
558.804197	0.240343
559.161345	0.240392
559.518437	0.243965
559.875474	0.241485
560.232455	0.241012
560.589381	0.242158
560.946251	0.242207
561.303065	0.239744
561.659825	0.241243
562.016528	0.242797
562.373177	0.245364
562.729770	0.242784
563.086307	0.244819
563.442789	0.242767
563.799216	0.245403
564.155587	0.244460
564.511904	0.245447
564.868164	0.245633
565.224370	0.245362
565.580520	0.247070
565.936615	0.246940
566.292654	0.250089
566.648638	0.247033
567.004567	0.248050
567.360441	0.248640
567.716260	0.250457
568.072023	0.248119
568.427732	0.249115
568.783385	0.251424
569.138982	0.249517
569.494525	0.249193
569.850013	0.252036
570.205445	0.250562
570.560823	0.253188
570.916145	0.255120
571.271412	0.253303
571.626625	0.254686
571.981782	0.255343
572.336884	0.256220
572.691931	0.255540
573.046923	0.256936
573.401860	0.258091
573.756743	0.259742
574.111570	0.258918
574.466342	0.259091
574.821059	0.258343
575.175722	0.261214
575.530330	0.260971
575.884882	0.261067
576.239380	0.263228
576.593823	0.263620
576.948211	0.263088
577.302544	0.266367
577.656823	0.266045
578.011047	0.266032
578.365216	0.266761
578.719330	0.268696
579.073389	0.268760
579.427394	0.269905
579.781344	0.270366
580.135239	0.272521
580.489080	0.271936
580.842866	0.274647
581.196597	0.274591
581.550273	0.273266
581.903895	0.274305
582.257463	0.272187
582.610975	0.275957
582.964434	0.275188
583.317837	0.277648
583.671186	0.277993
584.024481	0.278119
584.377721	0.280508
584.730906	0.281140
585.084037	0.280348
585.437113	0.282364
585.790135	0.281673
586.143103	0.284410
586.496016	0.285663
586.848874	0.283799
587.201679	0.283965
587.554428	0.287330
587.907124	0.285988
588.259765	0.286641
588.612352	0.287252
588.964884	0.290960
589.317362	0.290569
589.669786	0.290589
590.022155	0.288892
590.374470	0.288206
590.726731	0.290267
591.078937	0.295340
591.431090	0.291610
591.783188	0.295653
592.135232	0.295829
592.487222	0.296115
592.839157	0.294238
593.191038	0.296881
593.542866	0.298633
593.894639	0.301820
594.246358	0.299891
594.598022	0.299588
594.949633	0.302873
595.301190	0.303860
595.652692	0.302885
596.004141	0.299285
596.355535	0.306916
596.706876	0.307773
597.058162	0.310038
597.409395	0.307242
597.760573	0.304715
598.111698	0.308232
598.462768	0.308877
598.813785	0.309685
599.164748	0.311293
599.515657	0.311297
599.866511	0.315132
600.217312	0.310243
600.568060	0.315354
600.918753	0.311772
601.269392	0.312747
601.619978	0.315997
601.970510	0.313617
602.320988	0.313872
602.671412	0.311846
603.021783	0.313986
603.372100	0.315580
603.722363	0.315413
604.072572	0.315963
604.422728	0.315754
604.772830	0.318000
605.122878	0.317349
605.472872	0.317661
605.822813	0.316305
606.172701	0.318917
606.522534	0.316218
606.872314	0.316211
607.222041	0.316911
607.571714	0.315631
607.921333	0.316734
608.270899	0.316463
608.620411	0.313509
608.969870	0.317346
609.319276	0.317301
609.668627	0.317312
610.017926	0.315628
610.367171	0.314304
610.716362	0.315088
611.065500	0.315052
611.414585	0.313666
611.763616	0.314513
612.112594	0.314824
612.461518	0.314528
612.810389	0.312130
613.159207	0.314583
613.507971	0.316358
613.856682	0.312208
614.205340	0.313807
614.553945	0.310389
614.902496	0.314357
615.250994	0.312197
615.599439	0.312579
615.947830	0.312496
616.296169	0.313650
616.644454	0.312757
616.992686	0.313024
617.340864	0.310741
617.688990	0.314533
618.037063	0.310677
618.385082	0.312576
618.733048	0.310019
619.080961	0.311977
619.428821	0.311345
619.776628	0.311380
620.124382	0.312838
620.472083	0.313310
620.819731	0.312661
621.167326	0.316581
621.514868	0.316284
621.862357	0.320446
622.209793	0.320083
622.557176	0.322578
622.904506	0.323199
623.251783	0.325804
623.599007	0.328252
623.946179	0.327999
624.293297	0.329533
624.640363	0.333404
624.987376	0.334079
625.334336	0.336570
625.681243	0.338895
626.028097	0.339251
626.374899	0.340513
626.721647	0.340172
627.068343	0.344240
627.414987	0.344739
627.761577	0.346970
628.108115	0.345509
628.454600	0.350560
628.801032	0.347737
629.147412	0.349929
629.493739	0.350204
629.840014	0.353554
630.186236	0.351145
630.532405	0.356403
630.878521	0.354056
631.224585	0.356038
631.570597	0.359328
631.916556	0.357784
632.262462	0.358119
632.608316	0.360179
632.954117	0.361197
633.299866	0.362102
633.645562	0.362340
633.991206	0.366594
634.336797	0.369425
634.682336	0.371824
635.027823	0.373463
635.373257	0.373815
635.718639	0.377507
636.063968	0.376789
636.409245	0.382818
636.754470	0.383087
637.099642	0.385626
637.444762	0.389310
637.789829	0.388050
638.134845	0.391381
638.479808	0.392503
638.824719	0.391998
639.169577	0.396547
639.514383	0.394821
639.859137	0.399266
640.203839	0.398859
640.548489	0.399301
640.893086	0.400825
641.237632	0.402281
641.582125	0.401052
641.926566	0.402231
642.270955	0.402817
642.615292	0.402923
642.959576	0.401832
643.303809	0.402625
643.647990	0.402316
643.992118	0.402654
644.336195	0.406572
644.680219	0.404615
645.024192	0.405531
645.368112	0.399132
645.711981	0.398216
646.055797	0.393766
646.399562	0.395640
646.743274	0.387652
647.086935	0.385037
647.430544	0.385468
647.774101	0.384122
648.117606	0.383892
648.461059	0.384481
648.804460	0.386679
649.147810	0.392273
649.491108	0.393609
649.834354	0.394962
650.177548	0.400400
650.520690	0.405808
650.863781	0.407180
651.206820	0.406840
651.549807	0.411271
651.892742	0.415130
652.235626	0.414242
652.578458	0.415691
652.921238	0.421167
653.263967	0.419236
653.606644	0.423745
653.949269	0.423025
654.291843	0.426661
654.634365	0.423792
654.976836	0.427019
655.319255	0.427213
655.661622	0.428963
656.003938	0.428629
656.346203	0.431863
656.688416	0.429724
657.030577	0.433019
657.372687	0.435068
657.714746	0.435360
658.056753	0.432871
658.398708	0.436441
658.740612	0.437732
659.082465	0.433134
659.424266	0.434529
659.766016	0.433701
660.107715	0.436209
660.449362	0.435110
660.790958	0.435695
661.132503	0.436063
661.473996	0.434167
661.815438	0.435502
662.156829	0.435575
662.498168	0.436191
662.839456	0.437748
663.180693	0.435151
663.521879	0.435136
663.863013	0.436002
664.204097	0.434528
664.545129	0.431611
664.886110	0.431660
665.227040	0.429287
665.567918	0.431382
665.908746	0.429751
666.249522	0.429486
666.590248	0.430319
666.930922	0.428375
667.271545	0.427341
667.612118	0.427999
667.952639	0.429019
668.293109	0.427758
668.633528	0.430645
668.973896	0.430270
669.314213	0.431046
669.654480	0.432365
669.994695	0.432998
670.334859	0.434282
670.674973	0.433662
671.015035	0.434058
671.355047	0.433674
671.695008	0.435186
672.034918	0.437153
672.374777	0.436515
672.714585	0.437023
673.054342	0.437508
673.394049	0.437268
673.733705	0.434961
674.073310	0.436044
674.412864	0.439700
674.752368	0.439836
675.091820	0.440313
675.431223	0.444518
675.770574	0.444268
676.109875	0.447023
676.449125	0.447332
676.788324	0.449307
677.127473	0.455272
677.466571	0.454371
677.805619	0.456039
678.144616	0.457563
678.483562	0.459261
678.822458	0.461462
679.161303	0.463260
679.500098	0.462933
679.838842	0.464970
680.177535	0.464306
680.516179	0.462908
680.854771	0.461717
681.193314	0.455173
681.531805	0.446379
681.870247	0.435354
682.208638	0.427707
682.546978	0.427029
682.885268	0.428673
683.223508	0.434548
683.561697	0.437871
683.899836	0.441254
684.237925	0.444169
684.575963	0.446587
684.913951	0.450656
685.251889	0.445966
685.589776	0.447838
685.927614	0.450968
686.265401	0.444522
686.603137	0.445145
686.940824	0.439638
687.278460	0.438247
687.616046	0.437946
687.953582	0.432424
688.291068	0.433789
688.628504	0.429375
688.965889	0.431682
689.303224	0.435942
689.640510	0.439917
689.977745	0.445796
690.314930	0.453453
690.652065	0.458016
690.989150	0.465678
691.326185	0.472049
691.663170	0.476542
692.000105	0.483463
692.336990	0.490280
692.673825	0.493436
693.010610	0.499945
693.347345	0.505543
693.684030	0.506479
694.020665	0.512429
694.357251	0.521208
694.693786	0.520260
695.030272	0.524727
695.366707	0.527293
695.703093	0.531331
696.039429	0.528906
696.375716	0.530100
696.711952	0.533535
697.048139	0.535481
697.384276	0.537242
697.720363	0.535762
698.056400	0.534689
698.392388	0.540936
698.728326	0.543303
699.064214	0.545675
699.400053	0.546718
699.735842	0.550519
700.071581	0.552871
700.407270	0.556630
700.742910	0.558492
701.078501	0.565314
701.414042	0.565401
701.749533	0.568212
702.084974	0.577693
702.420366	0.569537
702.755709	0.577343
703.091002	0.584972
703.426246	0.578315
703.761440	0.584753
704.096584	0.589242
704.431679	0.586517
704.766725	0.588359
705.101721	0.590000
705.436668	0.585480
705.771565	0.592820
706.106413	0.590560
706.441212	0.584893
706.775961	0.584058
707.110661	0.586496
707.445311	0.582967
707.779913	0.580009
708.114465	0.577952
708.448967	0.574804
708.783421	0.567476
709.117825	0.562425
709.452180	0.562087
709.786485	0.555463
710.120742	0.545548
710.454949	0.547723
710.789107	0.540064
711.123216	0.531150
711.457275	0.532687
711.791286	0.523526
712.125247	0.522053
712.459159	0.533378
712.793023	0.525563
713.126837	0.529514
713.460602	0.529947
713.794318	0.539446
714.127985	0.538347
714.461602	0.548305
714.795171	0.551845
715.128691	0.559264
715.462162	0.566736
715.795584	0.572550
716.128957	0.575272
716.462281	0.581797
716.795556	0.585289
717.128782	0.591213
717.461960	0.600197
717.795088	0.597853
718.128167	0.604747
718.461198	0.613816
718.794180	0.613577
719.127113	0.616939
719.459997	0.620775
719.792833	0.627303
720.125619	0.627870
720.458357	0.633670
720.791046	0.633884
721.123686	0.636395
721.456278	0.643982
721.788821	0.640932
722.121315	0.645070
722.453761	0.649545
722.786158	0.646721
723.118506	0.643764
723.450805	0.651580
723.783056	0.647749
724.115259	0.645159
724.447412	0.644786
724.779518	0.645864
725.111574	0.644699
725.443582	0.639919
725.775542	0.642214
726.107453	0.634380
726.439315	0.635003
726.771129	0.632668
727.102895	0.626074
727.434612	0.619350
727.766281	0.617345
728.097901	0.616588
728.429473	0.617056
728.760996	0.615102
729.092471	0.614790
729.423897	0.619726
729.755276	0.618071
730.086606	0.618164
730.417887	0.611751
730.749120	0.603288
731.080305	0.594138
731.411442	0.590616
731.742530	0.594924
732.073570	0.594159
732.404562	0.586826
732.735506	0.587962
733.066401	0.592468
733.397249	0.601994
733.728048	0.613120
734.058798	0.625873
734.389501	0.636008
734.720156	0.645350
735.050762	0.654450
735.381320	0.654447
735.711831	0.663698
736.042293	0.668947
736.372707	0.665145
736.703073	0.669644
737.033391	0.671520
737.363661	0.668378
737.693883	0.663898
738.024056	0.663146
738.354182	0.662874
738.684260	0.652162
739.014290	0.648241
739.344272	0.648395
739.674207	0.643034
740.004093	0.642220
740.333931	0.643108
740.663722	0.643140
740.993464	0.643236
741.323159	0.646445
741.652806	0.651792
741.982405	0.656238
742.311956	0.661778
742.641460	0.663357
742.970915	0.666713
743.300323	0.674895
743.629683	0.680754
743.958996	0.682959
744.288260	0.687473
744.617477	0.693690
744.946647	0.695241
745.275768	0.700667
745.604842	0.699696
745.933869	0.710351
746.262847	0.710285
746.591778	0.704089
746.920662	0.710303
747.249498	0.717402
747.578286	0.707987
747.907027	0.703691
748.235720	0.704960
748.564365	0.699255
748.892963	0.699077
749.221514	0.703296
749.550017	0.707351
749.878473	0.706950
750.206881	0.713219
750.535242	0.715844
750.863555	0.715061
751.191821	0.715612
751.520039	0.718644
751.848210	0.724027
752.176334	0.716968
752.504411	0.716053
752.832440	0.723307
753.160421	0.727907
753.488356	0.725570
753.816243	0.723825
754.144082	0.730908
754.471875	0.735720
754.799620	0.730274
755.127318	0.731843
755.454969	0.731166
755.782572	0.730960
756.110129	0.735858
756.437638	0.738702
756.765100	0.735492
757.092515	0.733327
757.419882	0.732612
757.747203	0.737255
758.074477	0.736271
758.401703	0.733747
758.728882	0.728587
759.056014	0.728361
759.383099	0.726315
759.710138	0.728128
760.037129	0.724296
760.364073	0.719025
760.690970	0.720489
761.017820	0.727377
761.344623	0.721980
761.671379	0.713309
761.998088	0.701706
762.324751	0.679076
762.651366	0.637579
762.977935	0.570774
763.304456	0.518579
763.630931	0.508838
763.957359	0.547824
764.283740	0.592493
764.610074	0.619599
764.936362	0.650744
765.262602	0.676896
765.588796	0.698983
765.914943	0.716479
766.241044	0.734437
766.567097	0.740539
766.893104	0.750524
767.219064	0.756948
767.544978	0.763351
767.870845	0.776800
768.196665	0.780642
768.522438	0.778330
768.848165	0.780561
769.173846	0.788562
769.499479	0.793961
769.825066	0.796793
770.150607	0.802103
770.476101	0.797218
770.801548	0.798590
771.126949	0.809561
771.452303	0.813534
771.777611	0.813043
772.102872	0.812117
772.428087	0.816832
772.753256	0.820797
773.078378	0.822429
773.403453	0.832178
773.728482	0.836340
774.053465	0.829282
774.378401	0.832492
774.703291	0.840656
775.028135	0.840304
775.352932	0.842993
775.677683	0.845163
776.002388	0.845881
776.327046	0.845095
776.651658	0.848338
776.976224	0.851480
777.300743	0.851721
777.625216	0.855395
777.949643	0.855792
778.274024	0.856130
778.598359	0.857732
778.922647	0.856334
779.246889	0.856948
779.571086	0.861925
779.895236	0.864152
780.219339	0.860529
780.543397	0.857109
780.867409	0.856134
781.191374	0.858000
781.515294	0.859247
781.839167	0.857694
782.162995	0.861657
782.486776	0.858820
782.810511	0.859105
783.134201	0.863671
783.457844	0.860702
783.781441	0.863514
784.104993	0.869399
784.428498	0.869379
784.751958	0.865377
785.075372	0.867564
785.398739	0.871974
785.722061	0.869731
786.045337	0.863008
786.368568	0.868910
786.691752	0.870840
787.014891	0.856428
787.337983	0.847427
787.661030	0.841473
787.984031	0.823319
788.306987	0.810265
788.629897	0.811876
788.952760	0.815966
789.275579	0.820300
789.598351	0.835220
789.921078	0.848337
790.243759	0.850731
790.566395	0.856286
790.888984	0.862719
791.211529	0.866806
791.534027	0.871927
791.856480	0.873413
792.178888	0.878376
792.501249	0.880392
792.823566	0.882758
793.145836	0.880803
793.468062	0.884831
793.790241	0.884050
794.112375	0.881484
794.434464	0.877394
794.756507	0.877241
795.078505	0.876168
795.400457	0.871570
795.722364	0.858969
796.044226	0.851126
796.366042	0.852120
796.687812	0.854096
797.009538	0.850925
797.331218	0.853382
797.652852	0.858370
797.974442	0.863545
798.295986	0.862550
798.617484	0.866589
798.938938	0.869877
799.260346	0.875832
799.581709	0.877452
799.903026	0.879167
800.224299	0.879146
800.545526	0.884083
800.866708	0.887921
801.187845	0.891096
801.508936	0.891152
801.829983	0.889647
802.150984	0.892978
802.471940	0.897296
802.792851	0.896755
803.113717	0.897289
803.434538	0.895403
803.755314	0.898340
804.076045	0.899696
804.396731	0.899650
804.717372	0.899294
805.037967	0.901099
805.358518	0.898690
805.679024	0.895537
805.999485	0.897118
806.319901	0.894755
806.640272	0.897680
806.960598	0.896560
807.280879	0.892947
807.601115	0.891280
807.921306	0.895214
808.241453	0.896328
808.561554	0.893346
808.881611	0.893443
809.201623	0.895828
809.521590	0.895307
809.841513	0.896942
810.161390	0.896548
810.481223	0.897232
810.801011	0.901405
811.120755	0.902163
811.440453	0.901812
811.760107	0.899935
812.079716	0.900127
812.399281	0.903656
812.718801	0.905658
813.038276	0.906474
813.357707	0.905423
813.677093	0.903038
813.996434	0.906560
814.315731	0.908235
814.634983	0.908754
814.954191	0.907158
815.273354	0.904373
815.592473	0.901221
815.911547	0.901172
816.230577	0.897707
816.549562	0.895549
816.868502	0.897264
817.187399	0.892967
817.506250	0.887220
817.825058	0.888782
818.143821	0.885937
818.462539	0.880363
818.781213	0.872425
819.099843	0.861874
819.418429	0.844905
819.736970	0.829787
820.055466	0.808960
820.373919	0.782847
820.692327	0.750351
821.010691	0.715892
821.329011	0.638589
821.647286	0.522726
821.965517	0.409488
822.283704	0.366915
822.601847	0.368038
822.919945	0.404122
823.237999	0.437754
823.556010	0.484024
823.873976	0.539497
824.191897	0.590621
824.509775	0.633393
824.827609	0.678264
825.145398	0.700967
825.463144	0.703500
825.780845	0.686628
826.098502	0.667958
826.416116	0.622485
826.733685	0.578539
827.051210	0.569165
827.368692	0.583985
827.686129	0.621471
828.003522	0.675263
828.320872	0.722434
828.638177	0.765888
828.955439	0.798807
829.272656	0.821166
829.589830	0.838202
829.906960	0.853752
830.224046	0.865579
830.541088	0.876178
830.858086	0.880459
831.175041	0.887832
831.491952	0.885708
831.808819	0.883285
832.125642	0.875930
832.442421	0.861166
832.759157	0.839894
833.075849	0.792859
833.392497	0.729933
833.709101	0.688460
834.025662	0.698016
834.342179	0.729385
834.658653	0.768725
834.975083	0.805520
835.291469	0.830785
835.607811	0.853778
835.924110	0.869069
836.240366	0.887304
836.556578	0.900170
836.872746	0.909503
837.188871	0.913984
837.504952	0.920201
837.820990	0.923749
838.136984	0.926409
838.452935	0.928754
838.768842	0.931957
839.084706	0.924686
839.400526	0.898608
839.716303	0.858698
840.032037	0.835540
840.347727	0.839629
840.663373	0.857518
840.978977	0.878507
841.294537	0.902616
841.610054	0.917318
841.925527	0.925948
842.240957	0.932185
842.556344	0.939341
842.871687	0.944649
843.186987	0.950770
843.502244	0.948775
843.817458	0.951762
844.132629	0.954712
844.447756	0.961161
844.762840	0.960616
845.077881	0.958624
845.392879	0.959133
845.707833	0.961639
846.022745	0.963921
846.337613	0.963302
846.652438	0.965659
846.967221	0.963846
847.281960	0.963957
847.596656	0.965592
847.911309	0.964013
848.225919	0.968125
848.540485	0.967454
848.855009	0.967629
849.169490	0.968080
849.483928	0.968267
849.798323	0.969624
850.112675	0.969665
850.426984	0.968181
850.741251	0.968886
851.055474	0.969216
851.369654	0.966555
851.683792	0.968880
851.997887	0.969399
852.311938	0.969674
852.625947	0.968683
852.939914	0.967525
853.253837	0.968838
853.567718	0.970049
853.881555	0.971024
854.195350	0.967752
854.509103	0.969314
854.822812	0.968172
855.136479	0.969336
855.450103	0.969507
855.763685	0.968895
856.077224	0.968623
856.390720	0.969342
856.704173	0.969742
857.017584	0.967775
857.330953	0.965632
857.644278	0.967400
857.957561	0.968230
858.270802	0.967455
858.584000	0.966968
858.897155	0.966038
859.210268	0.967354
859.523339	0.967477
859.836367	0.969301
860.149352	0.969266
860.462295	0.967575
860.775195	0.970781
861.088054	0.968355
861.400869	0.968927
861.713642	0.970785
862.026373	0.969976
862.339062	0.970528
862.651708	0.968059
862.964312	0.967616
863.276873	0.968580
863.589392	0.968458
863.901869	0.966874
864.214303	0.963829
864.526696	0.963256
864.839045	0.963131
865.151353	0.960203
865.463619	0.962392
865.775842	0.962817
866.088023	0.962282
866.400162	0.961199
866.712258	0.961180
867.024313	0.962255
867.336325	0.963085
867.648296	0.962479
867.960224	0.962390
868.272110	0.961432
868.583954	0.963976
868.895755	0.962764
869.207515	0.961884
869.519233	0.958295
869.830909	0.960015
870.142542	0.962030
870.454134	0.960996
870.765684	0.959644
871.077191	0.957602
871.388657	0.958345
871.700081	0.957487
872.011463	0.957919
872.322803	0.957495
872.634101	0.955309
872.945357	0.954300
873.256571	0.952543
873.567744	0.952050
873.878874	0.952743
874.189963	0.950604
874.501010	0.950887
874.812015	0.949013
875.122979	0.950788
875.433900	0.952163
875.744780	0.953480
876.055618	0.950573
876.366415	0.949489
876.677169	0.948942
876.987882	0.950870
877.298554	0.949678
877.609183	0.946674
877.919771	0.944833
878.230317	0.942568
878.540822	0.940648
878.851285	0.934341
879.161707	0.926264
879.472087	0.913871
879.782425	0.898810
880.092722	0.863863
880.402977	0.812980
880.713191	0.751474
881.023363	0.692222
881.333494	0.658355
881.643583	0.630513
881.953631	0.631227
882.263637	0.659242
882.573602	0.698433
882.883526	0.724049
883.193408	0.747584
883.503248	0.770158
883.813048	0.798342
884.122806	0.827468
884.432522	0.850597
884.742197	0.869941
885.051831	0.880342
885.361424	0.891694
885.670975	0.902003
885.980485	0.912249
886.289954	0.918595
886.599382	0.923581
886.908768	0.928154
887.218113	0.934100
887.527417	0.939056
887.836680	0.940786
888.145901	0.942717
888.455082	0.945648
888.764221	0.949883
889.073319	0.951874
889.382376	0.952264
889.691392	0.952401
890.000366	0.952017
890.309300	0.953548
890.618193	0.952323
890.927044	0.950781
891.235855	0.951860
891.544625	0.950740
891.853353	0.951659
892.162041	0.948080
892.470687	0.942607
892.779293	0.937262
893.087858	0.933110
893.396381	0.925325
893.704864	0.913158
894.013306	0.889009
894.321707	0.862066
894.630068	0.848379
894.938387	0.843061
895.246665	0.844743
895.554903	0.856636
895.863100	0.869618
896.171256	0.886697
896.479371	0.905842
896.787446	0.918534
897.095480	0.924161
897.403473	0.926992
897.711425	0.931627
898.019336	0.939907
898.327207	0.942609
898.635038	0.944651
898.942827	0.944471
899.250576	0.948222
899.558284	0.951787
899.865952	0.953645
900.173579	0.954662
900.481165	0.955762
900.788711	0.959454
901.096216	0.960765
901.403681	0.960444
901.711105	0.962443
902.018489	0.963346
902.325832	0.961388
902.633135	0.961076
902.940397	0.955484
903.247619	0.942486
903.554800	0.918085
903.861941	0.877706
904.169041	0.843180
904.476101	0.824852
904.783121	0.826317
905.090100	0.842131
905.397039	0.863726
905.703938	0.885479
906.010796	0.905215
906.317614	0.922801
906.624391	0.934094
906.931129	0.943492
907.237826	0.951328
907.544483	0.958066
907.851099	0.963072
908.157675	0.966862
908.464211	0.968477
908.770707	0.971613
909.077163	0.973375
909.383578	0.973650
909.689954	0.974852
909.996289	0.975539
910.302584	0.976181
910.608839	0.979368
910.915054	0.977652
911.221229	0.978278
911.527363	0.975860
911.833458	0.976333
912.139513	0.976549
912.445527	0.975718
912.751502	0.973376
913.057436	0.971829
913.363331	0.969192
913.669186	0.964786
913.975000	0.961084
914.280775	0.954440
914.586510	0.948127
914.892205	0.935351
915.197859	0.913354
915.503475	0.886223
915.809050	0.867195
916.114585	0.861078
916.420081	0.858856
916.725536	0.856221
917.030952	0.864724
917.336328	0.876023
917.641665	0.892657
917.946961	0.906887
918.252218	0.918867
918.557435	0.927368
918.862612	0.936175
919.167750	0.940229
919.472848	0.946900
919.777906	0.951897
920.082925	0.957261
920.387904	0.960479
920.692843	0.962307
920.997743	0.963371
921.302603	0.967916
921.607423	0.968853
921.912204	0.971838
922.216946	0.971308
922.521647	0.973523
922.826310	0.974158
923.130932	0.976566
923.435516	0.976952
923.740059	0.979643
924.044564	0.977899
924.349028	0.979919
924.653454	0.982316
924.957840	0.984553
925.262186	0.983393
925.566493	0.983824
925.870761	0.984647
926.174989	0.985447
926.479178	0.986788
926.783328	0.988631
927.087438	0.987913
927.391509	0.986503
927.695541	0.989881
927.999533	0.989055
928.303486	0.989582
928.607400	0.990916
928.911275	0.988034
929.215110	0.989282
929.518906	0.990323
929.822663	0.988400
930.126381	0.990671
930.430060	0.989183
930.733699	0.990560
931.037299	0.988376
931.340861	0.990129
931.644383	0.989726
931.947866	0.988710
932.251309	0.990377
932.554714	0.989561
932.858080	0.990627
933.161407	0.989191
933.464694	0.990652
933.767943	0.988325
934.071153	0.990063
934.374323	0.989897
934.677455	0.990563
934.980548	0.990971
935.283602	0.989744
935.586617	0.991607
935.889593	0.990656
936.192530	0.990678
936.495428	0.990327
936.798287	0.990071
937.101108	0.990017
937.403890	0.988883
937.706632	0.988403
938.009336	0.986613
938.312002	0.984827
938.614628	0.983571
938.917216	0.982681
939.219765	0.981060
939.522275	0.981678
939.824747	0.982504
940.127179	0.982214
940.429573	0.984524
940.731929	0.983325
941.034246	0.983772
941.336524	0.985539
941.638763	0.985374
941.940964	0.985478
942.243126	0.984722
942.545250	0.987206
942.847335	0.987136
943.149381	0.987529
943.451389	0.986742
943.753359	0.986655
944.055290	0.990012
944.357182	0.988591
944.659036	0.987790
944.960851	0.989389
945.262628	0.988939
945.564367	0.990187
945.866067	0.990047
946.167729	0.989260
946.469352	0.989642
946.770937	0.988084
947.072484	0.991194
947.373992	0.989410
947.675462	0.990202
947.976893	0.989312
948.278286	0.990287
948.579641	0.990852
948.880958	0.990888
949.182236	0.990765
949.483476	0.990717
949.784678	0.990223
950.085841	0.990595
950.386967	0.989966
950.688054	0.990519
950.989103	0.990095
951.290114	0.989212
951.591087	0.988572
951.892021	0.989112
952.192917	0.987925
952.493776	0.987049
952.794596	0.988241
953.095378	0.988549
953.396122	0.988274
953.696828	0.986843
953.997496	0.989098
954.298126	0.990073
954.598718	0.989847
954.899272	0.989946
955.199788	0.990334
955.500266	0.991114
955.800706	0.992227
956.101108	0.992048
956.401472	0.993447
956.701798	0.992738
957.002087	0.992361
957.302337	0.994183
957.602550	0.994893
957.902724	0.995233
958.202861	0.994992
958.502960	0.994429
958.803022	0.993591
959.103045	0.995895
959.403031	0.995330
959.702979	0.995518
960.002889	0.995693
960.302762	0.994362
960.602596	0.995037
960.902393	0.994153
961.202153	0.996843
961.501875	0.996567
961.801559	0.994603
962.101205	0.995238
962.400814	0.995965
962.700385	0.995147
962.999918	0.996051
963.299414	0.995676
963.598873	0.994673
963.898293	0.996430
964.197677	0.995064
964.497022	0.995830
964.796331	0.997413
965.095601	0.996481
965.394835	0.996264
965.694030	0.996125
965.993189	0.996509
966.292309	0.996382
966.591393	0.996193
966.890439	0.996297
967.189447	0.997058
967.488419	0.996851
967.787353	0.995761
968.086249	0.995346
968.385108	0.996165
968.683930	0.997320
968.982714	0.997364
969.281462	0.997108
969.580172	0.996562
969.878844	0.995703
970.177480	0.996495
970.476078	0.997039
970.774639	0.996775
971.073162	0.996642
971.371649	0.996276
971.670098	0.996039
971.968510	0.998045
972.266885	0.995811
972.565223	0.995926
972.863524	0.994908
973.161788	0.995620
973.460014	0.996959
973.758204	0.994503
974.056356	0.995754
974.354471	0.994424
974.652550	0.995545
974.950591	0.996419
975.248595	0.995584
975.546563	0.996573
975.844493	0.998081
976.142386	0.995869
976.440243	0.996450
976.738062	0.995703
977.035845	0.997617
977.333590	0.996791
977.631299	0.997270
977.928971	0.995947
978.226606	0.996085
978.524204	0.995789
978.821765	0.997978
979.119290	0.995379
979.416777	0.995649
979.714228	0.996344
980.011642	0.995507
980.309020	0.997620
980.606360	0.996837
980.903664	0.996725
981.200931	0.995875
981.498162	0.994381
981.795356	0.995167
982.092513	0.993261
982.389633	0.993930
982.686717	0.991287
982.983764	0.991894
983.280775	0.989628
983.577749	0.989331
983.874686	0.991693
984.171587	0.991707
984.468451	0.994322
984.765279	0.994713
985.062070	0.993647
985.358824	0.994784
985.655543	0.995121
985.952224	0.994529
986.248869	0.995635
986.545478	0.996464
986.842050	0.998438
987.138586	0.995248
987.435086	0.995960
987.731549	0.998094
988.027975	0.996372
988.324366	0.997517
988.620719	0.997078
988.917037	0.995803
989.213318	0.997993
989.509563	0.997680
989.805772	0.997818
990.101944	0.997302
990.398080	0.996599
990.694180	0.997472
990.990244	0.997386
991.286271	0.998060
991.582262	0.996824
991.878217	0.998073
992.174136	0.998041
992.470019	0.998839
992.765865	0.996678
993.061676	0.997391
993.357450	0.997075
993.653188	0.996349
993.948890	0.996174
994.244556	0.996654
994.540186	0.996145
994.835780	0.996045
995.131337	0.996411
995.426859	0.996386
995.722345	0.998355
996.017795	0.996101
996.313208	0.995592
996.608586	0.995233
996.903928	0.996302
997.199234	0.995842
997.494504	0.996529
997.789738	0.994531
998.084936	0.995322
998.380099	0.997481
998.675225	0.996487
998.970316	0.997708
999.265371	0.996957
999.560390	0.997684
999.855373	0.997693
1000.150320	0.996992
1000.445232	0.996994
1000.740108	0.996578
1001.034948	0.997241
1001.329752	0.998496
1001.624521	0.997555
1001.919254	0.997822
1002.213951	0.997683
1002.508613	0.997069
1002.803239	0.998398
1003.097829	0.997370
1003.392384	0.998548
1003.686903	0.998220
1003.981386	0.997993
1004.275834	0.999060
1004.570246	0.999088
1004.864623	0.999142
1005.158964	0.999378
1005.453270	0.998121
1005.747540	0.996405
1006.041775	0.998475
1006.335974	0.998008
1006.630138	0.997987
1006.924266	0.998575
1007.218359	1.000004
1007.512416	0.998942
1007.806438	0.998670
1008.100425	0.999085
1008.394376	0.998621
1008.688292	0.998205
1008.982172	0.999737
1009.276017	0.997999
1009.569827	0.998108
1009.863602	0.998299
1010.157341	0.999636
1010.451045	0.998031
1010.744714	0.998020
1011.038347	0.998464
1011.331945	0.998277
1011.625508	0.997580
1011.919036	0.998112
1012.212528	0.997312
1012.505986	0.997582
1012.799408	0.998706
1013.092795	0.998623
1013.386147	0.998553
1013.679464	0.999220
1013.972745	0.997406
1014.265992	0.996853
1014.559204	0.998340
1014.852380	0.998205
1015.145521	0.999206
1015.438628	0.999251
1015.731699	0.998603
1016.024736	0.999267
1016.317737	0.997435
1016.610703	0.997786
1016.903635	0.997716
1017.196531	0.998407
1017.489393	0.998270
1017.782219	0.998719
1018.075011	0.997714
1018.367768	0.997616
1018.660490	0.998371
1018.953177	0.998371
1019.245829	0.998371
