Dividing Wavelength (nm)	Counts (n)	Blue Motor Position (mm): 0.000000	Red Motor Position (mm): 13.700000	
326.493990	1.001457
326.888308	1.001457
327.282561	1.001457
327.676750	0.999306
328.070874	0.999957
328.464933	0.999782
328.858929	0.998860
329.252859	0.998619
329.646726	0.998444
330.040528	0.999279
330.434265	1.000009
330.827938	1.000393
331.221547	1.000567
331.615091	1.000076
332.008571	0.999842
332.401986	1.000078
332.795338	1.000643
333.188625	0.997900
333.581847	1.000015
333.975006	0.999104
334.368100	0.999758
334.761129	1.000766
335.154095	1.000582
335.546996	0.998458
335.939833	0.992131
336.332606	0.992406
336.725315	0.994272
337.117960	0.995672
337.510540	0.993341
337.903056	0.995639
338.295508	0.992557
338.687896	0.992925
339.080220	0.994469
339.472480	0.994476
339.864676	0.992924
340.256807	0.993788
340.648875	0.994920
341.040879	0.994407
341.432818	0.994218
341.824694	0.994567
342.216506	0.995366
342.608253	0.994029
342.999937	0.993380
343.391557	0.994063
343.783113	0.993670
344.174605	0.993262
344.566033	0.994568
344.957397	0.992123
345.348697	0.993393
345.739934	0.993346
346.131106	0.993628
346.522215	0.992368
346.913260	0.994317
347.304241	0.993743
347.695159	0.993800
348.086012	0.991957
348.476802	0.993570
348.867528	0.994124
349.258191	0.991850
349.648789	0.993609
350.039324	0.992454
350.429796	0.994807
350.820203	0.993707
351.210548	0.994510
351.600828	0.993641
351.991045	0.994004
352.381198	0.993673
352.771288	0.994182
353.161314	0.991985
353.551276	0.994718
353.941175	0.993314
354.331010	0.992966
354.720782	0.994698
355.110490	0.993455
355.500135	0.995063
355.889717	0.993477
356.279235	0.993436
356.668689	0.992914
357.058080	0.993888
357.447408	0.994418
357.836672	0.994167
358.225873	0.995365
358.615010	0.994160
359.004084	0.995063
359.393095	0.994071
359.782043	0.993230
360.170927	0.994616
360.559748	0.994675
360.948505	0.994891
361.337199	0.994239
361.725830	0.994372
362.114398	0.993042
362.502903	0.993931
362.891344	0.994114
363.279722	0.994289
363.668037	0.993813
364.056289	0.993183
364.444478	0.994717
364.832603	0.994025
365.220665	0.993396
365.608665	0.992317
365.996601	0.993072
366.384474	0.993129
366.772284	0.991890
367.160031	0.992265
367.547715	0.992069
367.935336	0.994069
368.322893	0.992101
368.710388	0.992623
369.097820	0.992498
369.485189	0.993437
369.872495	0.992576
370.259738	0.991591
370.646918	0.994007
371.034035	0.994726
371.421090	0.993345
371.808081	0.992248
372.195010	0.994235
372.581875	0.993805
372.968678	0.993269
373.355418	0.992223
373.742096	0.992742
374.128710	0.993939
374.515262	0.992588
374.901751	0.993803
375.288177	0.993261
375.674540	0.994309
376.060841	0.993571
376.447079	0.993717
376.833254	0.993115
377.219367	0.992970
377.605417	0.992265
377.991404	0.994442
378.377329	0.991490
378.763191	0.993472
379.148991	0.993598
379.534727	0.994197
379.920402	0.993941
380.306013	0.993490
380.691563	0.994803
381.077049	0.992946
381.462474	0.993119
381.847835	0.993787
382.233134	0.993363
382.618371	0.992715
383.003545	0.993641
383.388657	0.993504
383.773706	0.993776
384.158693	0.993479
384.543618	0.993571
384.928480	0.994198
385.313280	0.993954
385.698017	0.994990
386.082692	0.994150
386.467305	0.993086
386.851856	0.992581
387.236344	0.993292
387.620770	0.992301
388.005133	0.993338
388.389435	0.993794
388.773674	0.992379
389.157851	0.992280
389.541965	0.991531
389.926018	0.990000
390.310008	0.990961
390.693936	0.988473
391.077802	0.987010
391.461606	0.983841
391.845348	0.982128
392.229027	0.981323
392.612645	0.977378
392.996200	0.973885
393.379694	0.969027
393.763125	0.965818
394.146494	0.960650
394.529801	0.954638
394.913047	0.950356
395.296230	0.945315
395.679351	0.938634
396.062410	0.932809
396.445408	0.927480
396.828343	0.921194
397.211217	0.913514
397.594028	0.909605
397.976778	0.900305
398.359466	0.891987
398.742092	0.883901
399.124656	0.879789
399.507158	0.869171
399.889598	0.860145
400.271977	0.850212
400.654294	0.842924
401.036549	0.834076
401.418742	0.828163
401.800874	0.812343
402.182944	0.802884
402.564952	0.789535
402.946898	0.783102
403.328783	0.773376
403.710606	0.770947
404.092367	0.747459
404.474067	0.742555
404.855705	0.733154
405.237282	0.731987
405.618797	0.714150
406.000250	0.703276
406.381642	0.688617
406.762972	0.684054
407.144240	0.675110
407.525447	0.668488
407.906593	0.655126
408.287677	0.644026
408.668700	0.644677
409.049661	0.631541
409.430560	0.622669
409.811399	0.622982
410.192176	0.601496
410.572891	0.601784
410.953545	0.586380
411.334138	0.592404
411.714669	0.581323
412.095139	0.587422
412.475547	0.568626
412.855894	0.566242
413.236180	0.561384
413.616405	0.563175
413.996568	0.550992
414.376670	0.553834
414.756711	0.555242
415.136691	0.549709
415.516609	0.539357
415.896466	0.533681
416.276262	0.527155
416.655997	0.527238
417.035670	0.507557
417.415283	0.498639
417.794834	0.501846
418.174324	0.505457
418.553753	0.513633
418.933121	0.494668
419.312428	0.487360
419.691674	0.492175
420.070859	0.479973
420.449983	0.487760
420.829045	0.476871
421.208047	0.485296
421.586988	0.478305
421.965867	0.476391
422.344686	0.464700
422.723444	0.476873
423.102141	0.493313
423.480777	0.466645
423.859352	0.486866
424.237866	0.463375
424.616319	0.464858
424.994712	0.455200
425.373044	0.465982
425.751314	0.453433
426.129524	0.469457
426.507673	0.454006
426.885762	0.447527
427.263789	0.452356
427.641756	0.462854
428.019662	0.452142
428.397508	0.451838
428.775292	0.455396
429.153016	0.447747
429.530679	0.454343
429.908282	0.446913
430.285824	0.457042
430.663305	0.435743
431.040726	0.456603
431.418086	0.457037
431.795385	0.447904
432.172624	0.447021
432.549802	0.447482
432.926920	0.446742
433.303977	0.445924
433.680974	0.443678
434.057910	0.441487
434.434786	0.441431
434.811601	0.443597
435.188355	0.426033
435.565050	0.435164
435.941683	0.436569
436.318257	0.421583
436.694770	0.421599
437.071222	0.420114
437.447614	0.424284
437.823946	0.430673
438.200218	0.420244
438.576429	0.429704
438.952580	0.423284
439.328670	0.419410
439.704700	0.426205
440.080670	0.427184
440.456580	0.408118
440.832429	0.416274
441.208218	0.427505
441.583947	0.416191
441.959616	0.416336
442.335224	0.421444
442.710773	0.411990
443.086261	0.409861
443.461689	0.424047
443.837057	0.413903
444.212365	0.404172
444.587612	0.410198
444.962800	0.400762
445.337927	0.401815
445.712995	0.428313
446.088002	0.390664
446.462949	0.401569
446.837837	0.405173
447.212664	0.394564
447.587431	0.386065
447.962139	0.356828
448.336786	0.316176
448.711374	0.326518
449.085901	0.370039
449.460369	0.374177
449.834776	0.378202
450.209124	0.358044
450.583412	0.350386
450.957640	0.343066
451.331808	0.354400
451.705917	0.377279
452.079965	0.382311
452.453954	0.370360
452.827883	0.377127
453.201752	0.372302
453.575562	0.383712
453.949311	0.371971
454.323001	0.378579
454.696632	0.373636
455.070202	0.366716
455.443713	0.358257
455.817164	0.353293
456.190556	0.349288
456.563888	0.345893
456.937160	0.343671
457.310373	0.361084
457.683526	0.359939
458.056619	0.365354
458.429653	0.366039
458.802628	0.369250
459.175542	0.363854
459.548398	0.346353
459.921194	0.338856
460.293930	0.338879
460.666607	0.316471
461.039224	0.304911
461.411782	0.300556
461.784280	0.300039
462.156719	0.303897
462.529099	0.308405
462.901419	0.324560
463.273680	0.328610
463.645882	0.328240
464.018024	0.334033
464.390106	0.327231
464.762130	0.311759
465.134094	0.294743
465.505999	0.264106
465.877845	0.234744
466.249631	0.221681
466.621358	0.229265
466.993026	0.242955
467.364634	0.249146
467.736184	0.257931
468.107674	0.266577
468.479105	0.265636
468.850477	0.272650
469.221790	0.279147
469.593043	0.289615
469.964238	0.294018
470.335373	0.293469
470.706449	0.291705
471.077467	0.292189
471.448425	0.254798
471.819324	0.230328
472.190164	0.229676
472.560945	0.258470
472.931667	0.280651
473.302330	0.284637
473.672934	0.296692
474.043479	0.284796
474.413965	0.286747
474.784393	0.290188
475.154761	0.285115
475.525070	0.282221
475.895321	0.287821
476.265513	0.281855
476.635645	0.277720
477.005719	0.277137
477.375734	0.273700
477.745691	0.267424
478.115588	0.263576
478.485427	0.257213
478.855207	0.244241
479.224928	0.226678
479.594591	0.215063
479.964194	0.218407
480.333739	0.219515
480.703226	0.221264
481.072653	0.219502
481.442022	0.215141
481.811333	0.211610
482.180584	0.214961
482.549777	0.220178
482.918912	0.223441
483.287988	0.223201
483.657005	0.222937
484.025964	0.229603
484.394864	0.226812
484.763706	0.227349
485.132489	0.232292
485.501213	0.233268
485.869879	0.231185
486.238487	0.234979
486.607036	0.232619
486.975527	0.237049
487.343959	0.233053
487.712333	0.232072
488.080648	0.233469
488.448905	0.232605
488.817104	0.233934
489.185244	0.228358
489.553326	0.225229
489.921350	0.215072
490.289315	0.197987
490.657222	0.192767
491.025070	0.194000
491.392861	0.195980
491.760593	0.201671
492.128267	0.207265
492.495883	0.212903
492.863440	0.219192
493.230939	0.225202
493.598380	0.226604
493.965763	0.228999
494.333088	0.231437
494.700354	0.232559
495.067563	0.231693
495.434713	0.234902
495.801805	0.232796
496.168839	0.234169
496.535815	0.235850
496.902733	0.235588
497.269593	0.237029
497.636395	0.235028
498.003139	0.235130
498.369825	0.238111
498.736453	0.234812
499.103023	0.236264
499.469535	0.235735
499.835989	0.235843
500.202385	0.236624
500.568723	0.239939
500.935003	0.235164
501.301226	0.239414
501.667390	0.233754
502.033497	0.231896
502.399546	0.235000
502.765537	0.236811
503.131470	0.235196
503.497345	0.231521
503.863163	0.240078
504.228923	0.232999
504.594625	0.232061
504.960269	0.237029
505.325856	0.232741
505.691385	0.236831
506.056856	0.233710
506.422270	0.232884
506.787625	0.235522
507.152924	0.232728
507.518164	0.233308
507.883347	0.235009
508.248472	0.236580
508.613540	0.231813
508.978550	0.234211
509.343503	0.234642
509.708398	0.232313
510.073236	0.229791
510.438016	0.229989
510.802738	0.231001
511.167403	0.229653
511.532010	0.231783
511.896561	0.227002
512.261053	0.226053
512.625488	0.228128
512.989866	0.228270
513.354186	0.228591
513.718449	0.230735
514.082655	0.227019
514.446803	0.229061
514.810894	0.227056
515.174927	0.229461
515.538904	0.228883
515.902822	0.225798
516.266684	0.228334
516.630488	0.229627
516.994235	0.228187
517.357925	0.226954
517.721558	0.225303
518.085133	0.224781
518.448651	0.224848
518.812112	0.226979
519.175516	0.226518
519.538863	0.224336
519.902152	0.226062
520.265385	0.222705
520.628560	0.224540
520.991678	0.225238
521.354739	0.223993
521.717743	0.225176
522.080690	0.225537
522.443580	0.222839
522.806413	0.224092
523.169189	0.223175
523.531908	0.221906
523.894569	0.225424
524.257174	0.225501
524.619722	0.223267
524.982213	0.224509
525.344647	0.223198
525.707025	0.223882
526.069345	0.222374
526.431608	0.223894
526.793815	0.221843
527.155964	0.226167
527.518057	0.224908
527.880093	0.225895
528.242072	0.224607
528.603995	0.226566
528.965860	0.228097
529.327669	0.227026
529.689421	0.227791
530.051117	0.228626
530.412755	0.226396
530.774337	0.229002
531.135862	0.229092
531.497331	0.228599
531.858743	0.231205
532.220098	0.228044
532.581396	0.230123
532.942638	0.231093
533.303824	0.231887
533.664953	0.231820
534.026025	0.233521
534.387040	0.231226
534.747999	0.231233
535.108902	0.230036
535.469748	0.235167
535.830537	0.232939
536.191270	0.233572
536.551947	0.233030
536.912567	0.233054
537.273131	0.234665
537.633638	0.234930
537.994089	0.235206
538.354483	0.236411
538.714821	0.233260
539.075103	0.233171
539.435328	0.233900
539.795497	0.237598
540.155609	0.234338
540.515665	0.232234
540.875665	0.237936
541.235609	0.236357
541.595496	0.236655
541.955328	0.232964
542.315102	0.235726
542.674821	0.236785
543.034483	0.236963
543.394090	0.236591
543.753640	0.238327
544.113134	0.233416
544.472571	0.236560
544.831953	0.233567
545.191278	0.237766
545.550548	0.237106
545.909761	0.234007
546.268918	0.235038
546.628019	0.233102
546.987064	0.236093
547.346053	0.237736
547.704986	0.235566
548.063863	0.235444
548.422684	0.236062
548.781449	0.237713
549.140158	0.235418
549.498811	0.238192
549.857408	0.241554
550.215949	0.236104
550.574434	0.239091
550.932864	0.237224
551.291237	0.236016
551.649555	0.237399
552.007817	0.237012
552.366022	0.237857
552.724173	0.238082
553.082267	0.238436
553.440305	0.235302
553.798288	0.239663
554.156215	0.236013
554.514086	0.236747
554.871902	0.240175
555.229661	0.239410
555.587365	0.239914
555.945014	0.242605
556.302606	0.239243
556.660143	0.242044
557.017625	0.238199
557.375050	0.240555
557.732421	0.237675
558.089735	0.239671
558.446994	0.239580
558.804197	0.238909
559.161345	0.238776
559.518437	0.242339
559.875474	0.239989
560.232455	0.239649
560.589381	0.240546
560.946251	0.240602
561.303065	0.238107
561.659825	0.239708
562.016528	0.241042
562.373177	0.244094
562.729770	0.241409
563.086307	0.243219
563.442789	0.240903
563.799216	0.244078
564.155587	0.242666
564.511904	0.243833
564.868164	0.243931
565.224370	0.243771
565.580520	0.245512
565.936615	0.245466
566.292654	0.248369
566.648638	0.245474
567.004567	0.246545
567.360441	0.246872
567.716260	0.248875
568.072023	0.246634
568.427732	0.247334
568.783385	0.250021
569.138982	0.247844
569.494525	0.247795
569.850013	0.250402
570.205445	0.248726
570.560823	0.251361
570.916145	0.253371
571.271412	0.251712
571.626625	0.253152
571.981782	0.253665
572.336884	0.254624
572.691931	0.254265
573.046923	0.255332
573.401860	0.256443
573.756743	0.258095
574.111570	0.257280
574.466342	0.257753
574.821059	0.257183
575.175722	0.259481
575.530330	0.259435
575.884882	0.259806
576.239380	0.261609
576.593823	0.262322
576.948211	0.261613
577.302544	0.264943
577.656823	0.264377
578.011047	0.264692
578.365216	0.265086
578.719330	0.267476
579.073389	0.267222
579.427394	0.268370
579.781344	0.269370
580.135239	0.270528
580.489080	0.270418
580.842866	0.273232
581.196597	0.273357
581.550273	0.271774
581.903895	0.272924
582.257463	0.270990
582.610975	0.274151
582.964434	0.273797
583.317837	0.276233
583.671186	0.276386
584.024481	0.276634
584.377721	0.279142
584.730906	0.279729
585.084037	0.279051
585.437113	0.280730
585.790135	0.280080
586.143103	0.283199
586.496016	0.284291
586.848874	0.281765
587.201679	0.282339
587.554428	0.285713
587.907124	0.284459
588.259765	0.285232
588.612352	0.285622
588.964884	0.289658
589.317362	0.288853
589.669786	0.289157
590.022155	0.287478
590.374470	0.287266
590.726731	0.289171
591.078937	0.293603
591.431090	0.290337
591.783188	0.294520
592.135232	0.294578
592.487222	0.294738
592.839157	0.292588
593.191038	0.295301
593.542866	0.296974
593.894639	0.300490
594.246358	0.298656
594.598022	0.297980
594.949633	0.301720
595.301190	0.302624
595.652692	0.301750
596.004141	0.297913
596.355535	0.305936
596.706876	0.305861
597.058162	0.308676
597.409395	0.306138
597.760573	0.303687
598.111698	0.307068
598.462768	0.307454
598.813785	0.308502
599.164748	0.309981
599.515657	0.310624
599.866511	0.313710
600.217312	0.309401
600.568060	0.314381
600.918753	0.310695
601.269392	0.311632
601.619978	0.314895
601.970510	0.312802
602.320988	0.312607
602.671412	0.310279
603.021783	0.312738
603.372100	0.314414
603.722363	0.314088
604.072572	0.314436
604.422728	0.314390
604.772830	0.316752
605.122878	0.315921
605.472872	0.316893
605.822813	0.314762
606.172701	0.317552
606.522534	0.315084
606.872314	0.315342
607.222041	0.315750
607.571714	0.313990
607.921333	0.315820
608.270899	0.315307
608.620411	0.312167
608.969870	0.316068
609.319276	0.316035
609.668627	0.316087
610.017926	0.314502
610.367171	0.313005
610.716362	0.313704
611.065500	0.313867
611.414585	0.312792
611.763616	0.313098
612.112594	0.313735
612.461518	0.312957
612.810389	0.310902
613.159207	0.313151
613.507971	0.314806
613.856682	0.310539
614.205340	0.312271
614.553945	0.309099
614.902496	0.313425
615.250994	0.311072
615.599439	0.311751
615.947830	0.311331
616.296169	0.312098
616.644454	0.311272
616.992686	0.311858
617.340864	0.309172
617.688990	0.313090
618.037063	0.310042
618.385082	0.311526
618.733048	0.308634
619.080961	0.311049
619.428821	0.310662
619.776628	0.309925
620.124382	0.311723
620.472083	0.312390
620.819731	0.311590
621.167326	0.315549
621.514868	0.314992
621.862357	0.319253
622.209793	0.319116
622.557176	0.320718
622.904506	0.322282
623.251783	0.324473
623.599007	0.326834
623.946179	0.326186
624.293297	0.328363
624.640363	0.332164
624.987376	0.333035
625.334336	0.335338
625.681243	0.337622
626.028097	0.338057
626.374899	0.339141
626.721647	0.339411
627.068343	0.342951
627.414987	0.344021
627.761577	0.346212
628.108115	0.344350
628.454600	0.349448
628.801032	0.346560
629.147412	0.348636
629.493739	0.349232
629.840014	0.352368
630.186236	0.349665
630.532405	0.355025
630.878521	0.352473
631.224585	0.355001
631.570597	0.358564
631.916556	0.356780
632.262462	0.357311
632.608316	0.359351
632.954117	0.360052
633.299866	0.360832
633.645562	0.361607
633.991206	0.365124
634.336797	0.368474
634.682336	0.370480
635.027823	0.372641
635.373257	0.372758
635.718639	0.376407
636.063968	0.375781
636.409245	0.381627
636.754470	0.381898
637.099642	0.384448
637.444762	0.387842
637.789829	0.386451
638.134845	0.390175
638.479808	0.391502
638.824719	0.391093
639.169577	0.395266
639.514383	0.393916
639.859137	0.398785
640.203839	0.398362
640.548489	0.398482
640.893086	0.399909
641.237632	0.401666
641.582125	0.400352
641.926566	0.401810
642.270955	0.401841
642.615292	0.402572
642.959576	0.401297
643.303809	0.401680
643.647990	0.401270
643.992118	0.402219
644.336195	0.405244
644.680219	0.403895
645.024192	0.404731
645.368112	0.397993
645.711981	0.396650
646.055797	0.392708
646.399562	0.394557
646.743274	0.386855
647.086935	0.384325
647.430544	0.384614
647.774101	0.383100
648.117606	0.383124
648.461059	0.383321
648.804460	0.385059
649.147810	0.390878
649.491108	0.392731
649.834354	0.393894
650.177548	0.399360
650.520690	0.404960
650.863781	0.406423
651.206820	0.405589
651.549807	0.410218
651.892742	0.414186
652.235626	0.413752
652.578458	0.414491
652.921238	0.420445
653.263967	0.418725
653.606644	0.422720
653.949269	0.422487
654.291843	0.426248
654.634365	0.422385
654.976836	0.425628
655.319255	0.426097
655.661622	0.427994
656.003938	0.427553
656.346203	0.430949
656.688416	0.428618
657.030577	0.431677
657.372687	0.434723
657.714746	0.434948
658.056753	0.431483
658.398708	0.435465
658.740612	0.436806
659.082465	0.432658
659.424266	0.433427
659.766016	0.432832
660.107715	0.435583
660.449362	0.434034
660.790958	0.435028
661.132503	0.435611
661.473996	0.433122
661.815438	0.433828
662.156829	0.434158
662.498168	0.434789
662.839456	0.436746
663.180693	0.433986
663.521879	0.434365
663.863013	0.434993
664.204097	0.434200
664.545129	0.430995
664.886110	0.430954
665.227040	0.428666
665.567918	0.430932
665.908746	0.428779
666.249522	0.428431
666.590248	0.428835
666.930922	0.427141
667.271545	0.426377
667.612118	0.427275
667.952639	0.428333
668.293109	0.426382
668.633528	0.429612
668.973896	0.429587
669.314213	0.430411
669.654480	0.431848
669.994695	0.432016
670.334859	0.432533
670.674973	0.432867
671.015035	0.432803
671.355047	0.432904
671.695008	0.434527
672.034918	0.435898
672.374777	0.435934
672.714585	0.436725
673.054342	0.436830
673.394049	0.436731
673.733705	0.434592
674.073310	0.435319
674.412864	0.438600
674.752368	0.438961
675.091820	0.439134
675.431223	0.443554
675.770574	0.443907
676.109875	0.446411
676.449125	0.447144
676.788324	0.448806
677.127473	0.454052
677.466571	0.453697
677.805619	0.455788
678.144616	0.456700
678.483562	0.457790
678.822458	0.461079
679.161303	0.461794
679.500098	0.462422
679.838842	0.464115
680.177535	0.463093
680.516179	0.461970
680.854771	0.460687
681.193314	0.454395
681.531805	0.446194
681.870247	0.434099
682.208638	0.426535
682.546978	0.425750
682.885268	0.427473
683.223508	0.433739
683.561697	0.437687
683.899836	0.439877
684.237925	0.443763
684.575963	0.445759
684.913951	0.449171
685.251889	0.445466
685.589776	0.446811
685.927614	0.449252
686.265401	0.443585
686.603137	0.444996
686.940824	0.439190
687.278460	0.437702
687.616046	0.436561
687.953582	0.431382
688.291068	0.432399
688.628504	0.428738
688.965889	0.430844
689.303224	0.435007
689.640510	0.438867
689.977745	0.445133
690.314930	0.452528
690.652065	0.456932
690.989150	0.464684
691.326185	0.470958
691.663170	0.475270
692.000105	0.482845
692.336990	0.489881
692.673825	0.492651
693.010610	0.498548
693.347345	0.504756
693.684030	0.505881
694.020665	0.511253
694.357251	0.519971
694.693786	0.519085
695.030272	0.523630
695.366707	0.527051
695.703093	0.530563
696.039429	0.528565
696.375716	0.530279
696.711952	0.532548
697.048139	0.535011
697.384276	0.536143
697.720363	0.534907
698.056400	0.533552
698.392388	0.539495
698.728326	0.542887
699.064214	0.545319
699.400053	0.546402
699.735842	0.549594
700.071581	0.552890
700.407270	0.555562
700.742910	0.557385
701.078501	0.564944
701.414042	0.565969
701.749533	0.567950
702.084974	0.576196
702.420366	0.568945
702.755709	0.576664
703.091002	0.584751
703.426246	0.577998
703.761440	0.583370
704.096584	0.588317
704.431679	0.585519
704.766725	0.587548
705.101721	0.589400
705.436668	0.585374
705.771565	0.592951
706.106413	0.589120
706.441212	0.584558
706.775961	0.583090
707.110661	0.585665
707.445311	0.582360
707.779913	0.579970
708.114465	0.578064
708.448967	0.574045
708.783421	0.566466
709.117825	0.561223
709.452180	0.561745
709.786485	0.554921
710.120742	0.544766
710.454949	0.546559
710.789107	0.539105
711.123216	0.530310
711.457275	0.531711
711.791286	0.522671
712.125247	0.521294
712.459159	0.531878
712.793023	0.525444
713.126837	0.529241
713.460602	0.529836
713.794318	0.538396
714.127985	0.537510
714.461602	0.548049
714.795171	0.550839
715.128691	0.558548
715.462162	0.566285
715.795584	0.571840
716.128957	0.575421
716.462281	0.581483
716.795556	0.585093
717.128782	0.589900
717.461960	0.599959
717.795088	0.597819
718.128167	0.604710
718.461198	0.613539
718.794180	0.613439
719.127113	0.616553
719.459997	0.620065
719.792833	0.626474
720.125619	0.627537
720.458357	0.632548
720.791046	0.632882
721.123686	0.636274
721.456278	0.642732
721.788821	0.640350
722.121315	0.644232
722.453761	0.648804
722.786158	0.646644
723.118506	0.642838
723.450805	0.651110
723.783056	0.647608
724.115259	0.643585
724.447412	0.644498
724.779518	0.644722
725.111574	0.643931
725.443582	0.640116
725.775542	0.641707
726.107453	0.634008
726.439315	0.633925
726.771129	0.632043
727.102895	0.625989
727.434612	0.618221
727.766281	0.617003
728.097901	0.616153
728.429473	0.615930
728.760996	0.614146
729.092471	0.613744
729.423897	0.617474
729.755276	0.617439
730.086606	0.617208
730.417887	0.610890
730.749120	0.601834
731.080305	0.593379
731.411442	0.589781
731.742530	0.593925
732.073570	0.593007
732.404562	0.585849
732.735506	0.587391
733.066401	0.591559
733.397249	0.600961
733.728048	0.611920
734.058798	0.624989
734.389501	0.636104
734.720156	0.644981
735.050762	0.652352
735.381320	0.653773
735.711831	0.662907
736.042293	0.668086
736.372707	0.664328
736.703073	0.668607
737.033391	0.671186
737.363661	0.667829
737.693883	0.663182
738.024056	0.662018
738.354182	0.662350
738.684260	0.652307
739.014290	0.647429
739.344272	0.648291
739.674207	0.642143
740.004093	0.640795
740.333931	0.642727
740.663722	0.642487
740.993464	0.642546
741.323159	0.645775
741.652806	0.651417
741.982405	0.655740
742.311956	0.660421
742.641460	0.662179
742.970915	0.666029
743.300323	0.674654
743.629683	0.680739
743.958996	0.681501
744.288260	0.687089
744.617477	0.692889
744.946647	0.694364
745.275768	0.699304
745.604842	0.699595
745.933869	0.709558
746.262847	0.710914
746.591778	0.703679
746.920662	0.708884
747.249498	0.716882
747.578286	0.706903
747.907027	0.703425
748.235720	0.703865
748.564365	0.699623
748.892963	0.699230
749.221514	0.702893
749.550017	0.707082
749.878473	0.706618
750.206881	0.713507
750.535242	0.714195
750.863555	0.714308
751.191821	0.715453
751.520039	0.718388
751.848210	0.723878
752.176334	0.715459
752.504411	0.715290
752.832440	0.723080
753.160421	0.727206
753.488356	0.725098
753.816243	0.723216
754.144082	0.729921
754.471875	0.734768
754.799620	0.729702
755.127318	0.732206
755.454969	0.731223
755.782572	0.731091
756.110129	0.736121
756.437638	0.737928
756.765100	0.735263
757.092515	0.732325
757.419882	0.731940
757.747203	0.736696
758.074477	0.736391
758.401703	0.733075
758.728882	0.728412
759.056014	0.727687
759.383099	0.727483
759.710138	0.727711
760.037129	0.724229
760.364073	0.717677
760.690970	0.719922
761.017820	0.726362
761.344623	0.722271
761.671379	0.711894
761.998088	0.701258
762.324751	0.677438
762.651366	0.635972
762.977935	0.569232
763.304456	0.516897
763.630931	0.508028
763.957359	0.546621
764.283740	0.590651
764.610074	0.618650
764.936362	0.649462
765.262602	0.675431
765.588796	0.698483
765.914943	0.715509
766.241044	0.734049
766.567097	0.740006
766.893104	0.750301
767.219064	0.756979
767.544978	0.762960
767.870845	0.776300
768.196665	0.780196
768.522438	0.778710
768.848165	0.779767
769.173846	0.788421
769.499479	0.793561
769.825066	0.796181
770.150607	0.801655
770.476101	0.797399
770.801548	0.797684
771.126949	0.809115
771.452303	0.813141
771.777611	0.812178
772.102872	0.812345
772.428087	0.817754
772.753256	0.821238
773.078378	0.822314
773.403453	0.831637
773.728482	0.835398
774.053465	0.828811
774.378401	0.832396
774.703291	0.841114
775.028135	0.839706
775.352932	0.841467
775.677683	0.844787
776.002388	0.846088
776.327046	0.845547
776.651658	0.848538
776.976224	0.851884
777.300743	0.852409
777.625216	0.854752
777.949643	0.855455
778.274024	0.856458
778.598359	0.857746
778.922647	0.856707
779.246889	0.856996
779.571086	0.859816
779.895236	0.863698
780.219339	0.859623
780.543397	0.856946
780.867409	0.855975
781.191374	0.856835
781.515294	0.859436
781.839167	0.857952
782.162995	0.862051
782.486776	0.858577
782.810511	0.859843
783.134201	0.863102
783.457844	0.860725
783.781441	0.863501
784.104993	0.869573
784.428498	0.869516
784.751958	0.865117
785.075372	0.867723
785.398739	0.871275
785.722061	0.868613
786.045337	0.863431
786.368568	0.868693
786.691752	0.870724
787.014891	0.856890
787.337983	0.847815
787.661030	0.840380
787.984031	0.821780
788.306987	0.810166
788.629897	0.811819
788.952760	0.815301
789.275579	0.820464
789.598351	0.835825
789.921078	0.847812
790.243759	0.851525
790.566395	0.855078
790.888984	0.862882
791.211529	0.868408
791.534027	0.871804
791.856480	0.873006
792.178888	0.877692
792.501249	0.880322
792.823566	0.882104
793.145836	0.882308
793.468062	0.884503
793.790241	0.884085
794.112375	0.882074
794.434464	0.877744
794.756507	0.876535
795.078505	0.876857
795.400457	0.871390
795.722364	0.859228
796.044226	0.852478
796.366042	0.850372
796.687812	0.853951
797.009538	0.849348
797.331218	0.853473
797.652852	0.858449
797.974442	0.863696
798.295986	0.863260
798.617484	0.866085
798.938938	0.870083
799.260346	0.874511
799.581709	0.876864
799.903026	0.878269
800.224299	0.878898
800.545526	0.884063
800.866708	0.887947
801.187845	0.890959
801.508936	0.890952
801.829983	0.889474
802.150984	0.891489
802.471940	0.897402
802.792851	0.896989
803.113717	0.896740
803.434538	0.894568
803.755314	0.899241
804.076045	0.900129
804.396731	0.899946
804.717372	0.899260
805.037967	0.900856
805.358518	0.899510
805.679024	0.895694
805.999485	0.897071
806.319901	0.895952
806.640272	0.896954
806.960598	0.895682
807.280879	0.893841
807.601115	0.891297
807.921306	0.895266
808.241453	0.893965
808.561554	0.893328
808.881611	0.892333
809.201623	0.895785
809.521590	0.894902
809.841513	0.895546
810.161390	0.895466
810.481223	0.896752
810.801011	0.900170
811.120755	0.902412
811.440453	0.901756
811.760107	0.900251
812.079716	0.899784
812.399281	0.902934
812.718801	0.905782
813.038276	0.906664
813.357707	0.905511
813.677093	0.902932
813.996434	0.906427
814.315731	0.907336
814.634983	0.908405
814.954191	0.907445
815.273354	0.903989
815.592473	0.900574
815.911547	0.900225
816.230577	0.898519
816.549562	0.894464
816.868502	0.896223
817.187399	0.892354
817.506250	0.886717
817.825058	0.889405
818.143821	0.885700
818.462539	0.880422
818.781213	0.871187
819.099843	0.861867
819.418429	0.845525
819.736970	0.827533
820.055466	0.808435
820.373919	0.782769
820.692327	0.750091
821.010691	0.714178
821.329011	0.635823
821.647286	0.519952
821.965517	0.405998
822.283704	0.363140
822.601847	0.364203
822.919945	0.399902
823.237999	0.433870
823.556010	0.481045
823.873976	0.537028
824.191897	0.587899
824.509775	0.631205
824.827609	0.676732
825.145398	0.699081
825.463144	0.701983
825.780845	0.684897
826.098502	0.666281
826.416116	0.620649
826.733685	0.575835
827.051210	0.567253
827.368692	0.581608
827.686129	0.619684
828.003522	0.672702
828.320872	0.720824
828.638177	0.764682
828.955439	0.798260
829.272656	0.820692
829.589830	0.836606
829.906960	0.852770
830.224046	0.865523
830.541088	0.876425
830.858086	0.879213
831.175041	0.886777
831.491952	0.886019
831.808819	0.883334
832.125642	0.875763
832.442421	0.860625
832.759157	0.838714
833.075849	0.792150
833.392497	0.727485
833.709101	0.687331
834.025662	0.696639
834.342179	0.728084
834.658653	0.768550
834.975083	0.803392
835.291469	0.829307
835.607811	0.853093
835.924110	0.868748
836.240366	0.885744
836.556578	0.899764
836.872746	0.908097
837.188871	0.914083
837.504952	0.919162
837.820990	0.922138
838.136984	0.926985
838.452935	0.928207
838.768842	0.930156
839.084706	0.925029
839.400526	0.898299
839.716303	0.857850
840.032037	0.834500
840.347727	0.838822
840.663373	0.856910
840.978977	0.878323
841.294537	0.900558
841.610054	0.917668
841.925527	0.924713
842.240957	0.932606
842.556344	0.939806
842.871687	0.945834
843.186987	0.950344
843.502244	0.949349
843.817458	0.950943
844.132629	0.955761
844.447756	0.960680
844.762840	0.959801
845.077881	0.959137
845.392879	0.959572
845.707833	0.964491
846.022745	0.964502
846.337613	0.964274
846.652438	0.966366
846.967221	0.963433
847.281960	0.965562
847.596656	0.966607
847.911309	0.964565
848.225919	0.967813
848.540485	0.966936
848.855009	0.968733
849.169490	0.968794
849.483928	0.969078
849.798323	0.968143
850.112675	0.969948
850.426984	0.968698
850.741251	0.969013
851.055474	0.969401
851.369654	0.967538
851.683792	0.969290
851.997887	0.968627
852.311938	0.969424
852.625947	0.970224
852.939914	0.968063
853.253837	0.969568
853.567718	0.969821
853.881555	0.970742
854.195350	0.968029
854.509103	0.968644
854.822812	0.970673
855.136479	0.969498
855.450103	0.969566
855.763685	0.967186
856.077224	0.968295
856.390720	0.970320
856.704173	0.969771
857.017584	0.968262
857.330953	0.967203
857.644278	0.968209
857.957561	0.968640
858.270802	0.968738
858.584000	0.967737
858.897155	0.966272
859.210268	0.966776
859.523339	0.967899
859.836367	0.969947
860.149352	0.970009
860.462295	0.968448
860.775195	0.969527
861.088054	0.968682
861.400869	0.970175
861.713642	0.969643
862.026373	0.969547
862.339062	0.970596
862.651708	0.966850
862.964312	0.967966
863.276873	0.969663
863.589392	0.967960
863.901869	0.966952
864.214303	0.965588
864.526696	0.964522
864.839045	0.962882
865.151353	0.961826
865.463619	0.962425
865.775842	0.962395
866.088023	0.960990
866.400162	0.961391
866.712258	0.962757
867.024313	0.962200
867.336325	0.962779
867.648296	0.962521
867.960224	0.962216
868.272110	0.961093
868.583954	0.963935
868.895755	0.964848
869.207515	0.960652
869.519233	0.959265
869.830909	0.961054
870.142542	0.961723
870.454134	0.961316
870.765684	0.959916
871.077191	0.957715
871.388657	0.958613
871.700081	0.956869
872.011463	0.958854
872.322803	0.957564
872.634101	0.956861
872.945357	0.953418
873.256571	0.951690
873.567744	0.951858
873.878874	0.952665
874.189963	0.951423
874.501010	0.949975
874.812015	0.949703
875.122979	0.950411
875.433900	0.953391
875.744780	0.954137
876.055618	0.950101
876.366415	0.948482
876.677169	0.948648
876.987882	0.950311
877.298554	0.951199
877.609183	0.946375
877.919771	0.944229
878.230317	0.943258
878.540822	0.940260
878.851285	0.933960
879.161707	0.926084
879.472087	0.913402
879.782425	0.897037
880.092722	0.862462
880.402977	0.810161
880.713191	0.748610
881.023363	0.688840
881.333494	0.653975
881.643583	0.626365
881.953631	0.626556
882.263637	0.655495
882.573602	0.694399
882.883526	0.720710
883.193408	0.743978
883.503248	0.768046
883.813048	0.795262
884.122806	0.824578
884.432522	0.849155
884.742197	0.867848
885.051831	0.879485
885.361424	0.890027
885.670975	0.901798
885.980485	0.912939
886.289954	0.918247
886.599382	0.923400
886.908768	0.927462
887.218113	0.933384
887.527417	0.937594
887.836680	0.940715
888.145901	0.942424
888.455082	0.944991
888.764221	0.949875
889.073319	0.951262
889.382376	0.952541
889.691392	0.953020
890.000366	0.950829
890.309300	0.953582
890.618193	0.951643
890.927044	0.950755
891.235855	0.950357
891.544625	0.950465
891.853353	0.951603
892.162041	0.947971
892.470687	0.941348
892.779293	0.937554
893.087858	0.932470
893.396381	0.925043
893.704864	0.912043
894.013306	0.887804
894.321707	0.860777
894.630068	0.845536
894.938387	0.841730
895.246665	0.841791
895.554903	0.855187
895.863100	0.868780
896.171256	0.885758
896.479371	0.904944
896.787446	0.918631
897.095480	0.925037
897.403473	0.927850
897.711425	0.931428
898.019336	0.939348
898.327207	0.941667
898.635038	0.943968
898.942827	0.943865
899.250576	0.947286
899.558284	0.952047
899.865952	0.953826
900.173579	0.954424
900.481165	0.955311
900.788711	0.958966
901.096216	0.959225
901.403681	0.960465
901.711105	0.961811
902.018489	0.962295
902.325832	0.962048
902.633135	0.960790
902.940397	0.954745
903.247619	0.942740
903.554800	0.916094
903.861941	0.876626
904.169041	0.841263
904.476101	0.822495
904.783121	0.823610
905.090100	0.840310
905.397039	0.861303
905.703938	0.884037
906.010796	0.905013
906.317614	0.921164
906.624391	0.933385
906.931129	0.943844
907.237826	0.951073
907.544483	0.958839
907.851099	0.962656
908.157675	0.967000
908.464211	0.969863
908.770707	0.972275
909.077163	0.973422
909.383578	0.974332
909.689954	0.974338
909.996289	0.975501
910.302584	0.977058
910.608839	0.979288
910.915054	0.977576
911.221229	0.977496
911.527363	0.976539
911.833458	0.977093
912.139513	0.976718
912.445527	0.975037
912.751502	0.973174
913.057436	0.971125
913.363331	0.970162
913.669186	0.965058
913.975000	0.960231
914.280775	0.954654
914.586510	0.947422
914.892205	0.934155
915.197859	0.912261
915.503475	0.885442
915.809050	0.864475
916.114585	0.858450
916.420081	0.855556
916.725536	0.852528
917.030952	0.860807
917.336328	0.874810
917.641665	0.889549
917.946961	0.905498
918.252218	0.916271
918.557435	0.925614
918.862612	0.934744
919.167750	0.941039
919.472848	0.945022
919.777906	0.951379
920.082925	0.957307
920.387904	0.960520
920.692843	0.962756
920.997743	0.963486
921.302603	0.966314
921.607423	0.969025
921.912204	0.970415
922.216946	0.972137
922.521647	0.973046
922.826310	0.973684
923.130932	0.975949
923.435516	0.978037
923.740059	0.979730
924.044564	0.977675
924.349028	0.979884
924.653454	0.983197
924.957840	0.984158
925.262186	0.983762
925.566493	0.983545
925.870761	0.984890
926.174989	0.985571
926.479178	0.988144
926.783328	0.987652
927.087438	0.987823
927.391509	0.987519
927.695541	0.989875
927.999533	0.988714
928.303486	0.989536
928.607400	0.991032
928.911275	0.988904
929.215110	0.990333
929.518906	0.990307
929.822663	0.990159
930.126381	0.991080
930.430060	0.989756
930.733699	0.990153
931.037299	0.989525
931.340861	0.989125
931.644383	0.989361
931.947866	0.988221
932.251309	0.989656
932.554714	0.989605
932.858080	0.989839
933.161407	0.990056
933.464694	0.990476
933.767943	0.989434
934.071153	0.991006
934.374323	0.991392
934.677455	0.989932
934.980548	0.991022
935.283602	0.990517
935.586617	0.990895
935.889593	0.990772
936.192530	0.991393
936.495428	0.990059
936.798287	0.990226
937.101108	0.990436
937.403890	0.988080
937.706632	0.988994
938.009336	0.986198
938.312002	0.986156
938.614628	0.983674
938.917216	0.982588
939.219765	0.980365
939.522275	0.984058
939.824747	0.982655
940.127179	0.981808
940.429573	0.983934
940.731929	0.983113
941.034246	0.984054
941.336524	0.984547
941.638763	0.985976
941.940964	0.986036
942.243126	0.985964
942.545250	0.986274
942.847335	0.987810
943.149381	0.987873
943.451389	0.988446
943.753359	0.987665
944.055290	0.989984
944.357182	0.989774
944.659036	0.987747
944.960851	0.988801
945.262628	0.989776
945.564367	0.990542
945.866067	0.989211
946.167729	0.989743
946.469352	0.989549
946.770937	0.988598
947.072484	0.990513
947.373992	0.989883
947.675462	0.989295
947.976893	0.988857
948.278286	0.989494
948.579641	0.991268
948.880958	0.989029
949.182236	0.990807
949.483476	0.992397
949.784678	0.988947
950.085841	0.991572
950.386967	0.991981
950.688054	0.990795
950.989103	0.990356
951.290114	0.989397
951.591087	0.988292
951.892021	0.989925
952.192917	0.989383
952.493776	0.987945
952.794596	0.987685
953.095378	0.987439
953.396122	0.987464
953.696828	0.986997
953.997496	0.988612
954.298126	0.989999
954.598718	0.990018
954.899272	0.990756
955.199788	0.990567
955.500266	0.992073
955.800706	0.993987
956.101108	0.992829
956.401472	0.994967
956.701798	0.993367
957.002087	0.993495
957.302337	0.994035
957.602550	0.994705
957.902724	0.994833
958.202861	0.994761
958.502960	0.994770
958.803022	0.993717
959.103045	0.995909
959.403031	0.996510
959.702979	0.994647
960.002889	0.996069
960.302762	0.994622
960.602596	0.996256
960.902393	0.995541
961.202153	0.996509
961.501875	0.996525
961.801559	0.995277
962.101205	0.995352
962.400814	0.996805
962.700385	0.996437
962.999918	0.996908
963.299414	0.996083
963.598873	0.995114
963.898293	0.996777
964.197677	0.996039
964.497022	0.996759
964.796331	0.998301
965.095601	0.996735
965.394835	0.996788
965.694030	0.995847
965.993189	0.996691
966.292309	0.996031
966.591393	0.996946
966.890439	0.996009
967.189447	0.995919
967.488419	0.997297
967.787353	0.996261
968.086249	0.996909
968.385108	0.997323
968.683930	0.997054
968.982714	0.997603
969.281462	0.996982
969.580172	0.996775
969.878844	0.997584
970.177480	0.997081
970.476078	0.997425
970.774639	0.997345
971.073162	0.997626
971.371649	0.995791
971.670098	0.996901
971.968510	0.997688
972.266885	0.995705
972.565223	0.996713
972.863524	0.995322
973.161788	0.996681
973.460014	0.997429
973.758204	0.995709
974.056356	0.995640
974.354471	0.995258
974.652550	0.996335
974.950591	0.996819
975.248595	0.996231
975.546563	0.996608
975.844493	0.997172
976.142386	0.996335
976.440243	0.997679
976.738062	0.996615
977.035845	0.997814
977.333590	0.998157
977.631299	0.997784
977.928971	0.996339
978.226606	0.996195
978.524204	0.995771
978.821765	0.997273
979.119290	0.997046
979.416777	0.996144
979.714228	0.997314
980.011642	0.995982
980.309020	0.997441
980.606360	0.997255
980.903664	0.998386
981.200931	0.995793
981.498162	0.994801
981.795356	0.995453
982.092513	0.994609
982.389633	0.994342
982.686717	0.991639
982.983764	0.991752
983.280775	0.989782
983.577749	0.990516
983.874686	0.992683
984.171587	0.992260
984.468451	0.993876
984.765279	0.993911
985.062070	0.993705
985.358824	0.995203
985.655543	0.995186
985.952224	0.995272
986.248869	0.995263
986.545478	0.996671
986.842050	0.997852
987.138586	0.995364
987.435086	0.996676
987.731549	0.997820
988.027975	0.997541
988.324366	0.997974
988.620719	0.997706
988.917037	0.996000
989.213318	0.998222
989.509563	0.998738
989.805772	0.997853
990.101944	0.997797
990.398080	0.996832
990.694180	0.998894
990.990244	0.997475
991.286271	0.999237
991.582262	0.998373
991.878217	0.997833
992.174136	0.998948
992.470019	0.998924
992.765865	0.998171
993.061676	0.998710
993.357450	0.997397
993.653188	0.996738
993.948890	0.997372
994.244556	0.997691
994.540186	0.997558
994.835780	0.996252
995.131337	0.997828
995.426859	0.996710
995.722345	0.997582
996.017795	0.995202
996.313208	0.995621
996.608586	0.995516
996.903928	0.997161
997.199234	0.996457
997.494504	0.997312
997.789738	0.996809
998.084936	0.996594
998.380099	0.997317
998.675225	0.997665
998.970316	0.997588
999.265371	0.998096
999.560390	0.996948
999.855373	0.998403
1000.150320	0.998060
1000.445232	0.998516
1000.740108	0.998761
1001.034948	0.998112
1001.329752	0.998875
1001.624521	0.998743
1001.919254	0.998380
1002.213951	0.997168
1002.508613	0.998036
1002.803239	0.999195
1003.097829	1.000302
1003.392384	0.999174
1003.686903	0.997899
1003.981386	0.999163
1004.275834	0.999500
1004.570246	0.998976
1004.864623	0.998040
1005.158964	1.000080
1005.453270	0.998777
1005.747540	0.998134
1006.041775	0.997352
1006.335974	0.999145
1006.630138	0.999840
1006.924266	1.000302
1007.218359	1.000219
1007.512416	0.999866
1007.806438	0.999636
1008.100425	0.999817
1008.394376	0.998132
1008.688292	0.998352
1008.982172	1.000237
1009.276017	0.999225
1009.569827	0.998699
1009.863602	0.998823
1010.157341	0.999288
1010.451045	0.999791
1010.744714	0.999300
1011.038347	0.998880
1011.331945	0.999041
1011.625508	0.998269
1011.919036	0.999612
1012.212528	0.998311
1012.505986	0.997762
1012.799408	0.998617
1013.092795	1.000687
1013.386147	0.999525
1013.679464	0.999673
1013.972745	0.997571
1014.265992	0.997354
1014.559204	0.998907
1014.852380	1.000102
1015.145521	0.998201
1015.438628	0.998597
1015.731699	0.998313
1016.024736	0.998478
1016.317737	0.998649
1016.610703	0.999646
1016.903635	0.999480
1017.196531	0.998667
1017.489393	0.999474
1017.782219	0.999093
1018.075011	0.998589
1018.367768	0.998103
1018.660490	0.999401
1018.953177	0.999401
1019.245829	0.999401
