Dividing Wavelength (nm)	Counts (n)	Blue Motor Position (mm): 0.000000	Red Motor Position (mm): 34.300000	
326.493990	1.001438
326.888308	1.001438
327.282561	1.001438
327.676750	1.000683
328.070874	1.000164
328.464933	0.999560
328.858929	0.999878
329.252859	0.998855
329.646726	0.999336
330.040528	1.001234
330.434265	0.999488
330.827938	1.000081
331.221547	1.001671
331.615091	0.999167
332.008571	1.000371
332.401986	1.000629
332.795338	1.001566
333.188625	0.998375
333.581847	1.000614
333.975006	0.999802
334.368100	1.000274
334.761129	0.998236
335.154095	1.001003
335.546996	0.998457
335.939833	0.995993
336.332606	0.996057
336.725315	0.996603
337.117960	0.997567
337.510540	0.997396
337.903056	0.996854
338.295508	0.995013
338.687896	0.997248
339.080220	0.995931
339.472480	0.996847
339.864676	0.996652
340.256807	0.996423
340.648875	0.998239
341.040879	0.996796
341.432818	0.996404
341.824694	0.997356
342.216506	0.996859
342.608253	0.997369
342.999937	0.995797
343.391557	0.997549
343.783113	0.995917
344.174605	0.996434
344.566033	0.997111
344.957397	0.995730
345.348697	0.997113
345.739934	0.996684
346.131106	0.996214
346.522215	0.996328
346.913260	0.995722
347.304241	0.996564
347.695159	0.995966
348.086012	0.995227
348.476802	0.995876
348.867528	0.997329
349.258191	0.994596
349.648789	0.996793
350.039324	0.997488
350.429796	0.996962
350.820203	0.996892
351.210548	0.997077
351.600828	0.996599
351.991045	0.996271
352.381198	0.995749
352.771288	0.997380
353.161314	0.995921
353.551276	0.997452
353.941175	0.996461
354.331010	0.996687
354.720782	0.997395
355.110490	0.996558
355.500135	0.996765
355.889717	0.996945
356.279235	0.995615
356.668689	0.997277
357.058080	0.996474
357.447408	0.997540
357.836672	0.997083
358.225873	0.998119
358.615010	0.997880
359.004084	0.997459
359.393095	0.997167
359.782043	0.997202
360.170927	0.997857
360.559748	0.997787
360.948505	0.995832
361.337199	0.996472
361.725830	0.997232
362.114398	0.996612
362.502903	0.997999
362.891344	0.997448
363.279722	0.996314
363.668037	0.996335
364.056289	0.997616
364.444478	0.997993
364.832603	0.996851
365.220665	0.996184
365.608665	0.996249
365.996601	0.997101
366.384474	0.997775
366.772284	0.995519
367.160031	0.995954
367.547715	0.996273
367.935336	0.996527
368.322893	0.996307
368.710388	0.995808
369.097820	0.996224
369.485189	0.995542
369.872495	0.995939
370.259738	0.995540
370.646918	0.996999
371.034035	0.997308
371.421090	0.997732
371.808081	0.997507
372.195010	0.997319
372.581875	0.997073
372.968678	0.996702
373.355418	0.995694
373.742096	0.995657
374.128710	0.998523
374.515262	0.996722
374.901751	0.997251
375.288177	0.997046
375.674540	0.997257
376.060841	0.996267
376.447079	0.997077
376.833254	0.996463
377.219367	0.998501
377.605417	0.997304
377.991404	0.997786
378.377329	0.996508
378.763191	0.997031
379.148991	0.997685
379.534727	0.996604
379.920402	0.997093
380.306013	0.996585
380.691563	0.998649
381.077049	0.996975
381.462474	0.998334
381.847835	0.996925
382.233134	0.996233
382.618371	0.997664
383.003545	0.996777
383.388657	0.997822
383.773706	0.998016
384.158693	0.997553
384.543618	0.998061
384.928480	0.998647
385.313280	0.996918
385.698017	0.997949
386.082692	0.997983
386.467305	0.997893
386.851856	0.997732
387.236344	0.997157
387.620770	0.996902
388.005133	0.998566
388.389435	0.999072
388.773674	0.998001
389.157851	0.998804
389.541965	0.998312
389.926018	0.997419
390.310008	0.998529
390.693936	0.997673
391.077802	0.998923
391.461606	0.997996
391.845348	0.998233
392.229027	1.000100
392.612645	0.998226
392.996200	0.999233
393.379694	0.997153
393.763125	0.998794
394.146494	0.997745
394.529801	0.997885
394.913047	0.998646
395.296230	0.998651
395.679351	0.998825
396.062410	0.997895
396.445408	0.998298
396.828343	0.998249
397.211217	0.997662
397.594028	0.998890
397.976778	0.997784
398.359466	0.997887
398.742092	0.997764
399.124656	0.997939
399.507158	0.997766
399.889598	0.998311
400.271977	0.998894
400.654294	0.999173
401.036549	0.998653
401.418742	0.999151
401.800874	0.997987
402.182944	0.998308
402.564952	0.997689
402.946898	0.998715
403.328783	0.998545
403.710606	0.998819
404.092367	0.999062
404.474067	0.998957
404.855705	0.998203
405.237282	0.999223
405.618797	0.998133
406.000250	0.997525
406.381642	0.998492
406.762972	0.998426
407.144240	0.999369
407.525447	0.998561
407.906593	0.998124
408.287677	0.998981
408.668700	0.999043
409.049661	0.997033
409.430560	0.998401
409.811399	0.998006
410.192176	0.998729
410.572891	0.997844
410.953545	0.997579
411.334138	0.997779
411.714669	0.999097
412.095139	0.998070
412.475547	0.998323
412.855894	0.998865
413.236180	0.998667
413.616405	0.998837
413.996568	0.999326
414.376670	0.998752
414.756711	0.998668
415.136691	0.998973
415.516609	0.999004
415.896466	0.998488
416.276262	0.998254
416.655997	0.998844
417.035670	0.998183
417.415283	0.998346
417.794834	0.998888
418.174324	0.998525
418.553753	0.998988
418.933121	0.998852
419.312428	0.998905
419.691674	0.998646
420.070859	0.998943
420.449983	0.999554
420.829045	0.998323
421.208047	0.999352
421.586988	0.999932
421.965867	0.999450
422.344686	0.999220
422.723444	0.999151
423.102141	0.998545
423.480777	0.999486
423.859352	0.998836
424.237866	0.998408
424.616319	0.999248
424.994712	0.998590
425.373044	0.998856
425.751314	0.999683
426.129524	0.998083
426.507673	0.998841
426.885762	0.999804
427.263789	0.998794
427.641756	0.999393
428.019662	0.999346
428.397508	0.998261
428.775292	0.998741
429.153016	0.998567
429.530679	0.999603
429.908282	0.999139
430.285824	0.998229
430.663305	0.997789
431.040726	0.998810
431.418086	1.000016
431.795385	0.999841
432.172624	0.998722
432.549802	0.999158
432.926920	0.998706
433.303977	0.998492
433.680974	0.998787
434.057910	0.999056
434.434786	1.000122
434.811601	0.999076
435.188355	0.998716
435.565050	0.998400
435.941683	0.999725
436.318257	0.999509
436.694770	0.998128
437.071222	0.999393
437.447614	0.999326
437.823946	0.999225
438.200218	0.998466
438.576429	0.999469
438.952580	0.999842
439.328670	0.998766
439.704700	0.999089
440.080670	0.999247
440.456580	0.998682
440.832429	0.997967
441.208218	0.998721
441.583947	0.998698
441.959616	0.999296
442.335224	0.998144
442.710773	1.000465
443.086261	0.998655
443.461689	0.999031
443.837057	0.997937
444.212365	0.999665
444.587612	0.999279
444.962800	0.998693
445.337927	0.998800
445.712995	0.999355
446.088002	0.999486
446.462949	0.999073
446.837837	0.999684
447.212664	0.999392
447.587431	0.999112
447.962139	0.999051
448.336786	0.999264
448.711374	0.999402
449.085901	0.998434
449.460369	1.000575
449.834776	0.997901
450.209124	0.999270
450.583412	0.999198
450.957640	0.999062
451.331808	0.998666
451.705917	0.998328
452.079965	0.998237
452.453954	0.998481
452.827883	0.998664
453.201752	0.999181
453.575562	1.000129
453.949311	0.999622
454.323001	0.998424
454.696632	0.999287
455.070202	0.998737
455.443713	0.997636
455.817164	0.999024
456.190556	0.998557
456.563888	0.999266
456.937160	0.999738
457.310373	0.999124
457.683526	0.999288
458.056619	0.998712
458.429653	0.999069
458.802628	0.998444
459.175542	0.998963
459.548398	0.999490
459.921194	0.999253
460.293930	0.998920
460.666607	0.998139
461.039224	0.998366
461.411782	0.999768
461.784280	0.998452
462.156719	0.999601
462.529099	0.999726
462.901419	0.999306
463.273680	0.998918
463.645882	0.998871
464.018024	0.999089
464.390106	0.999643
464.762130	0.999864
465.134094	0.998826
465.505999	0.999946
465.877845	0.999370
466.249631	1.000207
466.621358	0.999515
466.993026	0.999408
467.364634	0.999691
467.736184	0.999690
468.107674	0.999427
468.479105	0.998932
468.850477	0.999311
469.221790	0.999689
469.593043	0.999035
469.964238	0.999654
470.335373	0.998322
470.706449	0.998851
471.077467	0.999287
471.448425	0.999214
471.819324	1.000875
472.190164	0.999592
472.560945	0.999370
472.931667	0.998522
473.302330	0.998757
473.672934	0.999930
474.043479	0.999226
474.413965	0.998654
474.784393	0.999163
475.154761	0.999278
475.525070	0.998959
475.895321	0.999139
476.265513	0.999001
476.635645	0.999421
477.005719	0.999616
477.375734	0.999197
477.745691	0.999060
478.115588	0.999016
478.485427	0.998907
478.855207	0.999114
479.224928	0.999068
479.594591	0.998828
479.964194	0.999056
480.333739	0.999386
480.703226	0.999090
481.072653	0.999888
481.442022	0.999584
481.811333	0.998680
482.180584	0.999841
482.549777	0.998588
482.918912	0.998781
483.287988	0.998799
483.657005	0.998878
484.025964	0.999363
484.394864	0.999834
484.763706	0.999378
485.132489	0.998947
485.501213	0.998651
485.869879	0.999296
486.238487	0.998961
486.607036	0.999005
486.975527	0.997740
487.343959	0.998439
487.712333	0.998493
488.080648	0.998920
488.448905	0.998857
488.817104	0.998825
489.185244	0.998375
489.553326	0.998936
489.921350	0.997943
490.289315	0.998574
490.657222	0.998806
491.025070	0.998390
491.392861	0.998308
491.760593	0.998848
492.128267	0.997987
492.495883	0.998407
492.863440	0.998436
493.230939	0.998439
493.598380	0.997770
493.965763	0.997882
494.333088	0.997154
494.700354	0.997133
495.067563	0.997109
495.434713	0.996855
495.801805	0.998011
496.168839	0.997191
496.535815	0.995982
496.902733	0.995984
497.269593	0.996269
497.636395	0.995828
498.003139	0.995569
498.369825	0.995801
498.736453	0.994989
499.103023	0.994243
499.469535	0.994380
499.835989	0.993956
500.202385	0.993883
500.568723	0.993616
500.935003	0.993526
501.301226	0.992775
501.667390	0.992233
502.033497	0.991684
502.399546	0.991461
502.765537	0.989981
503.131470	0.989537
503.497345	0.989353
503.863163	0.989323
504.228923	0.988534
504.594625	0.987128
504.960269	0.987158
505.325856	0.986257
505.691385	0.985149
506.056856	0.983894
506.422270	0.982659
506.787625	0.982082
507.152924	0.981035
507.518164	0.980630
507.883347	0.978506
508.248472	0.977661
508.613540	0.977140
508.978550	0.975870
509.343503	0.973967
509.708398	0.973393
510.073236	0.972549
510.438016	0.971142
510.802738	0.969109
511.167403	0.967294
511.532010	0.965939
511.896561	0.964671
512.261053	0.963832
512.625488	0.961097
512.989866	0.958833
513.354186	0.957419
513.718449	0.955484
514.082655	0.953576
514.446803	0.952117
514.810894	0.949872
515.174927	0.947399
515.538904	0.945448
515.902822	0.942882
516.266684	0.941512
516.630488	0.938593
516.994235	0.936223
517.357925	0.932603
517.721558	0.930914
518.085133	0.926943
518.448651	0.925631
518.812112	0.922422
519.175516	0.918926
519.538863	0.916540
519.902152	0.913199
520.265385	0.909379
520.628560	0.907430
520.991678	0.903432
521.354739	0.901371
521.717743	0.897828
522.080690	0.895046
522.443580	0.889942
522.806413	0.887441
523.169189	0.883291
523.531908	0.879359
523.894569	0.877111
524.257174	0.873214
524.619722	0.868476
524.982213	0.866293
525.344647	0.861173
525.707025	0.857289
526.069345	0.852350
526.431608	0.848818
526.793815	0.844749
527.155964	0.840800
527.518057	0.837348
527.880093	0.833221
528.242072	0.828718
528.603995	0.824033
528.965860	0.820743
529.327669	0.815729
529.689421	0.811340
530.051117	0.807612
530.412755	0.801403
530.774337	0.798579
531.135862	0.792399
531.497331	0.788118
531.858743	0.783991
532.220098	0.778718
532.581396	0.774158
532.942638	0.770325
533.303824	0.765777
533.664953	0.759764
534.026025	0.755492
534.387040	0.750081
534.747999	0.745240
535.108902	0.739247
535.469748	0.736241
535.830537	0.730882
536.191270	0.725574
536.551947	0.719952
536.912567	0.714741
537.273131	0.711654
537.633638	0.705539
537.994089	0.700556
538.354483	0.696546
538.714821	0.690126
539.075103	0.685073
539.435328	0.680218
539.795497	0.677239
540.155609	0.669253
540.515665	0.664071
540.875665	0.661004
541.235609	0.655382
541.595496	0.650235
541.955328	0.643003
542.315102	0.639841
542.674821	0.635539
543.034483	0.629953
543.394090	0.624362
543.753640	0.621036
544.113134	0.612836
544.472571	0.609970
544.831953	0.602763
545.191278	0.599738
545.550548	0.595136
545.909761	0.587765
546.268918	0.583046
546.628019	0.577699
546.987064	0.573169
547.346053	0.570987
547.704986	0.563689
548.063863	0.559126
548.422684	0.555498
548.781449	0.550383
549.140158	0.544050
549.498811	0.541285
549.857408	0.539685
550.215949	0.530122
550.574434	0.527945
550.932864	0.520690
551.291237	0.517209
551.649555	0.511835
552.007817	0.507885
552.366022	0.504036
552.724173	0.499453
553.082267	0.495909
553.440305	0.487497
553.798288	0.488430
554.156215	0.480145
554.514086	0.476182
554.871902	0.475056
555.229661	0.470159
555.587365	0.466292
555.945014	0.465296
556.302606	0.456892
556.660143	0.456193
557.017625	0.448377
557.375050	0.446752
557.732421	0.440600
558.089735	0.437771
558.446994	0.434686
558.804197	0.429921
559.161345	0.426198
559.518437	0.425802
559.875474	0.419236
560.232455	0.415474
560.589381	0.413780
560.946251	0.408450
561.303065	0.404457
561.659825	0.401373
562.016528	0.399318
562.373177	0.399213
562.729770	0.392472
563.086307	0.391184
563.442789	0.386532
563.799216	0.384756
564.155587	0.380825
564.511904	0.378295
564.868164	0.375753
565.224370	0.373094
565.580520	0.370648
565.936615	0.368840
566.292654	0.367545
566.648638	0.362453
567.004567	0.360347
567.360441	0.358341
567.716260	0.357147
568.072023	0.352827
568.427732	0.350596
568.783385	0.351322
569.138982	0.346262
569.494525	0.343675
569.850013	0.344167
570.205445	0.340531
570.560823	0.341142
570.916145	0.339917
571.271412	0.336393
571.626625	0.335768
571.981782	0.334034
572.336884	0.332471
572.691931	0.330609
573.046923	0.329253
573.401860	0.328825
573.756743	0.328053
574.111570	0.325445
574.466342	0.324032
574.821059	0.321597
575.175722	0.322353
575.530330	0.320572
575.884882	0.319181
576.239380	0.319319
576.593823	0.318321
576.948211	0.315979
577.302544	0.318188
577.656823	0.315669
578.011047	0.314704
578.365216	0.313713
578.719330	0.314554
579.073389	0.312894
579.427394	0.313270
579.781344	0.312709
580.135239	0.313114
580.489080	0.311258
580.842866	0.313213
581.196597	0.311651
581.550273	0.309605
581.903895	0.309305
582.257463	0.306906
582.610975	0.308979
582.964434	0.307589
583.317837	0.309201
583.671186	0.308512
584.024481	0.307765
584.377721	0.309282
584.730906	0.309091
585.084037	0.307430
585.437113	0.308417
585.790135	0.307128
586.143103	0.309355
586.496016	0.309810
586.848874	0.306450
587.201679	0.306641
587.554428	0.309241
587.907124	0.307362
588.259765	0.307641
588.612352	0.307709
588.964884	0.310851
589.317362	0.309962
589.669786	0.309302
590.022155	0.307628
590.374470	0.306278
590.726731	0.307867
591.078937	0.312118
591.431090	0.307630
591.783188	0.312037
592.135232	0.311670
592.487222	0.311281
592.839157	0.308900
593.191038	0.311018
593.542866	0.312597
593.894639	0.315931
594.246358	0.313066
594.598022	0.312650
594.949633	0.315946
595.301190	0.316252
595.652692	0.315225
596.004141	0.311098
596.355535	0.318949
596.706876	0.319015
597.058162	0.321300
597.409395	0.318010
597.760573	0.315651
598.111698	0.318735
598.462768	0.318801
598.813785	0.320264
599.164748	0.321089
599.515657	0.321194
599.866511	0.324760
600.217312	0.319651
600.568060	0.324660
600.918753	0.321130
601.269392	0.321960
601.619978	0.324877
601.970510	0.322759
602.320988	0.322771
602.671412	0.320357
603.021783	0.322363
603.372100	0.323754
603.722363	0.323252
604.072572	0.324076
604.422728	0.324004
604.772830	0.325788
605.122878	0.325303
605.472872	0.325600
605.822813	0.323882
606.172701	0.326594
606.522534	0.323672
606.872314	0.323885
607.222041	0.324448
607.571714	0.322932
607.921333	0.324154
608.270899	0.323550
608.620411	0.320139
608.969870	0.324269
609.319276	0.324620
609.668627	0.323924
610.017926	0.322735
610.367171	0.320825
610.716362	0.321473
611.065500	0.321754
611.414585	0.320096
611.763616	0.321131
612.112594	0.321670
612.461518	0.320907
612.810389	0.318459
613.159207	0.320976
613.507971	0.322549
613.856682	0.318029
614.205340	0.319902
614.553945	0.316608
614.902496	0.320403
615.250994	0.318386
615.599439	0.319236
615.947830	0.318673
616.296169	0.319570
616.644454	0.319142
616.992686	0.319149
617.340864	0.316593
617.688990	0.320224
618.037063	0.316651
618.385082	0.318818
618.733048	0.315465
619.080961	0.318234
619.428821	0.317410
619.776628	0.316678
620.124382	0.318815
620.472083	0.318819
620.819731	0.318761
621.167326	0.321795
621.514868	0.322248
621.862357	0.326192
622.209793	0.325485
622.557176	0.327768
622.904506	0.328767
623.251783	0.331233
623.599007	0.333509
623.946179	0.333183
624.293297	0.335180
624.640363	0.339023
624.987376	0.339091
625.334336	0.341644
625.681243	0.343894
626.028097	0.344343
626.374899	0.345930
626.721647	0.345602
627.068343	0.349284
627.414987	0.350114
627.761577	0.352666
628.108115	0.350669
628.454600	0.355228
628.801032	0.352910
629.147412	0.355069
629.493739	0.355386
629.840014	0.358749
630.186236	0.355846
630.532405	0.361317
630.878521	0.358922
631.224585	0.360915
631.570597	0.364720
631.916556	0.363021
632.262462	0.363391
632.608316	0.365536
632.954117	0.365887
633.299866	0.366814
633.645562	0.367387
633.991206	0.371661
634.336797	0.374876
634.682336	0.376976
635.027823	0.378518
635.373257	0.378828
635.718639	0.381917
636.063968	0.381787
636.409245	0.387506
636.754470	0.388032
637.099642	0.389724
637.444762	0.393645
637.789829	0.392500
638.134845	0.395956
638.479808	0.397098
638.824719	0.396537
639.169577	0.400685
639.514383	0.399899
639.859137	0.403957
640.203839	0.404142
640.548489	0.404351
640.893086	0.406025
641.237632	0.407379
641.582125	0.405306
641.926566	0.407158
642.270955	0.407094
642.615292	0.407405
642.959576	0.407141
643.303809	0.407390
643.647990	0.406831
643.992118	0.407637
644.336195	0.411314
644.680219	0.409355
645.024192	0.410230
645.368112	0.403664
645.711981	0.402874
646.055797	0.398253
646.399562	0.400197
646.743274	0.392683
647.086935	0.389885
647.430544	0.390527
647.774101	0.389146
648.117606	0.389008
648.461059	0.388981
648.804460	0.391294
649.147810	0.396408
649.491108	0.398310
649.834354	0.399778
650.177548	0.405729
650.520690	0.410221
650.863781	0.411759
651.206820	0.411077
651.549807	0.415746
651.892742	0.419609
652.235626	0.419082
652.578458	0.420404
652.921238	0.426033
653.263967	0.423920
653.606644	0.428257
653.949269	0.427200
654.291843	0.431581
654.634365	0.428548
654.976836	0.431660
655.319255	0.431680
655.661622	0.433790
656.003938	0.433220
656.346203	0.436257
656.688416	0.434022
657.030577	0.437355
657.372687	0.439716
657.714746	0.439698
658.056753	0.436888
658.398708	0.440952
658.740612	0.442108
659.082465	0.438635
659.424266	0.438828
659.766016	0.438470
660.107715	0.440624
660.449362	0.440111
660.790958	0.441006
661.132503	0.441212
661.473996	0.438906
661.815438	0.439724
662.156829	0.440084
662.498168	0.440079
662.839456	0.441920
663.180693	0.439660
663.521879	0.439800
663.863013	0.440672
664.204097	0.439423
664.545129	0.436110
664.886110	0.436202
665.227040	0.433505
665.567918	0.436406
665.908746	0.434176
666.249522	0.433833
666.590248	0.434438
666.930922	0.432903
667.271545	0.432222
667.612118	0.431981
667.952639	0.433843
668.293109	0.432184
668.633528	0.435599
668.973896	0.435324
669.314213	0.435388
669.654480	0.437246
669.994695	0.437677
670.334859	0.438226
670.674973	0.438855
671.015035	0.438690
671.355047	0.438726
671.695008	0.439452
672.034918	0.441566
672.374777	0.440910
672.714585	0.442304
673.054342	0.442057
673.394049	0.442257
673.733705	0.440010
674.073310	0.441026
674.412864	0.443595
674.752368	0.444490
675.091820	0.445178
675.431223	0.449480
675.770574	0.448788
676.109875	0.451657
676.449125	0.452041
676.788324	0.454146
677.127473	0.459563
677.466571	0.459514
677.805619	0.460533
678.144616	0.461674
678.483562	0.463955
678.822458	0.466153
679.161303	0.467602
679.500098	0.467197
679.838842	0.469633
680.177535	0.468910
680.516179	0.467131
680.854771	0.466527
681.193314	0.459907
681.531805	0.451714
681.870247	0.440105
682.208638	0.432138
682.546978	0.431712
682.885268	0.433295
683.223508	0.439170
683.561697	0.442575
683.899836	0.446035
684.237925	0.448719
684.575963	0.451566
684.913951	0.454761
685.251889	0.451058
685.589776	0.452262
685.927614	0.454441
686.265401	0.449315
686.603137	0.450121
686.940824	0.444293
687.278460	0.443044
687.616046	0.441728
687.953582	0.437495
688.291068	0.438005
688.628504	0.434202
688.965889	0.436694
689.303224	0.440596
689.640510	0.444286
689.977745	0.450427
690.314930	0.458041
690.652065	0.462807
690.989150	0.469864
691.326185	0.476498
691.663170	0.480870
692.000105	0.488133
692.336990	0.495088
692.673825	0.497368
693.010610	0.504617
693.347345	0.510357
693.684030	0.510958
694.020665	0.516152
694.357251	0.524460
694.693786	0.524556
695.030272	0.528662
695.366707	0.531916
695.703093	0.535190
696.039429	0.533423
696.375716	0.534799
696.711952	0.538359
697.048139	0.539806
697.384276	0.541499
697.720363	0.540097
698.056400	0.538794
698.392388	0.544545
698.728326	0.547656
699.064214	0.550793
699.400053	0.550827
699.735842	0.555264
700.071581	0.558080
700.407270	0.560129
700.742910	0.563013
701.078501	0.569763
701.414042	0.569723
701.749533	0.572829
702.084974	0.581153
702.420366	0.573878
702.755709	0.581657
703.091002	0.589000
703.426246	0.581963
703.761440	0.588683
704.096584	0.593536
704.431679	0.590217
704.766725	0.592519
705.101721	0.593470
705.436668	0.589474
705.771565	0.596795
706.106413	0.594056
706.441212	0.589707
706.775961	0.587384
707.110661	0.590875
707.445311	0.587217
707.779913	0.584282
708.114465	0.582774
708.448967	0.579668
708.783421	0.571571
709.117825	0.566022
709.452180	0.566665
709.786485	0.560141
710.120742	0.550669
710.454949	0.551933
710.789107	0.544169
711.123216	0.535225
711.457275	0.537350
711.791286	0.527670
712.125247	0.526250
712.459159	0.537567
712.793023	0.530387
713.126837	0.534624
713.460602	0.534969
713.794318	0.544211
714.127985	0.542363
714.461602	0.552356
714.795171	0.556309
715.128691	0.563473
715.462162	0.571308
715.795584	0.577321
716.128957	0.580095
716.462281	0.586642
716.795556	0.589600
717.128782	0.594445
717.461960	0.604359
717.795088	0.602837
718.128167	0.608460
718.461198	0.617981
718.794180	0.618310
719.127113	0.621356
719.459997	0.624631
719.792833	0.631184
720.125619	0.632420
720.458357	0.637920
720.791046	0.637212
721.123686	0.640694
721.456278	0.648191
721.788821	0.645595
722.121315	0.649491
722.453761	0.654107
722.786158	0.651501
723.118506	0.647992
723.450805	0.655242
723.783056	0.652106
724.115259	0.649021
724.447412	0.648181
724.779518	0.650753
725.111574	0.648606
725.443582	0.644534
725.775542	0.647053
726.107453	0.638943
726.439315	0.638415
726.771129	0.637355
727.102895	0.630559
727.434612	0.623419
727.766281	0.621384
728.097901	0.620873
728.429473	0.620596
728.760996	0.618704
729.092471	0.619414
729.423897	0.622989
729.755276	0.621934
730.086606	0.621428
730.417887	0.616552
730.749120	0.607341
731.080305	0.597912
731.411442	0.594192
731.742530	0.599388
732.073570	0.598676
732.404562	0.590440
732.735506	0.591806
733.066401	0.596571
733.397249	0.605627
733.728048	0.617941
734.058798	0.630025
734.389501	0.640538
734.720156	0.649616
735.050762	0.658048
735.381320	0.659329
735.711831	0.667697
736.042293	0.673046
736.372707	0.668538
736.703073	0.673415
737.033391	0.675798
737.363661	0.672758
737.693883	0.668162
738.024056	0.667313
738.354182	0.666990
738.684260	0.656511
739.014290	0.652564
739.344272	0.653539
739.674207	0.646824
740.004093	0.646343
740.333931	0.647394
740.663722	0.647159
740.993464	0.647357
741.323159	0.651257
741.652806	0.656243
741.982405	0.660887
742.311956	0.665638
742.641460	0.667955
742.970915	0.671261
743.300323	0.678814
743.629683	0.685673
743.958996	0.687557
744.288260	0.691349
744.617477	0.697827
744.946647	0.699220
745.275768	0.704046
745.604842	0.704092
745.933869	0.714165
746.262847	0.714096
746.591778	0.707924
746.920662	0.713761
747.249498	0.721539
747.578286	0.711785
747.907027	0.707899
748.235720	0.709082
748.564365	0.703988
748.892963	0.702704
749.221514	0.706354
749.550017	0.711904
749.878473	0.710804
750.206881	0.717243
750.535242	0.718660
750.863555	0.717942
751.191821	0.719939
751.520039	0.723092
751.848210	0.727801
752.176334	0.719212
752.504411	0.718842
752.832440	0.727585
753.160421	0.731684
753.488356	0.729867
753.816243	0.727010
754.144082	0.735051
754.471875	0.739381
754.799620	0.734144
755.127318	0.736158
755.454969	0.735580
755.782572	0.735778
756.110129	0.740358
756.437638	0.741955
756.765100	0.739309
757.092515	0.737274
757.419882	0.736259
757.747203	0.741406
758.074477	0.741135
758.401703	0.738064
758.728882	0.732620
759.056014	0.731139
759.383099	0.730819
759.710138	0.732313
760.037129	0.728169
760.364073	0.722382
760.690970	0.725661
761.017820	0.730915
761.344623	0.726768
761.671379	0.716782
761.998088	0.705572
762.324751	0.683603
762.651366	0.642415
762.977935	0.575803
763.304456	0.524310
763.630931	0.514575
763.957359	0.553928
764.283740	0.597612
764.610074	0.624502
764.936362	0.655341
765.262602	0.682142
765.588796	0.702843
765.914943	0.720621
766.241044	0.737690
766.567097	0.745236
766.893104	0.754122
767.219064	0.761499
767.544978	0.767395
767.870845	0.780962
768.196665	0.784623
768.522438	0.782117
768.848165	0.783660
769.173846	0.792582
769.499479	0.797457
769.825066	0.800053
770.150607	0.805044
770.476101	0.800182
770.801548	0.801776
771.126949	0.813511
771.452303	0.817078
771.777611	0.816122
772.102872	0.814894
772.428087	0.821234
772.753256	0.823632
773.078378	0.825636
773.403453	0.835304
773.728482	0.839179
774.053465	0.832935
774.378401	0.835996
774.703291	0.844626
775.028135	0.843095
775.352932	0.845649
775.677683	0.848284
776.002388	0.849512
776.327046	0.847835
776.651658	0.852144
776.976224	0.854889
777.300743	0.855855
777.625216	0.857257
777.949643	0.859169
778.274024	0.859058
778.598359	0.860846
778.922647	0.859338
779.246889	0.860194
779.571086	0.864022
779.895236	0.866640
780.219339	0.864063
780.543397	0.860293
780.867409	0.858446
781.191374	0.861711
781.515294	0.862084
781.839167	0.860977
782.162995	0.864573
782.486776	0.862729
782.810511	0.862567
783.134201	0.866244
783.457844	0.863998
783.781441	0.867910
784.104993	0.872808
784.428498	0.873328
784.751958	0.868189
785.075372	0.871060
785.398739	0.875198
785.722061	0.871699
786.045337	0.867379
786.368568	0.871726
786.691752	0.874383
787.014891	0.859523
787.337983	0.850875
787.661030	0.844056
787.984031	0.826337
788.306987	0.813939
788.629897	0.816738
788.952760	0.819231
789.275579	0.824553
789.598351	0.838634
789.921078	0.852334
790.243759	0.855158
790.566395	0.859348
790.888984	0.866795
791.211529	0.870637
791.534027	0.874594
791.856480	0.876012
792.178888	0.881108
792.501249	0.884782
792.823566	0.885497
793.145836	0.885052
793.468062	0.887373
793.790241	0.887015
794.112375	0.885542
794.434464	0.880645
794.756507	0.880315
795.078505	0.880026
795.400457	0.874998
795.722364	0.861891
796.044226	0.855924
796.366042	0.854522
796.687812	0.858524
797.009538	0.854502
797.331218	0.857125
797.652852	0.862470
797.974442	0.866962
798.295986	0.866365
798.617484	0.869538
798.938938	0.873207
799.260346	0.878601
799.581709	0.880483
799.903026	0.882481
800.224299	0.883227
800.545526	0.886174
800.866708	0.889519
801.187845	0.895698
801.508936	0.893495
801.829983	0.892702
802.150984	0.895791
802.471940	0.899956
802.792851	0.898760
803.113717	0.900615
803.434538	0.898374
803.755314	0.901356
804.076045	0.901428
804.396731	0.902069
804.717372	0.901922
805.037967	0.904295
805.358518	0.901422
805.679024	0.899259
805.999485	0.898015
806.319901	0.899337
806.640272	0.899772
806.960598	0.898360
807.280879	0.895037
807.601115	0.895184
807.921306	0.898400
808.241453	0.898998
808.561554	0.895664
808.881611	0.896557
809.201623	0.897998
809.521590	0.898655
809.841513	0.898798
810.161390	0.899500
810.481223	0.900331
810.801011	0.902713
811.120755	0.905466
811.440453	0.904796
811.760107	0.903045
812.079716	0.903795
812.399281	0.906354
812.718801	0.908664
813.038276	0.909625
813.357707	0.908525
813.677093	0.906435
813.996434	0.909394
814.315731	0.911114
814.634983	0.911443
814.954191	0.910637
815.273354	0.907502
815.592473	0.903556
815.911547	0.903863
816.230577	0.900959
816.549562	0.899439
816.868502	0.899964
817.187399	0.895692
817.506250	0.890956
817.825058	0.892606
818.143821	0.889651
818.462539	0.884425
818.781213	0.875691
819.099843	0.864538
819.418429	0.849978
819.736970	0.833247
820.055466	0.814946
820.373919	0.788387
820.692327	0.756337
821.010691	0.723136
821.329011	0.646404
821.647286	0.533680
821.965517	0.420692
822.283704	0.379131
822.601847	0.380325
822.919945	0.416309
823.237999	0.448985
823.556010	0.494972
823.873976	0.550225
824.191897	0.599785
824.509775	0.641424
824.827609	0.686548
825.145398	0.708544
825.463144	0.711185
825.780845	0.693572
826.098502	0.675477
826.416116	0.630925
826.733685	0.587453
827.051210	0.579183
827.368692	0.593556
827.686129	0.630076
828.003522	0.682439
828.320872	0.728909
828.638177	0.772011
828.955439	0.804035
829.272656	0.825754
829.589830	0.842464
829.906960	0.857726
830.224046	0.870004
830.541088	0.880376
830.858086	0.884378
831.175041	0.890051
831.491952	0.889747
831.808819	0.887448
832.125642	0.879880
832.442421	0.865330
832.759157	0.844422
833.075849	0.798543
833.392497	0.735835
833.709101	0.695860
834.025662	0.706328
834.342179	0.736941
834.658653	0.775453
834.975083	0.810515
835.291469	0.836252
835.607811	0.857306
835.924110	0.874487
836.240366	0.890829
836.556578	0.904489
836.872746	0.911005
837.188871	0.917699
837.504952	0.922210
837.820990	0.925679
838.136984	0.929363
838.452935	0.932714
838.768842	0.934015
839.084706	0.927356
839.400526	0.901570
839.716303	0.862779
840.032037	0.840878
840.347727	0.843872
840.663373	0.862563
840.978977	0.882968
841.294537	0.905261
841.610054	0.920321
841.925527	0.929369
842.240957	0.934826
842.556344	0.942023
842.871687	0.948649
843.186987	0.953281
843.502244	0.951488
843.817458	0.954764
844.132629	0.957203
844.447756	0.961635
844.762840	0.961443
845.077881	0.961472
845.392879	0.961605
845.707833	0.964184
846.022745	0.965796
846.337613	0.966634
846.652438	0.967047
846.967221	0.965877
847.281960	0.967143
847.596656	0.968473
847.911309	0.967459
848.225919	0.969364
848.540485	0.969283
848.855009	0.970169
849.169490	0.970212
849.483928	0.970453
849.798323	0.971147
850.112675	0.971952
850.426984	0.971553
850.741251	0.971783
851.055474	0.972618
851.369654	0.969228
851.683792	0.971465
851.997887	0.971806
852.311938	0.972601
852.625947	0.971352
852.939914	0.968689
853.253837	0.970438
853.567718	0.971220
853.881555	0.972753
854.195350	0.969691
854.509103	0.970949
854.822812	0.971541
855.136479	0.972080
855.450103	0.971233
855.763685	0.971104
856.077224	0.970526
856.390720	0.971122
856.704173	0.971110
857.017584	0.969913
857.330953	0.967594
857.644278	0.969517
857.957561	0.970467
858.270802	0.969233
858.584000	0.970239
858.897155	0.968211
859.210268	0.969483
859.523339	0.969582
859.836367	0.971672
860.149352	0.971990
860.462295	0.970412
860.775195	0.971560
861.088054	0.971410
861.400869	0.970027
861.713642	0.971941
862.026373	0.971138
862.339062	0.972095
862.651708	0.968896
862.964312	0.969707
863.276873	0.970046
863.589392	0.969843
863.901869	0.968280
864.214303	0.965933
864.526696	0.965675
864.839045	0.966328
865.151353	0.963709
865.463619	0.964251
865.775842	0.964802
866.088023	0.964266
866.400162	0.964232
866.712258	0.963734
867.024313	0.965660
867.336325	0.964195
867.648296	0.964639
867.960224	0.964335
868.272110	0.964414
868.583954	0.965423
868.895755	0.966121
869.207515	0.963272
869.519233	0.961551
869.830909	0.962838
870.142542	0.965452
870.454134	0.963742
870.765684	0.962957
871.077191	0.959979
871.388657	0.960994
871.700081	0.961128
872.011463	0.960473
872.322803	0.959836
872.634101	0.958475
872.945357	0.956496
873.256571	0.954920
873.567744	0.954797
873.878874	0.956599
874.189963	0.954922
874.501010	0.954511
874.812015	0.952895
875.122979	0.952822
875.433900	0.955620
875.744780	0.956085
876.055618	0.952438
876.366415	0.951417
876.677169	0.953326
876.987882	0.953537
877.298554	0.952986
877.609183	0.950364
877.919771	0.948532
878.230317	0.945727
878.540822	0.943466
878.851285	0.937649
879.161707	0.930098
879.472087	0.918662
879.782425	0.903303
880.092722	0.870682
880.402977	0.820384
880.713191	0.761621
881.023363	0.704992
881.333494	0.672275
881.643583	0.644402
881.953631	0.644159
882.263637	0.672769
882.573602	0.712319
882.883526	0.736383
883.193408	0.759302
883.503248	0.780411
883.813048	0.806258
884.122806	0.834937
884.432522	0.858663
884.742197	0.876559
885.051831	0.886298
885.361424	0.897459
885.670975	0.908588
885.980485	0.918577
886.289954	0.923561
886.599382	0.928487
886.908768	0.931666
887.218113	0.937514
887.527417	0.941772
887.836680	0.944108
888.145901	0.946476
888.455082	0.947985
888.764221	0.953177
889.073319	0.955470
889.382376	0.954956
889.691392	0.955595
890.000366	0.954096
890.309300	0.957175
890.618193	0.955847
890.927044	0.954224
891.235855	0.953389
891.544625	0.953988
891.853353	0.954321
892.162041	0.951376
892.470687	0.946233
892.779293	0.941053
893.087858	0.937645
893.396381	0.930672
893.704864	0.917264
894.013306	0.894312
894.321707	0.868978
894.630068	0.856303
894.938387	0.850996
895.246665	0.852481
895.554903	0.863978
895.863100	0.877187
896.171256	0.892605
896.479371	0.912399
896.787446	0.924471
897.095480	0.929240
897.403473	0.932048
897.711425	0.936351
898.019336	0.943418
898.327207	0.946216
898.635038	0.949271
898.942827	0.947752
899.250576	0.950869
899.558284	0.955897
899.865952	0.956349
900.173579	0.958398
900.481165	0.958060
900.788711	0.961912
901.096216	0.963450
901.403681	0.964339
901.711105	0.964617
902.018489	0.966155
902.325832	0.964461
902.633135	0.963975
902.940397	0.958484
903.247619	0.947121
903.554800	0.922747
903.861941	0.885676
904.169041	0.850980
904.476101	0.836040
904.783121	0.836283
905.090100	0.851460
905.397039	0.871523
905.703938	0.892831
906.010796	0.910634
906.317614	0.927928
906.624391	0.938221
906.931129	0.947335
907.237826	0.954943
907.544483	0.961550
907.851099	0.965542
908.157675	0.969808
908.464211	0.972876
908.770707	0.973794
909.077163	0.976835
909.383578	0.977291
909.689954	0.975971
909.996289	0.977168
910.302584	0.978707
910.608839	0.982170
910.915054	0.979592
911.221229	0.979808
911.527363	0.979212
911.833458	0.979131
912.139513	0.979503
912.445527	0.976619
912.751502	0.975076
913.057436	0.974365
913.363331	0.972150
913.669186	0.969182
913.975000	0.962875
914.280775	0.958418
914.586510	0.951642
914.892205	0.939473
915.197859	0.919452
915.503475	0.893654
915.809050	0.874356
916.114585	0.870386
916.420081	0.868352
916.725536	0.865382
917.030952	0.872375
917.336328	0.884164
917.641665	0.899156
917.946961	0.914392
918.252218	0.925325
918.557435	0.932639
918.862612	0.941530
919.167750	0.946288
919.472848	0.951346
919.777906	0.955393
920.082925	0.962360
920.387904	0.965332
920.692843	0.965321
920.997743	0.965913
921.302603	0.969614
921.607423	0.970997
921.912204	0.973471
922.216946	0.973933
922.521647	0.977085
922.826310	0.977191
923.130932	0.979018
923.435516	0.980268
923.740059	0.981222
924.044564	0.979816
924.349028	0.982863
924.653454	0.984245
924.957840	0.986891
925.262186	0.986749
925.566493	0.985624
925.870761	0.986613
926.174989	0.987433
926.479178	0.989006
926.783328	0.989759
927.087438	0.989553
927.391509	0.989055
927.695541	0.990723
927.999533	0.989228
928.303486	0.991311
928.607400	0.992347
928.911275	0.991639
929.215110	0.991956
929.518906	0.992025
929.822663	0.991154
930.126381	0.992292
930.430060	0.992124
930.733699	0.991241
931.037299	0.990415
931.340861	0.991726
931.644383	0.990615
931.947866	0.990635
932.251309	0.992960
932.554714	0.991440
932.858080	0.991960
933.161407	0.991310
933.464694	0.991642
933.767943	0.990738
934.071153	0.991822
934.374323	0.992408
934.677455	0.991919
934.980548	0.992627
935.283602	0.992469
935.586617	0.992513
935.889593	0.991752
936.192530	0.991932
936.495428	0.991540
936.798287	0.992405
937.101108	0.991108
937.403890	0.989279
937.706632	0.990304
938.009336	0.988248
938.312002	0.987217
938.614628	0.986768
938.917216	0.985995
939.219765	0.983424
939.522275	0.985143
939.824747	0.984760
940.127179	0.984983
940.429573	0.986066
940.731929	0.985728
941.034246	0.986320
941.336524	0.987805
941.638763	0.988373
941.940964	0.988050
942.243126	0.987588
942.545250	0.988734
942.847335	0.989645
943.149381	0.989721
943.451389	0.989367
943.753359	0.989340
944.055290	0.991810
944.357182	0.989877
944.659036	0.989918
944.960851	0.990785
945.262628	0.990434
945.564367	0.991474
945.866067	0.991114
946.167729	0.991007
946.469352	0.991837
946.770937	0.989985
947.072484	0.992016
947.373992	0.991082
947.675462	0.991739
947.976893	0.991415
948.278286	0.991216
948.579641	0.991944
948.880958	0.992183
949.182236	0.992098
949.483476	0.991655
949.784678	0.991751
950.085841	0.991897
950.386967	0.992012
950.688054	0.991061
950.989103	0.992336
951.290114	0.990570
951.591087	0.989549
951.892021	0.990115
952.192917	0.991048
952.493776	0.989950
952.794596	0.990791
953.095378	0.988640
953.396122	0.989482
953.696828	0.988689
953.997496	0.990091
954.298126	0.992663
954.598718	0.991779
954.899272	0.992263
955.199788	0.991748
955.500266	0.992368
955.800706	0.994210
956.101108	0.993549
956.401472	0.994561
956.701798	0.995318
957.002087	0.993494
957.302337	0.994959
957.602550	0.995902
957.902724	0.996326
958.202861	0.995792
958.502960	0.996835
958.803022	0.994114
959.103045	0.996936
959.403031	0.996088
959.702979	0.995763
960.002889	0.996832
960.302762	0.995179
960.602596	0.996831
960.902393	0.996086
961.202153	0.997534
961.501875	0.998347
961.801559	0.996179
962.101205	0.996931
962.400814	0.997005
962.700385	0.996842
962.999918	0.996421
963.299414	0.996368
963.598873	0.996463
963.898293	0.996706
964.197677	0.996389
964.497022	0.997473
964.796331	0.998689
965.095601	0.997890
965.394835	0.997442
965.694030	0.996958
965.993189	0.998414
966.292309	0.996876
966.591393	0.997656
966.890439	0.998140
967.189447	0.997624
967.488419	0.997961
967.787353	0.996671
968.086249	0.996374
968.385108	0.997458
968.683930	0.997974
968.982714	0.997889
969.281462	0.998052
969.580172	0.997781
969.878844	0.996664
970.177480	0.997840
970.476078	0.997501
970.774639	0.997003
971.073162	0.996795
971.371649	0.996852
971.670098	0.996639
971.968510	0.996782
972.266885	0.996265
972.565223	0.996811
972.863524	0.997592
973.161788	0.996310
973.460014	0.997897
973.758204	0.996666
974.056356	0.997124
974.354471	0.994855
974.652550	0.997116
974.950591	0.996174
975.248595	0.996021
975.546563	0.996112
975.844493	0.998478
976.142386	0.997735
976.440243	0.998523
976.738062	0.996954
977.035845	0.997678
977.333590	0.997657
977.631299	0.997817
977.928971	0.997011
978.226606	0.997166
978.524204	0.996474
978.821765	0.997590
979.119290	0.997282
979.416777	0.997878
979.714228	0.997392
980.011642	0.996624
980.309020	0.996389
980.606360	0.997382
980.903664	0.998013
981.200931	0.996161
981.498162	0.996217
981.795356	0.996337
982.092513	0.995418
982.389633	0.995645
982.686717	0.992432
982.983764	0.992940
983.280775	0.991843
983.577749	0.990834
983.874686	0.991997
984.171587	0.992624
984.468451	0.995999
984.765279	0.995093
985.062070	0.995257
985.358824	0.996438
985.655543	0.995587
985.952224	0.996876
986.248869	0.998291
986.545478	0.996451
986.842050	0.998526
987.138586	0.995858
987.435086	0.998175
987.731549	0.999353
988.027975	0.998309
988.324366	0.996664
988.620719	0.997883
988.917037	0.996319
989.213318	0.997841
989.509563	0.999122
989.805772	0.999255
990.101944	0.998335
990.398080	0.997511
990.694180	0.998439
990.990244	0.998325
991.286271	0.998360
991.582262	0.997695
991.878217	0.997760
992.174136	0.999290
992.470019	0.998736
992.765865	0.998476
993.061676	0.997456
993.357450	0.998399
993.653188	0.996450
993.948890	0.997738
994.244556	0.997715
994.540186	0.997914
994.835780	0.996794
995.131337	0.997222
995.426859	0.996279
995.722345	0.998314
996.017795	0.997082
996.313208	0.997108
996.608586	0.996360
996.903928	0.997079
997.199234	0.997136
997.494504	0.997673
997.789738	0.996903
998.084936	0.997932
998.380099	0.998924
998.675225	0.997243
998.970316	0.998122
999.265371	0.998364
999.560390	0.998274
999.855373	0.999115
1000.150320	0.997889
1000.445232	0.999473
1000.740108	0.997586
1001.034948	0.998825
1001.329752	0.999924
1001.624521	0.999409
1001.919254	0.998117
1002.213951	0.998458
1002.508613	0.998401
1002.803239	0.999201
1003.097829	0.999433
1003.392384	0.999477
1003.686903	0.999415
1003.981386	0.998992
1004.275834	0.999601
1004.570246	0.999015
1004.864623	0.998551
1005.158964	1.000315
1005.453270	0.998570
1005.747540	0.997766
1006.041775	0.998835
1006.335974	0.999587
1006.630138	0.998874
1006.924266	0.999254
1007.218359	1.000888
1007.512416	0.999292
1007.806438	0.999883
1008.100425	0.999604
1008.394376	0.999393
1008.688292	0.999126
1008.982172	1.001360
1009.276017	1.000281
1009.569827	0.998903
1009.863602	0.999227
1010.157341	1.000708
1010.451045	0.999033
1010.744714	0.998928
1011.038347	0.997883
1011.331945	0.999185
1011.625508	0.997910
1011.919036	1.000335
1012.212528	0.999048
1012.505986	0.998419
1012.799408	0.999196
1013.092795	1.000079
1013.386147	0.999219
1013.679464	1.000846
1013.972745	0.998525
1014.265992	0.997514
1014.559204	0.999407
1014.852380	0.999506
1015.145521	1.000024
1015.438628	0.998366
1015.731699	0.999265
1016.024736	0.999234
1016.317737	0.998619
1016.610703	0.999049
1016.903635	1.000313
1017.196531	0.997911
1017.489393	0.999595
1017.782219	0.998589
1018.075011	0.999831
1018.367768	0.999426
1018.660490	1.000195
1018.953177	1.000195
1019.245829	1.000195
