Dividing Wavelength (nm)	Counts (n)	Blue Motor Position (mm): 0.000000	Red Motor Position (mm): 2.000000	
326.493990	1.001231
326.888308	1.001231
327.282561	1.001231
327.676750	0.999518
328.070874	0.998683
328.464933	0.999096
328.858929	0.999466
329.252859	1.000373
329.646726	0.998664
330.040528	1.001235
330.434265	0.999212
330.827938	1.001102
331.221547	1.000619
331.615091	0.999727
332.008571	1.000533
332.401986	1.000124
332.795338	1.000185
333.188625	0.998093
333.581847	1.001452
333.975006	0.999602
334.368100	0.999174
334.761129	0.999907
335.154095	1.000178
335.546996	0.997008
335.939833	0.991145
336.332606	0.992570
336.725315	0.995346
337.117960	0.994943
337.510540	0.994303
337.903056	0.993152
338.295508	0.992146
338.687896	0.993390
339.080220	0.994210
339.472480	0.993556
339.864676	0.993332
340.256807	0.993234
340.648875	0.994784
341.040879	0.994255
341.432818	0.993893
341.824694	0.993806
342.216506	0.995239
342.608253	0.993635
342.999937	0.993566
343.391557	0.993509
343.783113	0.992689
344.174605	0.994377
344.566033	0.994545
344.957397	0.991966
345.348697	0.993746
345.739934	0.994385
346.131106	0.992138
346.522215	0.992375
346.913260	0.992591
347.304241	0.992718
347.695159	0.992452
348.086012	0.993117
348.476802	0.993136
348.867528	0.992715
349.258191	0.992129
349.648789	0.993924
350.039324	0.993040
350.429796	0.993087
350.820203	0.992945
351.210548	0.993014
351.600828	0.993226
351.991045	0.992950
352.381198	0.991864
352.771288	0.992179
353.161314	0.992239
353.551276	0.993957
353.941175	0.991721
354.331010	0.992993
354.720782	0.992765
355.110490	0.992474
355.500135	0.993531
355.889717	0.991662
356.279235	0.992235
356.668689	0.991448
357.058080	0.992071
357.447408	0.993658
357.836672	0.992770
358.225873	0.991760
358.615010	0.992445
359.004084	0.993296
359.393095	0.993528
359.782043	0.992229
360.170927	0.993989
360.559748	0.992550
360.948505	0.991640
361.337199	0.992939
361.725830	0.992693
362.114398	0.991326
362.502903	0.991692
362.891344	0.992646
363.279722	0.990976
363.668037	0.992417
364.056289	0.990986
364.444478	0.992167
364.832603	0.991372
365.220665	0.991361
365.608665	0.991584
365.996601	0.991529
366.384474	0.990721
366.772284	0.991478
367.160031	0.988881
367.547715	0.987594
367.935336	0.987467
368.322893	0.987865
368.710388	0.985388
369.097820	0.984479
369.485189	0.983618
369.872495	0.979801
370.259738	0.976173
370.646918	0.977225
371.034035	0.973795
371.421090	0.968928
371.808081	0.964946
372.195010	0.962030
372.581875	0.957586
372.968678	0.952252
373.355418	0.948823
373.742096	0.941807
374.128710	0.937769
374.515262	0.932273
374.901751	0.926397
375.288177	0.922050
375.674540	0.915384
376.060841	0.908748
376.447079	0.902000
376.833254	0.896220
377.219367	0.891000
377.605417	0.878913
377.991404	0.876835
378.377329	0.868915
378.763191	0.864201
379.148991	0.854878
379.534727	0.847745
379.920402	0.840080
380.306013	0.835618
380.691563	0.823531
381.077049	0.816334
381.462474	0.813101
381.847835	0.802030
382.233134	0.796293
382.618371	0.797472
383.003545	0.779786
383.388657	0.778082
383.773706	0.771159
384.158693	0.766102
384.543618	0.761386
384.928480	0.753454
385.313280	0.742581
385.698017	0.742753
386.082692	0.731603
386.467305	0.730668
386.851856	0.722572
387.236344	0.718559
387.620770	0.712355
388.005133	0.707679
388.389435	0.702518
388.773674	0.700269
389.157851	0.691518
389.541965	0.688321
389.926018	0.694572
390.310008	0.682272
390.693936	0.678065
391.077802	0.671735
391.461606	0.673015
391.845348	0.662844
392.229027	0.662697
392.612645	0.660371
392.996200	0.648047
393.379694	0.640748
393.763125	0.630557
394.146494	0.635720
394.529801	0.625405
394.913047	0.618722
395.296230	0.623682
395.679351	0.615097
396.062410	0.612344
396.445408	0.614652
396.828343	0.609186
397.211217	0.605110
397.594028	0.618345
397.976778	0.607112
398.359466	0.603670
398.742092	0.599101
399.124656	0.612117
399.507158	0.599792
399.889598	0.596346
400.271977	0.588479
400.654294	0.592754
401.036549	0.590431
401.418742	0.595040
401.800874	0.580581
402.182944	0.578069
402.564952	0.569551
402.946898	0.572004
403.328783	0.571900
403.710606	0.583446
404.092367	0.558724
404.474067	0.563393
404.855705	0.562100
405.237282	0.572525
405.618797	0.557293
406.000250	0.553194
406.381642	0.543979
406.762972	0.548473
407.144240	0.547711
407.525447	0.547381
407.906593	0.540007
408.287677	0.535674
408.668700	0.543966
409.049661	0.537816
409.430560	0.532817
409.811399	0.541371
410.192176	0.523363
410.572891	0.529870
410.953545	0.518976
411.334138	0.531888
411.714669	0.524233
412.095139	0.536197
412.475547	0.520777
412.855894	0.522702
413.236180	0.521968
413.616405	0.526962
413.996568	0.518336
414.376670	0.524105
414.756711	0.528557
415.136691	0.525347
415.516609	0.516786
415.896466	0.513047
416.276262	0.508896
416.655997	0.511381
417.035670	0.491963
417.415283	0.483796
417.794834	0.488713
418.174324	0.494064
418.553753	0.503590
418.933121	0.485513
419.312428	0.479644
419.691674	0.484862
420.070859	0.474065
420.449983	0.481304
420.829045	0.471082
421.208047	0.479964
421.586988	0.473990
421.965867	0.471951
422.344686	0.461335
422.723444	0.473930
423.102141	0.489943
423.480777	0.463316
423.859352	0.483624
424.237866	0.460433
424.616319	0.461952
424.994712	0.452360
425.373044	0.462948
425.751314	0.451129
426.129524	0.467969
426.507673	0.451124
426.885762	0.445217
427.263789	0.450565
427.641756	0.460097
428.019662	0.450296
428.397508	0.449045
428.775292	0.453907
429.153016	0.445765
429.530679	0.451843
429.908282	0.445548
430.285824	0.455570
430.663305	0.433635
431.040726	0.454427
431.418086	0.454697
431.795385	0.446358
432.172624	0.445165
432.549802	0.445672
432.926920	0.444860
433.303977	0.444118
433.680974	0.441560
434.057910	0.439619
434.434786	0.439401
434.811601	0.441915
435.188355	0.424090
435.565050	0.433392
435.941683	0.435284
436.318257	0.419339
436.694770	0.420059
437.071222	0.418273
437.447614	0.422468
437.823946	0.428744
438.200218	0.417937
438.576429	0.428213
438.952580	0.420909
439.328670	0.417960
439.704700	0.423866
440.080670	0.425431
440.456580	0.406635
440.832429	0.414319
441.208218	0.425396
441.583947	0.415243
441.959616	0.414034
442.335224	0.419337
442.710773	0.410414
443.086261	0.408209
443.461689	0.422105
443.837057	0.412142
444.212365	0.401866
444.587612	0.408805
444.962800	0.399260
445.337927	0.400344
445.712995	0.427139
446.088002	0.389116
446.462949	0.399252
446.837837	0.404112
447.212664	0.393011
447.587431	0.384198
447.962139	0.355140
448.336786	0.314365
448.711374	0.324683
449.085901	0.368469
449.460369	0.372834
449.834776	0.376485
450.209124	0.355517
450.583412	0.348373
450.957640	0.341460
451.331808	0.352677
451.705917	0.376168
452.079965	0.380824
452.453954	0.369072
452.827883	0.375622
453.201752	0.370919
453.575562	0.382013
453.949311	0.370655
454.323001	0.376774
454.696632	0.371860
455.070202	0.365378
455.443713	0.356840
455.817164	0.351760
456.190556	0.347611
456.563888	0.343943
456.937160	0.341868
457.310373	0.358987
457.683526	0.357776
458.056619	0.363336
458.429653	0.363885
458.802628	0.367645
459.175542	0.362178
459.548398	0.344630
459.921194	0.336919
460.293930	0.337063
460.666607	0.314353
461.039224	0.302570
461.411782	0.298695
461.784280	0.298115
462.156719	0.301853
462.529099	0.306332
462.901419	0.322315
463.273680	0.326971
463.645882	0.326131
464.018024	0.332051
464.390106	0.325172
464.762130	0.309552
465.134094	0.292513
465.505999	0.261983
465.877845	0.232217
466.249631	0.219466
466.621358	0.226959
466.993026	0.240872
467.364634	0.246786
467.736184	0.255520
468.107674	0.264279
468.479105	0.263544
468.850477	0.270207
469.221790	0.276921
469.593043	0.287568
469.964238	0.292308
470.335373	0.291162
470.706449	0.289584
471.077467	0.290152
471.448425	0.252334
471.819324	0.228084
472.190164	0.227318
472.560945	0.255978
472.931667	0.278611
473.302330	0.282574
473.672934	0.294249
474.043479	0.282391
474.413965	0.284074
474.784393	0.287916
475.154761	0.283040
475.525070	0.279952
475.895321	0.285375
476.265513	0.279848
476.635645	0.274880
477.005719	0.275023
477.375734	0.271884
477.745691	0.265000
478.115588	0.261499
478.485427	0.255104
478.855207	0.242101
479.224928	0.224366
479.594591	0.212722
479.964194	0.215918
480.333739	0.217172
480.703226	0.218692
481.072653	0.217031
481.442022	0.212830
481.811333	0.209198
482.180584	0.212943
482.549777	0.217983
482.918912	0.221588
483.287988	0.221279
483.657005	0.220647
484.025964	0.227400
484.394864	0.224330
484.763706	0.225471
485.132489	0.230071
485.501213	0.231022
485.869879	0.229333
486.238487	0.232774
486.607036	0.230419
486.975527	0.235088
487.343959	0.230949
487.712333	0.229966
488.080648	0.231583
488.448905	0.230810
488.817104	0.231867
489.185244	0.226307
489.553326	0.223262
489.921350	0.213119
490.289315	0.195729
490.657222	0.190779
491.025070	0.192124
491.392861	0.193930
491.760593	0.199718
492.128267	0.205267
492.495883	0.210643
492.863440	0.216935
493.230939	0.223292
493.598380	0.224491
493.965763	0.227138
494.333088	0.229064
494.700354	0.230589
495.067563	0.229633
495.434713	0.233042
495.801805	0.230925
496.168839	0.232217
496.535815	0.233498
496.902733	0.233584
497.269593	0.235356
497.636395	0.232716
498.003139	0.233523
498.369825	0.236415
498.736453	0.232812
499.103023	0.234427
499.469535	0.233522
499.835989	0.233800
500.202385	0.235048
500.568723	0.237979
500.935003	0.233124
501.301226	0.237685
501.667390	0.231740
502.033497	0.229957
502.399546	0.233081
502.765537	0.234949
503.131470	0.233198
503.497345	0.229391
503.863163	0.238238
504.228923	0.231153
504.594625	0.229700
504.960269	0.235139
505.325856	0.230455
505.691385	0.234971
506.056856	0.231732
506.422270	0.230970
506.787625	0.233177
507.152924	0.230616
507.518164	0.231388
507.883347	0.233106
508.248472	0.234659
508.613540	0.229708
508.978550	0.232287
509.343503	0.233032
509.708398	0.230379
510.073236	0.228012
510.438016	0.227855
510.802738	0.229009
511.167403	0.227830
511.532010	0.229924
511.896561	0.225393
512.261053	0.224227
512.625488	0.226142
512.989866	0.226405
513.354186	0.226846
513.718449	0.228493
514.082655	0.225022
514.446803	0.227066
514.810894	0.225046
515.174927	0.227378
515.538904	0.226876
515.902822	0.223896
516.266684	0.226137
516.630488	0.227444
516.994235	0.226094
517.357925	0.225109
517.721558	0.223443
518.085133	0.222682
518.448651	0.222838
518.812112	0.225019
519.175516	0.224578
519.538863	0.222334
519.902152	0.223949
520.265385	0.220621
520.628560	0.222651
520.991678	0.223090
521.354739	0.221853
521.717743	0.223178
522.080690	0.223598
522.443580	0.220819
522.806413	0.221553
523.169189	0.221290
523.531908	0.220143
523.894569	0.223688
524.257174	0.223741
524.619722	0.221139
524.982213	0.222423
525.344647	0.221184
525.707025	0.222258
526.069345	0.220167
526.431608	0.221973
526.793815	0.219856
527.155964	0.223759
527.518057	0.222890
527.880093	0.223965
528.242072	0.222693
528.603995	0.224323
528.965860	0.226161
529.327669	0.224889
529.689421	0.225879
530.051117	0.226900
530.412755	0.224429
530.774337	0.227072
531.135862	0.227052
531.497331	0.226342
531.858743	0.229262
532.220098	0.226250
532.581396	0.228580
532.942638	0.229214
533.303824	0.229887
533.664953	0.229786
534.026025	0.231381
534.387040	0.229405
534.747999	0.229537
535.108902	0.228232
535.469748	0.233365
535.830537	0.231024
536.191270	0.231548
536.551947	0.230962
536.912567	0.231103
537.273131	0.233053
537.633638	0.233143
537.994089	0.233428
538.354483	0.234400
538.714821	0.231260
539.075103	0.231161
539.435328	0.232003
539.795497	0.235539
540.155609	0.232268
540.515665	0.230443
540.875665	0.235937
541.235609	0.234820
541.595496	0.234816
541.955328	0.231409
542.315102	0.233903
542.674821	0.234842
543.034483	0.235004
543.394090	0.234987
543.753640	0.236513
544.113134	0.231723
544.472571	0.234827
544.831953	0.231720
545.191278	0.235692
545.550548	0.235263
545.909761	0.232172
546.268918	0.232850
546.628019	0.231114
546.987064	0.233923
547.346053	0.235571
547.704986	0.233526
548.063863	0.233928
548.422684	0.234384
548.781449	0.235752
549.140158	0.233445
549.498811	0.236348
549.857408	0.239382
550.215949	0.234445
550.574434	0.237271
550.932864	0.235239
551.291237	0.233675
551.649555	0.235430
552.007817	0.234859
552.366022	0.235820
552.724173	0.236134
553.082267	0.236443
553.440305	0.233325
553.798288	0.237773
554.156215	0.234373
554.514086	0.234874
554.871902	0.238083
555.229661	0.237273
555.587365	0.237769
555.945014	0.240405
556.302606	0.237451
556.660143	0.239894
557.017625	0.236399
557.375050	0.238584
557.732421	0.235596
558.089735	0.237675
558.446994	0.237632
558.804197	0.236938
559.161345	0.236808
559.518437	0.240407
559.875474	0.237914
560.232455	0.237286
560.589381	0.238677
560.946251	0.238748
561.303065	0.236393
561.659825	0.237686
562.016528	0.239316
562.373177	0.241581
562.729770	0.239409
563.086307	0.241497
563.442789	0.238885
563.799216	0.241948
564.155587	0.240676
564.511904	0.241702
564.868164	0.242053
565.224370	0.241582
565.580520	0.243480
565.936615	0.243485
566.292654	0.246654
566.648638	0.243242
567.004567	0.244849
567.360441	0.244849
567.716260	0.246924
568.072023	0.244984
568.427732	0.245471
568.783385	0.248090
569.138982	0.245852
569.494525	0.245534
569.850013	0.248780
570.205445	0.246919
570.560823	0.249727
570.916145	0.251516
571.271412	0.249902
571.626625	0.251092
571.981782	0.251659
572.336884	0.252680
572.691931	0.252130
573.046923	0.253444
573.401860	0.254583
573.756743	0.256391
574.111570	0.255150
574.466342	0.255726
574.821059	0.255103
575.175722	0.257701
575.530330	0.257761
575.884882	0.257770
576.239380	0.259691
576.593823	0.260570
576.948211	0.260050
577.302544	0.263199
577.656823	0.262725
578.011047	0.262815
578.365216	0.263200
578.719330	0.265258
579.073389	0.265290
579.427394	0.266298
579.781344	0.267216
580.135239	0.268987
580.489080	0.268535
580.842866	0.271226
581.196597	0.271460
581.550273	0.269844
581.903895	0.270991
582.257463	0.268987
582.610975	0.272465
582.964434	0.271541
583.317837	0.274545
583.671186	0.274599
584.024481	0.274685
584.377721	0.277047
584.730906	0.278094
585.084037	0.277020
585.437113	0.278538
585.790135	0.278763
586.143103	0.281187
586.496016	0.282546
586.848874	0.279811
587.201679	0.280412
587.554428	0.283807
587.907124	0.282788
588.259765	0.282918
588.612352	0.283748
588.964884	0.287749
589.317362	0.287323
589.669786	0.287198
590.022155	0.285677
590.374470	0.285069
590.726731	0.286930
591.078937	0.291710
591.431090	0.288131
591.783188	0.292490
592.135232	0.292919
592.487222	0.293037
592.839157	0.291098
593.191038	0.293269
593.542866	0.294991
593.894639	0.298783
594.246358	0.296556
594.598022	0.295806
594.949633	0.299745
595.301190	0.300426
595.652692	0.299506
596.004141	0.296070
596.355535	0.303757
596.706876	0.304201
597.058162	0.306793
597.409395	0.303745
597.760573	0.301895
598.111698	0.304936
598.462768	0.305396
598.813785	0.306840
599.164748	0.308354
599.515657	0.308556
599.866511	0.312176
600.217312	0.306940
600.568060	0.312262
600.918753	0.308658
601.269392	0.309731
601.619978	0.313110
601.970510	0.310594
602.320988	0.310532
602.671412	0.308390
603.021783	0.310682
603.372100	0.312387
603.722363	0.311861
604.072572	0.312879
604.422728	0.312857
604.772830	0.314838
605.122878	0.314073
605.472872	0.314669
605.822813	0.313221
606.172701	0.316180
606.522534	0.313074
606.872314	0.313244
607.222041	0.314318
607.571714	0.312616
607.921333	0.313349
608.270899	0.313441
608.620411	0.310074
608.969870	0.314101
609.319276	0.314614
609.668627	0.314250
610.017926	0.312470
610.367171	0.311061
610.716362	0.311723
611.065500	0.311923
611.414585	0.311016
611.763616	0.311090
612.112594	0.311859
612.461518	0.311410
612.810389	0.308710
613.159207	0.311319
613.507971	0.313046
613.856682	0.308974
614.205340	0.310385
614.553945	0.307428
614.902496	0.311339
615.250994	0.309151
615.599439	0.309815
615.947830	0.309393
616.296169	0.310514
616.644454	0.309804
616.992686	0.309695
617.340864	0.307339
617.688990	0.311417
618.037063	0.308085
618.385082	0.309952
618.733048	0.306782
619.080961	0.308784
619.428821	0.308037
619.776628	0.307966
620.124382	0.310077
620.472083	0.310338
620.819731	0.309493
621.167326	0.313464
621.514868	0.313167
621.862357	0.317394
622.209793	0.317142
622.557176	0.319381
622.904506	0.320386
623.251783	0.322626
623.599007	0.325050
623.946179	0.324215
624.293297	0.326423
624.640363	0.330658
624.987376	0.330987
625.334336	0.333486
625.681243	0.335507
626.028097	0.336283
626.374899	0.337469
626.721647	0.337597
627.068343	0.340799
627.414987	0.342139
627.761577	0.344393
628.108115	0.342443
628.454600	0.347778
628.801032	0.344748
629.147412	0.346949
629.493739	0.347222
629.840014	0.350690
630.186236	0.347855
630.532405	0.353311
630.878521	0.350545
631.224585	0.352794
631.570597	0.356534
631.916556	0.355290
632.262462	0.355263
632.608316	0.357456
632.954117	0.358061
633.299866	0.358857
633.645562	0.359035
633.991206	0.363949
634.336797	0.366779
634.682336	0.369028
635.027823	0.370570
635.373257	0.371496
635.718639	0.374723
636.063968	0.373908
636.409245	0.380073
636.754470	0.380298
637.099642	0.382898
637.444762	0.385775
637.789829	0.385426
638.134845	0.388324
638.479808	0.389568
638.824719	0.389680
639.169577	0.393169
639.514383	0.391876
639.859137	0.396511
640.203839	0.396513
640.548489	0.397150
640.893086	0.398139
641.237632	0.400060
641.582125	0.398100
641.926566	0.400222
642.270955	0.399993
642.615292	0.400823
642.959576	0.399316
643.303809	0.400296
643.647990	0.399334
643.992118	0.400270
644.336195	0.403978
644.680219	0.402059
645.024192	0.402818
645.368112	0.396230
645.711981	0.395442
646.055797	0.390679
646.399562	0.392988
646.743274	0.385259
647.086935	0.382695
647.430544	0.382625
647.774101	0.381712
648.117606	0.381136
648.461059	0.381819
648.804460	0.384022
649.147810	0.389272
649.491108	0.391122
649.834354	0.392264
650.177548	0.398037
650.520690	0.402856
650.863781	0.404365
651.206820	0.403935
651.549807	0.408568
651.892742	0.412199
652.235626	0.412331
652.578458	0.412756
652.921238	0.419001
653.263967	0.417177
653.606644	0.420829
653.949269	0.420781
654.291843	0.424534
654.634365	0.421022
654.976836	0.424548
655.319255	0.424740
655.661622	0.426432
656.003938	0.426313
656.346203	0.429002
656.688416	0.426929
657.030577	0.430902
657.372687	0.432424
657.714746	0.433367
658.056753	0.430323
658.398708	0.434160
658.740612	0.435326
659.082465	0.431027
659.424266	0.431840
659.766016	0.431227
660.107715	0.433920
660.449362	0.432736
660.790958	0.433409
661.132503	0.434107
661.473996	0.431678
661.815438	0.432573
662.156829	0.432535
662.498168	0.433792
662.839456	0.434831
663.180693	0.432534
663.521879	0.432162
663.863013	0.433520
664.204097	0.432525
664.545129	0.428752
664.886110	0.429437
665.227040	0.426569
665.567918	0.429028
665.908746	0.427151
666.249522	0.426686
666.590248	0.427802
666.930922	0.426334
667.271545	0.424991
667.612118	0.424719
667.952639	0.426624
668.293109	0.425432
668.633528	0.428355
668.973896	0.427504
669.314213	0.428493
669.654480	0.429523
669.994695	0.430273
670.334859	0.431242
670.674973	0.431154
671.015035	0.431688
671.355047	0.431193
671.695008	0.433119
672.034918	0.434311
672.374777	0.434318
672.714585	0.435246
673.054342	0.434916
673.394049	0.434979
673.733705	0.432623
674.073310	0.434308
674.412864	0.436510
674.752368	0.437832
675.091820	0.437540
675.431223	0.441743
675.770574	0.441831
676.109875	0.444580
676.449125	0.444743
676.788324	0.447354
677.127473	0.452495
677.466571	0.452105
677.805619	0.453941
678.144616	0.455375
678.483562	0.456801
678.822458	0.459042
679.161303	0.460131
679.500098	0.460770
679.838842	0.462168
680.177535	0.461931
680.516179	0.460423
680.854771	0.459265
681.193314	0.452728
681.531805	0.443567
681.870247	0.432746
682.208638	0.424684
682.546978	0.424169
682.885268	0.425666
683.223508	0.431920
683.561697	0.435983
683.899836	0.438598
684.237925	0.441961
684.575963	0.444106
684.913951	0.447945
685.251889	0.443396
685.589776	0.444934
685.927614	0.447430
686.265401	0.442021
686.603137	0.443284
686.940824	0.437082
687.278460	0.435856
687.616046	0.434572
687.953582	0.430209
688.291068	0.431089
688.628504	0.427526
688.965889	0.428922
689.303224	0.433472
689.640510	0.437079
689.977745	0.443122
690.314930	0.451377
690.652065	0.455380
690.989150	0.463589
691.326185	0.469416
691.663170	0.474174
692.000105	0.480992
692.336990	0.487846
692.673825	0.490843
693.010610	0.497059
693.347345	0.502489
693.684030	0.504538
694.020665	0.509652
694.357251	0.517522
694.693786	0.517679
695.030272	0.522682
695.366707	0.525261
695.703093	0.529723
696.039429	0.526652
696.375716	0.528757
696.711952	0.531082
697.048139	0.533208
697.384276	0.535260
697.720363	0.533033
698.056400	0.533239
698.392388	0.538100
698.728326	0.541137
699.064214	0.543434
699.400053	0.544402
699.735842	0.548206
700.071581	0.551364
700.407270	0.553819
700.742910	0.556892
701.078501	0.562869
701.414042	0.563219
701.749533	0.566286
702.084974	0.574895
702.420366	0.568015
702.755709	0.575524
703.091002	0.583421
703.426246	0.576314
703.761440	0.582483
704.096584	0.586758
704.431679	0.583545
704.766725	0.586258
705.101721	0.587414
705.436668	0.583663
705.771565	0.590962
706.106413	0.587992
706.441212	0.582898
706.775961	0.581150
707.110661	0.585031
707.445311	0.580681
707.779913	0.578025
708.114465	0.576367
708.448967	0.573267
708.783421	0.565213
709.117825	0.560299
709.452180	0.559598
709.786485	0.553610
710.120742	0.543535
710.454949	0.545225
710.789107	0.537501
711.123216	0.528322
711.457275	0.530039
711.791286	0.520989
712.125247	0.519691
712.459159	0.530775
712.793023	0.522502
713.126837	0.528027
713.460602	0.528443
713.794318	0.536605
714.127985	0.535875
714.461602	0.546042
714.795171	0.549483
715.128691	0.557245
715.462162	0.564553
715.795584	0.570621
716.128957	0.573988
716.462281	0.579571
716.795556	0.583603
717.128782	0.588686
717.461960	0.598431
717.795088	0.596173
718.128167	0.602131
718.461198	0.611576
718.794180	0.612006
719.127113	0.615372
719.459997	0.618392
719.792833	0.624688
720.125619	0.626419
720.458357	0.631591
720.791046	0.632022
721.123686	0.635042
721.456278	0.641473
721.788821	0.639530
722.121315	0.643596
722.453761	0.646830
722.786158	0.645799
723.118506	0.641387
723.450805	0.650169
723.783056	0.645489
724.115259	0.643177
724.447412	0.642951
724.779518	0.643833
725.111574	0.642244
725.443582	0.638988
725.775542	0.640655
726.107453	0.631971
726.439315	0.632990
726.771129	0.630967
727.102895	0.623986
727.434612	0.617139
727.766281	0.615202
728.097901	0.614754
728.429473	0.614284
728.760996	0.611671
729.092471	0.612318
729.423897	0.616631
729.755276	0.615784
730.086606	0.615747
730.417887	0.610214
730.749120	0.600426
731.080305	0.591817
731.411442	0.587405
731.742530	0.592202
732.073570	0.591363
732.404562	0.583576
732.735506	0.585357
733.066401	0.589910
733.397249	0.599556
733.728048	0.610662
734.058798	0.623718
734.389501	0.633674
734.720156	0.643651
735.050762	0.652049
735.381320	0.652943
735.711831	0.661665
736.042293	0.667360
736.372707	0.662532
736.703073	0.667639
737.033391	0.668979
737.363661	0.666032
737.693883	0.660921
738.024056	0.660354
738.354182	0.661402
738.684260	0.651101
739.014290	0.645753
739.344272	0.646709
739.674207	0.641073
740.004093	0.639821
740.333931	0.639757
740.663722	0.640477
740.993464	0.641101
741.323159	0.644884
741.652806	0.650070
741.982405	0.654745
742.311956	0.659321
742.641460	0.660664
742.970915	0.665062
743.300323	0.672286
743.629683	0.679075
743.958996	0.680741
744.288260	0.685042
744.617477	0.691427
744.946647	0.693186
745.275768	0.698062
745.604842	0.698869
745.933869	0.707977
746.262847	0.708850
746.591778	0.702511
746.920662	0.708524
747.249498	0.715214
747.578286	0.705781
747.907027	0.701520
748.235720	0.703074
748.564365	0.697416
748.892963	0.698199
749.221514	0.700767
749.550017	0.706129
749.878473	0.705302
750.206881	0.712239
750.535242	0.713403
750.863555	0.712953
751.191821	0.714247
751.520039	0.716676
751.848210	0.722412
752.176334	0.714525
752.504411	0.713384
752.832440	0.722071
753.160421	0.725758
753.488356	0.723990
753.816243	0.721030
754.144082	0.729813
754.471875	0.733524
754.799620	0.728773
755.127318	0.729908
755.454969	0.730039
755.782572	0.729498
756.110129	0.733845
756.437638	0.736851
756.765100	0.733290
757.092515	0.731615
757.419882	0.729921
757.747203	0.735592
758.074477	0.734718
758.401703	0.731349
758.728882	0.726907
759.056014	0.727273
759.383099	0.724546
759.710138	0.727465
760.037129	0.721833
760.364073	0.717425
760.690970	0.719033
761.017820	0.724578
761.344623	0.720262
761.671379	0.711074
761.998088	0.699549
762.324751	0.677453
762.651366	0.634015
762.977935	0.566891
763.304456	0.514749
763.630931	0.505157
763.957359	0.544179
764.283740	0.589889
764.610074	0.616371
764.936362	0.648479
765.262602	0.674777
765.588796	0.696223
765.914943	0.714315
766.241044	0.731973
766.567097	0.738841
766.893104	0.749659
767.219064	0.754593
767.544978	0.762132
767.870845	0.775417
768.196665	0.779378
768.522438	0.777026
768.848165	0.778208
769.173846	0.788199
769.499479	0.791602
769.825066	0.795768
770.150607	0.800172
770.476101	0.796282
770.801548	0.796769
771.126949	0.808788
771.452303	0.811642
771.777611	0.811174
772.102872	0.810124
772.428087	0.815943
772.753256	0.819265
773.078378	0.821086
773.403453	0.830644
773.728482	0.834279
774.053465	0.827593
774.378401	0.832227
774.703291	0.840092
775.028135	0.840505
775.352932	0.841532
775.677683	0.844629
776.002388	0.845620
776.327046	0.843711
776.651658	0.847910
776.976224	0.850463
777.300743	0.851297
777.625216	0.854431
777.949643	0.854504
778.274024	0.854410
778.598359	0.856140
778.922647	0.855227
779.246889	0.855753
779.571086	0.859740
779.895236	0.862189
780.219339	0.858902
780.543397	0.856613
780.867409	0.854781
781.191374	0.856444
781.515294	0.858624
781.839167	0.857440
782.162995	0.860581
782.486776	0.857898
782.810511	0.858282
783.134201	0.862434
783.457844	0.859133
783.781441	0.863106
784.104993	0.869301
784.428498	0.869072
784.751958	0.864403
785.075372	0.867016
785.398739	0.869452
785.722061	0.866882
786.045337	0.863184
786.368568	0.867314
786.691752	0.870362
787.014891	0.855954
787.337983	0.846214
787.661030	0.839151
787.984031	0.820726
788.306987	0.808669
788.629897	0.810759
788.952760	0.814480
789.275579	0.819667
789.598351	0.833766
789.921078	0.847300
790.243759	0.849204
790.566395	0.854305
790.888984	0.861588
791.211529	0.866136
791.534027	0.869949
791.856480	0.872202
792.178888	0.878607
792.501249	0.880219
792.823566	0.881177
793.145836	0.881438
793.468062	0.883099
793.790241	0.883882
794.112375	0.881057
794.434464	0.876532
794.756507	0.876484
795.078505	0.875091
795.400457	0.869879
795.722364	0.858152
796.044226	0.850872
796.366042	0.849898
796.687812	0.853410
797.009538	0.849931
797.331218	0.853040
797.652852	0.857836
797.974442	0.862737
798.295986	0.862466
798.617484	0.864253
798.938938	0.868768
799.260346	0.873892
799.581709	0.876404
799.903026	0.878320
800.224299	0.878639
800.545526	0.882656
800.866708	0.887042
801.187845	0.891373
801.508936	0.890058
801.829983	0.888214
802.150984	0.890169
802.471940	0.896804
802.792851	0.895589
803.113717	0.896932
803.434538	0.894367
803.755314	0.896816
804.076045	0.898823
804.396731	0.898141
804.717372	0.898560
805.037967	0.899818
805.358518	0.898640
805.679024	0.894306
805.999485	0.895360
806.319901	0.895237
806.640272	0.896052
806.960598	0.894736
807.280879	0.891515
807.601115	0.890793
807.921306	0.894117
808.241453	0.894224
808.561554	0.892509
808.881611	0.891732
809.201623	0.894291
809.521590	0.893912
809.841513	0.895476
810.161390	0.894301
810.481223	0.895954
810.801011	0.899394
811.120755	0.902014
811.440453	0.900068
811.760107	0.898742
812.079716	0.898702
812.399281	0.902235
812.718801	0.903991
813.038276	0.904538
813.357707	0.904699
813.677093	0.901809
813.996434	0.905897
814.315731	0.907027
814.634983	0.908324
814.954191	0.905616
815.273354	0.903220
815.592473	0.899608
815.911547	0.899183
816.230577	0.897350
816.549562	0.894729
816.868502	0.894940
817.187399	0.891523
817.506250	0.886009
817.825058	0.887821
818.143821	0.884657
818.462539	0.878752
818.781213	0.870701
819.099843	0.859158
819.418429	0.844305
819.736970	0.825946
820.055466	0.806828
820.373919	0.780561
820.692327	0.747426
821.010691	0.711654
821.329011	0.633360
821.647286	0.515959
821.965517	0.401228
822.283704	0.358289
822.601847	0.358792
822.919945	0.394901
823.237999	0.429105
823.556010	0.476815
823.873976	0.533608
824.191897	0.585187
824.509775	0.627946
824.827609	0.674227
825.145398	0.696118
825.463144	0.699217
825.780845	0.682142
826.098502	0.663687
826.416116	0.617516
826.733685	0.572239
827.051210	0.563244
827.368692	0.578526
827.686129	0.616648
828.003522	0.670503
828.320872	0.719030
828.638177	0.762491
828.955439	0.796494
829.272656	0.819282
829.589830	0.836376
829.906960	0.852148
830.224046	0.863967
830.541088	0.875345
830.858086	0.878390
831.175041	0.885739
831.491952	0.884396
831.808819	0.881096
832.125642	0.874218
832.442421	0.859853
832.759157	0.836846
833.075849	0.790446
833.392497	0.725400
833.709101	0.685098
834.025662	0.693603
834.342179	0.726500
834.658653	0.765495
834.975083	0.802039
835.291469	0.829102
835.607811	0.851412
835.924110	0.868372
836.240366	0.885153
836.556578	0.898579
836.872746	0.906170
837.188871	0.913585
837.504952	0.918869
837.820990	0.921605
838.136984	0.925530
838.452935	0.928257
838.768842	0.930211
839.084706	0.923084
839.400526	0.897049
839.716303	0.855944
840.032037	0.833091
840.347727	0.837153
840.663373	0.855780
840.978977	0.878182
841.294537	0.899874
841.610054	0.917020
841.925527	0.924408
842.240957	0.932123
842.556344	0.938708
842.871687	0.944510
843.186987	0.948918
843.502244	0.949475
843.817458	0.950577
844.132629	0.954232
844.447756	0.958854
844.762840	0.959202
845.077881	0.958518
845.392879	0.958189
845.707833	0.961247
846.022745	0.963197
846.337613	0.964776
846.652438	0.965821
846.967221	0.963938
847.281960	0.963874
847.596656	0.965736
847.911309	0.964878
848.225919	0.966269
848.540485	0.966813
848.855009	0.967489
849.169490	0.967508
849.483928	0.967818
849.798323	0.968042
850.112675	0.968883
850.426984	0.968699
850.741251	0.969605
851.055474	0.969216
851.369654	0.968113
851.683792	0.968637
851.997887	0.969584
852.311938	0.970092
852.625947	0.968509
852.939914	0.967273
853.253837	0.969108
853.567718	0.970112
853.881555	0.969262
854.195350	0.968438
854.509103	0.968675
854.822812	0.968906
855.136479	0.968223
855.450103	0.968732
855.763685	0.967598
856.077224	0.967383
856.390720	0.968090
856.704173	0.970271
857.017584	0.968055
857.330953	0.965563
857.644278	0.966987
857.957561	0.967644
858.270802	0.967354
858.584000	0.967814
858.897155	0.964905
859.210268	0.966834
859.523339	0.966518
859.836367	0.969212
860.149352	0.970293
860.462295	0.967399
860.775195	0.968496
861.088054	0.969045
861.400869	0.969637
861.713642	0.969118
862.026373	0.969151
862.339062	0.969543
862.651708	0.966688
862.964312	0.967226
863.276873	0.967786
863.589392	0.967230
863.901869	0.965590
864.214303	0.963577
864.526696	0.963587
864.839045	0.962178
865.151353	0.960240
865.463619	0.962170
865.775842	0.962057
866.088023	0.960781
866.400162	0.961887
866.712258	0.960911
867.024313	0.961378
867.336325	0.962112
867.648296	0.962471
867.960224	0.961661
868.272110	0.960247
868.583954	0.962490
868.895755	0.962775
869.207515	0.961050
869.519233	0.958137
869.830909	0.959911
870.142542	0.961528
870.454134	0.960695
870.765684	0.960367
871.077191	0.956255
871.388657	0.958666
871.700081	0.957093
872.011463	0.956890
872.322803	0.956834
872.634101	0.955701
872.945357	0.953336
873.256571	0.951391
873.567744	0.952251
873.878874	0.952541
874.189963	0.950846
874.501010	0.949738
874.812015	0.948657
875.122979	0.948909
875.433900	0.951194
875.744780	0.952826
876.055618	0.949507
876.366415	0.948774
876.677169	0.949751
876.987882	0.950396
877.298554	0.948288
877.609183	0.946156
877.919771	0.942349
878.230317	0.941243
878.540822	0.938212
878.851285	0.933146
879.161707	0.924295
879.472087	0.912524
879.782425	0.895407
880.092722	0.859668
880.402977	0.806803
880.713191	0.745157
881.023363	0.684686
881.333494	0.649442
881.643583	0.620972
881.953631	0.621000
882.263637	0.649214
882.573602	0.689370
882.883526	0.715782
883.193408	0.740519
883.503248	0.764072
883.813048	0.791819
884.122806	0.822288
884.432522	0.845954
884.742197	0.866332
885.051831	0.876845
885.361424	0.888603
885.670975	0.900795
885.980485	0.910834
886.289954	0.916742
886.599382	0.922448
886.908768	0.925685
887.218113	0.931679
887.527417	0.937240
887.836680	0.940037
888.145901	0.941186
888.455082	0.943980
888.764221	0.947890
889.073319	0.950046
889.382376	0.951081
889.691392	0.951235
890.000366	0.951447
890.309300	0.952798
890.618193	0.950871
890.927044	0.949026
891.235855	0.949823
891.544625	0.949875
891.853353	0.949845
892.162041	0.947498
892.470687	0.941719
892.779293	0.936927
893.087858	0.931860
893.396381	0.924492
893.704864	0.910729
894.013306	0.885839
894.321707	0.858498
894.630068	0.843002
894.938387	0.838247
895.246665	0.838918
895.554903	0.852467
895.863100	0.866176
896.171256	0.883415
896.479371	0.901887
896.787446	0.915894
897.095480	0.921907
897.403473	0.925607
897.711425	0.929783
898.019336	0.938733
898.327207	0.940192
898.635038	0.942270
898.942827	0.943396
899.250576	0.946963
899.558284	0.949795
899.865952	0.952819
900.173579	0.953110
900.481165	0.954180
900.788711	0.958187
901.096216	0.959584
901.403681	0.960107
901.711105	0.961546
902.018489	0.961951
902.325832	0.960974
902.633135	0.960013
902.940397	0.953424
903.247619	0.942171
903.554800	0.915440
903.861941	0.875043
904.169041	0.837753
904.476101	0.819072
904.783121	0.820541
905.090100	0.836876
905.397039	0.859013
905.703938	0.882202
906.010796	0.903026
906.317614	0.919327
906.624391	0.932128
906.931129	0.942131
907.237826	0.950248
907.544483	0.957362
907.851099	0.961293
908.157675	0.965858
908.464211	0.968662
908.770707	0.971345
909.077163	0.973199
909.383578	0.973929
909.689954	0.974679
909.996289	0.974146
910.302584	0.976333
910.608839	0.978725
910.915054	0.977900
911.221229	0.976690
911.527363	0.975670
911.833458	0.976751
912.139513	0.975981
912.445527	0.973235
912.751502	0.972574
913.057436	0.971236
913.363331	0.969229
913.669186	0.963718
913.975000	0.959542
914.280775	0.952962
914.586510	0.946609
914.892205	0.931948
915.197859	0.910366
915.503475	0.881544
915.809050	0.862410
916.114585	0.855309
916.420081	0.852496
916.725536	0.848117
917.030952	0.858337
917.336328	0.871861
917.641665	0.887570
917.946961	0.902565
918.252218	0.916064
918.557435	0.924645
918.862612	0.932165
919.167750	0.939339
919.472848	0.944311
919.777906	0.949819
920.082925	0.955900
920.387904	0.960526
920.692843	0.962341
920.997743	0.962368
921.302603	0.966103
921.607423	0.967600
921.912204	0.970606
922.216946	0.969822
922.521647	0.971923
922.826310	0.974188
923.130932	0.974900
923.435516	0.977682
923.740059	0.977961
924.044564	0.977338
924.349028	0.978492
924.653454	0.982174
924.957840	0.983921
925.262186	0.983499
925.566493	0.982890
925.870761	0.983870
926.174989	0.985333
926.479178	0.987153
926.783328	0.987830
927.087438	0.988064
927.391509	0.987588
927.695541	0.989117
927.999533	0.987881
928.303486	0.987923
928.607400	0.990452
928.911275	0.988850
929.215110	0.988948
929.518906	0.990653
929.822663	0.989271
930.126381	0.989834
930.430060	0.989486
930.733699	0.990281
931.037299	0.988292
931.340861	0.990030
931.644383	0.989965
931.947866	0.989394
932.251309	0.989837
932.554714	0.989008
932.858080	0.989380
933.161407	0.989619
933.464694	0.991210
933.767943	0.989315
934.071153	0.990143
934.374323	0.990975
934.677455	0.990538
934.980548	0.990908
935.283602	0.990343
935.586617	0.989644
935.889593	0.990544
936.192530	0.990258
936.495428	0.989558
936.798287	0.990535
937.101108	0.989307
937.403890	0.988815
937.706632	0.987969
938.009336	0.986620
938.312002	0.984309
938.614628	0.984647
938.917216	0.982232
939.219765	0.981842
939.522275	0.981822
939.824747	0.981246
940.127179	0.982520
940.429573	0.983988
940.731929	0.983571
941.034246	0.983658
941.336524	0.985356
941.638763	0.985759
941.940964	0.985039
942.243126	0.985361
942.545250	0.986299
942.847335	0.987670
943.149381	0.987362
943.451389	0.987314
943.753359	0.987615
944.055290	0.990031
944.357182	0.988874
944.659036	0.986741
944.960851	0.988744
945.262628	0.989391
945.564367	0.990047
945.866067	0.989699
946.167729	0.989584
946.469352	0.988876
946.770937	0.988716
947.072484	0.989555
947.373992	0.990046
947.675462	0.988076
947.976893	0.990039
948.278286	0.989125
948.579641	0.991562
948.880958	0.989990
949.182236	0.991236
949.483476	0.990356
949.784678	0.989843
950.085841	0.990388
950.386967	0.989853
950.688054	0.989511
950.989103	0.990510
951.290114	0.989389
951.591087	0.988543
951.892021	0.989063
952.192917	0.987404
952.493776	0.987153
952.794596	0.987542
953.095378	0.986603
953.396122	0.987184
953.696828	0.987209
953.997496	0.988002
954.298126	0.988977
954.598718	0.989400
954.899272	0.990722
955.199788	0.990101
955.500266	0.991542
955.800706	0.993001
956.101108	0.992108
956.401472	0.994037
956.701798	0.993331
957.002087	0.992522
957.302337	0.993507
957.602550	0.993763
957.902724	0.995059
958.202861	0.993652
958.502960	0.995436
958.803022	0.992813
959.103045	0.996203
959.403031	0.995928
959.702979	0.994355
960.002889	0.994853
960.302762	0.994771
960.602596	0.995720
960.902393	0.994728
961.202153	0.997264
961.501875	0.996689
961.801559	0.995135
962.101205	0.994678
962.400814	0.995627
962.700385	0.996585
962.999918	0.995077
963.299414	0.996107
963.598873	0.995220
963.898293	0.995530
964.197677	0.995169
964.497022	0.996322
964.796331	0.997226
965.095601	0.995855
965.394835	0.996662
965.694030	0.997154
965.993189	0.997153
966.292309	0.995935
966.591393	0.996310
966.890439	0.997517
967.189447	0.996008
967.488419	0.997067
967.787353	0.995950
968.086249	0.995725
968.385108	0.997005
968.683930	0.996205
968.982714	0.997776
969.281462	0.997010
969.580172	0.997055
969.878844	0.996571
970.177480	0.997172
970.476078	0.997142
970.774639	0.996926
971.073162	0.997941
971.371649	0.995984
971.670098	0.995905
971.968510	0.997237
972.266885	0.995686
972.565223	0.995371
972.863524	0.996192
973.161788	0.995146
973.460014	0.997302
973.758204	0.995848
974.056356	0.995881
974.354471	0.994344
974.652550	0.995799
974.950591	0.995972
975.248595	0.996433
975.546563	0.995953
975.844493	0.996540
976.142386	0.996689
976.440243	0.996574
976.738062	0.996073
977.035845	0.997778
977.333590	0.997833
977.631299	0.997869
977.928971	0.995878
978.226606	0.995904
978.524204	0.994435
978.821765	0.997017
979.119290	0.996329
979.416777	0.996945
979.714228	0.997078
980.011642	0.995802
980.309020	0.996768
980.606360	0.996475
980.903664	0.997542
981.200931	0.995786
981.498162	0.994523
981.795356	0.994816
982.092513	0.994147
982.389633	0.993544
982.686717	0.991165
982.983764	0.991034
983.280775	0.989466
983.577749	0.988906
983.874686	0.991501
984.171587	0.990215
984.468451	0.994729
984.765279	0.994026
985.062070	0.994673
985.358824	0.994733
985.655543	0.994481
985.952224	0.995532
986.248869	0.995413
986.545478	0.997378
986.842050	0.999025
987.138586	0.996181
987.435086	0.997598
987.731549	0.999106
988.027975	0.997623
988.324366	0.996901
988.620719	0.997067
988.917037	0.997021
989.213318	0.997566
989.509563	0.997692
989.805772	0.998483
990.101944	0.999070
990.398080	0.997930
990.694180	0.997249
990.990244	0.997680
991.286271	0.997033
991.582262	0.997323
991.878217	0.997678
992.174136	0.999149
992.470019	0.997480
992.765865	0.997926
993.061676	0.997171
993.357450	0.996892
993.653188	0.997902
993.948890	0.996703
994.244556	0.996955
994.540186	0.997401
994.835780	0.995034
995.131337	0.998229
995.426859	0.996424
995.722345	0.997603
996.017795	0.996945
996.313208	0.994711
996.608586	0.996049
996.903928	0.995908
997.199234	0.995820
997.494504	0.996373
997.789738	0.996716
998.084936	0.996304
998.380099	0.996698
998.675225	0.997576
998.970316	0.997221
999.265371	0.998127
999.560390	0.996865
999.855373	0.998311
1000.150320	0.997566
1000.445232	0.999003
1000.740108	0.997733
1001.034948	0.997805
1001.329752	0.999337
1001.624521	0.998272
1001.919254	0.997741
1002.213951	0.998047
1002.508613	0.998192
1002.803239	0.999089
1003.097829	0.998817
1003.392384	0.999440
1003.686903	0.998440
1003.981386	0.998987
1004.275834	0.998089
1004.570246	0.997792
1004.864623	0.998648
1005.158964	0.999110
1005.453270	0.998138
1005.747540	0.996621
1006.041775	0.998164
1006.335974	0.998778
1006.630138	1.000023
1006.924266	0.999015
1007.218359	0.998586
1007.512416	0.999547
1007.806438	0.999222
1008.100425	0.998741
1008.394376	0.998832
1008.688292	0.998344
1008.982172	1.000311
1009.276017	0.999628
1009.569827	0.998593
1009.863602	0.998579
1010.157341	0.998836
1010.451045	0.999852
1010.744714	0.999409
1011.038347	0.998296
1011.331945	0.997796
1011.625508	0.997893
1011.919036	0.999198
1012.212528	0.998620
1012.505986	0.996784
1012.799408	0.998837
1013.092795	0.998436
1013.386147	0.999495
1013.679464	0.999244
1013.972745	0.997784
1014.265992	0.997569
1014.559204	0.998234
1014.852380	0.999679
1015.145521	0.998937
1015.438628	0.997324
1015.731699	0.997314
1016.024736	0.998806
1016.317737	0.997753
1016.610703	0.998750
1016.903635	0.998558
1017.196531	0.998922
1017.489393	0.999341
1017.782219	0.999262
1018.075011	0.997529
1018.367768	0.998650
1018.660490	0.998538
1018.953177	0.998538
1019.245829	0.998538
