Dividing Wavelength (nm)	Counts (n)	Blue Motor Position (mm): 0.000000	Red Motor Position (mm): 13.300000	
326.493990	1.000363
326.888308	1.000363
327.282561	1.000363
327.676750	0.999491
328.070874	0.999265
328.464933	0.999567
328.858929	1.000002
329.252859	1.001472
329.646726	0.999036
330.040528	1.000433
330.434265	0.999352
330.827938	1.000202
331.221547	1.001216
331.615091	1.000042
332.008571	1.000278
332.401986	1.000722
332.795338	1.001133
333.188625	0.998016
333.581847	1.000697
333.975006	0.999385
334.368100	0.999730
334.761129	0.999878
335.154095	1.000873
335.546996	0.998444
335.939833	0.992588
336.332606	0.993649
336.725315	0.993792
337.117960	0.995342
337.510540	0.993946
337.903056	0.994223
338.295508	0.993562
338.687896	0.993539
339.080220	0.995250
339.472480	0.994089
339.864676	0.994530
340.256807	0.993672
340.648875	0.995450
341.040879	0.995479
341.432818	0.994123
341.824694	0.993797
342.216506	0.994709
342.608253	0.994408
342.999937	0.993904
343.391557	0.993596
343.783113	0.993092
344.174605	0.993533
344.566033	0.994135
344.957397	0.992902
345.348697	0.993966
345.739934	0.993881
346.131106	0.993760
346.522215	0.994041
346.913260	0.992945
347.304241	0.992758
347.695159	0.993755
348.086012	0.992725
348.476802	0.993314
348.867528	0.993995
349.258191	0.992985
349.648789	0.995057
350.039324	0.992954
350.429796	0.994745
350.820203	0.993625
351.210548	0.993282
351.600828	0.993133
351.991045	0.993505
352.381198	0.993319
352.771288	0.993463
353.161314	0.993730
353.551276	0.994737
353.941175	0.993990
354.331010	0.993285
354.720782	0.994967
355.110490	0.993446
355.500135	0.994754
355.889717	0.994677
356.279235	0.992898
356.668689	0.993204
357.058080	0.992966
357.447408	0.994092
357.836672	0.994571
358.225873	0.994961
358.615010	0.994489
359.004084	0.994517
359.393095	0.994474
359.782043	0.993760
360.170927	0.994593
360.559748	0.994883
360.948505	0.992226
361.337199	0.994058
361.725830	0.994516
362.114398	0.993313
362.502903	0.995365
362.891344	0.994515
363.279722	0.994323
363.668037	0.995080
364.056289	0.992817
364.444478	0.993349
364.832603	0.994988
365.220665	0.993499
365.608665	0.994153
365.996601	0.992939
366.384474	0.992898
366.772284	0.995050
367.160031	0.993046
367.547715	0.993364
367.935336	0.992303
368.322893	0.993780
368.710388	0.992532
369.097820	0.992796
369.485189	0.992232
369.872495	0.992101
370.259738	0.991576
370.646918	0.994112
371.034035	0.993080
371.421090	0.993572
371.808081	0.991919
372.195010	0.993550
372.581875	0.992730
372.968678	0.992735
373.355418	0.992083
373.742096	0.992141
374.128710	0.993594
374.515262	0.992474
374.901751	0.994067
375.288177	0.993601
375.674540	0.993965
376.060841	0.991395
376.447079	0.993809
376.833254	0.992370
377.219367	0.993532
377.605417	0.992733
377.991404	0.992195
378.377329	0.991765
378.763191	0.993693
379.148991	0.994004
379.534727	0.993063
379.920402	0.993579
380.306013	0.993384
380.691563	0.993833
381.077049	0.991890
381.462474	0.993745
381.847835	0.993611
382.233134	0.993105
382.618371	0.992622
383.003545	0.992032
383.388657	0.992023
383.773706	0.994045
384.158693	0.993917
384.543618	0.993255
384.928480	0.993674
385.313280	0.992982
385.698017	0.994071
386.082692	0.994561
386.467305	0.993526
386.851856	0.992114
387.236344	0.991581
387.620770	0.990842
388.005133	0.991809
388.389435	0.991343
388.773674	0.989391
389.157851	0.988678
389.541965	0.987167
389.926018	0.985476
390.310008	0.984067
390.693936	0.980706
391.077802	0.978689
391.461606	0.974367
391.845348	0.972298
392.229027	0.969068
392.612645	0.964062
392.996200	0.959594
393.379694	0.954457
393.763125	0.948978
394.146494	0.943518
394.529801	0.936112
394.913047	0.930415
395.296230	0.925489
395.679351	0.917957
396.062410	0.910260
396.445408	0.905040
396.828343	0.895723
397.211217	0.888022
397.594028	0.885225
397.976778	0.873880
398.359466	0.864968
398.742092	0.854463
399.124656	0.851451
399.507158	0.839642
399.889598	0.831225
400.271977	0.818401
400.654294	0.811080
401.036549	0.802226
401.418742	0.795660
401.800874	0.778736
402.182944	0.769498
402.564952	0.755652
402.946898	0.749169
403.328783	0.740119
403.710606	0.738243
404.092367	0.714474
404.474067	0.709413
404.855705	0.701428
405.237282	0.699936
405.618797	0.682341
406.000250	0.671230
406.381642	0.657911
406.762972	0.653823
407.144240	0.646110
407.525447	0.639804
407.906593	0.627126
408.287677	0.617220
408.668700	0.617873
409.049661	0.607073
409.430560	0.598898
409.811399	0.600183
410.192176	0.579432
410.572891	0.580657
410.953545	0.566377
411.334138	0.573694
411.714669	0.564124
412.095139	0.571390
412.475547	0.553924
412.855894	0.552544
413.236180	0.548610
413.616405	0.551188
413.996568	0.539066
414.376670	0.543212
414.756711	0.545374
415.136691	0.540710
415.516609	0.530859
415.896466	0.526428
416.276262	0.520140
416.655997	0.521124
417.035670	0.502025
417.415283	0.492575
417.794834	0.497303
418.174324	0.501332
418.553753	0.510027
418.933121	0.490944
419.312428	0.484317
419.691674	0.489716
420.070859	0.478199
420.449983	0.486370
420.829045	0.474963
421.208047	0.483808
421.586988	0.477315
421.965867	0.475170
422.344686	0.464162
422.723444	0.476154
423.102141	0.493261
423.480777	0.466297
423.859352	0.486509
424.237866	0.463782
424.616319	0.463754
424.994712	0.455057
425.373044	0.464935
425.751314	0.453531
426.129524	0.469327
426.507673	0.454047
426.885762	0.447169
427.263789	0.452105
427.641756	0.462603
428.019662	0.452339
428.397508	0.451225
428.775292	0.455280
429.153016	0.447590
429.530679	0.453985
429.908282	0.447099
430.285824	0.457078
430.663305	0.434923
431.040726	0.456371
431.418086	0.456923
431.795385	0.448188
432.172624	0.446612
432.549802	0.447650
432.926920	0.446483
433.303977	0.446283
433.680974	0.443171
434.057910	0.441343
434.434786	0.440903
434.811601	0.443933
435.188355	0.425512
435.565050	0.435205
435.941683	0.436782
436.318257	0.421298
436.694770	0.421346
437.071222	0.419794
437.447614	0.424124
437.823946	0.430826
438.200218	0.420177
438.576429	0.430201
438.952580	0.422850
439.328670	0.419556
439.704700	0.426385
440.080670	0.427262
440.456580	0.408451
440.832429	0.416294
441.208218	0.427266
441.583947	0.416470
441.959616	0.415664
442.335224	0.421083
442.710773	0.411823
443.086261	0.409504
443.461689	0.424031
443.837057	0.413420
444.212365	0.403823
444.587612	0.410733
444.962800	0.400806
445.337927	0.401507
445.712995	0.428034
446.088002	0.390746
446.462949	0.400806
446.837837	0.405261
447.212664	0.394707
447.587431	0.385773
447.962139	0.356700
448.336786	0.316141
448.711374	0.326311
449.085901	0.369946
449.460369	0.374334
449.834776	0.377950
450.209124	0.357255
450.583412	0.349913
450.957640	0.342946
451.331808	0.354557
451.705917	0.377831
452.079965	0.382344
452.453954	0.370856
452.827883	0.377240
453.201752	0.372000
453.575562	0.383777
453.949311	0.371982
454.323001	0.378159
454.696632	0.373919
455.070202	0.366798
455.443713	0.358754
455.817164	0.353262
456.190556	0.349455
456.563888	0.346008
456.937160	0.343987
457.310373	0.360969
457.683526	0.359487
458.056619	0.365255
458.429653	0.366257
458.802628	0.369167
459.175542	0.363811
459.548398	0.346363
459.921194	0.338967
460.293930	0.338896
460.666607	0.316315
461.039224	0.304705
461.411782	0.300351
461.784280	0.299905
462.156719	0.303939
462.529099	0.308384
462.901419	0.324110
463.273680	0.328571
463.645882	0.328070
464.018024	0.334177
464.390106	0.326756
464.762130	0.312086
465.134094	0.294762
465.505999	0.263921
465.877845	0.234602
466.249631	0.221542
466.621358	0.229018
466.993026	0.243027
467.364634	0.248964
467.736184	0.257725
468.107674	0.266316
468.479105	0.265383
468.850477	0.272217
469.221790	0.279264
469.593043	0.289359
469.964238	0.294089
470.335373	0.293489
470.706449	0.291942
471.077467	0.292403
471.448425	0.254789
471.819324	0.230167
472.190164	0.229734
472.560945	0.258494
472.931667	0.280559
473.302330	0.284640
473.672934	0.296497
474.043479	0.284718
474.413965	0.286697
474.784393	0.289958
475.154761	0.285050
475.525070	0.281910
475.895321	0.287729
476.265513	0.281810
476.635645	0.277401
477.005719	0.277080
477.375734	0.274087
477.745691	0.267101
478.115588	0.263615
478.485427	0.257171
478.855207	0.244215
479.224928	0.226465
479.594591	0.214843
479.964194	0.218294
480.333739	0.219292
480.703226	0.220762
481.072653	0.219339
481.442022	0.214968
481.811333	0.211230
482.180584	0.214884
482.549777	0.220183
482.918912	0.223568
483.287988	0.223185
483.657005	0.222929
484.025964	0.229352
484.394864	0.226766
484.763706	0.227272
485.132489	0.232220
485.501213	0.232895
485.869879	0.231312
486.238487	0.234600
486.607036	0.232492
486.975527	0.236793
487.343959	0.232704
487.712333	0.231797
488.080648	0.233382
488.448905	0.232624
488.817104	0.233852
489.185244	0.228463
489.553326	0.225178
489.921350	0.215096
490.289315	0.197582
490.657222	0.192869
491.025070	0.194021
491.392861	0.195786
491.760593	0.201834
492.128267	0.207231
492.495883	0.212669
492.863440	0.219025
493.230939	0.225341
493.598380	0.226529
493.965763	0.228544
494.333088	0.231306
494.700354	0.232565
495.067563	0.231552
495.434713	0.235041
495.801805	0.232717
496.168839	0.234298
496.535815	0.235734
496.902733	0.235513
497.269593	0.237188
497.636395	0.234859
498.003139	0.235139
498.369825	0.238278
498.736453	0.234747
499.103023	0.236027
499.469535	0.235294
499.835989	0.235908
500.202385	0.236822
500.568723	0.239894
500.935003	0.235042
501.301226	0.239268
501.667390	0.233612
502.033497	0.231626
502.399546	0.234701
502.765537	0.236587
503.131470	0.235064
503.497345	0.231211
503.863163	0.240293
504.228923	0.233246
504.594625	0.231534
504.960269	0.236996
505.325856	0.232513
505.691385	0.236649
506.056856	0.233487
506.422270	0.232813
506.787625	0.235144
507.152924	0.232669
507.518164	0.233197
507.883347	0.234588
508.248472	0.236597
508.613540	0.231694
508.978550	0.234187
509.343503	0.234636
509.708398	0.232197
510.073236	0.230024
510.438016	0.229965
510.802738	0.230754
511.167403	0.229915
511.532010	0.231823
511.896561	0.227347
512.261053	0.225938
512.625488	0.228009
512.989866	0.228222
513.354186	0.228847
513.718449	0.230451
514.082655	0.226973
514.446803	0.229060
514.810894	0.226842
515.174927	0.229290
515.538904	0.228588
515.902822	0.225704
516.266684	0.228186
516.630488	0.229410
516.994235	0.227963
517.357925	0.226881
517.721558	0.225130
518.085133	0.224813
518.448651	0.224544
518.812112	0.226957
519.175516	0.226564
519.538863	0.224429
519.902152	0.225742
520.265385	0.222753
520.628560	0.224298
520.991678	0.224790
521.354739	0.223756
521.717743	0.225244
522.080690	0.225348
522.443580	0.222853
522.806413	0.223615
523.169189	0.222814
523.531908	0.221935
523.894569	0.225548
524.257174	0.225324
524.619722	0.223014
524.982213	0.224281
525.344647	0.223089
525.707025	0.223885
526.069345	0.221993
526.431608	0.224061
526.793815	0.221635
527.155964	0.225866
527.518057	0.224913
527.880093	0.225853
528.242072	0.224546
528.603995	0.226347
528.965860	0.228108
529.327669	0.226891
529.689421	0.227729
530.051117	0.228715
530.412755	0.226283
530.774337	0.228790
531.135862	0.229038
531.497331	0.228330
531.858743	0.231288
532.220098	0.227947
532.581396	0.230391
532.942638	0.230954
533.303824	0.231940
533.664953	0.231528
534.026025	0.233264
534.387040	0.231230
534.747999	0.231393
535.108902	0.230189
535.469748	0.235307
535.830537	0.233020
536.191270	0.233353
536.551947	0.232757
536.912567	0.233138
537.273131	0.234728
537.633638	0.235090
537.994089	0.235307
538.354483	0.236072
538.714821	0.233185
539.075103	0.233042
539.435328	0.233829
539.795497	0.237432
540.155609	0.234582
540.515665	0.232124
540.875665	0.237633
541.235609	0.236328
541.595496	0.236721
541.955328	0.233222
542.315102	0.235661
542.674821	0.236738
543.034483	0.236681
543.394090	0.236775
543.753640	0.238509
544.113134	0.233147
544.472571	0.236535
544.831953	0.233538
545.191278	0.237662
545.550548	0.237086
545.909761	0.233776
546.268918	0.234650
546.628019	0.232991
546.987064	0.235735
547.346053	0.237413
547.704986	0.235414
548.063863	0.235643
548.422684	0.235876
548.781449	0.237729
549.140158	0.235167
549.498811	0.237990
549.857408	0.241157
550.215949	0.236171
550.574434	0.239177
550.932864	0.237034
551.291237	0.235861
551.649555	0.237485
552.007817	0.236863
552.366022	0.237852
552.724173	0.238058
553.082267	0.238208
553.440305	0.235184
553.798288	0.239758
554.156215	0.236108
554.514086	0.236755
554.871902	0.239760
555.229661	0.239212
555.587365	0.239635
555.945014	0.242474
556.302606	0.239358
556.660143	0.241815
557.017625	0.238192
557.375050	0.240317
557.732421	0.237431
558.089735	0.239705
558.446994	0.239654
558.804197	0.238876
559.161345	0.238581
559.518437	0.242213
559.875474	0.239900
560.232455	0.239275
560.589381	0.240577
560.946251	0.240595
561.303065	0.238306
561.659825	0.239542
562.016528	0.240921
562.373177	0.243928
562.729770	0.241448
563.086307	0.243242
563.442789	0.241083
563.799216	0.243786
564.155587	0.242688
564.511904	0.243767
564.868164	0.243893
565.224370	0.243525
565.580520	0.245595
565.936615	0.245740
566.292654	0.248455
566.648638	0.245346
567.004567	0.246351
567.360441	0.246870
567.716260	0.248849
568.072023	0.246304
568.427732	0.247406
568.783385	0.249814
569.138982	0.248006
569.494525	0.247498
569.850013	0.250332
570.205445	0.248947
570.560823	0.251459
570.916145	0.253467
571.271412	0.251389
571.626625	0.253157
571.981782	0.253691
572.336884	0.254491
572.691931	0.254059
573.046923	0.255638
573.401860	0.256587
573.756743	0.258284
574.111570	0.257163
574.466342	0.257666
574.821059	0.256858
575.175722	0.259843
575.530330	0.259513
575.884882	0.259483
576.239380	0.261475
576.593823	0.262451
576.948211	0.261814
577.302544	0.265040
577.656823	0.264566
578.011047	0.264938
578.365216	0.265236
578.719330	0.267106
579.073389	0.267072
579.427394	0.268297
579.781344	0.269085
580.135239	0.270644
580.489080	0.270411
580.842866	0.273185
581.196597	0.272623
581.550273	0.271868
581.903895	0.272745
582.257463	0.270875
582.610975	0.274455
582.964434	0.273784
583.317837	0.276322
583.671186	0.276387
584.024481	0.276669
584.377721	0.279180
584.730906	0.279554
585.084037	0.278912
585.437113	0.280662
585.790135	0.280292
586.143103	0.283208
586.496016	0.284410
586.848874	0.281868
587.201679	0.282210
587.554428	0.286174
587.907124	0.284195
588.259765	0.285166
588.612352	0.285825
588.964884	0.289611
589.317362	0.289130
589.669786	0.288876
590.022155	0.287843
590.374470	0.286761
590.726731	0.289050
591.078937	0.293712
591.431090	0.289946
591.783188	0.294359
592.135232	0.294725
592.487222	0.294601
592.839157	0.292645
593.191038	0.295019
593.542866	0.297046
593.894639	0.300624
594.246358	0.298353
594.598022	0.297905
594.949633	0.301575
595.301190	0.302296
595.652692	0.301472
596.004141	0.297677
596.355535	0.305623
596.706876	0.306124
597.058162	0.308610
597.409395	0.306172
597.760573	0.303673
598.111698	0.307042
598.462768	0.307470
598.813785	0.308608
599.164748	0.310034
599.515657	0.310285
599.866511	0.313847
600.217312	0.308776
600.568060	0.314408
600.918753	0.310384
601.269392	0.311589
601.619978	0.314867
601.970510	0.312529
602.320988	0.312636
602.671412	0.310132
603.021783	0.312734
603.372100	0.314036
603.722363	0.313984
604.072572	0.314445
604.422728	0.314636
604.772830	0.316401
605.122878	0.316479
605.472872	0.316781
605.822813	0.315317
606.172701	0.317546
606.522534	0.314744
606.872314	0.315042
607.222041	0.316050
607.571714	0.314375
607.921333	0.315287
608.270899	0.315428
608.620411	0.312059
608.969870	0.315858
609.319276	0.316192
609.668627	0.316186
610.017926	0.314390
610.367171	0.313012
610.716362	0.313392
611.065500	0.313494
611.414585	0.312716
611.763616	0.313373
612.112594	0.313591
612.461518	0.313303
612.810389	0.310885
613.159207	0.313160
613.507971	0.314543
613.856682	0.310889
614.205340	0.312271
614.553945	0.308948
614.902496	0.312576
615.250994	0.310900
615.599439	0.311380
615.947830	0.311340
616.296169	0.312594
616.644454	0.311676
616.992686	0.311717
617.340864	0.309665
617.688990	0.313038
618.037063	0.309631
618.385082	0.311611
618.733048	0.308607
619.080961	0.310683
619.428821	0.310186
619.776628	0.309718
620.124382	0.311735
620.472083	0.312095
620.819731	0.311377
621.167326	0.315293
621.514868	0.315067
621.862357	0.319753
622.209793	0.318772
622.557176	0.320780
622.904506	0.322729
623.251783	0.324569
623.599007	0.326787
623.946179	0.326711
624.293297	0.328274
624.640363	0.332491
624.987376	0.332818
625.334336	0.335102
625.681243	0.337629
626.028097	0.338427
626.374899	0.339529
626.721647	0.339295
627.068343	0.342639
627.414987	0.343944
627.761577	0.345844
628.108115	0.344036
628.454600	0.349509
628.801032	0.346552
629.147412	0.348762
629.493739	0.348904
629.840014	0.351868
630.186236	0.349513
630.532405	0.354891
630.878521	0.352730
631.224585	0.354536
631.570597	0.358615
631.916556	0.356735
632.262462	0.357350
632.608316	0.359162
632.954117	0.359825
633.299866	0.360569
633.645562	0.360709
633.991206	0.365358
634.336797	0.368326
634.682336	0.370981
635.027823	0.372326
635.373257	0.372863
635.718639	0.376285
636.063968	0.375973
636.409245	0.381543
636.754470	0.381881
637.099642	0.384194
637.444762	0.387439
637.789829	0.386924
638.134845	0.390066
638.479808	0.391254
638.824719	0.391380
639.169577	0.395532
639.514383	0.393808
639.859137	0.398274
640.203839	0.397851
640.548489	0.398656
640.893086	0.400149
641.237632	0.401607
641.582125	0.400438
641.926566	0.401770
642.270955	0.401799
642.615292	0.402080
642.959576	0.401068
643.303809	0.401700
643.647990	0.401506
643.992118	0.401834
644.336195	0.405386
644.680219	0.403875
645.024192	0.404837
645.368112	0.398227
645.711981	0.397146
646.055797	0.391874
646.399562	0.394619
646.743274	0.386948
647.086935	0.384378
647.430544	0.384522
647.774101	0.383165
648.117606	0.382865
648.461059	0.383188
648.804460	0.385577
649.147810	0.391013
649.491108	0.392477
649.834354	0.394591
650.177548	0.399395
650.520690	0.405101
650.863781	0.406185
651.206820	0.405369
651.549807	0.410038
651.892742	0.414673
652.235626	0.413546
652.578458	0.414366
652.921238	0.420840
653.263967	0.418271
653.606644	0.422629
653.949269	0.422166
654.291843	0.426116
654.634365	0.422774
654.976836	0.426083
655.319255	0.425959
655.661622	0.427619
656.003938	0.427490
656.346203	0.430858
656.688416	0.428665
657.030577	0.432177
657.372687	0.434234
657.714746	0.434635
658.056753	0.431748
658.398708	0.435500
658.740612	0.436667
659.082465	0.432714
659.424266	0.433069
659.766016	0.432822
660.107715	0.435276
660.449362	0.434841
660.790958	0.435254
661.132503	0.435413
661.473996	0.433330
661.815438	0.433819
662.156829	0.434525
662.498168	0.434905
662.839456	0.436657
663.180693	0.434321
663.521879	0.434114
663.863013	0.435302
664.204097	0.433693
664.545129	0.430468
664.886110	0.431052
665.227040	0.428164
665.567918	0.430817
665.908746	0.428681
666.249522	0.428652
666.590248	0.429417
666.930922	0.427888
667.271545	0.426394
667.612118	0.426713
667.952639	0.428284
668.293109	0.426687
668.633528	0.429725
668.973896	0.429485
669.314213	0.429941
669.654480	0.431810
669.994695	0.432118
670.334859	0.433304
670.674973	0.433478
671.015035	0.433342
671.355047	0.432768
671.695008	0.434374
672.034918	0.436457
672.374777	0.435473
672.714585	0.436277
673.054342	0.436410
673.394049	0.436924
673.733705	0.433954
674.073310	0.435597
674.412864	0.438469
674.752368	0.438938
675.091820	0.438775
675.431223	0.443564
675.770574	0.442953
676.109875	0.446232
676.449125	0.446383
676.788324	0.448959
677.127473	0.453872
677.466571	0.453759
677.805619	0.455501
678.144616	0.456686
678.483562	0.458061
678.822458	0.460920
679.161303	0.462479
679.500098	0.462099
679.838842	0.464507
680.177535	0.464021
680.516179	0.462296
680.854771	0.461374
681.193314	0.454511
681.531805	0.446032
681.870247	0.434339
682.208638	0.426696
682.546978	0.425953
682.885268	0.427459
683.223508	0.433842
683.561697	0.437300
683.899836	0.439992
684.237925	0.443530
684.575963	0.446141
684.913951	0.449430
685.251889	0.445040
685.589776	0.446832
685.927614	0.449151
686.265401	0.443535
686.603137	0.445129
686.940824	0.438865
687.278460	0.436986
687.616046	0.436650
687.953582	0.431417
688.291068	0.432465
688.628504	0.428462
688.965889	0.430392
689.303224	0.434912
689.640510	0.438746
689.977745	0.444839
690.314930	0.452207
690.652065	0.457561
690.989150	0.464576
691.326185	0.471551
691.663170	0.475658
692.000105	0.482782
692.336990	0.489269
692.673825	0.492620
693.010610	0.499009
693.347345	0.504797
693.684030	0.506402
694.020665	0.510410
694.357251	0.519657
694.693786	0.519700
695.030272	0.523520
695.366707	0.526999
695.703093	0.530931
696.039429	0.528415
696.375716	0.529697
696.711952	0.532589
697.048139	0.534613
697.384276	0.536927
697.720363	0.535040
698.056400	0.534354
698.392388	0.540131
698.728326	0.543301
699.064214	0.545420
699.400053	0.546074
699.735842	0.549836
700.071581	0.552806
700.407270	0.555261
700.742910	0.557827
701.078501	0.564725
701.414042	0.564730
701.749533	0.567741
702.084974	0.577174
702.420366	0.568426
702.755709	0.576734
703.091002	0.584525
703.426246	0.578312
703.761440	0.583292
704.096584	0.588769
704.431679	0.585774
704.766725	0.587431
705.101721	0.589624
705.436668	0.585187
705.771565	0.592358
706.106413	0.588921
706.441212	0.584280
706.775961	0.584065
707.110661	0.585692
707.445311	0.582270
707.779913	0.579942
708.114465	0.577900
708.448967	0.574442
708.783421	0.566964
709.117825	0.561443
709.452180	0.561323
709.786485	0.555406
710.120742	0.544674
710.454949	0.547015
710.789107	0.539331
711.123216	0.530191
711.457275	0.531623
711.791286	0.522585
712.125247	0.521707
712.459159	0.532134
712.793023	0.524743
713.126837	0.529564
713.460602	0.529847
713.794318	0.538561
714.127985	0.538159
714.461602	0.547863
714.795171	0.551092
715.128691	0.559016
715.462162	0.565479
715.795584	0.572077
716.128957	0.575073
716.462281	0.581266
716.795556	0.584424
717.128782	0.589651
717.461960	0.600184
717.795088	0.597789
718.128167	0.604790
718.461198	0.612467
718.794180	0.614124
719.127113	0.616468
719.459997	0.619787
719.792833	0.626059
720.125619	0.627184
720.458357	0.632601
720.791046	0.632859
721.123686	0.636311
721.456278	0.643622
721.788821	0.640414
722.121315	0.644678
722.453761	0.649239
722.786158	0.646471
723.118506	0.643661
723.450805	0.651939
723.783056	0.647474
724.115259	0.644068
724.447412	0.643887
724.779518	0.646104
725.111574	0.644182
725.443582	0.639429
725.775542	0.641876
726.107453	0.634037
726.439315	0.634134
726.771129	0.632205
727.102895	0.625536
727.434612	0.618401
727.766281	0.616768
728.097901	0.615846
728.429473	0.616238
728.760996	0.614037
729.092471	0.614039
729.423897	0.618436
729.755276	0.616794
730.086606	0.617079
730.417887	0.610700
730.749120	0.602164
731.080305	0.592782
731.411442	0.589189
731.742530	0.594338
732.073570	0.592753
732.404562	0.585713
732.735506	0.586808
733.066401	0.591495
733.397249	0.601081
733.728048	0.611975
734.058798	0.625360
734.389501	0.635170
734.720156	0.645145
735.050762	0.653619
735.381320	0.654286
735.711831	0.663625
736.042293	0.668922
736.372707	0.664238
736.703073	0.668770
737.033391	0.670781
737.363661	0.668050
737.693883	0.663462
738.024056	0.661915
738.354182	0.662738
738.684260	0.651140
739.014290	0.648124
739.344272	0.648474
739.674207	0.642235
740.004093	0.641229
740.333931	0.641881
740.663722	0.641446
740.993464	0.642461
741.323159	0.646226
741.652806	0.651676
741.982405	0.656132
742.311956	0.660642
742.641460	0.662614
742.970915	0.666381
743.300323	0.673927
743.629683	0.680396
743.958996	0.682950
744.288260	0.686667
744.617477	0.692737
744.946647	0.695388
745.275768	0.699513
745.604842	0.699862
745.933869	0.709966
746.262847	0.710202
746.591778	0.703112
746.920662	0.709202
747.249498	0.715812
747.578286	0.707573
747.907027	0.703724
748.235720	0.705358
748.564365	0.698190
748.892963	0.698715
749.221514	0.701857
749.550017	0.707197
749.878473	0.706260
750.206881	0.712713
750.535242	0.714571
750.863555	0.714120
751.191821	0.716525
751.520039	0.719134
751.848210	0.723324
752.176334	0.716183
752.504411	0.715207
752.832440	0.722369
753.160421	0.727076
753.488356	0.725091
753.816243	0.723273
754.144082	0.730417
754.471875	0.734366
754.799620	0.729365
755.127318	0.731821
755.454969	0.731282
755.782572	0.729744
756.110129	0.736205
756.437638	0.737858
756.765100	0.734614
757.092515	0.733272
757.419882	0.731852
757.747203	0.737254
758.074477	0.736491
758.401703	0.733510
758.728882	0.728614
759.056014	0.727047
759.383099	0.726823
759.710138	0.728062
760.037129	0.723940
760.364073	0.718279
760.690970	0.720707
761.017820	0.726626
761.344623	0.721290
761.671379	0.712829
761.998088	0.700863
762.324751	0.678569
762.651366	0.636580
762.977935	0.569534
763.304456	0.517270
763.630931	0.507272
763.957359	0.546781
764.283740	0.591167
764.610074	0.618826
764.936362	0.649043
765.262602	0.676565
765.588796	0.697963
765.914943	0.716196
766.241044	0.732999
766.567097	0.740509
766.893104	0.749897
767.219064	0.756381
767.544978	0.763981
767.870845	0.776340
768.196665	0.780194
768.522438	0.778090
768.848165	0.779737
769.173846	0.788182
769.499479	0.792861
769.825066	0.796885
770.150607	0.801769
770.476101	0.797324
770.801548	0.798236
771.126949	0.809392
771.452303	0.813153
771.777611	0.813082
772.102872	0.811762
772.428087	0.816443
772.753256	0.819595
773.078378	0.822294
773.403453	0.831493
773.728482	0.835654
774.053465	0.828979
774.378401	0.832117
774.703291	0.840727
775.028135	0.841163
775.352932	0.841640
775.677683	0.845657
776.002388	0.845991
776.327046	0.844630
776.651658	0.847959
776.976224	0.851244
777.300743	0.852359
777.625216	0.853894
777.949643	0.855718
778.274024	0.855708
778.598359	0.857481
778.922647	0.855719
779.246889	0.857033
779.571086	0.861427
779.895236	0.862659
780.219339	0.860831
780.543397	0.857102
780.867409	0.855248
781.191374	0.858056
781.515294	0.860353
781.839167	0.858615
782.162995	0.862276
782.486776	0.858216
782.810511	0.859591
783.134201	0.863474
783.457844	0.861012
783.781441	0.864079
784.104993	0.870317
784.428498	0.870225
784.751958	0.865158
785.075372	0.867621
785.398739	0.870973
785.722061	0.867911
786.045337	0.863198
786.368568	0.869534
786.691752	0.871465
787.014891	0.855886
787.337983	0.848232
787.661030	0.840909
787.984031	0.821671
788.306987	0.809555
788.629897	0.811507
788.952760	0.815815
789.275579	0.819986
789.598351	0.835058
789.921078	0.848853
790.243759	0.851010
790.566395	0.855827
790.888984	0.862796
791.211529	0.867335
791.534027	0.870208
791.856480	0.873861
792.178888	0.879306
792.501249	0.880884
792.823566	0.882572
793.145836	0.881360
793.468062	0.884598
793.790241	0.884465
794.112375	0.882089
794.434464	0.877552
794.756507	0.877465
795.078505	0.876066
795.400457	0.871503
795.722364	0.858889
796.044226	0.852755
796.366042	0.850300
796.687812	0.854344
797.009538	0.850453
797.331218	0.853352
797.652852	0.858645
797.974442	0.863993
798.295986	0.863031
798.617484	0.865749
798.938938	0.870100
799.260346	0.876188
799.581709	0.877389
799.903026	0.879751
800.224299	0.878951
800.545526	0.884934
800.866708	0.888407
801.187845	0.891670
801.508936	0.891471
801.829983	0.889150
802.150984	0.891282
802.471940	0.896740
802.792851	0.894751
803.113717	0.896914
803.434538	0.895109
803.755314	0.897424
804.076045	0.898806
804.396731	0.898613
804.717372	0.898599
805.037967	0.900863
805.358518	0.898056
805.679024	0.895929
805.999485	0.895378
806.319901	0.896186
806.640272	0.897567
806.960598	0.895736
807.280879	0.892858
807.601115	0.891103
807.921306	0.894804
808.241453	0.895889
808.561554	0.892158
808.881611	0.893760
809.201623	0.895520
809.521590	0.895052
809.841513	0.896575
810.161390	0.896093
810.481223	0.897205
810.801011	0.900280
811.120755	0.901992
811.440453	0.901132
811.760107	0.899766
812.079716	0.899194
812.399281	0.903094
812.718801	0.905522
813.038276	0.906208
813.357707	0.906214
813.677093	0.902776
813.996434	0.905621
814.315731	0.908251
814.634983	0.908786
814.954191	0.906624
815.273354	0.904264
815.592473	0.900197
815.911547	0.900768
816.230577	0.897942
816.549562	0.895055
816.868502	0.896591
817.187399	0.892419
817.506250	0.888062
817.825058	0.889641
818.143821	0.886158
818.462539	0.879661
818.781213	0.872142
819.099843	0.860000
819.418429	0.845920
819.736970	0.828096
820.055466	0.807984
820.373919	0.783778
820.692327	0.749335
821.010691	0.714188
821.329011	0.636334
821.647286	0.519791
821.965517	0.405908
822.283704	0.362686
822.601847	0.363771
822.919945	0.399059
823.237999	0.433558
823.556010	0.480765
823.873976	0.536765
824.191897	0.588107
824.509775	0.630662
824.827609	0.677173
825.145398	0.698644
825.463144	0.702734
825.780845	0.685156
826.098502	0.666257
826.416116	0.619818
826.733685	0.576079
827.051210	0.566707
827.368692	0.581473
827.686129	0.619287
828.003522	0.672890
828.320872	0.721010
828.638177	0.765176
828.955439	0.798873
829.272656	0.819778
829.589830	0.837156
829.906960	0.852151
830.224046	0.865849
830.541088	0.877011
830.858086	0.879906
831.175041	0.886403
831.491952	0.885638
831.808819	0.881748
832.125642	0.875408
832.442421	0.860424
832.759157	0.838717
833.075849	0.792035
833.392497	0.727623
833.709101	0.687696
834.025662	0.695878
834.342179	0.728268
834.658653	0.767669
834.975083	0.804362
835.291469	0.829404
835.607811	0.853909
835.924110	0.869011
836.240366	0.886967
836.556578	0.901112
836.872746	0.907867
837.188871	0.913915
837.504952	0.919527
837.820990	0.923167
838.136984	0.926289
838.452935	0.930262
838.768842	0.931067
839.084706	0.924700
839.400526	0.898310
839.716303	0.857818
840.032037	0.834760
840.347727	0.838055
840.663373	0.857668
840.978977	0.879209
841.294537	0.901444
841.610054	0.917839
841.925527	0.925600
842.240957	0.932114
842.556344	0.939045
842.871687	0.945583
843.186987	0.949556
843.502244	0.949231
843.817458	0.952058
844.132629	0.956036
844.447756	0.960089
844.762840	0.960944
845.077881	0.958884
845.392879	0.959832
845.707833	0.962926
846.022745	0.964089
846.337613	0.964516
846.652438	0.966386
846.967221	0.964809
847.281960	0.964784
847.596656	0.966503
847.911309	0.966145
848.225919	0.967181
848.540485	0.968492
848.855009	0.968544
849.169490	0.968724
849.483928	0.968360
849.798323	0.969523
850.112675	0.969610
850.426984	0.969826
850.741251	0.969429
851.055474	0.970897
851.369654	0.967687
851.683792	0.969735
851.997887	0.970255
852.311938	0.970012
852.625947	0.969012
852.939914	0.968194
853.253837	0.968435
853.567718	0.970133
853.881555	0.970924
854.195350	0.966740
854.509103	0.970030
854.822812	0.969435
855.136479	0.969907
855.450103	0.969916
855.763685	0.968580
856.077224	0.968160
856.390720	0.971026
856.704173	0.970459
857.017584	0.968796
857.330953	0.965969
857.644278	0.967688
857.957561	0.968137
858.270802	0.967774
858.584000	0.968558
858.897155	0.965828
859.210268	0.967737
859.523339	0.967968
859.836367	0.969409
860.149352	0.970066
860.462295	0.968783
860.775195	0.968399
861.088054	0.968950
861.400869	0.969303
861.713642	0.970194
862.026373	0.969694
862.339062	0.969757
862.651708	0.967471
862.964312	0.967538
863.276873	0.968674
863.589392	0.968463
863.901869	0.965707
864.214303	0.964080
864.526696	0.962892
864.839045	0.963668
865.151353	0.961745
865.463619	0.962158
865.775842	0.962669
866.088023	0.961458
866.400162	0.962092
866.712258	0.962431
867.024313	0.962348
867.336325	0.963135
867.648296	0.963682
867.960224	0.962608
868.272110	0.962133
868.583954	0.963524
868.895755	0.963817
869.207515	0.961427
869.519233	0.958609
869.830909	0.960882
870.142542	0.961938
870.454134	0.962036
870.765684	0.960671
871.077191	0.957333
871.388657	0.958612
871.700081	0.956779
872.011463	0.957803
872.322803	0.957348
872.634101	0.955201
872.945357	0.953657
873.256571	0.952505
873.567744	0.952251
873.878874	0.952009
874.189963	0.950395
874.501010	0.951022
874.812015	0.949288
875.122979	0.951186
875.433900	0.952117
875.744780	0.952893
876.055618	0.951326
876.366415	0.950106
876.677169	0.949562
876.987882	0.951167
877.298554	0.950241
877.609183	0.946586
877.919771	0.943654
878.230317	0.941284
878.540822	0.938675
878.851285	0.933892
879.161707	0.926087
879.472087	0.913975
879.782425	0.897168
880.092722	0.863148
880.402977	0.810422
880.713191	0.748542
881.023363	0.687974
881.333494	0.653742
881.643583	0.625971
881.953631	0.625804
882.263637	0.654372
882.573602	0.692912
882.883526	0.720490
883.193408	0.744384
883.503248	0.767153
883.813048	0.794143
884.122806	0.824316
884.432522	0.847827
884.742197	0.868527
885.051831	0.880015
885.361424	0.889948
885.670975	0.902371
885.980485	0.912225
886.289954	0.918018
886.599382	0.923858
886.908768	0.927475
887.218113	0.932966
887.527417	0.938368
887.836680	0.940840
888.145901	0.943129
888.455082	0.945828
888.764221	0.948818
889.073319	0.951689
889.382376	0.952894
889.691392	0.952464
890.000366	0.951920
890.309300	0.953344
890.618193	0.952053
890.927044	0.950211
891.235855	0.950604
891.544625	0.950642
891.853353	0.951542
892.162041	0.948964
892.470687	0.942345
892.779293	0.936547
893.087858	0.932626
893.396381	0.925215
893.704864	0.912228
894.013306	0.888028
894.321707	0.861886
894.630068	0.845265
894.938387	0.839817
895.246665	0.841478
895.554903	0.854853
895.863100	0.867298
896.171256	0.885652
896.479371	0.905128
896.787446	0.917892
897.095480	0.923997
897.403473	0.927729
897.711425	0.932095
898.019336	0.938994
898.327207	0.941283
898.635038	0.944363
898.942827	0.944712
899.250576	0.946962
899.558284	0.950778
899.865952	0.952547
900.173579	0.955713
900.481165	0.954916
900.788711	0.958865
901.096216	0.961682
901.403681	0.960237
901.711105	0.962392
902.018489	0.963754
902.325832	0.961659
902.633135	0.960893
902.940397	0.954907
903.247619	0.942811
903.554800	0.915222
903.861941	0.876573
904.169041	0.839726
904.476101	0.822304
904.783121	0.823487
905.090100	0.840030
905.397039	0.861231
905.703938	0.884334
906.010796	0.904342
906.317614	0.920883
906.624391	0.932365
906.931129	0.943419
907.237826	0.950208
907.544483	0.957932
907.851099	0.962418
908.157675	0.967340
908.464211	0.968008
908.770707	0.971085
909.077163	0.973726
909.383578	0.973453
909.689954	0.975508
909.996289	0.973922
910.302584	0.977183
910.608839	0.978270
910.915054	0.977882
911.221229	0.978320
911.527363	0.976180
911.833458	0.976945
912.139513	0.975767
912.445527	0.975023
912.751502	0.974061
913.057436	0.971900
913.363331	0.968967
913.669186	0.965616
913.975000	0.959944
914.280775	0.954812
914.586510	0.947062
914.892205	0.933957
915.197859	0.912591
915.503475	0.883705
915.809050	0.864541
916.114585	0.858161
916.420081	0.855211
916.725536	0.852411
917.030952	0.861538
917.336328	0.873742
917.641665	0.888861
917.946961	0.904549
918.252218	0.917295
918.557435	0.926163
918.862612	0.934767
919.167750	0.940890
919.472848	0.945614
919.777906	0.951393
920.082925	0.958032
920.387904	0.961754
920.692843	0.961896
920.997743	0.962715
921.302603	0.966312
921.607423	0.969026
921.912204	0.971336
922.216946	0.972401
922.521647	0.973244
922.826310	0.974909
923.130932	0.976540
923.435516	0.978047
923.740059	0.979413
924.044564	0.978169
924.349028	0.979842
924.653454	0.982509
924.957840	0.986013
925.262186	0.984779
925.566493	0.982663
925.870761	0.985109
926.174989	0.985806
926.479178	0.988978
926.783328	0.988232
927.087438	0.989788
927.391509	0.988311
927.695541	0.990418
927.999533	0.988027
928.303486	0.989203
928.607400	0.991281
928.911275	0.989083
929.215110	0.989516
929.518906	0.990675
929.822663	0.990868
930.126381	0.990878
930.430060	0.989920
930.733699	0.990350
931.037299	0.989337
931.340861	0.990544
931.644383	0.989235
931.947866	0.988273
932.251309	0.990304
932.554714	0.989404
932.858080	0.990366
933.161407	0.990186
933.464694	0.990522
933.767943	0.989421
934.071153	0.990735
934.374323	0.990808
934.677455	0.990820
934.980548	0.992518
935.283602	0.991017
935.586617	0.990982
935.889593	0.990090
936.192530	0.991446
936.495428	0.990754
936.798287	0.990960
937.101108	0.988685
937.403890	0.988922
937.706632	0.989394
938.009336	0.986920
938.312002	0.986254
938.614628	0.985770
938.917216	0.983503
939.219765	0.981622
939.522275	0.983075
939.824747	0.982615
940.127179	0.983088
940.429573	0.984332
940.731929	0.984035
941.034246	0.983906
941.336524	0.985665
941.638763	0.985767
941.940964	0.985502
942.243126	0.986583
942.545250	0.987812
942.847335	0.987360
943.149381	0.987606
943.451389	0.987942
943.753359	0.987344
944.055290	0.990931
944.357182	0.989075
944.659036	0.987918
944.960851	0.988972
945.262628	0.989271
945.564367	0.990239
945.866067	0.989526
946.167729	0.989635
946.469352	0.988595
946.770937	0.987403
947.072484	0.990030
947.373992	0.989491
947.675462	0.990471
947.976893	0.988714
948.278286	0.989997
948.579641	0.990780
948.880958	0.989702
949.182236	0.991208
949.483476	0.991694
949.784678	0.990644
950.085841	0.990126
950.386967	0.990161
950.688054	0.990166
950.989103	0.990220
951.290114	0.988746
951.591087	0.989694
951.892021	0.989437
952.192917	0.989129
952.493776	0.987415
952.794596	0.988213
953.095378	0.988467
953.396122	0.988113
953.696828	0.987052
953.997496	0.989511
954.298126	0.990317
954.598718	0.989850
954.899272	0.990812
955.199788	0.990973
955.500266	0.993147
955.800706	0.993087
956.101108	0.992488
956.401472	0.993776
956.701798	0.994081
957.002087	0.992526
957.302337	0.993547
957.602550	0.995503
957.902724	0.995261
958.202861	0.995057
958.502960	0.996273
958.803022	0.993655
959.103045	0.995451
959.403031	0.996494
959.702979	0.995009
960.002889	0.997220
960.302762	0.994251
960.602596	0.995519
960.902393	0.995135
961.202153	0.996513
961.501875	0.997326
961.801559	0.996239
962.101205	0.997539
962.400814	0.996374
962.700385	0.996375
962.999918	0.997228
963.299414	0.996694
963.598873	0.995522
963.898293	0.995346
964.197677	0.996329
964.497022	0.996087
964.796331	0.997625
965.095601	0.997576
965.394835	0.996742
965.694030	0.996576
965.993189	0.996987
966.292309	0.996941
966.591393	0.998014
966.890439	0.997117
967.189447	0.996929
967.488419	0.997621
967.787353	0.997024
968.086249	0.996404
968.385108	0.996885
968.683930	0.997462
968.982714	0.998131
969.281462	0.997238
969.580172	0.997262
969.878844	0.996880
970.177480	0.996318
970.476078	0.997003
970.774639	0.996146
971.073162	0.997470
971.371649	0.995763
971.670098	0.996398
971.968510	0.999261
972.266885	0.995764
972.565223	0.995918
972.863524	0.995537
973.161788	0.996670
973.460014	0.997214
973.758204	0.996665
974.056356	0.996308
974.354471	0.994611
974.652550	0.997044
974.950591	0.996065
975.248595	0.996877
975.546563	0.997657
975.844493	0.997552
976.142386	0.997355
976.440243	0.997885
976.738062	0.996414
977.035845	0.996345
977.333590	0.996521
977.631299	0.999296
977.928971	0.997576
978.226606	0.996278
978.524204	0.995464
978.821765	0.998630
979.119290	0.996754
979.416777	0.996810
979.714228	0.997786
980.011642	0.996393
980.309020	0.998571
980.606360	0.996994
980.903664	0.998028
981.200931	0.996527
981.498162	0.994954
981.795356	0.995269
982.092513	0.993871
982.389633	0.994888
982.686717	0.991991
982.983764	0.991940
983.280775	0.990869
983.577749	0.990136
983.874686	0.992612
984.171587	0.990461
984.468451	0.994752
984.765279	0.994520
985.062070	0.994719
985.358824	0.995007
985.655543	0.995290
985.952224	0.995571
986.248869	0.996380
986.545478	0.997462
986.842050	0.998238
987.138586	0.996370
987.435086	0.997967
987.731549	0.997959
988.027975	0.997182
988.324366	0.997355
988.620719	0.997074
988.917037	0.996169
989.213318	0.997009
989.509563	0.997933
989.805772	0.998610
990.101944	0.998001
990.398080	0.996883
990.694180	0.997455
990.990244	0.997023
991.286271	0.999319
991.582262	0.998035
991.878217	0.998467
992.174136	0.998176
992.470019	0.999224
992.765865	0.998731
993.061676	0.998223
993.357450	0.998174
993.653188	0.996551
993.948890	0.997470
994.244556	0.997462
994.540186	0.995619
994.835780	0.995518
995.131337	0.998068
995.426859	0.996574
995.722345	0.998008
996.017795	0.995431
996.313208	0.996632
996.608586	0.996418
996.903928	0.996374
997.199234	0.996081
997.494504	0.996000
997.789738	0.996577
998.084936	0.996504
998.380099	0.997646
998.675225	0.997404
998.970316	0.997955
999.265371	0.997763
999.560390	0.997372
999.855373	0.998661
1000.150320	0.997851
1000.445232	0.998208
1000.740108	0.998064
1001.034948	0.998781
1001.329752	0.999401
1001.624521	0.999704
1001.919254	0.998884
1002.213951	0.999124
1002.508613	0.997333
1002.803239	0.998689
1003.097829	0.999295
1003.392384	0.998940
1003.686903	0.999293
1003.981386	0.998185
1004.275834	0.999128
1004.570246	0.998218
1004.864623	0.999548
1005.158964	1.000190
1005.453270	0.998088
1005.747540	0.997799
1006.041775	0.997898
1006.335974	1.000022
1006.630138	0.999668
1006.924266	0.999591
1007.218359	1.000276
1007.512416	0.999352
1007.806438	1.000213
1008.100425	0.999255
1008.394376	0.999321
1008.688292	0.999530
1008.982172	0.999829
1009.276017	1.000009
1009.569827	0.998450
1009.863602	0.998758
1010.157341	0.999421
1010.451045	0.999761
1010.744714	0.999288
1011.038347	0.999315
1011.331945	0.998858
1011.625508	0.998829
1011.919036	0.999597
1012.212528	0.998876
1012.505986	0.997616
1012.799408	0.998259
1013.092795	1.000160
1013.386147	0.999364
1013.679464	1.000447
1013.972745	0.997628
1014.265992	0.997531
1014.559204	0.999264
1014.852380	0.998406
1015.145521	0.998967
1015.438628	0.999172
1015.731699	0.998637
1016.024736	0.998882
1016.317737	0.998898
1016.610703	0.999190
1016.903635	0.999128
1017.196531	1.000025
1017.489393	0.998859
1017.782219	0.999516
1018.075011	0.998526
1018.367768	0.999269
1018.660490	0.999903
1018.953177	0.999903
1019.245829	0.999903
