Dividing Wavelength (nm)	Counts (n)	Blue Motor Position (mm): 0.000000	Red Motor Position (mm): 17.100000	
326.493990	1.001195
326.888308	1.001195
327.282561	1.001195
327.676750	1.000067
328.070874	0.998997
328.464933	1.001053
328.858929	1.000071
329.252859	0.999721
329.646726	0.998245
330.040528	1.000066
330.434265	1.000150
330.827938	0.999340
331.221547	1.001881
331.615091	0.999373
332.008571	1.000540
332.401986	1.000222
332.795338	1.000433
333.188625	0.997253
333.581847	1.000889
333.975006	1.000568
334.368100	0.999594
334.761129	1.000585
335.154095	1.001220
335.546996	0.998032
335.939833	0.993867
336.332606	0.994409
336.725315	0.995718
337.117960	0.995021
337.510540	0.994526
337.903056	0.994307
338.295508	0.993026
338.687896	0.994752
339.080220	0.993881
339.472480	0.994610
339.864676	0.993900
340.256807	0.994223
340.648875	0.994633
341.040879	0.995470
341.432818	0.993343
341.824694	0.993642
342.216506	0.994964
342.608253	0.993745
342.999937	0.993933
343.391557	0.995650
343.783113	0.994018
344.174605	0.994182
344.566033	0.994016
344.957397	0.994405
345.348697	0.993514
345.739934	0.994522
346.131106	0.993999
346.522215	0.993336
346.913260	0.994567
347.304241	0.993109
347.695159	0.993726
348.086012	0.992392
348.476802	0.994870
348.867528	0.994072
349.258191	0.992691
349.648789	0.994478
350.039324	0.993931
350.429796	0.995159
350.820203	0.995202
351.210548	0.994054
351.600828	0.995133
351.991045	0.993715
352.381198	0.994225
352.771288	0.994070
353.161314	0.993540
353.551276	0.995003
353.941175	0.994060
354.331010	0.993791
354.720782	0.994039
355.110490	0.994311
355.500135	0.995034
355.889717	0.994337
356.279235	0.992741
356.668689	0.993727
357.058080	0.993707
357.447408	0.994549
357.836672	0.995410
358.225873	0.993944
358.615010	0.993537
359.004084	0.995223
359.393095	0.994841
359.782043	0.995514
360.170927	0.995477
360.559748	0.995479
360.948505	0.993579
361.337199	0.994137
361.725830	0.993780
362.114398	0.993885
362.502903	0.994704
362.891344	0.994565
363.279722	0.993852
363.668037	0.994339
364.056289	0.993784
364.444478	0.994533
364.832603	0.994983
365.220665	0.993361
365.608665	0.993480
365.996601	0.994205
366.384474	0.993954
366.772284	0.994857
367.160031	0.993834
367.547715	0.993389
367.935336	0.993317
368.322893	0.993863
368.710388	0.992671
369.097820	0.994404
369.485189	0.994663
369.872495	0.993623
370.259738	0.992993
370.646918	0.995262
371.034035	0.994264
371.421090	0.994619
371.808081	0.993973
372.195010	0.995178
372.581875	0.993751
372.968678	0.993964
373.355418	0.993954
373.742096	0.993775
374.128710	0.994753
374.515262	0.994029
374.901751	0.994145
375.288177	0.994168
375.674540	0.994259
376.060841	0.994292
376.447079	0.993861
376.833254	0.995038
377.219367	0.993584
377.605417	0.994401
377.991404	0.995279
378.377329	0.993100
378.763191	0.994367
379.148991	0.996002
379.534727	0.996877
379.920402	0.995325
380.306013	0.994364
380.691563	0.995173
381.077049	0.994365
381.462474	0.993708
381.847835	0.995020
382.233134	0.994889
382.618371	0.994587
383.003545	0.994287
383.388657	0.994320
383.773706	0.995463
384.158693	0.994979
384.543618	0.995342
384.928480	0.995017
385.313280	0.994776
385.698017	0.995881
386.082692	0.995260
386.467305	0.995664
386.851856	0.994348
387.236344	0.994220
387.620770	0.993860
388.005133	0.994725
388.389435	0.996221
388.773674	0.994089
389.157851	0.995910
389.541965	0.994297
389.926018	0.994414
390.310008	0.995354
390.693936	0.994368
391.077802	0.994636
391.461606	0.995442
391.845348	0.995341
392.229027	0.995499
392.612645	0.995041
392.996200	0.996124
393.379694	0.994285
393.763125	0.995258
394.146494	0.994809
394.529801	0.994764
394.913047	0.995998
395.296230	0.994449
395.679351	0.995010
396.062410	0.993523
396.445408	0.994644
396.828343	0.994588
397.211217	0.993605
397.594028	0.994688
397.976778	0.993989
398.359466	0.993991
398.742092	0.993364
399.124656	0.993389
399.507158	0.992634
399.889598	0.992618
400.271977	0.991853
400.654294	0.990844
401.036549	0.989888
401.418742	0.988545
401.800874	0.986611
402.182944	0.984725
402.564952	0.981737
402.946898	0.981621
403.328783	0.979160
403.710606	0.977131
404.092367	0.973456
404.474067	0.970098
404.855705	0.966261
405.237282	0.964263
405.618797	0.958792
406.000250	0.953853
406.381642	0.948738
406.762972	0.945819
407.144240	0.941111
407.525447	0.935486
407.906593	0.929463
408.287677	0.923312
408.668700	0.919686
409.049661	0.910700
409.430560	0.905182
409.811399	0.899467
410.192176	0.889301
410.572891	0.884311
410.953545	0.874573
411.334138	0.869848
411.714669	0.861883
412.095139	0.857477
412.475547	0.845510
412.855894	0.837822
413.236180	0.829198
413.616405	0.823233
413.996568	0.812501
414.376670	0.804834
414.756711	0.798207
415.136691	0.788897
415.516609	0.775936
415.896466	0.765588
416.276262	0.754280
416.655997	0.747881
417.035670	0.728671
417.415283	0.715443
417.794834	0.709114
418.174324	0.704467
418.553753	0.701716
418.933121	0.681526
419.312428	0.668362
419.691674	0.663147
420.070859	0.647114
420.449983	0.644357
420.829045	0.628882
421.208047	0.627821
421.586988	0.615280
421.965867	0.606703
422.344686	0.590007
422.723444	0.592631
423.102141	0.599219
423.480777	0.571327
423.859352	0.581369
424.237866	0.555947
424.616319	0.551138
424.994712	0.538043
425.373044	0.541699
425.751314	0.525141
426.129524	0.533965
426.507673	0.515040
426.885762	0.504831
427.263789	0.505355
427.641756	0.510135
428.019662	0.497133
428.397508	0.492452
428.775292	0.493178
429.153016	0.482085
429.530679	0.485267
429.908282	0.476429
430.285824	0.483191
430.663305	0.460012
431.040726	0.477416
431.418086	0.475919
431.795385	0.465827
432.172624	0.463164
432.549802	0.462182
432.926920	0.459561
433.303977	0.457349
433.680974	0.453846
434.057910	0.451124
434.434786	0.450021
434.811601	0.451311
435.188355	0.433133
435.565050	0.441240
435.941683	0.442141
436.318257	0.426627
436.694770	0.426413
437.071222	0.423589
437.447614	0.428503
437.823946	0.433864
438.200218	0.423253
438.576429	0.432603
438.952580	0.426061
439.328670	0.421945
439.704700	0.428873
440.080670	0.429137
440.456580	0.411028
440.832429	0.417553
441.208218	0.429218
441.583947	0.418549
441.959616	0.417628
442.335224	0.422715
442.710773	0.413174
443.086261	0.411642
443.461689	0.425222
443.837057	0.415176
444.212365	0.405356
444.587612	0.411925
444.962800	0.401673
445.337927	0.402664
445.712995	0.429296
446.088002	0.392036
446.462949	0.402099
446.837837	0.406336
447.212664	0.395561
447.587431	0.387028
447.962139	0.357448
448.336786	0.317173
448.711374	0.327359
449.085901	0.370957
449.460369	0.375480
449.834776	0.378988
450.209124	0.358280
450.583412	0.351123
450.957640	0.344044
451.331808	0.355387
451.705917	0.378772
452.079965	0.383158
452.453954	0.371601
452.827883	0.378054
453.201752	0.373277
453.575562	0.384620
453.949311	0.373274
454.323001	0.378994
454.696632	0.375316
455.070202	0.367762
455.443713	0.359055
455.817164	0.354560
456.190556	0.350349
456.563888	0.346591
456.937160	0.344367
457.310373	0.361668
457.683526	0.360426
458.056619	0.365820
458.429653	0.366824
458.802628	0.369939
459.175542	0.364453
459.548398	0.347021
459.921194	0.339769
460.293930	0.339429
460.666607	0.316803
461.039224	0.305379
461.411782	0.301323
461.784280	0.300767
462.156719	0.304801
462.529099	0.308984
462.901419	0.325253
463.273680	0.329700
463.645882	0.328953
464.018024	0.335239
464.390106	0.328019
464.762130	0.312798
465.134094	0.295557
465.505999	0.264863
465.877845	0.235656
466.249631	0.222506
466.621358	0.229994
466.993026	0.243906
467.364634	0.249989
467.736184	0.258930
468.107674	0.267287
468.479105	0.266385
468.850477	0.273319
469.221790	0.280350
469.593043	0.290315
469.964238	0.295561
470.335373	0.294389
470.706449	0.293029
471.077467	0.293531
471.448425	0.255824
471.819324	0.231388
472.190164	0.230683
472.560945	0.259410
472.931667	0.281530
473.302330	0.285947
473.672934	0.297636
474.043479	0.285911
474.413965	0.287417
474.784393	0.291068
475.154761	0.286484
475.525070	0.283551
475.895321	0.289144
476.265513	0.283142
476.635645	0.278698
477.005719	0.278627
477.375734	0.274919
477.745691	0.268651
478.115588	0.265034
478.485427	0.258630
478.855207	0.245728
479.224928	0.227966
479.594591	0.216212
479.964194	0.219730
480.333739	0.220720
480.703226	0.222124
481.072653	0.220829
481.442022	0.216463
481.811333	0.212973
482.180584	0.216218
482.549777	0.221637
482.918912	0.225141
483.287988	0.224560
483.657005	0.224353
484.025964	0.230851
484.394864	0.228404
484.763706	0.228764
485.132489	0.233329
485.501213	0.234510
485.869879	0.232580
486.238487	0.235999
486.607036	0.233836
486.975527	0.238524
487.343959	0.234263
487.712333	0.233222
488.080648	0.234430
488.448905	0.233947
488.817104	0.235110
489.185244	0.229641
489.553326	0.226206
489.921350	0.216295
490.289315	0.198898
490.657222	0.193891
491.025070	0.195178
491.392861	0.196997
491.760593	0.202854
492.128267	0.208304
492.495883	0.214070
492.863440	0.220239
493.230939	0.226434
493.598380	0.227971
493.965763	0.230101
494.333088	0.232324
494.700354	0.233777
495.067563	0.232784
495.434713	0.236118
495.801805	0.233968
496.168839	0.235481
496.535815	0.236693
496.902733	0.236648
497.269593	0.238355
497.636395	0.236322
498.003139	0.236493
498.369825	0.239351
498.736453	0.235904
499.103023	0.237303
499.469535	0.236862
499.835989	0.237196
500.202385	0.237778
500.568723	0.241345
500.935003	0.236355
501.301226	0.240637
501.667390	0.235117
502.033497	0.233149
502.399546	0.235981
502.765537	0.237866
503.131470	0.236140
503.497345	0.232532
503.863163	0.241332
504.228923	0.234128
504.594625	0.232841
504.960269	0.238257
505.325856	0.233646
505.691385	0.237876
506.056856	0.234595
506.422270	0.234200
506.787625	0.236417
507.152924	0.233798
507.518164	0.234414
507.883347	0.236003
508.248472	0.238088
508.613540	0.233127
508.978550	0.235550
509.343503	0.235739
509.708398	0.233530
510.073236	0.231055
510.438016	0.231298
510.802738	0.231956
511.167403	0.231153
511.532010	0.233081
511.896561	0.228362
512.261053	0.227277
512.625488	0.229353
512.989866	0.229647
513.354186	0.229805
513.718449	0.231763
514.082655	0.228113
514.446803	0.230281
514.810894	0.228130
515.174927	0.230760
515.538904	0.229987
515.902822	0.227089
516.266684	0.229466
516.630488	0.230684
516.994235	0.229310
517.357925	0.227997
517.721558	0.226496
518.085133	0.225840
518.448651	0.225781
518.812112	0.228132
519.175516	0.227725
519.538863	0.225620
519.902152	0.227097
520.265385	0.224157
520.628560	0.225585
520.991678	0.226165
521.354739	0.225087
521.717743	0.226363
522.080690	0.226824
522.443580	0.223994
522.806413	0.225068
523.169189	0.224008
523.531908	0.223206
523.894569	0.226671
524.257174	0.226673
524.619722	0.224363
524.982213	0.225719
525.344647	0.224367
525.707025	0.225103
526.069345	0.223456
526.431608	0.225104
526.793815	0.222995
527.155964	0.227174
527.518057	0.226178
527.880093	0.227045
528.242072	0.225885
528.603995	0.227471
528.965860	0.229170
529.327669	0.228220
529.689421	0.228992
530.051117	0.229670
530.412755	0.227578
530.774337	0.229851
531.135862	0.230126
531.497331	0.229397
531.858743	0.232683
532.220098	0.229196
532.581396	0.231745
532.942638	0.232238
533.303824	0.233094
533.664953	0.232956
534.026025	0.234575
534.387040	0.232578
534.747999	0.232518
535.108902	0.231309
535.469748	0.236356
535.830537	0.234134
536.191270	0.234705
536.551947	0.234135
536.912567	0.234120
537.273131	0.235839
537.633638	0.236279
537.994089	0.236481
538.354483	0.237489
538.714821	0.234203
539.075103	0.234147
539.435328	0.234964
539.795497	0.238540
540.155609	0.235214
540.515665	0.233607
540.875665	0.239105
541.235609	0.237761
541.595496	0.237760
541.955328	0.234202
542.315102	0.237260
542.674821	0.237990
543.034483	0.238163
543.394090	0.237585
543.753640	0.239366
544.113134	0.234459
544.472571	0.237731
544.831953	0.234636
545.191278	0.238864
545.550548	0.238449
545.909761	0.235098
546.268918	0.235887
546.628019	0.234089
546.987064	0.237080
547.346053	0.238505
547.704986	0.236511
548.063863	0.236989
548.422684	0.237113
548.781449	0.239056
549.140158	0.236592
549.498811	0.239393
549.857408	0.242131
550.215949	0.237215
550.574434	0.240496
550.932864	0.238285
551.291237	0.236756
551.649555	0.238223
552.007817	0.238009
552.366022	0.238924
552.724173	0.239071
553.082267	0.239310
553.440305	0.236279
553.798288	0.240800
554.156215	0.237417
554.514086	0.238108
554.871902	0.240768
555.229661	0.240289
555.587365	0.240670
555.945014	0.243577
556.302606	0.240433
556.660143	0.242764
557.017625	0.239110
557.375050	0.241744
557.732421	0.238502
558.089735	0.240523
558.446994	0.240643
558.804197	0.239762
559.161345	0.239615
559.518437	0.243185
559.875474	0.240887
560.232455	0.240503
560.589381	0.241498
560.946251	0.241632
561.303065	0.239451
561.659825	0.240782
562.016528	0.241999
562.373177	0.245102
562.729770	0.242552
563.086307	0.244469
563.442789	0.242094
563.799216	0.244910
564.155587	0.243732
564.511904	0.244911
564.868164	0.244995
565.224370	0.245074
565.580520	0.246579
565.936615	0.246294
566.292654	0.249411
566.648638	0.246465
567.004567	0.247204
567.360441	0.248007
567.716260	0.250064
568.072023	0.247883
568.427732	0.248646
568.783385	0.251054
569.138982	0.249121
569.494525	0.248557
569.850013	0.251631
570.205445	0.250102
570.560823	0.252589
570.916145	0.254674
571.271412	0.252655
571.626625	0.254171
571.981782	0.254516
572.336884	0.255553
572.691931	0.255294
573.046923	0.256320
573.401860	0.258012
573.756743	0.259284
574.111570	0.258211
574.466342	0.258917
574.821059	0.257705
575.175722	0.260528
575.530330	0.260742
575.884882	0.260607
576.239380	0.262658
576.593823	0.263139
576.948211	0.262721
577.302544	0.265824
577.656823	0.265698
578.011047	0.265678
578.365216	0.266232
578.719330	0.268414
579.073389	0.268047
579.427394	0.269279
579.781344	0.269952
580.135239	0.271541
580.489080	0.271626
580.842866	0.274128
581.196597	0.274105
581.550273	0.272929
581.903895	0.273509
582.257463	0.272023
582.610975	0.275555
582.964434	0.274629
583.317837	0.277435
583.671186	0.277500
584.024481	0.277441
584.377721	0.279908
584.730906	0.280805
585.084037	0.279865
585.437113	0.281670
585.790135	0.281179
586.143103	0.284143
586.496016	0.285523
586.848874	0.282955
587.201679	0.283526
587.554428	0.287360
587.907124	0.285802
588.259765	0.285939
588.612352	0.286581
588.964884	0.290788
589.317362	0.290004
589.669786	0.290101
590.022155	0.288537
590.374470	0.287903
590.726731	0.289833
591.078937	0.294208
591.431090	0.290835
591.783188	0.295417
592.135232	0.295453
592.487222	0.295505
592.839157	0.293544
593.191038	0.296247
593.542866	0.298072
593.894639	0.301610
594.246358	0.299587
594.598022	0.298839
594.949633	0.302397
595.301190	0.303366
595.652692	0.302549
596.004141	0.298828
596.355535	0.306532
596.706876	0.307181
597.058162	0.309558
597.409395	0.306846
597.760573	0.304393
598.111698	0.307773
598.462768	0.308189
598.813785	0.309685
599.164748	0.310937
599.515657	0.310959
599.866511	0.314744
600.217312	0.309726
600.568060	0.315308
600.918753	0.311299
601.269392	0.312262
601.619978	0.315807
601.970510	0.313344
602.320988	0.313326
602.671412	0.311156
603.021783	0.313683
603.372100	0.315271
603.722363	0.314881
604.072572	0.315668
604.422728	0.315388
604.772830	0.317488
605.122878	0.317295
605.472872	0.317325
605.822813	0.316051
606.172701	0.318555
606.522534	0.316050
606.872314	0.316174
607.222041	0.316748
607.571714	0.315565
607.921333	0.316647
608.270899	0.316043
608.620411	0.312778
608.969870	0.316940
609.319276	0.317075
609.668627	0.316869
610.017926	0.315538
610.367171	0.313914
610.716362	0.314732
611.065500	0.314627
611.414585	0.313612
611.763616	0.314262
612.112594	0.314970
612.461518	0.314117
612.810389	0.311615
613.159207	0.314088
613.507971	0.315800
613.856682	0.311732
614.205340	0.313107
614.553945	0.309869
614.902496	0.313959
615.250994	0.311962
615.599439	0.312799
615.947830	0.312329
616.296169	0.313480
616.644454	0.312493
616.992686	0.312915
617.340864	0.310309
617.688990	0.313957
618.037063	0.310450
618.385082	0.312900
618.733048	0.309446
619.080961	0.311543
619.428821	0.310881
619.776628	0.310578
620.124382	0.312618
620.472083	0.313115
620.819731	0.312551
621.167326	0.316061
621.514868	0.315920
621.862357	0.320346
622.209793	0.319810
622.557176	0.322024
622.904506	0.322836
623.251783	0.325273
623.599007	0.327903
623.946179	0.327427
624.293297	0.329117
624.640363	0.333164
624.987376	0.333747
625.334336	0.336349
625.681243	0.338464
626.028097	0.338847
626.374899	0.340096
626.721647	0.340483
627.068343	0.343686
627.414987	0.344478
627.761577	0.346613
628.108115	0.345349
628.454600	0.350400
628.801032	0.347542
629.147412	0.349644
629.493739	0.350174
629.840014	0.353101
630.186236	0.350686
630.532405	0.356035
630.878521	0.353380
631.224585	0.355652
631.570597	0.359155
631.916556	0.357482
632.262462	0.358148
632.608316	0.359688
632.954117	0.360802
633.299866	0.361448
633.645562	0.361991
633.991206	0.366723
634.336797	0.369333
634.682336	0.371569
635.027823	0.373158
635.373257	0.373635
635.718639	0.377139
636.063968	0.376726
636.409245	0.382695
636.754470	0.382977
637.099642	0.385408
637.444762	0.388690
637.789829	0.387528
638.134845	0.391170
638.479808	0.392190
638.824719	0.391925
639.169577	0.396040
639.514383	0.394569
639.859137	0.398810
640.203839	0.398961
640.548489	0.399640
640.893086	0.400660
641.237632	0.402321
641.582125	0.400549
641.926566	0.402475
642.270955	0.402366
642.615292	0.403107
642.959576	0.401953
643.303809	0.402852
643.647990	0.401549
643.992118	0.402737
644.336195	0.406361
644.680219	0.404528
645.024192	0.405509
645.368112	0.398811
645.711981	0.397844
646.055797	0.393249
646.399562	0.395784
646.743274	0.387401
647.086935	0.385262
647.430544	0.385014
647.774101	0.383865
648.117606	0.383673
648.461059	0.383852
648.804460	0.386219
649.147810	0.391999
649.491108	0.393473
649.834354	0.395014
650.177548	0.400466
650.520690	0.405437
650.863781	0.407256
651.206820	0.405977
651.549807	0.411008
651.892742	0.415004
652.235626	0.414549
652.578458	0.415182
652.921238	0.421362
653.263967	0.419404
653.606644	0.423263
653.949269	0.422305
654.291843	0.426891
654.634365	0.423967
654.976836	0.426968
655.319255	0.426755
655.661622	0.428152
656.003938	0.428195
656.346203	0.431668
656.688416	0.429208
657.030577	0.432845
657.372687	0.434865
657.714746	0.436000
658.056753	0.432011
658.398708	0.436927
658.740612	0.437692
659.082465	0.433541
659.424266	0.434274
659.766016	0.433760
660.107715	0.436554
660.449362	0.435075
660.790958	0.435791
661.132503	0.435816
661.473996	0.433912
661.815438	0.434528
662.156829	0.434865
662.498168	0.435541
662.839456	0.437909
663.180693	0.435364
663.521879	0.434755
663.863013	0.436000
664.204097	0.434445
664.545129	0.431399
664.886110	0.431676
665.227040	0.428993
665.567918	0.431839
665.908746	0.429236
666.249522	0.429666
666.590248	0.430145
666.930922	0.428624
667.271545	0.427640
667.612118	0.427281
667.952639	0.429274
668.293109	0.427715
668.633528	0.430804
668.973896	0.430446
669.314213	0.430381
669.654480	0.432224
669.994695	0.432540
670.334859	0.432958
670.674973	0.433946
671.015035	0.433900
671.355047	0.433700
671.695008	0.435072
672.034918	0.436780
672.374777	0.436369
672.714585	0.437305
673.054342	0.437260
673.394049	0.437408
673.733705	0.434719
674.073310	0.436104
674.412864	0.439117
674.752368	0.439357
675.091820	0.439889
675.431223	0.444728
675.770574	0.444149
676.109875	0.446927
676.449125	0.447272
676.788324	0.449009
677.127473	0.455130
677.466571	0.454656
677.805619	0.456109
678.144616	0.457186
678.483562	0.459297
678.822458	0.461283
679.161303	0.462956
679.500098	0.463030
679.838842	0.464860
680.177535	0.464135
680.516179	0.462966
680.854771	0.462011
681.193314	0.455390
681.531805	0.447099
681.870247	0.435381
682.208638	0.427858
682.546978	0.426198
682.885268	0.428186
683.223508	0.434919
683.561697	0.438380
683.899836	0.440960
684.237925	0.444046
684.575963	0.447365
684.913951	0.449922
685.251889	0.446123
685.589776	0.447911
685.927614	0.450436
686.265401	0.444110
686.603137	0.446406
686.940824	0.440065
687.278460	0.438156
687.616046	0.437293
687.953582	0.432261
688.291068	0.433610
688.628504	0.429409
688.965889	0.431365
689.303224	0.435677
689.640510	0.439653
689.977745	0.445551
690.314930	0.453496
690.652065	0.457749
690.989150	0.464819
691.326185	0.472231
691.663170	0.476385
692.000105	0.483633
692.336990	0.490612
692.673825	0.493306
693.010610	0.500082
693.347345	0.505278
693.684030	0.507511
694.020665	0.512030
694.357251	0.520494
694.693786	0.520262
695.030272	0.524989
695.366707	0.528101
695.703093	0.531134
696.039429	0.528505
696.375716	0.531318
696.711952	0.533732
697.048139	0.535606
697.384276	0.536920
697.720363	0.535121
698.056400	0.534996
698.392388	0.540551
698.728326	0.543415
699.064214	0.546274
699.400053	0.547277
699.735842	0.550109
700.071581	0.553727
700.407270	0.556371
700.742910	0.558663
701.078501	0.565644
701.414042	0.565565
701.749533	0.568147
702.084974	0.577794
702.420366	0.569477
702.755709	0.576832
703.091002	0.585448
703.426246	0.578525
703.761440	0.583873
704.096584	0.589945
704.431679	0.586104
704.766725	0.588102
705.101721	0.589519
705.436668	0.585979
705.771565	0.592897
706.106413	0.589951
706.441212	0.584882
706.775961	0.583390
707.110661	0.586652
707.445311	0.583150
707.779913	0.579987
708.114465	0.578800
708.448967	0.575322
708.783421	0.566970
709.117825	0.562144
709.452180	0.561923
709.786485	0.556324
710.120742	0.545469
710.454949	0.548029
710.789107	0.539789
711.123216	0.530451
711.457275	0.532261
711.791286	0.523480
712.125247	0.521742
712.459159	0.533610
712.793023	0.525194
713.126837	0.529903
713.460602	0.530347
713.794318	0.540191
714.127985	0.538155
714.461602	0.548030
714.795171	0.552306
715.128691	0.559202
715.462162	0.567202
715.795584	0.572944
716.128957	0.575378
716.462281	0.581743
716.795556	0.585766
717.128782	0.590501
717.461960	0.600317
717.795088	0.598890
718.128167	0.604817
718.461198	0.613866
718.794180	0.614982
719.127113	0.616887
719.459997	0.620620
719.792833	0.626752
720.125619	0.627976
720.458357	0.633997
720.791046	0.633352
721.123686	0.637443
721.456278	0.643985
721.788821	0.641151
722.121315	0.645972
722.453761	0.649635
722.786158	0.647463
723.118506	0.643775
723.450805	0.650836
723.783056	0.648087
724.115259	0.644940
724.447412	0.644779
724.779518	0.646341
725.111574	0.644705
725.443582	0.641075
725.775542	0.642282
726.107453	0.634532
726.439315	0.634667
726.771129	0.633370
727.102895	0.626601
727.434612	0.619484
727.766281	0.616996
728.097901	0.615944
728.429473	0.616603
728.760996	0.615447
729.092471	0.614788
729.423897	0.618142
729.755276	0.617461
730.086606	0.617713
730.417887	0.612840
730.749120	0.603034
731.080305	0.593664
731.411442	0.589660
731.742530	0.595324
732.073570	0.594027
732.404562	0.586107
732.735506	0.587930
733.066401	0.592088
733.397249	0.601705
733.728048	0.612943
734.058798	0.625195
734.389501	0.636698
734.720156	0.645870
735.050762	0.654062
735.381320	0.654777
735.711831	0.663931
736.042293	0.668893
736.372707	0.665224
736.703073	0.669402
737.033391	0.671094
737.363661	0.668887
737.693883	0.663837
738.024056	0.662876
738.354182	0.663361
738.684260	0.652881
739.014290	0.648207
739.344272	0.649335
739.674207	0.642419
740.004093	0.642528
740.333931	0.642961
740.663722	0.642329
740.993464	0.643950
741.323159	0.646940
741.652806	0.652485
741.982405	0.656314
742.311956	0.661147
742.641460	0.663260
742.970915	0.667648
743.300323	0.675332
743.629683	0.681515
743.958996	0.683273
744.288260	0.687175
744.617477	0.693558
744.946647	0.695281
745.275768	0.700551
745.604842	0.701316
745.933869	0.710366
746.262847	0.711251
746.591778	0.704062
746.920662	0.711291
747.249498	0.717705
747.578286	0.708027
747.907027	0.703603
748.235720	0.704598
748.564365	0.699224
748.892963	0.699623
749.221514	0.703253
749.550017	0.708043
749.878473	0.706756
750.206881	0.714154
750.535242	0.714968
750.863555	0.715111
751.191821	0.716007
751.520039	0.719034
751.848210	0.724583
752.176334	0.716791
752.504411	0.716194
752.832440	0.724025
753.160421	0.727812
753.488356	0.725808
753.816243	0.723907
754.144082	0.732557
754.471875	0.735034
754.799620	0.731380
755.127318	0.732042
755.454969	0.732452
755.782572	0.731851
756.110129	0.736773
756.437638	0.738571
756.765100	0.735145
757.092515	0.733691
757.419882	0.733285
757.747203	0.737024
758.074477	0.737674
758.401703	0.734532
758.728882	0.728977
759.056014	0.728509
759.383099	0.727341
759.710138	0.728155
760.037129	0.724677
760.364073	0.718912
760.690970	0.721801
761.017820	0.727081
761.344623	0.722034
761.671379	0.712932
761.998088	0.701523
762.324751	0.678866
762.651366	0.637575
762.977935	0.570150
763.304456	0.517922
763.630931	0.508812
763.957359	0.547368
764.283740	0.592184
764.610074	0.619029
764.936362	0.650506
765.262602	0.676881
765.588796	0.698982
765.914943	0.716648
766.241044	0.734069
766.567097	0.741246
766.893104	0.749924
767.219064	0.757830
767.544978	0.764778
767.870845	0.776613
768.196665	0.781193
768.522438	0.778948
768.848165	0.780203
769.173846	0.789349
769.499479	0.793746
769.825066	0.797288
770.150607	0.802864
770.476101	0.796765
770.801548	0.798033
771.126949	0.810437
771.452303	0.812878
771.777611	0.813423
772.102872	0.812647
772.428087	0.817880
772.753256	0.821066
773.078378	0.822098
773.403453	0.830970
773.728482	0.836368
774.053465	0.829457
774.378401	0.832598
774.703291	0.841414
775.028135	0.840878
775.352932	0.844050
775.677683	0.845904
776.002388	0.846392
776.327046	0.845806
776.651658	0.850093
776.976224	0.851459
777.300743	0.853002
777.625216	0.854804
777.949643	0.856718
778.274024	0.856884
778.598359	0.858555
778.922647	0.856807
779.246889	0.858056
779.571086	0.861370
779.895236	0.863459
780.219339	0.860640
780.543397	0.857920
780.867409	0.855427
781.191374	0.859168
781.515294	0.859156
781.839167	0.859141
782.162995	0.862530
782.486776	0.859416
782.810511	0.860864
783.134201	0.863987
783.457844	0.861320
783.781441	0.864245
784.104993	0.871357
784.428498	0.871234
784.751958	0.865422
785.075372	0.868167
785.398739	0.871386
785.722061	0.868039
786.045337	0.863994
786.368568	0.869388
786.691752	0.870216
787.014891	0.856813
787.337983	0.848149
787.661030	0.840399
787.984031	0.822883
788.306987	0.809774
788.629897	0.813165
788.952760	0.817147
789.275579	0.820949
789.598351	0.836579
789.921078	0.849742
790.243759	0.850162
790.566395	0.855839
790.888984	0.862697
791.211529	0.868304
791.534027	0.872030
791.856480	0.874051
792.178888	0.879002
792.501249	0.881245
792.823566	0.881742
793.145836	0.882048
793.468062	0.885098
793.790241	0.884626
794.112375	0.882582
794.434464	0.877808
794.756507	0.877084
795.078505	0.876755
795.400457	0.872131
795.722364	0.860493
796.044226	0.852410
796.366042	0.852303
796.687812	0.854966
797.009538	0.851184
797.331218	0.854466
797.652852	0.859087
797.974442	0.864268
798.295986	0.864171
798.617484	0.865980
798.938938	0.870009
799.260346	0.875554
799.581709	0.877560
799.903026	0.878958
800.224299	0.879772
800.545526	0.883362
800.866708	0.887979
801.187845	0.892257
801.508936	0.891191
801.829983	0.889750
802.150984	0.891579
802.471940	0.898069
802.792851	0.896951
803.113717	0.897555
803.434538	0.896126
803.755314	0.897784
804.076045	0.899166
804.396731	0.899887
804.717372	0.899460
805.037967	0.901178
805.358518	0.898479
805.679024	0.896364
805.999485	0.895751
806.319901	0.896897
806.640272	0.898153
806.960598	0.896480
807.280879	0.893346
807.601115	0.891438
807.921306	0.895085
808.241453	0.895649
808.561554	0.893386
808.881611	0.893470
809.201623	0.895356
809.521590	0.895834
809.841513	0.896590
810.161390	0.895832
810.481223	0.897683
810.801011	0.901460
811.120755	0.901931
811.440453	0.901793
811.760107	0.899577
812.079716	0.899412
812.399281	0.903781
812.718801	0.905786
813.038276	0.907102
813.357707	0.905760
813.677093	0.903604
813.996434	0.906657
814.315731	0.908358
814.634983	0.909378
814.954191	0.908376
815.273354	0.904632
815.592473	0.900836
815.911547	0.901064
816.230577	0.898649
816.549562	0.894984
816.868502	0.897344
817.187399	0.892962
817.506250	0.886372
817.825058	0.889296
818.143821	0.885851
818.462539	0.880772
818.781213	0.873440
819.099843	0.861307
819.418429	0.845889
819.736970	0.829179
820.055466	0.809284
820.373919	0.783289
820.692327	0.750959
821.010691	0.715304
821.329011	0.637746
821.647286	0.522096
821.965517	0.408853
822.283704	0.365837
822.601847	0.366679
822.919945	0.402533
823.237999	0.436071
823.556010	0.483251
823.873976	0.539423
824.191897	0.589983
824.509775	0.632657
824.827609	0.678558
825.145398	0.701452
825.463144	0.702958
825.780845	0.686231
826.098502	0.668222
826.416116	0.621524
826.733685	0.577613
827.051210	0.568654
827.368692	0.583528
827.686129	0.621951
828.003522	0.674699
828.320872	0.722410
828.638177	0.766256
828.955439	0.798889
829.272656	0.821050
829.589830	0.838243
829.906960	0.853559
830.224046	0.866138
830.541088	0.875418
830.858086	0.881794
831.175041	0.887615
831.491952	0.886322
831.808819	0.883379
832.125642	0.876878
832.442421	0.861517
832.759157	0.839846
833.075849	0.792815
833.392497	0.729322
833.709101	0.688811
834.025662	0.698593
834.342179	0.729162
834.658653	0.769323
834.975083	0.804628
835.291469	0.830647
835.607811	0.854608
835.924110	0.869820
836.240366	0.886655
836.556578	0.901524
836.872746	0.908485
837.188871	0.914042
837.504952	0.919843
837.820990	0.923881
838.136984	0.927967
838.452935	0.929929
838.768842	0.930673
839.084706	0.925633
839.400526	0.898573
839.716303	0.858513
840.032037	0.836158
840.347727	0.840199
840.663373	0.859098
840.978977	0.879478
841.294537	0.902780
841.610054	0.918204
841.925527	0.927171
842.240957	0.932438
842.556344	0.940046
842.871687	0.945723
843.186987	0.951547
843.502244	0.951300
843.817458	0.951988
844.132629	0.955502
844.447756	0.961083
844.762840	0.960749
845.077881	0.960255
845.392879	0.960054
845.707833	0.962869
846.022745	0.964661
846.337613	0.964885
846.652438	0.965794
846.967221	0.964549
847.281960	0.965196
847.596656	0.967202
847.911309	0.965833
848.225919	0.967132
848.540485	0.967659
848.855009	0.968741
849.169490	0.968257
849.483928	0.970271
849.798323	0.969293
850.112675	0.969419
850.426984	0.970844
850.741251	0.968846
851.055474	0.971374
851.369654	0.967194
851.683792	0.969880
851.997887	0.969769
852.311938	0.969362
852.625947	0.969316
852.939914	0.968422
853.253837	0.968639
853.567718	0.971392
853.881555	0.971689
854.195350	0.968069
854.509103	0.970966
854.822812	0.970801
855.136479	0.968723
855.450103	0.970174
855.763685	0.968163
856.077224	0.968772
856.390720	0.969792
856.704173	0.971671
857.017584	0.968843
857.330953	0.967109
857.644278	0.968170
857.957561	0.968181
858.270802	0.967476
858.584000	0.967893
858.897155	0.966270
859.210268	0.967750
859.523339	0.968902
859.836367	0.968957
860.149352	0.970764
860.462295	0.969126
860.775195	0.970026
861.088054	0.968267
861.400869	0.969719
861.713642	0.970826
862.026373	0.970509
862.339062	0.971471
862.651708	0.968484
862.964312	0.968078
863.276873	0.969238
863.589392	0.969318
863.901869	0.965783
864.214303	0.964662
864.526696	0.963294
864.839045	0.963705
865.151353	0.961119
865.463619	0.963133
865.775842	0.961907
866.088023	0.962687
866.400162	0.961894
866.712258	0.962674
867.024313	0.962451
867.336325	0.963453
867.648296	0.963598
867.960224	0.962050
868.272110	0.962047
868.583954	0.963749
868.895755	0.963948
869.207515	0.961666
869.519233	0.959467
869.830909	0.961659
870.142542	0.962499
870.454134	0.961570
870.765684	0.959896
871.077191	0.959003
871.388657	0.958809
871.700081	0.957986
872.011463	0.958144
872.322803	0.957788
872.634101	0.956235
872.945357	0.954148
873.256571	0.953947
873.567744	0.952192
873.878874	0.953589
874.189963	0.951844
874.501010	0.951588
874.812015	0.950759
875.122979	0.951191
875.433900	0.953661
875.744780	0.954346
876.055618	0.951267
876.366415	0.949224
876.677169	0.950065
876.987882	0.951875
877.298554	0.951280
877.609183	0.947762
877.919771	0.944727
878.230317	0.943253
878.540822	0.940316
878.851285	0.934943
879.161707	0.926521
879.472087	0.915551
879.782425	0.898330
880.092722	0.864458
880.402977	0.811846
880.713191	0.751468
881.023363	0.691127
881.333494	0.657470
881.643583	0.629359
881.953631	0.630182
882.263637	0.658242
882.573602	0.697523
882.883526	0.723384
883.193408	0.747622
883.503248	0.770042
883.813048	0.797150
884.122806	0.827060
884.432522	0.850799
884.742197	0.868945
885.051831	0.880452
885.361424	0.891216
885.670975	0.902514
885.980485	0.913387
886.289954	0.919528
886.599382	0.924304
886.908768	0.928911
887.218113	0.934660
887.527417	0.938832
887.836680	0.942451
888.145901	0.943533
888.455082	0.945341
888.764221	0.950856
889.073319	0.952179
889.382376	0.952357
889.691392	0.952864
890.000366	0.952821
890.309300	0.954821
890.618193	0.953046
890.927044	0.950785
891.235855	0.951160
891.544625	0.950761
891.853353	0.951500
892.162041	0.949714
892.470687	0.943062
892.779293	0.937149
893.087858	0.934626
893.396381	0.926608
893.704864	0.913117
894.013306	0.889017
894.321707	0.862408
894.630068	0.847867
894.938387	0.843272
895.246665	0.843967
895.554903	0.856596
895.863100	0.869609
896.171256	0.885964
896.479371	0.906642
896.787446	0.918550
897.095480	0.925031
897.403473	0.927936
897.711425	0.932543
898.019336	0.941020
898.327207	0.942694
898.635038	0.945169
898.942827	0.945697
899.250576	0.948447
899.558284	0.952587
899.865952	0.954172
900.173579	0.953970
900.481165	0.956753
900.788711	0.960726
901.096216	0.961292
901.403681	0.960576
901.711105	0.962964
902.018489	0.963983
902.325832	0.961878
902.633135	0.961533
902.940397	0.954789
903.247619	0.943064
903.554800	0.917635
903.861941	0.878869
904.169041	0.842251
904.476101	0.825189
904.783121	0.826191
905.090100	0.842338
905.397039	0.863761
905.703938	0.885874
906.010796	0.904033
906.317614	0.921801
906.624391	0.934496
906.931129	0.943855
907.237826	0.951692
907.544483	0.959136
907.851099	0.962067
908.157675	0.968345
908.464211	0.970267
908.770707	0.972025
909.077163	0.974123
909.383578	0.974800
909.689954	0.974569
909.996289	0.976006
910.302584	0.978753
910.608839	0.980264
910.915054	0.978455
911.221229	0.978009
911.527363	0.976767
911.833458	0.976905
912.139513	0.976699
912.445527	0.974675
912.751502	0.974239
913.057436	0.973033
913.363331	0.969688
913.669186	0.966305
913.975000	0.960815
914.280775	0.955767
914.586510	0.947689
914.892205	0.934542
915.197859	0.914059
915.503475	0.886202
915.809050	0.867044
916.114585	0.860711
916.420081	0.857338
916.725536	0.855030
917.030952	0.863096
917.336328	0.875685
917.641665	0.892675
917.946961	0.906453
918.252218	0.918379
918.557435	0.927559
918.862612	0.935603
919.167750	0.942753
919.472848	0.946055
919.777906	0.952825
920.082925	0.957603
920.387904	0.961041
920.692843	0.964217
920.997743	0.961901
921.302603	0.967403
921.607423	0.967943
921.912204	0.971920
922.216946	0.972363
922.521647	0.973570
922.826310	0.974546
923.130932	0.976045
923.435516	0.978262
923.740059	0.979733
924.044564	0.978087
924.349028	0.979923
924.653454	0.982872
924.957840	0.984984
925.262186	0.982796
925.566493	0.983959
925.870761	0.983973
926.174989	0.986233
926.479178	0.988498
926.783328	0.987948
927.087438	0.988026
927.391509	0.988104
927.695541	0.990734
927.999533	0.990090
928.303486	0.989625
928.607400	0.991911
928.911275	0.989083
929.215110	0.989782
929.518906	0.990794
929.822663	0.989450
930.126381	0.991730
930.430060	0.990706
930.733699	0.990474
931.037299	0.989167
931.340861	0.990971
931.644383	0.990290
931.947866	0.990515
932.251309	0.991376
932.554714	0.991110
932.858080	0.990946
933.161407	0.989185
933.464694	0.991059
933.767943	0.990712
934.071153	0.992110
934.374323	0.992206
934.677455	0.990884
934.980548	0.992314
935.283602	0.991202
935.586617	0.991209
935.889593	0.991575
936.192530	0.990716
936.495428	0.991141
936.798287	0.991818
937.101108	0.990600
937.403890	0.989239
937.706632	0.989310
938.009336	0.986804
938.312002	0.986923
938.614628	0.984873
938.917216	0.983829
939.219765	0.982330
939.522275	0.982841
939.824747	0.983901
940.127179	0.982819
940.429573	0.983851
940.731929	0.983177
941.034246	0.984818
941.336524	0.985792
941.638763	0.986801
941.940964	0.985944
942.243126	0.986981
942.545250	0.986187
942.847335	0.988604
943.149381	0.987558
943.451389	0.988733
943.753359	0.988627
944.055290	0.992044
944.357182	0.988840
944.659036	0.988724
944.960851	0.990032
945.262628	0.989535
945.564367	0.991108
945.866067	0.990535
946.167729	0.990271
946.469352	0.989645
946.770937	0.988238
947.072484	0.991600
947.373992	0.989858
947.675462	0.990529
947.976893	0.990351
948.278286	0.990983
948.579641	0.991029
948.880958	0.991206
949.182236	0.991879
949.483476	0.992248
949.784678	0.990667
950.085841	0.991338
950.386967	0.991121
950.688054	0.991522
950.989103	0.990114
951.290114	0.989664
951.591087	0.989479
951.892021	0.988533
952.192917	0.988697
952.493776	0.988086
952.794596	0.988080
953.095378	0.988033
953.396122	0.988293
953.696828	0.987348
953.997496	0.989807
954.298126	0.990620
954.598718	0.990487
954.899272	0.991589
955.199788	0.991256
955.500266	0.991698
955.800706	0.992757
956.101108	0.993051
956.401472	0.992666
956.701798	0.993894
957.002087	0.994129
957.302337	0.994223
957.602550	0.995263
957.902724	0.995036
958.202861	0.995540
958.502960	0.994951
958.803022	0.994927
959.103045	0.995736
959.403031	0.997481
959.702979	0.995416
960.002889	0.996074
960.302762	0.996191
960.602596	0.997135
960.902393	0.994775
961.202153	0.997222
961.501875	0.996862
961.801559	0.995871
962.101205	0.996303
962.400814	0.995566
962.700385	0.996875
962.999918	0.996495
963.299414	0.996987
963.598873	0.995985
963.898293	0.997032
964.197677	0.995887
964.497022	0.996258
964.796331	0.997484
965.095601	0.997232
965.394835	0.996207
965.694030	0.996214
965.993189	0.997570
966.292309	0.997532
966.591393	0.997956
966.890439	0.996899
967.189447	0.995318
967.488419	0.998066
967.787353	0.996871
968.086249	0.996561
968.385108	0.996680
968.683930	0.997686
968.982714	0.998146
969.281462	0.996344
969.580172	0.997178
969.878844	0.999010
970.177480	0.996700
970.476078	0.998508
970.774639	0.997443
971.073162	0.998055
971.371649	0.996125
971.670098	0.997147
971.968510	0.997117
972.266885	0.997100
972.565223	0.995773
972.863524	0.996017
973.161788	0.996429
973.460014	0.997454
973.758204	0.996223
974.056356	0.996759
974.354471	0.994759
974.652550	0.996542
974.950591	0.996420
975.248595	0.996550
975.546563	0.996628
975.844493	0.998174
976.142386	0.997421
976.440243	0.997635
976.738062	0.997356
977.035845	0.997630
977.333590	0.997295
977.631299	0.998699
977.928971	0.997678
978.226606	0.997304
978.524204	0.996784
978.821765	0.998651
979.119290	0.996739
979.416777	0.996210
979.714228	0.997304
980.011642	0.995804
980.309020	0.997784
980.606360	0.997203
980.903664	0.997596
981.200931	0.995849
981.498162	0.994844
981.795356	0.994304
982.092513	0.994091
982.389633	0.994709
982.686717	0.991777
982.983764	0.991576
983.280775	0.990128
983.577749	0.990727
983.874686	0.991698
984.171587	0.991952
984.468451	0.994675
984.765279	0.995075
985.062070	0.993780
985.358824	0.995113
985.655543	0.995103
985.952224	0.995654
986.248869	0.997683
986.545478	0.996693
986.842050	0.998635
987.138586	0.995625
987.435086	0.997434
987.731549	0.999923
988.027975	0.997504
988.324366	0.998593
988.620719	0.996970
988.917037	0.997120
989.213318	0.997895
989.509563	0.999150
989.805772	0.998538
990.101944	0.998592
990.398080	0.997594
990.694180	0.998014
990.990244	0.997624
991.286271	0.997954
991.582262	0.998384
991.878217	0.997125
992.174136	0.998289
992.470019	0.999266
992.765865	0.998102
993.061676	0.998907
993.357450	0.998722
993.653188	0.997160
993.948890	0.997061
994.244556	0.998040
994.540186	0.997468
994.835780	0.997889
995.131337	0.998418
995.426859	0.996823
995.722345	0.998185
996.017795	0.996757
996.313208	0.996808
996.608586	0.995047
996.903928	0.996231
997.199234	0.996217
997.494504	0.996441
997.789738	0.996067
998.084936	0.996320
998.380099	0.998074
998.675225	0.998310
998.970316	0.998903
999.265371	0.998723
999.560390	0.997608
999.855373	0.999252
1000.150320	0.997462
1000.445232	0.998119
1000.740108	0.998330
1001.034948	0.998298
1001.329752	1.000338
1001.624521	0.998355
1001.919254	0.998032
1002.213951	0.997715
1002.508613	0.997912
1002.803239	0.999212
1003.097829	0.998598
1003.392384	0.999176
1003.686903	0.998759
1003.981386	0.997846
1004.275834	0.998267
1004.570246	0.999531
1004.864623	0.998833
1005.158964	0.999881
1005.453270	1.000046
1005.747540	0.996745
1006.041775	0.998944
1006.335974	0.999851
1006.630138	0.999530
1006.924266	0.999612
1007.218359	1.000537
1007.512416	0.999823
1007.806438	0.999858
1008.100425	0.999406
1008.394376	0.999900
1008.688292	0.998612
1008.982172	1.000936
1009.276017	0.999096
1009.569827	0.999237
1009.863602	0.999148
1010.157341	0.999006
1010.451045	0.999914
1010.744714	0.998809
1011.038347	0.999558
1011.331945	0.999556
1011.625508	0.997662
1011.919036	0.998948
1012.212528	0.999461
1012.505986	0.998391
1012.799408	0.998990
1013.092795	1.000538
1013.386147	0.998181
1013.679464	0.998956
1013.972745	0.997929
1014.265992	0.998625
1014.559204	0.998569
1014.852380	0.998871
1015.145521	0.999501
1015.438628	0.998755
1015.731699	1.000101
1016.024736	0.999211
1016.317737	0.998736
1016.610703	0.999788
1016.903635	0.999840
1017.196531	0.998521
1017.489393	0.999931
1017.782219	0.998597
1018.075011	0.998899
1018.367768	0.998684
1018.660490	1.000247
1018.953177	1.000247
1019.245829	1.000247
