Dividing Wavelength (nm)	Counts (n)	Blue Motor Position (mm): 0.000000	Red Motor Position (mm): 22.000000	
326.493990	1.001547
326.888308	1.001547
327.282561	1.001547
327.676750	1.000170
328.070874	0.999228
328.464933	0.999923
328.858929	0.999598
329.252859	0.999362
329.646726	0.999924
330.040528	1.000995
330.434265	1.000167
330.827938	1.001903
331.221547	1.001252
331.615091	1.000470
332.008571	0.999904
332.401986	0.999575
332.795338	1.000553
333.188625	0.998779
333.581847	1.000620
333.975006	1.000444
334.368100	0.999921
334.761129	0.999893
335.154095	1.001042
335.546996	0.997415
335.939833	0.993765
336.332606	0.993665
336.725315	0.994801
337.117960	0.995989
337.510540	0.994534
337.903056	0.994540
338.295508	0.993304
338.687896	0.994941
339.080220	0.995184
339.472480	0.995221
339.864676	0.993716
340.256807	0.994625
340.648875	0.995053
341.040879	0.995040
341.432818	0.995621
341.824694	0.993789
342.216506	0.994732
342.608253	0.994160
342.999937	0.994732
343.391557	0.995387
343.783113	0.994096
344.174605	0.995141
344.566033	0.995496
344.957397	0.993543
345.348697	0.994352
345.739934	0.995363
346.131106	0.994751
346.522215	0.994631
346.913260	0.994271
347.304241	0.994004
347.695159	0.994132
348.086012	0.993868
348.476802	0.995305
348.867528	0.994635
349.258191	0.992832
349.648789	0.995643
350.039324	0.994269
350.429796	0.995463
350.820203	0.994589
351.210548	0.995476
351.600828	0.993735
351.991045	0.994832
352.381198	0.993495
352.771288	0.994729
353.161314	0.993927
353.551276	0.995319
353.941175	0.994350
354.331010	0.994438
354.720782	0.995239
355.110490	0.995054
355.500135	0.995632
355.889717	0.993718
356.279235	0.994292
356.668689	0.993885
357.058080	0.994762
357.447408	0.995509
357.836672	0.995451
358.225873	0.995257
358.615010	0.995110
359.004084	0.996127
359.393095	0.994999
359.782043	0.994874
360.170927	0.995487
360.559748	0.995103
360.948505	0.993065
361.337199	0.992980
361.725830	0.995816
362.114398	0.993796
362.502903	0.994907
362.891344	0.995240
363.279722	0.994482
363.668037	0.995770
364.056289	0.994088
364.444478	0.995417
364.832603	0.994526
365.220665	0.994589
365.608665	0.994013
365.996601	0.993765
366.384474	0.995157
366.772284	0.994776
367.160031	0.992433
367.547715	0.993629
367.935336	0.994956
368.322893	0.994800
368.710388	0.993459
369.097820	0.995397
369.485189	0.993686
369.872495	0.995457
370.259738	0.992337
370.646918	0.994821
371.034035	0.994700
371.421090	0.994541
371.808081	0.994531
372.195010	0.995813
372.581875	0.995448
372.968678	0.994611
373.355418	0.995143
373.742096	0.994173
374.128710	0.995904
374.515262	0.995391
374.901751	0.994508
375.288177	0.994454
375.674540	0.995593
376.060841	0.993647
376.447079	0.995312
376.833254	0.994402
377.219367	0.995228
377.605417	0.995003
377.991404	0.995358
378.377329	0.994497
378.763191	0.995192
379.148991	0.995612
379.534727	0.994935
379.920402	0.995589
380.306013	0.995762
380.691563	0.996647
381.077049	0.993953
381.462474	0.995319
381.847835	0.995381
382.233134	0.994546
382.618371	0.996464
383.003545	0.996458
383.388657	0.995851
383.773706	0.996297
384.158693	0.995842
384.543618	0.995322
384.928480	0.996909
385.313280	0.995756
385.698017	0.996704
386.082692	0.995990
386.467305	0.995793
386.851856	0.995694
387.236344	0.995509
387.620770	0.994755
388.005133	0.996179
388.389435	0.997642
388.773674	0.995246
389.157851	0.996130
389.541965	0.996350
389.926018	0.995607
390.310008	0.997923
390.693936	0.995328
391.077802	0.996382
391.461606	0.995820
391.845348	0.996021
392.229027	0.997761
392.612645	0.996392
392.996200	0.997788
393.379694	0.996184
393.763125	0.996326
394.146494	0.995173
394.529801	0.996397
394.913047	0.996600
395.296230	0.997215
395.679351	0.996507
396.062410	0.995961
396.445408	0.996592
396.828343	0.996040
397.211217	0.995255
397.594028	0.996671
397.976778	0.996611
398.359466	0.995999
398.742092	0.995008
399.124656	0.996037
399.507158	0.996561
399.889598	0.996570
400.271977	0.996784
400.654294	0.996911
401.036549	0.997271
401.418742	0.996394
401.800874	0.995325
402.182944	0.996498
402.564952	0.995305
402.946898	0.996799
403.328783	0.996502
403.710606	0.995359
404.092367	0.996107
404.474067	0.996895
404.855705	0.995793
405.237282	0.996781
405.618797	0.996217
406.000250	0.995840
406.381642	0.996818
406.762972	0.996712
407.144240	0.996231
407.525447	0.996181
407.906593	0.996466
408.287677	0.997168
408.668700	0.996056
409.049661	0.995288
409.430560	0.996590
409.811399	0.995975
410.192176	0.995397
410.572891	0.995550
410.953545	0.995863
411.334138	0.994647
411.714669	0.996276
412.095139	0.995222
412.475547	0.996075
412.855894	0.995571
413.236180	0.996140
413.616405	0.996213
413.996568	0.996521
414.376670	0.995291
414.756711	0.995371
415.136691	0.994945
415.516609	0.995492
415.896466	0.995387
416.276262	0.993545
416.655997	0.995273
417.035670	0.994193
417.415283	0.994306
417.794834	0.994843
418.174324	0.993629
418.553753	0.993323
418.933121	0.991319
419.312428	0.991875
419.691674	0.990170
420.070859	0.991174
420.449983	0.988957
420.829045	0.988120
421.208047	0.988150
421.586988	0.986080
421.965867	0.983407
422.344686	0.982297
422.723444	0.980221
423.102141	0.979109
423.480777	0.975646
423.859352	0.974292
424.237866	0.971280
424.616319	0.968893
424.994712	0.966045
425.373044	0.963634
425.751314	0.960431
426.129524	0.957739
426.507673	0.953306
426.885762	0.949922
427.263789	0.946507
427.641756	0.944121
428.019662	0.939347
428.397508	0.933768
428.775292	0.930077
429.153016	0.924497
429.530679	0.921369
429.908282	0.915163
430.285824	0.911285
430.663305	0.902195
431.040726	0.900161
431.418086	0.895410
431.795385	0.888609
432.172624	0.881105
432.549802	0.875219
432.926920	0.869195
433.303977	0.862185
433.680974	0.855601
434.057910	0.846737
434.434786	0.840268
434.811601	0.833034
435.188355	0.820920
435.565050	0.816223
435.941683	0.809203
436.318257	0.795657
436.694770	0.787187
437.071222	0.778904
437.447614	0.772595
437.823946	0.767214
438.200218	0.753760
438.576429	0.749509
438.952580	0.737876
439.328670	0.727671
439.704700	0.722771
440.080670	0.714770
440.456580	0.695272
440.832429	0.691259
441.208218	0.689087
441.583947	0.674560
441.959616	0.665797
442.335224	0.660421
442.710773	0.646636
443.086261	0.636341
443.461689	0.637888
443.837057	0.622788
444.212365	0.607802
444.587612	0.605680
444.962800	0.590620
445.337927	0.583543
445.712995	0.595069
446.088002	0.560797
446.462949	0.561059
446.837837	0.556703
447.212664	0.542251
447.587431	0.527473
447.962139	0.498822
448.336786	0.460790
448.711374	0.463593
449.085901	0.490722
449.460369	0.487655
449.834776	0.484024
450.209124	0.461378
450.583412	0.449393
450.957640	0.439222
451.331808	0.442748
451.705917	0.457614
452.079965	0.456732
452.453954	0.441734
452.827883	0.443408
453.201752	0.434765
453.575562	0.441666
453.949311	0.426975
454.323001	0.429080
454.696632	0.421749
455.070202	0.412068
455.443713	0.401156
455.817164	0.393578
456.190556	0.386499
456.563888	0.380941
456.937160	0.376537
457.310373	0.390063
457.683526	0.386766
458.056619	0.390150
458.429653	0.389191
458.802628	0.390410
459.175542	0.383217
459.548398	0.364733
459.921194	0.356606
460.293930	0.355642
460.666607	0.332654
461.039224	0.320265
461.411782	0.314695
461.784280	0.312673
462.156719	0.315846
462.529099	0.319505
462.901419	0.334117
463.273680	0.337779
463.645882	0.336800
464.018024	0.341849
464.390106	0.334299
464.762130	0.319133
465.134094	0.301728
465.505999	0.271145
465.877845	0.241356
466.249631	0.228016
466.621358	0.235135
466.993026	0.248579
467.364634	0.254327
467.736184	0.262783
468.107674	0.271441
468.479105	0.270297
468.850477	0.276937
469.221790	0.283260
469.593043	0.293452
469.964238	0.298042
470.335373	0.297555
470.706449	0.295659
471.077467	0.296221
471.448425	0.258532
471.819324	0.233969
472.190164	0.233282
472.560945	0.262082
472.931667	0.283957
473.302330	0.287968
473.672934	0.299325
474.043479	0.288278
474.413965	0.289996
474.784393	0.293494
475.154761	0.288403
475.525070	0.285113
475.895321	0.291259
476.265513	0.285310
476.635645	0.280699
477.005719	0.280545
477.375734	0.277430
477.745691	0.270241
478.115588	0.266722
478.485427	0.260487
478.855207	0.247302
479.224928	0.229595
479.594591	0.217919
479.964194	0.221540
480.333739	0.222562
480.703226	0.224223
481.072653	0.222549
481.442022	0.218204
481.811333	0.214707
482.180584	0.218290
482.549777	0.223621
482.918912	0.226725
483.287988	0.226424
483.657005	0.226003
484.025964	0.232754
484.394864	0.229703
484.763706	0.230492
485.132489	0.235343
485.501213	0.236216
485.869879	0.234651
486.238487	0.237825
486.607036	0.235672
486.975527	0.240136
487.343959	0.235916
487.712333	0.234974
488.080648	0.236454
488.448905	0.235815
488.817104	0.237007
489.185244	0.231634
489.553326	0.228444
489.921350	0.218560
490.289315	0.200641
490.657222	0.195760
491.025070	0.196874
491.392861	0.198983
491.760593	0.204701
492.128267	0.210325
492.495883	0.215587
492.863440	0.222078
493.230939	0.228242
493.598380	0.229790
493.965763	0.231940
494.333088	0.234045
494.700354	0.235327
495.067563	0.234455
495.434713	0.237702
495.801805	0.235632
496.168839	0.237043
496.535815	0.238319
496.902733	0.238165
497.269593	0.240009
497.636395	0.237759
498.003139	0.237830
498.369825	0.240817
498.736453	0.237228
499.103023	0.238935
499.469535	0.238240
499.835989	0.238518
500.202385	0.239341
500.568723	0.242533
500.935003	0.237854
501.301226	0.241733
501.667390	0.236086
502.033497	0.234342
502.399546	0.237286
502.765537	0.239088
503.131470	0.237497
503.497345	0.233672
503.863163	0.242596
504.228923	0.235442
504.594625	0.234185
504.960269	0.239427
505.325856	0.234780
505.691385	0.238902
506.056856	0.235739
506.422270	0.235331
506.787625	0.237768
507.152924	0.235486
507.518164	0.235666
507.883347	0.237463
508.248472	0.239186
508.613540	0.233977
508.978550	0.236645
509.343503	0.237030
509.708398	0.234736
510.073236	0.232597
510.438016	0.232356
510.802738	0.233277
511.167403	0.232388
511.532010	0.234204
511.896561	0.229760
512.261053	0.228499
512.625488	0.230493
512.989866	0.230939
513.354186	0.231099
513.718449	0.232889
514.082655	0.229338
514.446803	0.231809
514.810894	0.229365
515.174927	0.231878
515.538904	0.231471
515.902822	0.228374
516.266684	0.230868
516.630488	0.231827
516.994235	0.230706
517.357925	0.229432
517.721558	0.227887
518.085133	0.227300
518.448651	0.227608
518.812112	0.229870
519.175516	0.229327
519.538863	0.226851
519.902152	0.228527
520.265385	0.225338
520.628560	0.227050
520.991678	0.227382
521.354739	0.226368
521.717743	0.227536
522.080690	0.228144
522.443580	0.225550
522.806413	0.226247
523.169189	0.225373
523.531908	0.224587
523.894569	0.228196
524.257174	0.228189
524.619722	0.225665
524.982213	0.226953
525.344647	0.225812
525.707025	0.226697
526.069345	0.224517
526.431608	0.225990
526.793815	0.224395
527.155964	0.228560
527.518057	0.227364
527.880093	0.228674
528.242072	0.227324
528.603995	0.229116
528.965860	0.230612
529.327669	0.229531
529.689421	0.230541
530.051117	0.231291
530.412755	0.228880
530.774337	0.231551
531.135862	0.231681
531.497331	0.230990
531.858743	0.233700
532.220098	0.230538
532.581396	0.233028
532.942638	0.233619
533.303824	0.234364
533.664953	0.234429
534.026025	0.236168
534.387040	0.234120
534.747999	0.233768
535.108902	0.232763
535.469748	0.237667
535.830537	0.235536
536.191270	0.236318
536.551947	0.235597
536.912567	0.235777
537.273131	0.237404
537.633638	0.237659
537.994089	0.238135
538.354483	0.238973
538.714821	0.235901
539.075103	0.235818
539.435328	0.236821
539.795497	0.240648
540.155609	0.236820
540.515665	0.234970
540.875665	0.240474
541.235609	0.239264
541.595496	0.239493
541.955328	0.235785
542.315102	0.238559
542.674821	0.239806
543.034483	0.239613
543.394090	0.239129
543.753640	0.241187
544.113134	0.236030
544.472571	0.239607
544.831953	0.236212
545.191278	0.240461
545.550548	0.239961
545.909761	0.236706
546.268918	0.237584
546.628019	0.235839
546.987064	0.238727
547.346053	0.240200
547.704986	0.238118
548.063863	0.238324
548.422684	0.238807
548.781449	0.240610
549.140158	0.238072
549.498811	0.241029
549.857408	0.244027
550.215949	0.238967
550.574434	0.241828
550.932864	0.239860
551.291237	0.238631
551.649555	0.240089
552.007817	0.239634
552.366022	0.240643
552.724173	0.240699
553.082267	0.241517
553.440305	0.238191
553.798288	0.242489
554.156215	0.239060
554.514086	0.239650
554.871902	0.243260
555.229661	0.242177
555.587365	0.242881
555.945014	0.245030
556.302606	0.242181
556.660143	0.244538
557.017625	0.240952
557.375050	0.243415
557.732421	0.240148
558.089735	0.242261
558.446994	0.242454
558.804197	0.241569
559.161345	0.241737
559.518437	0.245057
559.875474	0.242778
560.232455	0.242094
560.589381	0.243421
560.946251	0.243508
561.303065	0.241135
561.659825	0.242430
562.016528	0.243757
562.373177	0.246604
562.729770	0.244189
563.086307	0.246376
563.442789	0.244027
563.799216	0.246650
564.155587	0.245514
564.511904	0.246654
564.868164	0.246853
565.224370	0.246712
565.580520	0.248331
565.936615	0.248360
566.292654	0.251259
566.648638	0.248152
567.004567	0.249036
567.360441	0.249756
567.716260	0.251687
568.072023	0.249495
568.427732	0.250176
568.783385	0.252675
569.138982	0.250726
569.494525	0.250656
569.850013	0.253387
570.205445	0.251898
570.560823	0.254298
570.916145	0.256280
571.271412	0.254481
571.626625	0.255932
571.981782	0.256305
572.336884	0.257209
572.691931	0.257054
573.046923	0.257979
573.401860	0.259557
573.756743	0.261069
574.111570	0.260012
574.466342	0.260292
574.821059	0.259751
575.175722	0.262510
575.530330	0.262282
575.884882	0.262449
576.239380	0.264455
576.593823	0.265104
576.948211	0.264405
577.302544	0.267800
577.656823	0.267504
578.011047	0.267455
578.365216	0.267935
578.719330	0.269948
579.073389	0.269894
579.427394	0.271263
579.781344	0.271770
580.135239	0.273338
580.489080	0.273246
580.842866	0.276120
581.196597	0.275955
581.550273	0.274667
581.903895	0.275624
582.257463	0.273588
582.610975	0.277216
582.964434	0.276465
583.317837	0.279170
583.671186	0.279158
584.024481	0.279324
584.377721	0.281950
584.730906	0.282451
585.084037	0.281749
585.437113	0.283663
585.790135	0.282684
586.143103	0.285766
586.496016	0.287171
586.848874	0.284597
587.201679	0.285287
587.554428	0.288457
587.907124	0.287148
588.259765	0.287730
588.612352	0.288650
588.964884	0.292261
589.317362	0.291734
589.669786	0.291277
590.022155	0.290040
590.374470	0.289544
590.726731	0.291970
591.078937	0.296385
591.431090	0.292789
591.783188	0.296714
592.135232	0.297117
592.487222	0.297228
592.839157	0.295228
593.191038	0.297823
593.542866	0.299703
593.894639	0.303369
594.246358	0.301138
594.598022	0.300632
594.949633	0.304182
595.301190	0.305246
595.652692	0.304254
596.004141	0.300158
596.355535	0.308439
596.706876	0.308659
597.058162	0.311355
597.409395	0.308670
597.760573	0.306294
598.111698	0.309567
598.462768	0.309832
598.813785	0.311549
599.164748	0.312471
599.515657	0.312749
599.866511	0.316176
600.217312	0.311470
600.568060	0.316848
600.918753	0.313563
601.269392	0.314139
601.619978	0.317562
601.970510	0.314979
602.320988	0.314957
602.671412	0.312698
603.021783	0.315323
603.372100	0.316806
603.722363	0.316343
604.072572	0.317099
604.422728	0.317275
604.772830	0.318932
605.122878	0.318769
605.472872	0.319297
605.822813	0.317314
606.172701	0.320012
606.522534	0.317807
606.872314	0.317731
607.222041	0.318554
607.571714	0.316844
607.921333	0.317943
608.270899	0.317589
608.620411	0.314579
608.969870	0.318382
609.319276	0.318438
609.668627	0.318351
610.017926	0.316792
610.367171	0.315360
610.716362	0.316037
611.065500	0.316507
611.414585	0.314860
611.763616	0.315535
612.112594	0.315971
612.461518	0.315649
612.810389	0.313706
613.159207	0.315476
613.507971	0.317244
613.856682	0.313238
614.205340	0.314956
614.553945	0.311499
614.902496	0.315383
615.250994	0.313592
615.599439	0.314464
615.947830	0.313675
616.296169	0.314487
616.644454	0.313859
616.992686	0.314229
617.340864	0.312049
617.688990	0.315628
618.037063	0.312347
618.385082	0.314073
618.733048	0.310931
619.080961	0.313468
619.428821	0.312577
619.776628	0.312011
620.124382	0.314431
620.472083	0.314542
620.819731	0.314090
621.167326	0.317624
621.514868	0.317475
621.862357	0.321718
622.209793	0.321508
622.557176	0.323642
622.904506	0.324361
623.251783	0.326946
623.599007	0.328817
623.946179	0.328648
624.293297	0.330483
624.640363	0.334609
624.987376	0.335148
625.334336	0.337730
625.681243	0.339990
626.028097	0.340279
626.374899	0.341727
626.721647	0.341568
627.068343	0.345333
627.414987	0.346073
627.761577	0.348027
628.108115	0.346341
628.454600	0.351553
628.801032	0.348654
629.147412	0.351172
629.493739	0.351196
629.840014	0.354436
630.186236	0.352051
630.532405	0.357231
630.878521	0.354543
631.224585	0.357095
631.570597	0.360872
631.916556	0.358968
632.262462	0.359582
632.608316	0.361459
632.954117	0.362332
633.299866	0.363194
633.645562	0.363385
633.991206	0.368067
634.336797	0.370457
634.682336	0.373291
635.027823	0.374450
635.373257	0.375261
635.718639	0.378825
636.063968	0.378250
636.409245	0.384025
636.754470	0.384139
637.099642	0.386849
637.444762	0.389959
637.789829	0.388836
638.134845	0.392245
638.479808	0.393067
638.824719	0.393719
639.169577	0.397017
639.514383	0.396041
639.859137	0.400478
640.203839	0.399899
640.548489	0.400801
640.893086	0.402251
641.237632	0.403629
641.582125	0.402158
641.926566	0.403621
642.270955	0.403608
642.615292	0.404384
642.959576	0.403116
643.303809	0.403944
643.647990	0.403880
643.992118	0.403734
644.336195	0.407430
644.680219	0.405487
645.024192	0.406538
645.368112	0.400132
645.711981	0.399152
646.055797	0.394561
646.399562	0.396726
646.743274	0.388773
647.086935	0.386658
647.430544	0.386219
647.774101	0.385190
648.117606	0.384237
648.461059	0.385141
648.804460	0.388249
649.147810	0.393174
649.491108	0.394882
649.834354	0.396182
650.177548	0.401604
650.520690	0.407348
650.863781	0.408355
651.206820	0.407327
651.549807	0.412346
651.892742	0.416025
652.235626	0.415412
652.578458	0.416750
652.921238	0.422453
653.263967	0.420319
653.606644	0.424586
653.949269	0.424148
654.291843	0.427793
654.634365	0.424933
654.976836	0.428360
655.319255	0.428048
655.661622	0.429788
656.003938	0.429651
656.346203	0.432774
656.688416	0.430557
657.030577	0.434318
657.372687	0.435903
657.714746	0.436807
658.056753	0.433836
658.398708	0.437600
658.740612	0.438802
659.082465	0.434653
659.424266	0.435119
659.766016	0.434998
660.107715	0.437800
660.449362	0.436176
660.790958	0.436819
661.132503	0.437295
661.473996	0.434899
661.815438	0.435993
662.156829	0.436636
662.498168	0.437002
662.839456	0.438288
663.180693	0.436233
663.521879	0.435686
663.863013	0.437243
664.204097	0.435792
664.545129	0.432710
664.886110	0.433032
665.227040	0.429719
665.567918	0.432977
665.908746	0.431245
666.249522	0.430397
666.590248	0.431464
666.930922	0.430186
667.271545	0.428534
667.612118	0.428453
667.952639	0.430366
668.293109	0.428853
668.633528	0.432155
668.973896	0.431602
669.314213	0.431865
669.654480	0.433577
669.994695	0.434036
670.334859	0.434803
670.674973	0.434954
671.015035	0.434930
671.355047	0.435427
671.695008	0.436497
672.034918	0.437951
672.374777	0.437235
672.714585	0.438602
673.054342	0.438283
673.394049	0.438523
673.733705	0.436382
674.073310	0.437465
674.412864	0.440569
674.752368	0.440797
675.091820	0.441103
675.431223	0.445916
675.770574	0.445393
676.109875	0.448403
676.449125	0.448596
676.788324	0.450594
677.127473	0.456077
677.466571	0.455684
677.805619	0.457703
678.144616	0.458571
678.483562	0.460110
678.822458	0.462720
679.161303	0.464033
679.500098	0.464237
679.838842	0.466043
680.177535	0.465511
680.516179	0.464373
680.854771	0.462997
681.193314	0.456605
681.531805	0.447580
681.870247	0.436392
682.208638	0.428524
682.546978	0.427769
682.885268	0.429679
683.223508	0.435681
683.561697	0.439337
683.899836	0.442255
684.237925	0.445659
684.575963	0.447922
684.913951	0.451403
685.251889	0.446593
685.589776	0.448768
685.927614	0.450842
686.265401	0.445531
686.603137	0.447365
686.940824	0.441005
687.278460	0.439646
687.616046	0.438173
687.953582	0.432983
688.291068	0.434246
688.628504	0.430720
688.965889	0.433069
689.303224	0.436868
689.640510	0.440716
689.977745	0.446481
690.314930	0.454651
690.652065	0.459511
690.989150	0.466243
691.326185	0.472610
691.663170	0.477447
692.000105	0.485288
692.336990	0.491641
692.673825	0.494145
693.010610	0.501145
693.347345	0.506350
693.684030	0.507580
694.020665	0.512323
694.357251	0.521671
694.693786	0.521443
695.030272	0.525661
695.366707	0.528846
695.703093	0.532625
696.039429	0.530234
696.375716	0.531968
696.711952	0.534842
697.048139	0.536273
697.384276	0.538093
697.720363	0.536581
698.056400	0.535494
698.392388	0.542073
698.728326	0.544834
699.064214	0.547326
699.400053	0.547920
699.735842	0.551042
700.071581	0.554461
700.407270	0.557281
700.742910	0.559626
701.078501	0.565817
701.414042	0.567167
701.749533	0.569380
702.084974	0.578271
702.420366	0.570971
702.755709	0.578306
703.091002	0.586130
703.426246	0.579832
703.761440	0.585182
704.096584	0.590233
704.431679	0.587383
704.766725	0.588723
705.101721	0.591140
705.436668	0.586273
705.771565	0.594222
706.106413	0.590892
706.441212	0.585707
706.775961	0.584974
707.110661	0.588181
707.445311	0.583819
707.779913	0.580978
708.114465	0.579814
708.448967	0.576219
708.783421	0.568506
709.117825	0.563082
709.452180	0.563220
709.786485	0.556341
710.120742	0.546784
710.454949	0.548446
710.789107	0.540634
711.123216	0.531924
711.457275	0.533774
711.791286	0.524677
712.125247	0.523115
712.459159	0.534239
712.793023	0.527153
713.126837	0.530902
713.460602	0.531891
713.794318	0.540494
714.127985	0.539796
714.461602	0.549704
714.795171	0.552971
715.128691	0.560918
715.462162	0.567434
715.795584	0.573438
716.128957	0.576579
716.462281	0.582734
716.795556	0.586901
717.128782	0.591140
717.461960	0.601144
717.795088	0.599732
718.128167	0.605849
718.461198	0.614307
718.794180	0.615116
719.127113	0.618110
719.459997	0.621435
719.792833	0.627746
720.125619	0.629174
720.458357	0.635264
720.791046	0.634220
721.123686	0.638373
721.456278	0.645177
721.788821	0.641958
722.121315	0.645750
722.453761	0.650570
722.786158	0.648014
723.118506	0.644719
723.450805	0.652771
723.783056	0.648158
724.115259	0.645848
724.447412	0.645333
724.779518	0.646945
725.111574	0.645807
725.443582	0.640623
725.775542	0.642986
726.107453	0.635917
726.439315	0.635459
726.771129	0.633846
727.102895	0.628051
727.434612	0.620064
727.766281	0.618352
728.097901	0.617691
728.429473	0.616971
728.760996	0.616452
729.092471	0.616138
729.423897	0.619798
729.755276	0.618202
730.086606	0.618915
730.417887	0.613128
730.749120	0.603691
731.080305	0.594745
731.411442	0.591134
731.742530	0.595176
732.073570	0.595425
732.404562	0.587491
732.735506	0.588055
733.066401	0.593712
733.397249	0.602231
733.728048	0.613871
734.058798	0.625976
734.389501	0.637129
734.720156	0.647136
735.050762	0.654836
735.381320	0.655766
735.711831	0.664779
736.042293	0.670081
736.372707	0.666651
736.703073	0.671115
737.033391	0.672900
737.363661	0.669165
737.693883	0.664435
738.024056	0.663762
738.354182	0.664197
738.684260	0.652778
739.014290	0.649790
739.344272	0.649798
739.674207	0.643407
740.004093	0.643167
740.333931	0.643652
740.663722	0.643763
740.993464	0.644210
741.323159	0.647220
741.652806	0.652409
741.982405	0.657357
742.311956	0.661910
742.641460	0.664843
742.970915	0.667549
743.300323	0.675870
743.629683	0.681513
743.958996	0.683819
744.288260	0.688543
744.617477	0.693669
744.946647	0.695489
745.275768	0.701353
745.604842	0.701372
745.933869	0.711171
746.262847	0.711389
746.591778	0.705278
746.920662	0.711820
747.249498	0.718323
747.578286	0.708979
747.907027	0.704289
748.235720	0.705321
748.564365	0.700558
748.892963	0.701010
749.221514	0.703353
749.550017	0.709063
749.878473	0.707845
750.206881	0.714876
750.535242	0.715788
750.863555	0.715485
751.191821	0.716604
751.520039	0.719846
751.848210	0.725114
752.176334	0.717660
752.504411	0.716052
752.832440	0.724539
753.160421	0.728645
753.488356	0.726781
753.816243	0.724726
754.144082	0.732944
754.471875	0.736329
754.799620	0.731424
755.127318	0.732312
755.454969	0.733317
755.782572	0.732292
756.110129	0.736569
756.437638	0.739220
756.765100	0.736612
757.092515	0.734295
757.419882	0.733194
757.747203	0.738459
758.074477	0.737511
758.401703	0.734050
758.728882	0.729945
759.056014	0.729475
759.383099	0.728515
759.710138	0.728839
760.037129	0.725243
760.364073	0.719347
760.690970	0.721434
761.017820	0.727590
761.344623	0.723627
761.671379	0.714098
761.998088	0.702967
762.324751	0.679830
762.651366	0.637819
762.977935	0.571630
763.304456	0.519643
763.630931	0.510468
763.957359	0.549381
764.283740	0.594094
764.610074	0.620988
764.936362	0.651061
765.262602	0.678914
765.588796	0.698738
765.914943	0.716683
766.241044	0.735026
766.567097	0.742119
766.893104	0.752003
767.219064	0.757766
767.544978	0.764621
767.870845	0.778069
768.196665	0.782092
768.522438	0.779235
768.848165	0.781574
769.173846	0.790557
769.499479	0.794071
769.825066	0.797328
770.150607	0.802960
770.476101	0.798645
770.801548	0.799033
771.126949	0.811329
771.452303	0.813601
771.777611	0.813864
772.102872	0.812774
772.428087	0.818225
772.753256	0.822102
773.078378	0.823465
773.403453	0.832479
773.728482	0.835327
774.053465	0.830423
774.378401	0.833011
774.703291	0.842617
775.028135	0.841835
775.352932	0.843377
775.677683	0.847292
776.002388	0.846849
776.327046	0.844995
776.651658	0.850196
776.976224	0.852233
777.300743	0.854054
777.625216	0.855396
777.949643	0.857313
778.274024	0.857717
778.598359	0.858768
778.922647	0.856986
779.246889	0.856602
779.571086	0.860805
779.895236	0.863879
780.219339	0.862411
780.543397	0.857995
780.867409	0.856344
781.191374	0.858086
781.515294	0.859556
781.839167	0.859520
782.162995	0.862308
782.486776	0.860692
782.810511	0.860196
783.134201	0.863890
783.457844	0.860492
783.781441	0.864831
784.104993	0.871530
784.428498	0.871231
784.751958	0.865835
785.075372	0.868824
785.398739	0.873008
785.722061	0.868128
786.045337	0.865575
786.368568	0.869220
786.691752	0.872306
787.014891	0.857959
787.337983	0.848838
787.661030	0.841216
787.984031	0.823331
788.306987	0.811044
788.629897	0.812986
788.952760	0.816923
789.275579	0.821288
789.598351	0.836437
789.921078	0.850471
790.243759	0.851399
790.566395	0.857713
790.888984	0.863357
791.211529	0.869188
791.534027	0.871648
791.856480	0.874028
792.178888	0.879243
792.501249	0.882242
792.823566	0.883676
793.145836	0.882367
793.468062	0.885337
793.790241	0.885231
794.112375	0.882960
794.434464	0.879406
794.756507	0.877778
795.078505	0.878046
795.400457	0.872516
795.722364	0.860333
796.044226	0.852947
796.366042	0.852783
796.687812	0.855960
797.009538	0.852001
797.331218	0.854812
797.652852	0.860084
797.974442	0.864147
798.295986	0.863499
798.617484	0.866678
798.938938	0.872222
799.260346	0.876124
799.581709	0.877451
799.903026	0.880321
800.224299	0.881191
800.545526	0.884674
800.866708	0.888979
801.187845	0.893076
801.508936	0.891552
801.829983	0.890541
802.150984	0.892919
802.471940	0.897758
802.792851	0.897637
803.113717	0.898543
803.434538	0.895747
803.755314	0.898728
804.076045	0.899788
804.396731	0.899855
804.717372	0.900347
805.037967	0.902872
805.358518	0.899623
805.679024	0.896757
805.999485	0.897751
806.319901	0.897379
806.640272	0.898593
806.960598	0.896772
807.280879	0.893780
807.601115	0.892693
807.921306	0.896428
808.241453	0.896273
808.561554	0.893957
808.881611	0.894408
809.201623	0.896592
809.521590	0.897351
809.841513	0.896946
810.161390	0.897054
810.481223	0.897803
810.801011	0.901620
811.120755	0.902313
811.440453	0.902197
811.760107	0.900165
812.079716	0.900040
812.399281	0.904554
812.718801	0.906702
813.038276	0.908492
813.357707	0.906947
813.677093	0.904937
813.996434	0.907261
814.315731	0.909052
814.634983	0.908943
814.954191	0.907982
815.273354	0.904870
815.592473	0.902574
815.911547	0.901834
816.230577	0.899422
816.549562	0.895971
816.868502	0.897101
817.187399	0.893542
817.506250	0.888629
817.825058	0.890240
818.143821	0.886976
818.462539	0.881939
818.781213	0.873531
819.099843	0.862973
819.418429	0.846503
819.736970	0.829794
820.055466	0.809905
820.373919	0.784190
820.692327	0.751494
821.010691	0.717020
821.329011	0.640090
821.647286	0.525112
821.965517	0.411223
822.283704	0.368935
822.601847	0.370260
822.919945	0.405918
823.237999	0.439369
823.556010	0.485838
823.873976	0.542303
824.191897	0.592163
824.509775	0.634530
824.827609	0.679746
825.145398	0.702764
825.463144	0.704989
825.780845	0.688090
826.098502	0.669446
826.416116	0.623579
826.733685	0.580258
827.051210	0.571574
827.368692	0.586178
827.686129	0.623299
828.003522	0.676040
828.320872	0.723912
828.638177	0.766859
828.955439	0.799339
829.272656	0.822447
829.589830	0.839553
829.906960	0.854998
830.224046	0.866600
830.541088	0.877536
830.858086	0.880529
831.175041	0.888045
831.491952	0.887783
831.808819	0.884679
832.125642	0.877053
832.442421	0.862074
832.759157	0.841377
833.075849	0.793783
833.392497	0.731752
833.709101	0.689677
834.025662	0.700127
834.342179	0.730765
834.658653	0.769688
834.975083	0.806524
835.291469	0.833960
835.607811	0.855455
835.924110	0.870874
836.240366	0.887760
836.556578	0.901452
836.872746	0.908948
837.188871	0.914838
837.504952	0.920249
837.820990	0.923577
838.136984	0.926878
838.452935	0.930395
838.768842	0.932683
839.084706	0.925804
839.400526	0.899568
839.716303	0.859404
840.032037	0.836723
840.347727	0.840813
840.663373	0.858124
840.978977	0.880984
841.294537	0.902869
841.610054	0.917866
841.925527	0.926354
842.240957	0.933095
842.556344	0.940821
842.871687	0.946083
843.186987	0.950670
843.502244	0.949663
843.817458	0.952866
844.132629	0.956211
844.447756	0.959909
844.762840	0.961585
845.077881	0.959774
845.392879	0.959699
845.707833	0.963149
846.022745	0.965631
846.337613	0.964846
846.652438	0.967384
846.967221	0.964599
847.281960	0.965336
847.596656	0.967827
847.911309	0.965470
848.225919	0.968941
848.540485	0.969285
848.855009	0.969878
849.169490	0.968443
849.483928	0.968611
849.798323	0.969549
850.112675	0.971568
850.426984	0.970561
850.741251	0.970076
851.055474	0.969984
851.369654	0.967671
851.683792	0.970382
851.997887	0.970260
852.311938	0.970929
852.625947	0.969441
852.939914	0.968588
853.253837	0.968754
853.567718	0.970396
853.881555	0.970907
854.195350	0.968844
854.509103	0.969754
854.822812	0.970271
855.136479	0.970958
855.450103	0.971013
855.763685	0.969463
856.077224	0.969170
856.390720	0.969990
856.704173	0.971465
857.017584	0.969345
857.330953	0.967609
857.644278	0.969308
857.957561	0.970019
858.270802	0.969117
858.584000	0.969024
858.897155	0.967075
859.210268	0.966912
859.523339	0.969109
859.836367	0.970165
860.149352	0.971351
860.462295	0.970050
860.775195	0.970912
861.088054	0.969775
861.400869	0.970335
861.713642	0.970876
862.026373	0.971170
862.339062	0.971067
862.651708	0.968522
862.964312	0.968962
863.276873	0.969957
863.589392	0.968354
863.901869	0.966801
864.214303	0.965340
864.526696	0.963744
864.839045	0.964402
865.151353	0.962119
865.463619	0.962032
865.775842	0.962604
866.088023	0.962899
866.400162	0.963353
866.712258	0.962129
867.024313	0.963415
867.336325	0.962643
867.648296	0.963641
867.960224	0.962700
868.272110	0.962302
868.583954	0.964417
868.895755	0.964321
869.207515	0.961817
869.519233	0.959783
869.830909	0.961201
870.142542	0.962939
870.454134	0.962044
870.765684	0.961390
871.077191	0.958540
871.388657	0.959886
871.700081	0.958428
872.011463	0.958747
872.322803	0.957420
872.634101	0.957365
872.945357	0.955285
873.256571	0.954158
873.567744	0.954292
873.878874	0.955079
874.189963	0.950955
874.501010	0.950988
874.812015	0.949475
875.122979	0.951398
875.433900	0.954261
875.744780	0.954382
876.055618	0.951226
876.366415	0.950330
876.677169	0.950154
876.987882	0.951760
877.298554	0.951881
877.609183	0.948169
877.919771	0.944655
878.230317	0.942759
878.540822	0.940957
878.851285	0.935034
879.161707	0.927069
879.472087	0.916208
879.782425	0.900155
880.092722	0.866148
880.402977	0.813486
880.713191	0.753942
881.023363	0.695017
881.333494	0.661000
881.643583	0.633435
881.953631	0.632888
882.263637	0.661829
882.573602	0.701124
882.883526	0.725713
883.193408	0.749467
883.503248	0.771849
883.813048	0.800025
884.122806	0.828184
884.432522	0.852905
884.742197	0.871748
885.051831	0.882774
885.361424	0.891828
885.670975	0.904615
885.980485	0.913435
886.289954	0.921177
886.599382	0.925191
886.908768	0.929045
887.218113	0.935068
887.527417	0.939763
887.836680	0.942326
888.145901	0.943747
888.455082	0.946084
888.764221	0.951048
889.073319	0.953319
889.382376	0.953644
889.691392	0.953636
890.000366	0.953653
890.309300	0.954907
890.618193	0.954708
890.927044	0.952574
891.235855	0.952184
891.544625	0.952070
891.853353	0.953039
892.162041	0.950155
892.470687	0.943384
892.779293	0.938459
893.087858	0.934654
893.396381	0.926686
893.704864	0.914410
894.013306	0.890266
894.321707	0.862658
894.630068	0.848343
894.938387	0.845391
895.246665	0.846403
895.554903	0.859680
895.863100	0.871143
896.171256	0.888585
896.479371	0.907652
896.787446	0.920497
897.095480	0.926072
897.403473	0.928696
897.711425	0.933008
898.019336	0.941143
898.327207	0.943017
898.635038	0.945713
898.942827	0.946038
899.250576	0.948174
899.558284	0.951928
899.865952	0.954030
900.173579	0.956620
900.481165	0.956235
900.788711	0.960640
901.096216	0.961127
901.403681	0.962391
901.711105	0.962597
902.018489	0.964350
902.325832	0.962761
902.633135	0.962134
902.940397	0.956314
903.247619	0.944830
903.554800	0.918411
903.861941	0.878893
904.169041	0.845132
904.476101	0.827560
904.783121	0.829024
905.090100	0.844445
905.397039	0.865339
905.703938	0.887064
906.010796	0.906019
906.317614	0.924465
906.624391	0.935876
906.931129	0.945038
907.237826	0.952657
907.544483	0.958904
907.851099	0.963484
908.157675	0.967460
908.464211	0.970523
908.770707	0.972427
909.077163	0.974448
909.383578	0.973245
909.689954	0.975437
909.996289	0.975537
910.302584	0.978418
910.608839	0.981088
910.915054	0.978320
911.221229	0.977712
911.527363	0.977854
911.833458	0.977162
912.139513	0.977850
912.445527	0.975911
912.751502	0.974501
913.057436	0.973251
913.363331	0.970638
913.669186	0.966609
913.975000	0.961847
914.280775	0.955853
914.586510	0.949406
914.892205	0.935677
915.197859	0.915144
915.503475	0.887569
915.809050	0.867661
916.114585	0.862152
916.420081	0.860494
916.725536	0.857531
917.030952	0.865556
917.336328	0.878652
917.641665	0.893308
917.946961	0.907461
918.252218	0.920373
918.557435	0.928498
918.862612	0.937183
919.167750	0.943211
919.472848	0.947865
919.777906	0.953934
920.082925	0.958553
920.387904	0.963029
920.692843	0.963616
920.997743	0.963840
921.302603	0.968182
921.607423	0.969091
921.912204	0.971646
922.216946	0.972092
922.521647	0.974392
922.826310	0.976232
923.130932	0.976965
923.435516	0.979660
923.740059	0.980583
924.044564	0.978675
924.349028	0.981742
924.653454	0.983184
924.957840	0.986036
925.262186	0.985117
925.566493	0.983442
925.870761	0.984969
926.174989	0.986854
926.479178	0.988094
926.783328	0.988919
927.087438	0.989261
927.391509	0.988191
927.695541	0.990467
927.999533	0.988986
928.303486	0.990067
928.607400	0.992104
928.911275	0.990194
929.215110	0.989679
929.518906	0.989526
929.822663	0.990377
930.126381	0.991110
930.430060	0.990220
930.733699	0.990654
931.037299	0.989589
931.340861	0.991435
931.644383	0.990023
931.947866	0.989601
932.251309	0.990935
932.554714	0.991802
932.858080	0.990791
933.161407	0.989239
933.464694	0.991201
933.767943	0.989497
934.071153	0.990990
934.374323	0.992271
934.677455	0.991147
934.980548	0.991533
935.283602	0.991927
935.586617	0.992077
935.889593	0.990905
936.192530	0.991410
936.495428	0.989936
936.798287	0.991655
937.101108	0.991353
937.403890	0.987836
937.706632	0.990104
938.009336	0.988413
938.312002	0.985883
938.614628	0.984737
938.917216	0.984038
939.219765	0.981605
939.522275	0.983298
939.824747	0.984004
940.127179	0.984416
940.429573	0.984875
940.731929	0.984251
941.034246	0.985561
941.336524	0.986632
941.638763	0.986003
941.940964	0.987373
942.243126	0.985800
942.545250	0.987480
942.847335	0.987581
943.149381	0.989280
943.451389	0.988008
943.753359	0.988583
944.055290	0.990059
944.357182	0.990782
944.659036	0.987402
944.960851	0.990123
945.262628	0.990475
945.564367	0.990281
945.866067	0.990523
946.167729	0.990037
946.469352	0.990259
946.770937	0.988630
947.072484	0.991257
947.373992	0.989621
947.675462	0.991162
947.976893	0.990978
948.278286	0.991332
948.579641	0.991897
948.880958	0.990411
949.182236	0.990814
949.483476	0.991546
949.784678	0.991149
950.085841	0.991659
950.386967	0.991976
950.688054	0.990594
950.989103	0.991417
951.290114	0.989344
951.591087	0.989974
951.892021	0.990425
952.192917	0.990264
952.493776	0.988688
952.794596	0.988704
953.095378	0.987470
953.396122	0.988390
953.696828	0.987807
953.997496	0.989688
954.298126	0.991349
954.598718	0.990648
954.899272	0.991554
955.199788	0.991222
955.500266	0.991672
955.800706	0.994538
956.101108	0.993238
956.401472	0.993968
956.701798	0.994146
957.002087	0.993400
957.302337	0.994153
957.602550	0.995207
957.902724	0.995005
958.202861	0.995171
958.502960	0.995351
958.803022	0.994323
959.103045	0.996221
959.403031	0.996151
959.702979	0.994771
960.002889	0.995276
960.302762	0.993724
960.602596	0.997203
960.902393	0.994441
961.202153	0.997302
961.501875	0.996678
961.801559	0.995414
962.101205	0.997612
962.400814	0.996983
962.700385	0.997178
962.999918	0.996441
963.299414	0.996398
963.598873	0.995832
963.898293	0.997493
964.197677	0.995458
964.497022	0.996795
964.796331	0.997613
965.095601	0.997396
965.394835	0.997109
965.694030	0.998012
965.993189	0.997376
966.292309	0.996718
966.591393	0.998248
966.890439	0.996972
967.189447	0.997132
967.488419	0.996955
967.787353	0.997272
968.086249	0.995919
968.385108	0.997773
968.683930	0.997089
968.982714	0.997214
969.281462	0.996883
969.580172	0.995710
969.878844	0.998792
970.177480	0.997018
970.476078	0.997523
970.774639	0.997226
971.073162	0.997699
971.371649	0.996854
971.670098	0.996869
971.968510	0.997812
972.266885	0.995696
972.565223	0.996659
972.863524	0.996342
973.161788	0.996230
973.460014	0.997963
973.758204	0.996128
974.056356	0.996627
974.354471	0.994874
974.652550	0.996847
974.950591	0.996728
975.248595	0.996169
975.546563	0.997277
975.844493	0.998562
976.142386	0.998065
976.440243	0.997147
976.738062	0.997211
977.035845	0.998166
977.333590	0.996892
977.631299	0.997678
977.928971	0.997144
978.226606	0.997205
978.524204	0.995810
978.821765	0.998089
979.119290	0.997624
979.416777	0.997010
979.714228	0.997791
980.011642	0.996416
980.309020	0.996888
980.606360	0.996986
980.903664	0.997787
981.200931	0.995830
981.498162	0.995959
981.795356	0.995770
982.092513	0.993984
982.389633	0.995575
982.686717	0.990916
982.983764	0.992804
983.280775	0.989886
983.577749	0.990134
983.874686	0.991826
984.171587	0.991515
984.468451	0.994739
984.765279	0.995167
985.062070	0.994131
985.358824	0.995906
985.655543	0.994634
985.952224	0.996696
986.248869	0.996940
986.545478	0.997327
986.842050	0.998748
987.138586	0.995941
987.435086	0.997251
987.731549	0.999015
988.027975	0.997058
988.324366	0.997567
988.620719	0.997409
988.917037	0.996750
989.213318	0.998859
989.509563	0.998403
989.805772	0.998235
990.101944	0.999079
990.398080	0.996968
990.694180	0.998923
990.990244	0.998274
991.286271	0.998079
991.582262	0.998458
991.878217	0.998323
992.174136	0.999183
992.470019	0.999691
992.765865	0.998037
993.061676	0.998056
993.357450	0.998078
993.653188	0.997068
993.948890	0.996950
994.244556	0.997572
994.540186	0.998691
994.835780	0.996785
995.131337	0.997593
995.426859	0.997159
995.722345	0.997304
996.017795	0.997695
996.313208	0.996250
996.608586	0.996558
996.903928	0.997383
997.199234	0.996957
997.494504	0.996596
997.789738	0.996324
998.084936	0.996795
998.380099	0.998462
998.675225	0.998082
998.970316	0.997587
999.265371	0.998449
999.560390	0.997397
999.855373	0.998082
1000.150320	0.997206
1000.445232	0.997965
1000.740108	0.997578
1001.034948	0.998777
1001.329752	0.999658
1001.624521	0.999165
1001.919254	0.998568
1002.213951	0.999278
1002.508613	0.998446
1002.803239	0.999547
1003.097829	0.999303
1003.392384	0.999098
1003.686903	0.997381
1003.981386	0.998306
1004.275834	0.999509
1004.570246	0.999308
1004.864623	1.000144
1005.158964	0.999357
1005.453270	0.998352
1005.747540	0.997331
1006.041775	0.998494
1006.335974	1.000108
1006.630138	0.999374
1006.924266	1.000436
1007.218359	1.000654
1007.512416	0.999675
1007.806438	0.998616
1008.100425	1.000102
1008.394376	0.998211
1008.688292	0.999214
1008.982172	1.000006
1009.276017	1.000043
1009.569827	0.999079
1009.863602	0.998975
1010.157341	0.999766
1010.451045	0.999098
1010.744714	0.999060
1011.038347	0.999348
1011.331945	0.999937
1011.625508	0.997857
1011.919036	0.999463
1012.212528	0.998681
1012.505986	0.998701
1012.799408	0.998493
1013.092795	0.998738
1013.386147	0.998319
1013.679464	0.998629
1013.972745	0.998103
1014.265992	0.998203
1014.559204	0.999475
1014.852380	0.999281
1015.145521	0.999744
1015.438628	0.998877
1015.731699	0.998942
1016.024736	0.999764
1016.317737	0.998540
1016.610703	0.998711
1016.903635	0.999745
1017.196531	0.999459
1017.489393	0.999296
1017.782219	0.998051
1018.075011	0.998793
1018.367768	0.998076
1018.660490	1.000437
1018.953177	1.000437
1019.245829	1.000437
