Dividing Wavelength (nm)	Counts (n)	Blue Motor Position (mm): 0.000000	Red Motor Position (mm): 3.300000	
326.493990	1.000309
326.888308	1.000309
327.282561	1.000309
327.676750	1.001225
328.070874	0.999453
328.464933	1.001469
328.858929	0.999080
329.252859	0.999159
329.646726	1.000903
330.040528	1.001129
330.434265	1.000006
330.827938	1.000114
331.221547	1.001133
331.615091	1.000647
332.008571	1.000048
332.401986	0.999799
332.795338	0.999656
333.188625	0.999149
333.581847	1.000710
333.975006	0.999452
334.368100	0.998956
334.761129	0.999340
335.154095	1.001195
335.546996	0.998489
335.939833	0.993054
336.332606	0.993259
336.725315	0.994449
337.117960	0.994304
337.510540	0.993974
337.903056	0.994291
338.295508	0.993699
338.687896	0.993723
339.080220	0.992733
339.472480	0.994337
339.864676	0.993900
340.256807	0.993293
340.648875	0.994150
341.040879	0.993283
341.432818	0.993329
341.824694	0.994073
342.216506	0.994822
342.608253	0.992914
342.999937	0.992513
343.391557	0.993638
343.783113	0.994043
344.174605	0.993463
344.566033	0.994625
344.957397	0.993094
345.348697	0.993770
345.739934	0.993439
346.131106	0.994035
346.522215	0.993503
346.913260	0.993602
347.304241	0.993376
347.695159	0.993296
348.086012	0.993397
348.476802	0.993170
348.867528	0.993851
349.258191	0.991583
349.648789	0.993447
350.039324	0.993761
350.429796	0.992877
350.820203	0.994473
351.210548	0.992764
351.600828	0.992954
351.991045	0.993112
352.381198	0.991705
352.771288	0.993657
353.161314	0.992777
353.551276	0.994462
353.941175	0.992982
354.331010	0.992597
354.720782	0.993128
355.110490	0.993307
355.500135	0.993654
355.889717	0.993335
356.279235	0.992225
356.668689	0.992350
357.058080	0.993645
357.447408	0.994168
357.836672	0.993361
358.225873	0.993326
358.615010	0.993351
359.004084	0.994116
359.393095	0.992547
359.782043	0.993412
360.170927	0.993716
360.559748	0.993509
360.948505	0.992796
361.337199	0.991338
361.725830	0.992279
362.114398	0.991698
362.502903	0.992350
362.891344	0.993861
363.279722	0.991739
363.668037	0.993188
364.056289	0.991509
364.444478	0.992568
364.832603	0.993142
365.220665	0.990963
365.608665	0.991909
365.996601	0.991512
366.384474	0.992092
366.772284	0.990027
367.160031	0.989973
367.547715	0.989378
367.935336	0.989488
368.322893	0.988583
368.710388	0.987091
369.097820	0.985415
369.485189	0.983720
369.872495	0.982289
370.259738	0.978168
370.646918	0.976935
371.034035	0.977023
371.421090	0.971231
371.808081	0.967935
372.195010	0.964786
372.581875	0.960138
372.968678	0.955389
373.355418	0.952447
373.742096	0.946323
374.128710	0.941149
374.515262	0.935922
374.901751	0.931045
375.288177	0.926296
375.674540	0.918829
376.060841	0.912027
376.447079	0.906020
376.833254	0.899688
377.219367	0.893898
377.605417	0.883075
377.991404	0.879978
378.377329	0.873300
378.763191	0.866985
379.148991	0.858606
379.534727	0.851149
379.920402	0.842667
380.306013	0.839416
380.691563	0.825619
381.077049	0.819322
381.462474	0.814978
381.847835	0.804435
382.233134	0.797556
382.618371	0.798039
383.003545	0.781790
383.388657	0.779126
383.773706	0.771913
384.158693	0.768083
384.543618	0.761518
384.928480	0.753378
385.313280	0.743987
385.698017	0.743633
386.082692	0.732603
386.467305	0.731086
386.851856	0.723495
387.236344	0.718972
387.620770	0.712274
388.005133	0.708230
388.389435	0.702068
388.773674	0.699862
389.157851	0.692747
389.541965	0.689579
389.926018	0.695901
390.310008	0.682536
390.693936	0.678985
391.077802	0.671394
391.461606	0.674668
391.845348	0.662846
392.229027	0.662920
392.612645	0.660498
392.996200	0.648072
393.379694	0.641120
393.763125	0.630539
394.146494	0.635988
394.529801	0.625876
394.913047	0.618410
395.296230	0.624088
395.679351	0.614795
396.062410	0.612818
396.445408	0.614675
396.828343	0.609209
397.211217	0.605105
397.594028	0.618424
397.976778	0.607342
398.359466	0.604489
398.742092	0.599221
399.124656	0.611658
399.507158	0.600503
399.889598	0.596994
400.271977	0.588151
400.654294	0.593198
401.036549	0.591390
401.418742	0.595627
401.800874	0.580836
402.182944	0.578163
402.564952	0.569600
402.946898	0.571477
403.328783	0.572484
403.710606	0.584072
404.092367	0.558155
404.474067	0.563499
404.855705	0.562072
405.237282	0.571403
405.618797	0.557586
406.000250	0.553256
406.381642	0.543704
406.762972	0.548102
407.144240	0.547689
407.525447	0.547568
407.906593	0.540148
408.287677	0.535924
408.668700	0.544335
409.049661	0.537321
409.430560	0.533365
409.811399	0.541864
410.192176	0.523371
410.572891	0.530029
410.953545	0.518386
411.334138	0.531676
411.714669	0.525041
412.095139	0.536521
412.475547	0.521513
412.855894	0.522683
413.236180	0.522323
413.616405	0.526719
413.996568	0.517629
414.376670	0.524257
414.756711	0.528876
415.136691	0.525418
415.516609	0.516825
415.896466	0.513433
416.276262	0.509461
416.655997	0.511370
417.035670	0.492587
417.415283	0.484532
417.794834	0.489267
418.174324	0.494118
418.553753	0.503765
418.933121	0.486110
419.312428	0.479512
419.691674	0.485379
420.070859	0.473730
420.449983	0.481492
420.829045	0.471177
421.208047	0.480121
421.586988	0.473451
421.965867	0.472677
422.344686	0.461155
422.723444	0.473307
423.102141	0.490575
423.480777	0.462988
423.859352	0.484222
424.237866	0.461167
424.616319	0.461857
424.994712	0.452842
425.373044	0.463247
425.751314	0.451366
426.129524	0.467380
426.507673	0.452366
426.885762	0.444914
427.263789	0.450749
427.641756	0.459892
428.019662	0.450023
428.397508	0.449051
428.775292	0.453587
429.153016	0.446025
429.530679	0.452039
429.908282	0.445760
430.285824	0.455088
430.663305	0.433522
431.040726	0.454850
431.418086	0.455191
431.795385	0.446559
432.172624	0.445304
432.549802	0.446518
432.926920	0.445199
433.303977	0.444246
433.680974	0.441639
434.057910	0.439891
434.434786	0.439334
434.811601	0.441769
435.188355	0.424078
435.565050	0.433869
435.941683	0.435210
436.318257	0.419870
436.694770	0.419993
437.071222	0.418697
437.447614	0.422402
437.823946	0.428889
438.200218	0.418392
438.576429	0.428306
438.952580	0.421448
439.328670	0.418394
439.704700	0.424850
440.080670	0.425843
440.456580	0.406890
440.832429	0.414599
441.208218	0.425354
441.583947	0.414944
441.959616	0.414632
442.335224	0.419378
442.710773	0.410588
443.086261	0.407926
443.461689	0.422359
443.837057	0.412346
444.212365	0.402200
444.587612	0.409106
444.962800	0.398869
445.337927	0.400432
445.712995	0.426889
446.088002	0.388944
446.462949	0.399651
446.837837	0.404138
447.212664	0.393445
447.587431	0.384188
447.962139	0.355327
448.336786	0.314616
448.711374	0.325108
449.085901	0.368548
449.460369	0.373031
449.834776	0.376592
450.209124	0.355784
450.583412	0.348324
450.957640	0.341878
451.331808	0.352942
451.705917	0.376178
452.079965	0.380653
452.453954	0.368696
452.827883	0.375751
453.201752	0.370613
453.575562	0.382002
453.949311	0.370810
454.323001	0.376923
454.696632	0.372100
455.070202	0.364856
455.443713	0.356919
455.817164	0.351947
456.190556	0.347668
456.563888	0.344416
456.937160	0.341912
457.310373	0.358800
457.683526	0.357999
458.056619	0.363691
458.429653	0.364613
458.802628	0.367827
459.175542	0.361991
459.548398	0.344558
459.921194	0.337175
460.293930	0.337093
460.666607	0.314689
461.039224	0.302796
461.411782	0.298653
461.784280	0.297862
462.156719	0.301980
462.529099	0.306526
462.901419	0.322582
463.273680	0.326863
463.645882	0.326291
464.018024	0.332118
464.390106	0.325119
464.762130	0.309935
465.134094	0.292933
465.505999	0.262121
465.877845	0.232401
466.249631	0.219506
466.621358	0.226976
466.993026	0.240714
467.364634	0.247048
467.736184	0.255685
468.107674	0.264611
468.479105	0.263402
468.850477	0.270334
469.221790	0.277090
469.593043	0.287375
469.964238	0.292025
470.335373	0.291420
470.706449	0.289521
471.077467	0.289993
471.448425	0.252113
471.819324	0.228208
472.190164	0.227155
472.560945	0.256233
472.931667	0.278276
473.302330	0.282175
473.672934	0.294277
474.043479	0.282605
474.413965	0.284541
474.784393	0.287748
475.154761	0.282987
475.525070	0.279983
475.895321	0.285933
476.265513	0.279884
476.635645	0.275140
477.005719	0.275366
477.375734	0.271866
477.745691	0.265079
478.115588	0.261430
478.485427	0.255279
478.855207	0.242092
479.224928	0.224857
479.594591	0.212680
479.964194	0.216252
480.333739	0.217464
480.703226	0.219068
481.072653	0.217259
481.442022	0.212778
481.811333	0.209524
482.180584	0.212939
482.549777	0.218445
482.918912	0.221503
483.287988	0.221308
483.657005	0.221034
484.025964	0.227781
484.394864	0.224580
484.763706	0.225446
485.132489	0.230459
485.501213	0.230974
485.869879	0.229435
486.238487	0.232820
486.607036	0.230422
486.975527	0.234947
487.343959	0.231107
487.712333	0.230122
488.080648	0.231290
488.448905	0.230628
488.817104	0.231919
489.185244	0.226305
489.553326	0.223522
489.921350	0.212987
490.289315	0.195857
490.657222	0.190690
491.025070	0.192023
491.392861	0.193911
491.760593	0.199772
492.128267	0.205336
492.495883	0.210921
492.863440	0.217124
493.230939	0.223466
493.598380	0.224478
493.965763	0.227133
494.333088	0.229275
494.700354	0.230554
495.067563	0.229682
495.434713	0.232985
495.801805	0.230810
496.168839	0.232532
496.535815	0.233549
496.902733	0.233828
497.269593	0.235268
497.636395	0.233096
498.003139	0.233254
498.369825	0.236301
498.736453	0.232851
499.103023	0.234284
499.469535	0.233601
499.835989	0.234269
500.202385	0.234990
500.568723	0.238186
500.935003	0.233534
501.301226	0.237340
501.667390	0.231933
502.033497	0.230195
502.399546	0.232997
502.765537	0.234788
503.131470	0.233185
503.497345	0.229535
503.863163	0.238205
504.228923	0.231163
504.594625	0.229702
504.960269	0.235384
505.325856	0.230668
505.691385	0.234842
506.056856	0.231582
506.422270	0.231158
506.787625	0.233609
507.152924	0.230731
507.518164	0.231237
507.883347	0.233033
508.248472	0.234727
508.613540	0.229907
508.978550	0.232311
509.343503	0.232684
509.708398	0.230450
510.073236	0.228182
510.438016	0.228043
510.802738	0.228981
511.167403	0.227751
511.532010	0.230086
511.896561	0.225147
512.261053	0.224166
512.625488	0.226139
512.989866	0.226364
513.354186	0.226995
513.718449	0.228599
514.082655	0.225061
514.446803	0.227548
514.810894	0.225148
515.174927	0.227719
515.538904	0.226882
515.902822	0.224035
516.266684	0.226255
516.630488	0.227578
516.994235	0.226315
517.357925	0.225011
517.721558	0.223223
518.085133	0.222883
518.448651	0.223026
518.812112	0.224827
519.175516	0.224702
519.538863	0.222528
519.902152	0.223927
520.265385	0.220930
520.628560	0.222745
520.991678	0.223307
521.354739	0.221970
521.717743	0.223256
522.080690	0.223499
522.443580	0.221039
522.806413	0.221870
523.169189	0.221049
523.531908	0.220207
523.894569	0.223836
524.257174	0.223519
524.619722	0.221283
524.982213	0.222538
525.344647	0.221251
525.707025	0.222145
526.069345	0.220538
526.431608	0.222054
526.793815	0.220078
527.155964	0.224248
527.518057	0.222950
527.880093	0.224267
528.242072	0.222641
528.603995	0.224789
528.965860	0.226150
529.327669	0.225063
529.689421	0.226067
530.051117	0.226853
530.412755	0.224497
530.774337	0.226895
531.135862	0.227285
531.497331	0.226552
531.858743	0.229284
532.220098	0.226507
532.581396	0.228719
532.942638	0.229008
533.303824	0.230249
533.664953	0.230109
534.026025	0.231454
534.387040	0.229386
534.747999	0.229544
535.108902	0.228517
535.469748	0.233322
535.830537	0.231401
536.191270	0.231677
536.551947	0.231202
536.912567	0.231292
537.273131	0.232685
537.633638	0.233087
537.994089	0.233621
538.354483	0.234566
538.714821	0.231238
539.075103	0.231223
539.435328	0.231976
539.795497	0.235715
540.155609	0.232465
540.515665	0.230673
540.875665	0.235859
541.235609	0.234530
541.595496	0.234857
541.955328	0.231155
542.315102	0.233962
542.674821	0.234914
543.034483	0.235057
543.394090	0.234575
543.753640	0.236637
544.113134	0.231555
544.472571	0.234917
544.831953	0.231971
545.191278	0.236014
545.550548	0.235242
545.909761	0.232295
546.268918	0.232702
546.628019	0.231129
546.987064	0.233683
547.346053	0.235905
547.704986	0.233600
548.063863	0.233787
548.422684	0.234033
548.781449	0.236072
549.140158	0.233375
549.498811	0.236429
549.857408	0.239436
550.215949	0.234326
550.574434	0.237060
550.932864	0.235457
551.291237	0.233819
551.649555	0.235427
552.007817	0.235070
552.366022	0.236078
552.724173	0.236280
553.082267	0.236636
553.440305	0.233509
553.798288	0.237926
554.156215	0.234488
554.514086	0.235137
554.871902	0.238322
555.229661	0.237575
555.587365	0.237763
555.945014	0.240483
556.302606	0.237208
556.660143	0.239864
557.017625	0.236297
557.375050	0.238660
557.732421	0.235659
558.089735	0.237742
558.446994	0.237967
558.804197	0.236750
559.161345	0.236683
559.518437	0.240443
559.875474	0.238072
560.232455	0.237461
560.589381	0.238537
560.946251	0.238593
561.303065	0.236479
561.659825	0.237809
562.016528	0.239476
562.373177	0.242199
562.729770	0.239319
563.086307	0.241510
563.442789	0.239005
563.799216	0.242120
564.155587	0.241087
564.511904	0.241958
564.868164	0.242362
565.224370	0.241997
565.580520	0.243344
565.936615	0.243460
566.292654	0.246757
566.648638	0.243578
567.004567	0.244547
567.360441	0.245027
567.716260	0.247170
568.072023	0.244775
568.427732	0.245560
568.783385	0.248071
569.138982	0.246140
569.494525	0.245865
569.850013	0.248554
570.205445	0.247120
570.560823	0.249892
570.916145	0.251448
571.271412	0.249805
571.626625	0.251512
571.981782	0.251819
572.336884	0.252704
572.691931	0.252218
573.046923	0.253715
573.401860	0.254670
573.756743	0.256401
574.111570	0.255015
574.466342	0.255984
574.821059	0.254991
575.175722	0.257886
575.530330	0.257662
575.884882	0.258125
576.239380	0.260165
576.593823	0.260035
576.948211	0.259800
577.302544	0.263189
577.656823	0.262886
578.011047	0.263025
578.365216	0.263529
578.719330	0.265245
579.073389	0.265290
579.427394	0.266575
579.781344	0.267115
580.135239	0.269049
580.489080	0.268562
580.842866	0.271452
581.196597	0.271204
581.550273	0.269965
581.903895	0.270903
582.257463	0.268841
582.610975	0.272683
582.964434	0.271760
583.317837	0.274182
583.671186	0.275096
584.024481	0.274879
584.377721	0.277233
584.730906	0.277877
585.084037	0.277183
585.437113	0.279041
585.790135	0.278223
586.143103	0.281415
586.496016	0.282870
586.848874	0.279952
587.201679	0.280528
587.554428	0.283998
587.907124	0.282821
588.259765	0.283428
588.612352	0.284126
588.964884	0.287706
589.317362	0.287298
589.669786	0.287287
590.022155	0.285732
590.374470	0.284952
590.726731	0.287135
591.078937	0.291958
591.431090	0.288444
591.783188	0.292556
592.135232	0.293067
592.487222	0.292697
592.839157	0.291226
593.191038	0.293006
593.542866	0.294894
593.894639	0.298935
594.246358	0.296908
594.598022	0.296457
594.949633	0.299956
595.301190	0.300756
595.652692	0.299952
596.004141	0.296033
596.355535	0.304283
596.706876	0.304520
597.058162	0.307071
597.409395	0.304532
597.760573	0.301856
598.111698	0.304971
598.462768	0.305725
598.813785	0.306914
599.164748	0.308294
599.515657	0.308465
599.866511	0.312136
600.217312	0.307348
600.568060	0.312858
600.918753	0.309016
601.269392	0.310226
601.619978	0.312849
601.970510	0.310631
602.320988	0.310738
602.671412	0.308558
603.021783	0.310850
603.372100	0.312413
603.722363	0.312056
604.072572	0.312949
604.422728	0.312456
604.772830	0.314811
605.122878	0.314240
605.472872	0.314995
605.822813	0.313433
606.172701	0.316225
606.522534	0.313491
606.872314	0.313602
607.222041	0.314254
607.571714	0.312258
607.921333	0.313685
608.270899	0.313486
608.620411	0.310347
608.969870	0.314262
609.319276	0.314463
609.668627	0.314223
610.017926	0.312656
610.367171	0.311259
610.716362	0.311901
611.065500	0.312161
611.414585	0.310939
611.763616	0.311354
612.112594	0.311953
612.461518	0.311079
612.810389	0.309253
613.159207	0.311420
613.507971	0.313242
613.856682	0.308903
614.205340	0.310366
614.553945	0.307216
614.902496	0.311060
615.250994	0.309391
615.599439	0.310169
615.947830	0.309153
616.296169	0.310240
616.644454	0.310109
616.992686	0.310037
617.340864	0.307993
617.688990	0.311285
618.037063	0.307924
618.385082	0.309747
618.733048	0.306620
619.080961	0.309098
619.428821	0.308586
619.776628	0.307992
620.124382	0.310359
620.472083	0.310408
620.819731	0.309848
621.167326	0.313603
621.514868	0.313482
621.862357	0.317522
622.209793	0.317319
622.557176	0.319148
622.904506	0.320789
623.251783	0.323113
623.599007	0.325414
623.946179	0.324755
624.293297	0.326699
624.640363	0.330703
624.987376	0.331255
625.334336	0.333626
625.681243	0.335656
626.028097	0.336434
626.374899	0.337417
626.721647	0.337646
627.068343	0.341431
627.414987	0.341817
627.761577	0.344319
628.108115	0.342579
628.454600	0.347574
628.801032	0.345043
629.147412	0.347020
629.493739	0.347510
629.840014	0.350663
630.186236	0.347983
630.532405	0.353778
630.878521	0.350686
631.224585	0.353237
631.570597	0.356970
631.916556	0.355361
632.262462	0.355139
632.608316	0.357395
632.954117	0.358455
633.299866	0.358884
633.645562	0.359652
633.991206	0.363815
634.336797	0.367027
634.682336	0.369313
635.027823	0.370606
635.373257	0.371564
635.718639	0.375060
636.063968	0.374481
636.409245	0.379755
636.754470	0.380564
637.099642	0.383065
637.444762	0.386038
637.789829	0.385690
638.134845	0.388665
638.479808	0.389614
638.824719	0.389328
639.169577	0.393795
639.514383	0.392388
639.859137	0.396838
640.203839	0.396629
640.548489	0.396745
640.893086	0.398108
641.237632	0.400202
641.582125	0.398841
641.926566	0.399752
642.270955	0.400062
642.615292	0.400813
642.959576	0.399587
643.303809	0.400017
643.647990	0.399597
643.992118	0.400999
644.336195	0.403819
644.680219	0.402185
645.024192	0.403035
645.368112	0.396740
645.711981	0.396093
646.055797	0.390706
646.399562	0.393073
646.743274	0.385623
647.086935	0.382515
647.430544	0.382662
647.774101	0.381932
648.117606	0.381394
648.461059	0.381832
648.804460	0.384493
649.147810	0.389402
649.491108	0.390948
649.834354	0.392745
650.177548	0.397942
650.520690	0.403610
650.863781	0.405002
651.206820	0.404088
651.549807	0.408320
651.892742	0.412879
652.235626	0.411864
652.578458	0.413219
652.921238	0.418620
653.263967	0.417156
653.606644	0.420795
653.949269	0.420409
654.291843	0.424504
654.634365	0.421122
654.976836	0.424648
655.319255	0.424120
655.661622	0.426474
656.003938	0.426517
656.346203	0.429268
656.688416	0.426961
657.030577	0.430281
657.372687	0.432595
657.714746	0.433526
658.056753	0.430687
658.398708	0.434272
658.740612	0.435205
659.082465	0.431323
659.424266	0.432040
659.766016	0.431584
660.107715	0.434108
660.449362	0.433094
660.790958	0.433612
661.132503	0.434339
661.473996	0.431917
661.815438	0.432720
662.156829	0.432607
662.498168	0.433819
662.839456	0.435205
663.180693	0.433027
663.521879	0.432911
663.863013	0.433574
664.204097	0.432536
664.545129	0.428873
664.886110	0.429751
665.227040	0.426761
665.567918	0.429740
665.908746	0.427914
666.249522	0.427318
666.590248	0.428248
666.930922	0.426650
667.271545	0.424768
667.612118	0.425257
667.952639	0.427067
668.293109	0.425144
668.633528	0.428611
668.973896	0.428155
669.314213	0.428429
669.654480	0.430297
669.994695	0.430665
670.334859	0.432020
670.674973	0.431729
671.015035	0.431583
671.355047	0.431505
671.695008	0.432519
672.034918	0.434636
672.374777	0.434251
672.714585	0.435153
673.054342	0.434914
673.394049	0.435125
673.733705	0.432913
674.073310	0.434302
674.412864	0.437543
674.752368	0.437689
675.091820	0.437506
675.431223	0.442519
675.770574	0.441651
676.109875	0.445444
676.449125	0.445307
676.788324	0.447557
677.127473	0.453202
677.466571	0.452472
677.805619	0.454270
678.144616	0.454777
678.483562	0.456745
678.822458	0.459751
679.161303	0.459948
679.500098	0.460642
679.838842	0.462939
680.177535	0.462094
680.516179	0.460582
680.854771	0.459620
681.193314	0.453202
681.531805	0.444244
681.870247	0.432706
682.208638	0.425577
682.546978	0.424625
682.885268	0.425869
683.223508	0.432351
683.561697	0.435814
683.899836	0.438672
684.237925	0.441814
684.575963	0.444936
684.913951	0.447710
685.251889	0.443360
685.589776	0.445442
685.927614	0.447847
686.265401	0.442375
686.603137	0.443314
686.940824	0.437880
687.278460	0.435567
687.616046	0.434889
687.953582	0.429773
688.291068	0.431332
688.628504	0.427148
688.965889	0.429173
689.303224	0.433397
689.640510	0.436972
689.977745	0.442985
690.314930	0.451040
690.652065	0.455735
690.989150	0.463494
691.326185	0.469293
691.663170	0.474085
692.000105	0.481342
692.336990	0.488520
692.673825	0.490821
693.010610	0.498156
693.347345	0.503113
693.684030	0.504989
694.020665	0.510109
694.357251	0.518322
694.693786	0.517701
695.030272	0.522879
695.366707	0.525793
695.703093	0.529489
696.039429	0.526914
696.375716	0.528758
696.711952	0.531693
697.048139	0.533625
697.384276	0.535657
697.720363	0.533458
698.056400	0.532211
698.392388	0.538801
698.728326	0.541034
699.064214	0.543911
699.400053	0.544940
699.735842	0.548120
700.071581	0.551250
700.407270	0.554596
700.742910	0.556410
701.078501	0.563538
701.414042	0.563320
701.749533	0.567002
702.084974	0.575710
702.420366	0.568349
702.755709	0.575693
703.091002	0.583292
703.426246	0.576617
703.761440	0.582201
704.096584	0.587633
704.431679	0.584197
704.766725	0.586339
705.101721	0.588680
705.436668	0.584236
705.771565	0.591219
706.106413	0.587348
706.441212	0.583561
706.775961	0.581952
707.110661	0.584568
707.445311	0.580900
707.779913	0.578317
708.114465	0.576894
708.448967	0.573296
708.783421	0.565394
709.117825	0.560050
709.452180	0.559606
709.786485	0.553812
710.120742	0.543891
710.454949	0.546118
710.789107	0.537875
711.123216	0.528947
711.457275	0.530746
711.791286	0.521009
712.125247	0.520604
712.459159	0.531152
712.793023	0.523138
713.126837	0.527364
713.460602	0.528268
713.794318	0.537020
714.127985	0.536218
714.461602	0.546767
714.795171	0.550219
715.128691	0.557492
715.462162	0.565064
715.795584	0.570780
716.128957	0.574145
716.462281	0.580182
716.795556	0.583481
717.128782	0.588754
717.461960	0.598146
717.795088	0.596534
718.128167	0.603212
718.461198	0.610824
718.794180	0.612708
719.127113	0.615320
719.459997	0.618745
719.792833	0.625620
720.125619	0.625740
720.458357	0.632554
720.791046	0.631836
721.123686	0.635370
721.456278	0.642065
721.788821	0.639163
722.121315	0.643808
722.453761	0.648193
722.786158	0.646010
723.118506	0.642055
723.450805	0.649752
723.783056	0.646612
724.115259	0.643411
724.447412	0.643043
724.779518	0.644178
725.111574	0.642740
725.443582	0.638276
725.775542	0.640604
726.107453	0.633189
726.439315	0.632698
726.771129	0.630756
727.102895	0.624671
727.434612	0.617999
727.766281	0.615035
728.097901	0.614911
728.429473	0.614837
728.760996	0.613073
729.092471	0.612934
729.423897	0.616711
729.755276	0.615371
730.086606	0.615370
730.417887	0.610117
730.749120	0.600712
731.080305	0.591928
731.411442	0.587731
731.742530	0.592875
732.073570	0.592500
732.404562	0.584248
732.735506	0.585909
733.066401	0.590291
733.397249	0.599757
733.728048	0.610963
734.058798	0.623825
734.389501	0.633817
734.720156	0.644032
735.050762	0.652365
735.381320	0.652939
735.711831	0.662388
736.042293	0.667601
736.372707	0.662458
736.703073	0.667540
737.033391	0.670148
737.363661	0.666276
737.693883	0.661780
738.024056	0.661000
738.354182	0.661353
738.684260	0.650921
739.014290	0.646506
739.344272	0.646941
739.674207	0.640589
740.004093	0.640501
740.333931	0.640947
740.663722	0.640667
740.993464	0.641075
741.323159	0.645165
741.652806	0.650543
741.982405	0.654812
742.311956	0.658913
742.641460	0.661665
742.970915	0.665443
743.300323	0.672930
743.629683	0.679387
743.958996	0.681126
744.288260	0.685808
744.617477	0.691655
744.946647	0.693644
745.275768	0.698202
745.604842	0.698646
745.933869	0.709119
746.262847	0.709157
746.591778	0.703040
746.920662	0.708939
747.249498	0.714781
747.578286	0.705579
747.907027	0.702531
748.235720	0.702769
748.564365	0.697706
748.892963	0.698526
749.221514	0.701174
749.550017	0.706253
749.878473	0.705287
750.206881	0.712896
750.535242	0.713862
750.863555	0.713152
751.191821	0.714711
751.520039	0.717551
751.848210	0.722985
752.176334	0.714457
752.504411	0.714719
752.832440	0.722117
753.160421	0.725354
753.488356	0.724242
753.816243	0.721437
754.144082	0.731215
754.471875	0.733650
754.799620	0.729369
755.127318	0.730771
755.454969	0.730386
755.782572	0.729607
756.110129	0.734819
756.437638	0.736806
756.765100	0.733626
757.092515	0.732145
757.419882	0.731265
757.747203	0.735204
758.074477	0.734779
758.401703	0.731977
758.728882	0.727711
759.056014	0.727063
759.383099	0.725043
759.710138	0.726389
760.037129	0.723518
760.364073	0.716720
760.690970	0.719637
761.017820	0.725663
761.344623	0.721075
761.671379	0.711791
761.998088	0.699761
762.324751	0.677719
762.651366	0.634626
762.977935	0.568067
763.304456	0.515306
763.630931	0.506066
763.957359	0.544864
764.283740	0.589378
764.610074	0.616546
764.936362	0.648359
765.262602	0.675961
765.588796	0.696991
765.914943	0.714416
766.241044	0.733010
766.567097	0.739306
766.893104	0.748730
767.219064	0.755257
767.544978	0.763013
767.870845	0.775760
768.196665	0.779866
768.522438	0.777067
768.848165	0.778800
769.173846	0.787683
769.499479	0.791747
769.825066	0.796032
770.150607	0.800840
770.476101	0.795807
770.801548	0.797091
771.126949	0.808979
771.452303	0.812560
771.777611	0.811896
772.102872	0.810448
772.428087	0.815978
772.753256	0.820002
773.078378	0.821067
773.403453	0.829940
773.728482	0.834587
774.053465	0.827719
774.378401	0.832214
774.703291	0.840466
775.028135	0.839122
775.352932	0.842431
775.677683	0.845586
776.002388	0.844695
776.327046	0.844268
776.651658	0.847567
776.976224	0.851583
777.300743	0.851440
777.625216	0.854209
777.949643	0.854792
778.274024	0.855094
778.598359	0.857274
778.922647	0.854976
779.246889	0.856046
779.571086	0.859614
779.895236	0.862868
780.219339	0.860008
780.543397	0.856897
780.867409	0.854387
781.191374	0.856794
781.515294	0.858254
781.839167	0.857080
782.162995	0.860784
782.486776	0.858599
782.810511	0.858701
783.134201	0.863241
783.457844	0.859853
783.781441	0.862542
784.104993	0.868379
784.428498	0.869241
784.751958	0.864053
785.075372	0.867546
785.398739	0.871060
785.722061	0.867079
786.045337	0.864244
786.368568	0.867154
786.691752	0.870562
787.014891	0.854970
787.337983	0.846034
787.661030	0.839310
787.984031	0.821692
788.306987	0.808807
788.629897	0.811012
788.952760	0.815223
789.275579	0.819413
789.598351	0.835431
789.921078	0.847615
790.243759	0.849710
790.566395	0.854878
790.888984	0.862613
791.211529	0.866615
791.534027	0.870530
791.856480	0.872065
792.178888	0.877580
792.501249	0.880053
792.823566	0.880900
793.145836	0.881566
793.468062	0.882904
793.790241	0.883088
794.112375	0.881126
794.434464	0.877365
794.756507	0.876337
795.078505	0.876424
795.400457	0.870694
795.722364	0.858540
796.044226	0.851350
796.366042	0.849988
796.687812	0.853385
797.009538	0.849895
797.331218	0.852919
797.652852	0.858199
797.974442	0.862097
798.295986	0.862215
798.617484	0.865824
798.938938	0.870852
799.260346	0.873451
799.581709	0.875852
799.903026	0.878617
800.224299	0.879179
800.545526	0.883085
800.866708	0.888197
801.187845	0.890488
801.508936	0.890582
801.829983	0.888656
802.150984	0.891075
802.471940	0.896188
802.792851	0.894998
803.113717	0.897239
803.434538	0.895060
803.755314	0.896905
804.076045	0.899338
804.396731	0.899232
804.717372	0.897221
805.037967	0.900509
805.358518	0.898116
805.679024	0.894943
805.999485	0.895320
806.319901	0.894971
806.640272	0.896176
806.960598	0.895677
807.280879	0.892619
807.601115	0.891371
807.921306	0.894619
808.241453	0.893825
808.561554	0.893244
808.881611	0.892517
809.201623	0.894828
809.521590	0.895079
809.841513	0.895751
810.161390	0.894434
810.481223	0.896337
810.801011	0.899979
811.120755	0.901240
811.440453	0.900767
811.760107	0.898515
812.079716	0.899121
812.399281	0.902204
812.718801	0.904175
813.038276	0.905490
813.357707	0.904869
813.677093	0.901879
813.996434	0.905361
814.315731	0.907806
814.634983	0.908250
814.954191	0.905940
815.273354	0.903953
815.592473	0.899733
815.911547	0.900226
816.230577	0.897590
816.549562	0.894306
816.868502	0.895349
817.187399	0.891322
817.506250	0.886417
817.825058	0.888355
818.143821	0.884690
818.462539	0.879134
818.781213	0.871139
819.099843	0.859683
819.418429	0.843873
819.736970	0.827766
820.055466	0.806658
820.373919	0.780851
820.692327	0.748779
821.010691	0.712071
821.329011	0.633640
821.647286	0.516164
821.965517	0.401688
822.283704	0.358620
822.601847	0.359368
822.919945	0.395113
823.237999	0.429652
823.556010	0.477006
823.873976	0.533775
824.191897	0.585057
824.509775	0.627782
824.827609	0.673756
825.145398	0.697004
825.463144	0.699876
825.780845	0.682459
826.098502	0.663576
826.416116	0.617482
826.733685	0.572947
827.051210	0.563792
827.368692	0.579046
827.686129	0.616509
828.003522	0.670138
828.320872	0.718766
828.638177	0.762681
828.955439	0.796298
829.272656	0.818664
829.589830	0.835033
829.906960	0.853202
830.224046	0.863951
830.541088	0.874623
830.858086	0.878672
831.175041	0.885652
831.491952	0.885201
831.808819	0.881526
832.125642	0.874257
832.442421	0.860268
832.759157	0.837108
833.075849	0.789894
833.392497	0.726658
833.709101	0.684834
834.025662	0.694159
834.342179	0.726479
834.658653	0.766311
834.975083	0.802488
835.291469	0.828067
835.607811	0.852182
835.924110	0.868697
836.240366	0.885398
836.556578	0.899780
836.872746	0.906529
837.188871	0.913389
837.504952	0.919536
837.820990	0.921579
838.136984	0.925874
838.452935	0.928801
838.768842	0.930863
839.084706	0.923954
839.400526	0.896685
839.716303	0.856438
840.032037	0.834208
840.347727	0.837333
840.663373	0.856015
840.978977	0.876842
841.294537	0.900625
841.610054	0.916537
841.925527	0.924620
842.240957	0.931617
842.556344	0.938528
842.871687	0.944897
843.186987	0.949703
843.502244	0.949501
843.817458	0.950668
844.132629	0.954974
844.447756	0.959436
844.762840	0.959844
845.077881	0.958577
845.392879	0.959698
845.707833	0.962218
846.022745	0.964542
846.337613	0.964583
846.652438	0.965490
846.967221	0.963583
847.281960	0.964770
847.596656	0.967100
847.911309	0.965571
848.225919	0.967145
848.540485	0.966970
848.855009	0.968514
849.169490	0.968838
849.483928	0.968102
849.798323	0.968645
850.112675	0.968510
850.426984	0.968639
850.741251	0.968907
851.055474	0.969998
851.369654	0.967575
851.683792	0.968211
851.997887	0.969367
852.311938	0.969866
852.625947	0.969098
852.939914	0.968759
853.253837	0.969916
853.567718	0.970540
853.881555	0.970688
854.195350	0.967555
854.509103	0.970593
854.822812	0.969411
855.136479	0.968696
855.450103	0.969925
855.763685	0.968476
856.077224	0.969150
856.390720	0.970846
856.704173	0.969641
857.017584	0.968499
857.330953	0.967036
857.644278	0.967889
857.957561	0.968278
858.270802	0.967415
858.584000	0.967927
858.897155	0.965337
859.210268	0.966828
859.523339	0.968340
859.836367	0.969714
860.149352	0.971035
860.462295	0.969171
860.775195	0.969071
861.088054	0.967852
861.400869	0.968733
861.713642	0.969621
862.026373	0.969663
862.339062	0.970499
862.651708	0.967260
862.964312	0.966384
863.276873	0.969445
863.589392	0.968289
863.901869	0.966406
864.214303	0.964410
864.526696	0.963813
864.839045	0.962928
865.151353	0.961723
865.463619	0.961927
865.775842	0.962159
866.088023	0.961695
866.400162	0.960476
866.712258	0.960613
867.024313	0.963187
867.336325	0.962591
867.648296	0.963393
867.960224	0.961488
868.272110	0.960617
868.583954	0.962412
868.895755	0.962514
869.207515	0.960959
869.519233	0.958434
869.830909	0.959546
870.142542	0.960795
870.454134	0.961772
870.765684	0.959755
871.077191	0.956764
871.388657	0.957625
871.700081	0.956644
872.011463	0.957537
872.322803	0.957448
872.634101	0.956360
872.945357	0.953792
873.256571	0.952394
873.567744	0.952353
873.878874	0.951796
874.189963	0.951266
874.501010	0.950178
874.812015	0.948956
875.122979	0.950109
875.433900	0.951349
875.744780	0.952638
876.055618	0.949749
876.366415	0.948660
876.677169	0.949399
876.987882	0.950421
877.298554	0.949710
877.609183	0.947012
877.919771	0.944257
878.230317	0.940575
878.540822	0.939046
878.851285	0.932961
879.161707	0.924960
879.472087	0.913624
879.782425	0.896749
880.092722	0.861099
880.402977	0.808001
880.713191	0.745623
881.023363	0.685120
881.333494	0.649740
881.643583	0.620707
881.953631	0.621154
882.263637	0.650392
882.573602	0.689866
882.883526	0.716382
883.193408	0.740952
883.503248	0.764476
883.813048	0.792776
884.122806	0.822785
884.432522	0.846200
884.742197	0.866707
885.051831	0.878181
885.361424	0.888520
885.670975	0.900473
885.980485	0.910719
886.289954	0.918342
886.599382	0.922948
886.908768	0.925396
887.218113	0.933252
887.527417	0.937169
887.836680	0.940889
888.145901	0.941604
888.455082	0.944016
888.764221	0.949178
889.073319	0.950971
889.382376	0.951453
889.691392	0.952839
890.000366	0.951417
890.309300	0.952246
890.618193	0.951760
890.927044	0.950044
891.235855	0.950788
891.544625	0.949947
891.853353	0.951185
892.162041	0.947551
892.470687	0.941262
892.779293	0.936044
893.087858	0.932685
893.396381	0.923456
893.704864	0.910466
894.013306	0.886530
894.321707	0.857863
894.630068	0.842641
894.938387	0.837995
895.246665	0.839746
895.554903	0.852796
895.863100	0.865718
896.171256	0.884010
896.479371	0.903690
896.787446	0.917280
897.095480	0.922705
897.403473	0.926348
897.711425	0.931426
898.019336	0.938635
898.327207	0.941462
898.635038	0.943143
898.942827	0.943075
899.250576	0.946240
899.558284	0.949826
899.865952	0.952197
900.173579	0.952849
900.481165	0.954259
900.788711	0.958805
901.096216	0.959852
901.403681	0.960791
901.711105	0.961907
902.018489	0.962013
902.325832	0.960874
902.633135	0.959460
902.940397	0.954190
903.247619	0.941670
903.554800	0.915599
903.861941	0.874466
904.169041	0.837923
904.476101	0.819194
904.783121	0.819768
905.090100	0.837768
905.397039	0.859010
905.703938	0.881420
906.010796	0.902333
906.317614	0.920313
906.624391	0.932221
906.931129	0.941972
907.237826	0.949827
907.544483	0.957015
907.851099	0.961621
908.157675	0.966584
908.464211	0.969263
908.770707	0.972164
909.077163	0.973085
909.383578	0.975023
909.689954	0.974239
909.996289	0.974587
910.302584	0.977311
910.608839	0.979990
910.915054	0.977191
911.221229	0.977234
911.527363	0.976516
911.833458	0.976614
912.139513	0.976253
912.445527	0.974111
912.751502	0.972431
913.057436	0.971344
913.363331	0.968742
913.669186	0.963804
913.975000	0.959319
914.280775	0.954219
914.586510	0.946187
914.892205	0.932133
915.197859	0.910460
915.503475	0.882599
915.809050	0.861918
916.114585	0.856406
916.420081	0.851923
916.725536	0.849335
917.030952	0.859075
917.336328	0.871758
917.641665	0.888027
917.946961	0.903437
918.252218	0.915709
918.557435	0.924427
918.862612	0.933859
919.167750	0.940772
919.472848	0.944761
919.777906	0.950780
920.082925	0.957454
920.387904	0.960021
920.692843	0.962020
920.997743	0.962672
921.302603	0.965391
921.607423	0.968010
921.912204	0.970529
922.216946	0.970707
922.521647	0.972301
922.826310	0.974449
923.130932	0.975947
923.435516	0.977872
923.740059	0.978450
924.044564	0.976828
924.349028	0.979261
924.653454	0.982089
924.957840	0.984580
925.262186	0.984581
925.566493	0.982129
925.870761	0.985602
926.174989	0.986460
926.479178	0.987060
926.783328	0.988228
927.087438	0.987991
927.391509	0.987338
927.695541	0.989868
927.999533	0.989154
928.303486	0.990856
928.607400	0.990615
928.911275	0.989950
929.215110	0.989333
929.518906	0.991205
929.822663	0.988359
930.126381	0.990256
930.430060	0.989561
930.733699	0.990160
931.037299	0.988268
931.340861	0.990794
931.644383	0.989381
931.947866	0.989491
932.251309	0.989697
932.554714	0.990713
932.858080	0.990158
933.161407	0.989692
933.464694	0.991027
933.767943	0.989878
934.071153	0.991742
934.374323	0.991971
934.677455	0.991165
934.980548	0.990947
935.283602	0.991220
935.586617	0.990091
935.889593	0.990960
936.192530	0.989626
936.495428	0.989875
936.798287	0.990273
937.101108	0.990341
937.403890	0.988701
937.706632	0.988687
938.009336	0.986111
938.312002	0.986001
938.614628	0.983004
938.917216	0.982752
939.219765	0.980662
939.522275	0.982703
939.824747	0.982185
940.127179	0.981844
940.429573	0.983727
940.731929	0.983405
941.034246	0.982744
941.336524	0.984916
941.638763	0.984969
941.940964	0.985895
942.243126	0.986249
942.545250	0.986122
942.847335	0.988066
943.149381	0.987536
943.451389	0.987918
943.753359	0.988156
944.055290	0.990227
944.357182	0.989301
944.659036	0.987940
944.960851	0.988099
945.262628	0.989562
945.564367	0.989592
945.866067	0.989363
946.167729	0.990268
946.469352	0.988637
946.770937	0.987974
947.072484	0.990219
947.373992	0.989637
947.675462	0.990059
947.976893	0.988313
948.278286	0.990102
948.579641	0.990910
948.880958	0.989830
949.182236	0.989715
949.483476	0.989543
949.784678	0.989477
950.085841	0.990733
950.386967	0.990658
950.688054	0.990668
950.989103	0.990230
951.290114	0.989884
951.591087	0.989725
951.892021	0.988510
952.192917	0.989229
952.493776	0.988565
952.794596	0.988063
953.095378	0.987734
953.396122	0.988101
953.696828	0.986413
953.997496	0.988949
954.298126	0.990060
954.598718	0.989532
954.899272	0.990602
955.199788	0.990050
955.500266	0.992387
955.800706	0.992538
956.101108	0.991980
956.401472	0.992733
956.701798	0.994112
957.002087	0.993139
957.302337	0.993254
957.602550	0.995210
957.902724	0.994593
958.202861	0.996048
958.502960	0.995562
958.803022	0.993751
959.103045	0.996119
959.403031	0.996492
959.702979	0.994993
960.002889	0.995910
960.302762	0.994251
960.602596	0.996406
960.902393	0.995234
961.202153	0.996022
961.501875	0.997107
961.801559	0.996100
962.101205	0.996110
962.400814	0.996190
962.700385	0.996685
962.999918	0.996851
963.299414	0.997157
963.598873	0.995920
963.898293	0.996026
964.197677	0.997020
964.497022	0.997694
964.796331	0.997596
965.095601	0.995469
965.394835	0.996778
965.694030	0.996170
965.993189	0.997162
966.292309	0.997300
966.591393	0.997374
966.890439	0.996793
967.189447	0.997429
967.488419	0.998480
967.787353	0.996323
968.086249	0.996669
968.385108	0.997280
968.683930	0.997592
968.982714	0.996629
969.281462	0.996550
969.580172	0.996079
969.878844	0.998218
970.177480	0.996444
970.476078	0.997320
970.774639	0.996833
971.073162	0.997830
971.371649	0.996689
971.670098	0.995939
971.968510	0.997452
972.266885	0.995039
972.565223	0.995162
972.863524	0.997137
973.161788	0.995751
973.460014	0.997284
973.758204	0.995446
974.056356	0.996165
974.354471	0.994429
974.652550	0.995889
974.950591	0.995720
975.248595	0.996993
975.546563	0.997403
975.844493	0.997886
976.142386	0.996960
976.440243	0.997361
976.738062	0.997465
977.035845	0.997401
977.333590	0.996815
977.631299	0.997753
977.928971	0.996697
978.226606	0.996516
978.524204	0.996424
978.821765	0.998893
979.119290	0.996549
979.416777	0.997023
979.714228	0.997714
980.011642	0.997106
980.309020	0.997115
980.606360	0.997830
980.903664	0.997950
981.200931	0.996562
981.498162	0.995282
981.795356	0.994726
982.092513	0.994822
982.389633	0.993351
982.686717	0.991787
982.983764	0.991000
983.280775	0.990041
983.577749	0.989327
983.874686	0.992540
984.171587	0.992714
984.468451	0.994369
984.765279	0.994447
985.062070	0.993426
985.358824	0.994610
985.655543	0.994848
985.952224	0.996017
986.248869	0.995932
986.545478	0.997218
986.842050	0.998859
987.138586	0.996634
987.435086	0.996617
987.731549	0.998254
988.027975	0.999173
988.324366	0.998276
988.620719	0.998438
988.917037	0.996267
989.213318	0.998573
989.509563	0.997304
989.805772	0.998929
990.101944	0.997738
990.398080	0.996423
990.694180	0.997772
990.990244	0.998294
991.286271	0.997816
991.582262	0.998497
991.878217	0.998117
992.174136	0.999220
992.470019	0.999346
992.765865	0.998181
993.061676	0.998617
993.357450	0.998263
993.653188	0.997004
993.948890	0.997724
994.244556	0.997994
994.540186	0.996826
994.835780	0.996592
995.131337	0.997510
995.426859	0.996989
995.722345	0.998127
996.017795	0.996479
996.313208	0.996257
996.608586	0.996101
996.903928	0.995632
997.199234	0.995666
997.494504	0.997512
997.789738	0.996934
998.084936	0.997983
998.380099	0.997726
998.675225	0.997200
998.970316	0.998740
999.265371	0.998749
999.560390	0.999592
999.855373	0.998072
1000.150320	0.998183
1000.445232	0.998528
1000.740108	0.997114
1001.034948	0.998601
1001.329752	0.999291
1001.624521	0.998088
1001.919254	0.997782
1002.213951	0.998637
1002.508613	0.997433
1002.803239	0.999266
1003.097829	0.998825
1003.392384	0.999235
1003.686903	0.998297
1003.981386	0.998438
1004.275834	0.998858
1004.570246	0.998733
1004.864623	0.998786
1005.158964	0.999569
1005.453270	0.998874
1005.747540	0.996853
1006.041775	0.998149
1006.335974	0.999657
1006.630138	0.999744
1006.924266	0.999705
1007.218359	0.999749
1007.512416	1.000134
1007.806438	0.999467
1008.100425	1.000033
1008.394376	0.999055
1008.688292	0.999299
1008.982172	1.001241
1009.276017	1.000029
1009.569827	0.999567
1009.863602	0.998955
1010.157341	1.000039
1010.451045	0.999144
1010.744714	0.999141
1011.038347	0.998996
1011.331945	0.999216
1011.625508	0.997759
1011.919036	0.998437
1012.212528	0.999428
1012.505986	0.999104
1012.799408	0.999498
1013.092795	0.999630
1013.386147	0.999525
1013.679464	0.999004
1013.972745	0.999310
1014.265992	0.996853
1014.559204	0.999697
1014.852380	0.998835
1015.145521	1.000617
1015.438628	0.999637
1015.731699	0.998843
1016.024736	0.998812
1016.317737	0.999286
1016.610703	0.999870
1016.903635	0.999881
1017.196531	0.998733
1017.489393	0.999379
1017.782219	0.999066
1018.075011	0.998908
1018.367768	0.999443
1018.660490	0.999124
1018.953177	0.999124
1019.245829	0.999124
