Dividing Wavelength (nm)	Counts (n)	Blue Motor Position (mm): 0.000000	Red Motor Position (mm): 12.100000	
326.493990	1.001543
326.888308	1.001543
327.282561	1.001543
327.676750	1.000811
328.070874	1.001131
328.464933	1.000790
328.858929	1.000719
329.252859	1.000941
329.646726	0.999591
330.040528	0.999538
330.434265	0.999557
330.827938	1.001178
331.221547	1.000706
331.615091	1.000541
332.008571	1.001544
332.401986	1.000136
332.795338	1.000096
333.188625	0.997987
333.581847	1.000880
333.975006	1.000706
334.368100	0.999298
334.761129	1.000914
335.154095	1.000844
335.546996	0.997752
335.939833	0.994152
336.332606	0.994521
336.725315	0.993654
337.117960	0.994946
337.510540	0.994353
337.903056	0.994473
338.295508	0.992738
338.687896	0.994393
339.080220	0.993557
339.472480	0.994159
339.864676	0.994049
340.256807	0.994271
340.648875	0.995421
341.040879	0.994491
341.432818	0.993694
341.824694	0.993879
342.216506	0.994988
342.608253	0.994975
342.999937	0.993524
343.391557	0.993681
343.783113	0.993271
344.174605	0.993549
344.566033	0.995113
344.957397	0.993122
345.348697	0.993496
345.739934	0.995009
346.131106	0.993838
346.522215	0.992236
346.913260	0.994450
347.304241	0.994005
347.695159	0.993609
348.086012	0.993310
348.476802	0.993985
348.867528	0.993937
349.258191	0.993201
349.648789	0.994793
350.039324	0.994004
350.429796	0.994929
350.820203	0.994446
351.210548	0.992894
351.600828	0.995014
351.991045	0.994125
352.381198	0.993198
352.771288	0.993652
353.161314	0.993680
353.551276	0.995610
353.941175	0.993994
354.331010	0.993186
354.720782	0.994656
355.110490	0.994506
355.500135	0.993713
355.889717	0.994207
356.279235	0.993589
356.668689	0.994644
357.058080	0.994333
357.447408	0.994744
357.836672	0.994749
358.225873	0.994571
358.615010	0.994121
359.004084	0.995002
359.393095	0.994095
359.782043	0.993759
360.170927	0.995065
360.559748	0.994545
360.948505	0.993091
361.337199	0.993678
361.725830	0.993741
362.114398	0.993189
362.502903	0.994174
362.891344	0.995352
363.279722	0.993482
363.668037	0.994004
364.056289	0.994442
364.444478	0.993918
364.832603	0.993782
365.220665	0.993032
365.608665	0.993992
365.996601	0.993560
366.384474	0.993067
366.772284	0.993083
367.160031	0.993112
367.547715	0.992144
367.935336	0.992954
368.322893	0.992834
368.710388	0.992774
369.097820	0.993666
369.485189	0.993421
369.872495	0.993030
370.259738	0.991395
370.646918	0.993191
371.034035	0.993718
371.421090	0.991858
371.808081	0.992364
372.195010	0.992693
372.581875	0.993063
372.968678	0.992707
373.355418	0.993594
373.742096	0.992876
374.128710	0.993910
374.515262	0.992459
374.901751	0.993883
375.288177	0.992554
375.674540	0.993425
376.060841	0.992336
376.447079	0.993733
376.833254	0.993005
377.219367	0.993272
377.605417	0.993898
377.991404	0.994195
378.377329	0.993397
378.763191	0.993130
379.148991	0.993550
379.534727	0.992535
379.920402	0.992959
380.306013	0.992677
380.691563	0.994245
381.077049	0.992713
381.462474	0.993380
381.847835	0.992949
382.233134	0.992342
382.618371	0.993571
383.003545	0.992587
383.388657	0.992267
383.773706	0.993487
384.158693	0.992298
384.543618	0.991541
384.928480	0.991409
385.313280	0.990210
385.698017	0.989438
386.082692	0.987757
386.467305	0.986619
386.851856	0.983708
387.236344	0.981239
387.620770	0.977850
388.005133	0.975613
388.389435	0.972043
388.773674	0.968184
389.157851	0.964695
389.541965	0.960683
389.926018	0.956077
390.310008	0.953055
390.693936	0.945191
391.077802	0.939481
391.461606	0.934511
391.845348	0.925686
392.229027	0.921887
392.612645	0.914916
392.996200	0.905833
393.379694	0.895812
393.763125	0.887235
394.146494	0.880416
394.529801	0.869279
394.913047	0.859756
395.296230	0.853569
395.679351	0.842592
396.062410	0.832491
396.445408	0.825641
396.828343	0.814449
397.211217	0.804464
397.594028	0.802695
397.976778	0.788373
398.359466	0.777657
398.742092	0.766289
399.124656	0.765483
399.507158	0.750727
399.889598	0.740624
400.271977	0.727609
400.654294	0.722456
401.036549	0.713738
401.418742	0.709067
401.800874	0.690872
402.182944	0.681986
402.564952	0.667657
402.946898	0.663360
403.328783	0.656640
403.710606	0.659860
404.092367	0.632879
404.474067	0.631969
404.855705	0.625129
405.237282	0.628802
405.618797	0.611774
406.000250	0.603611
406.381642	0.590210
406.762972	0.590591
407.144240	0.585803
407.525447	0.582761
407.906593	0.571991
408.287677	0.564370
408.668700	0.569908
409.049661	0.560922
409.430560	0.554000
409.811399	0.559698
410.192176	0.540591
410.572891	0.545492
410.953545	0.532429
411.334138	0.542900
411.714669	0.535551
412.095139	0.545529
412.475547	0.528824
412.855894	0.530524
413.236180	0.528258
413.616405	0.532907
413.996568	0.523639
414.376670	0.528625
414.756711	0.532963
415.136691	0.529030
415.516609	0.520368
415.896466	0.516244
416.276262	0.512741
416.655997	0.513780
417.035670	0.494972
417.415283	0.487248
417.794834	0.491683
418.174324	0.496489
418.553753	0.506350
418.933121	0.488318
419.312428	0.481951
419.691674	0.487307
420.070859	0.475821
420.449983	0.483579
420.829045	0.473249
421.208047	0.482317
421.586988	0.475686
421.965867	0.474123
422.344686	0.462928
422.723444	0.475173
423.102141	0.491492
423.480777	0.465179
423.859352	0.485722
424.237866	0.463050
424.616319	0.463595
424.994712	0.454836
425.373044	0.464628
425.751314	0.453066
426.129524	0.468980
426.507673	0.452790
426.885762	0.446477
427.263789	0.451835
427.641756	0.461830
428.019662	0.452107
428.397508	0.450828
428.775292	0.454964
429.153016	0.447070
429.530679	0.453518
429.908282	0.446838
430.285824	0.456530
430.663305	0.435599
431.040726	0.455908
431.418086	0.456963
431.795385	0.448125
432.172624	0.446824
432.549802	0.447202
432.926920	0.446537
433.303977	0.445979
433.680974	0.442650
434.057910	0.441345
434.434786	0.441132
434.811601	0.443095
435.188355	0.426134
435.565050	0.434898
435.941683	0.436451
436.318257	0.421034
436.694770	0.421491
437.071222	0.419929
437.447614	0.424261
437.823946	0.430679
438.200218	0.420018
438.576429	0.430020
438.952580	0.422943
439.328670	0.418980
439.704700	0.425942
440.080670	0.426842
440.456580	0.408134
440.832429	0.416466
441.208218	0.427107
441.583947	0.416113
441.959616	0.416204
442.335224	0.421005
442.710773	0.411847
443.086261	0.409583
443.461689	0.423593
443.837057	0.414003
444.212365	0.403537
444.587612	0.410512
444.962800	0.400454
445.337927	0.401931
445.712995	0.428101
446.088002	0.390396
446.462949	0.400611
446.837837	0.405539
447.212664	0.394392
447.587431	0.386045
447.962139	0.356404
448.336786	0.316311
448.711374	0.326289
449.085901	0.370153
449.460369	0.374635
449.834776	0.377492
450.209124	0.357178
450.583412	0.349883
450.957640	0.343152
451.331808	0.354125
451.705917	0.377490
452.079965	0.381983
452.453954	0.370247
452.827883	0.377207
453.201752	0.371922
453.575562	0.383527
453.949311	0.372191
454.323001	0.377624
454.696632	0.373943
455.070202	0.366306
455.443713	0.357995
455.817164	0.353534
456.190556	0.349067
456.563888	0.345637
456.937160	0.343126
457.310373	0.360314
457.683526	0.359524
458.056619	0.364874
458.429653	0.365928
458.802628	0.368924
459.175542	0.363210
459.548398	0.345929
459.921194	0.338830
460.293930	0.338886
460.666607	0.316022
461.039224	0.304552
461.411782	0.300268
461.784280	0.299530
462.156719	0.303819
462.529099	0.308123
462.901419	0.323866
463.273680	0.328595
463.645882	0.327819
464.018024	0.333806
464.390106	0.326413
464.762130	0.311685
465.134094	0.294382
465.505999	0.263788
465.877845	0.234426
466.249631	0.221413
466.621358	0.228802
466.993026	0.242313
467.364634	0.248830
467.736184	0.257519
468.107674	0.266047
468.479105	0.264831
468.850477	0.271771
469.221790	0.279156
469.593043	0.289032
469.964238	0.294148
470.335373	0.293417
470.706449	0.291895
471.077467	0.291750
471.448425	0.254416
471.819324	0.229815
472.190164	0.229248
472.560945	0.257937
472.931667	0.280182
473.302330	0.284029
473.672934	0.296258
474.043479	0.284257
474.413965	0.286159
474.784393	0.289701
475.154761	0.284686
475.525070	0.281460
475.895321	0.287690
476.265513	0.281795
476.635645	0.277059
477.005719	0.277216
477.375734	0.273491
477.745691	0.266873
478.115588	0.263159
478.485427	0.256685
478.855207	0.243547
479.224928	0.226481
479.594591	0.214538
479.964194	0.217670
480.333739	0.219159
480.703226	0.220572
481.072653	0.219054
481.442022	0.214500
481.811333	0.211105
482.180584	0.214357
482.549777	0.219724
482.918912	0.223205
483.287988	0.222951
483.657005	0.222437
484.025964	0.228982
484.394864	0.226205
484.763706	0.227042
485.132489	0.232029
485.501213	0.232583
485.869879	0.230938
486.238487	0.234226
486.607036	0.231985
486.975527	0.236963
487.343959	0.232679
487.712333	0.231738
488.080648	0.232967
488.448905	0.232285
488.817104	0.233624
489.185244	0.228043
489.553326	0.224907
489.921350	0.214878
490.289315	0.197327
490.657222	0.192357
491.025070	0.193644
491.392861	0.195735
491.760593	0.201645
492.128267	0.206981
492.495883	0.212494
492.863440	0.218693
493.230939	0.225278
493.598380	0.226313
493.965763	0.228359
494.333088	0.230816
494.700354	0.232331
495.067563	0.231332
495.434713	0.234886
495.801805	0.232954
496.168839	0.234004
496.535815	0.235430
496.902733	0.235265
497.269593	0.236712
497.636395	0.234656
498.003139	0.234922
498.369825	0.237861
498.736453	0.234019
499.103023	0.235731
499.469535	0.235342
499.835989	0.235557
500.202385	0.236498
500.568723	0.239632
500.935003	0.234849
501.301226	0.239241
501.667390	0.233411
502.033497	0.231409
502.399546	0.234686
502.765537	0.236157
503.131470	0.234803
503.497345	0.230734
503.863163	0.239703
504.228923	0.232822
504.594625	0.231165
504.960269	0.236800
505.325856	0.232199
505.691385	0.236308
506.056856	0.233090
506.422270	0.232527
506.787625	0.234818
507.152924	0.232695
507.518164	0.232732
507.883347	0.234380
508.248472	0.236424
508.613540	0.231176
508.978550	0.234066
509.343503	0.234238
509.708398	0.232088
510.073236	0.229672
510.438016	0.229707
510.802738	0.230554
511.167403	0.229499
511.532010	0.231667
511.896561	0.226960
512.261053	0.225941
512.625488	0.227683
512.989866	0.228005
513.354186	0.228543
513.718449	0.230155
514.082655	0.226756
514.446803	0.228784
514.810894	0.226542
515.174927	0.229307
515.538904	0.228290
515.902822	0.225436
516.266684	0.228009
516.630488	0.229117
516.994235	0.227583
517.357925	0.226516
517.721558	0.224946
518.085133	0.224235
518.448651	0.224492
518.812112	0.226524
519.175516	0.226521
519.538863	0.224098
519.902152	0.225734
520.265385	0.222395
520.628560	0.224218
520.991678	0.224552
521.354739	0.223648
521.717743	0.224605
522.080690	0.225028
522.443580	0.222574
522.806413	0.223564
523.169189	0.222752
523.531908	0.221713
523.894569	0.225036
524.257174	0.225157
524.619722	0.222889
524.982213	0.223959
525.344647	0.222898
525.707025	0.223909
526.069345	0.221781
526.431608	0.223793
526.793815	0.221569
527.155964	0.225493
527.518057	0.224474
527.880093	0.225638
528.242072	0.224117
528.603995	0.226160
528.965860	0.227773
529.327669	0.226536
529.689421	0.227691
530.051117	0.228411
530.412755	0.225821
530.774337	0.228349
531.135862	0.228639
531.497331	0.228340
531.858743	0.231005
532.220098	0.227743
532.581396	0.230256
532.942638	0.230449
533.303824	0.231713
533.664953	0.231525
534.026025	0.232987
534.387040	0.230940
534.747999	0.231004
535.108902	0.229814
535.469748	0.234888
535.830537	0.232743
536.191270	0.233349
536.551947	0.232614
536.912567	0.232800
537.273131	0.234545
537.633638	0.234563
537.994089	0.234910
538.354483	0.236311
538.714821	0.232948
539.075103	0.232713
539.435328	0.233608
539.795497	0.237295
540.155609	0.234184
540.515665	0.232217
540.875665	0.237495
541.235609	0.236427
541.595496	0.236365
541.955328	0.232811
542.315102	0.235588
542.674821	0.236646
543.034483	0.236717
543.394090	0.236158
543.753640	0.237999
544.113134	0.233142
544.472571	0.236310
544.831953	0.233272
545.191278	0.237767
545.550548	0.237071
545.909761	0.233660
546.268918	0.234523
546.628019	0.232946
546.987064	0.235566
547.346053	0.237325
547.704986	0.235048
548.063863	0.235654
548.422684	0.235783
548.781449	0.237775
549.140158	0.234976
549.498811	0.238071
549.857408	0.240990
550.215949	0.235516
550.574434	0.238899
550.932864	0.236825
551.291237	0.235489
551.649555	0.236846
552.007817	0.236521
552.366022	0.237340
552.724173	0.237737
553.082267	0.238073
553.440305	0.235021
553.798288	0.239423
554.156215	0.235843
554.514086	0.236950
554.871902	0.239893
555.229661	0.238910
555.587365	0.239602
555.945014	0.241962
556.302606	0.239102
556.660143	0.241367
557.017625	0.237827
557.375050	0.240280
557.732421	0.237261
558.089735	0.239302
558.446994	0.239412
558.804197	0.238329
559.161345	0.238585
559.518437	0.241904
559.875474	0.239383
560.232455	0.239235
560.589381	0.240153
560.946251	0.240548
561.303065	0.237852
561.659825	0.239437
562.016528	0.240772
562.373177	0.243633
562.729770	0.240937
563.086307	0.242710
563.442789	0.240883
563.799216	0.243764
564.155587	0.242337
564.511904	0.243720
564.868164	0.243792
565.224370	0.243703
565.580520	0.245237
565.936615	0.244972
566.292654	0.248293
566.648638	0.245294
567.004567	0.245904
567.360441	0.246587
567.716260	0.248493
568.072023	0.246461
568.427732	0.247201
568.783385	0.249663
569.138982	0.247792
569.494525	0.247369
569.850013	0.250099
570.205445	0.248772
570.560823	0.251367
570.916145	0.253370
571.271412	0.251634
571.626625	0.252909
571.981782	0.253531
572.336884	0.254287
572.691931	0.254057
573.046923	0.255067
573.401860	0.256553
573.756743	0.257949
574.111570	0.257024
574.466342	0.257209
574.821059	0.256728
575.175722	0.259484
575.530330	0.259090
575.884882	0.259342
576.239380	0.261433
576.593823	0.262262
576.948211	0.261583
577.302544	0.264823
577.656823	0.264090
578.011047	0.264384
578.365216	0.265189
578.719330	0.267170
579.073389	0.267002
579.427394	0.268236
579.781344	0.268715
580.135239	0.270472
580.489080	0.269907
580.842866	0.273289
581.196597	0.272955
581.550273	0.271356
581.903895	0.272679
582.257463	0.270920
582.610975	0.274326
582.964434	0.273333
583.317837	0.276055
583.671186	0.276367
584.024481	0.276546
584.377721	0.279055
584.730906	0.279750
585.084037	0.278392
585.437113	0.280412
585.790135	0.279792
586.143103	0.282913
586.496016	0.284040
586.848874	0.281710
587.201679	0.282162
587.554428	0.285529
587.907124	0.284393
588.259765	0.285081
588.612352	0.285587
588.964884	0.289265
589.317362	0.288823
589.669786	0.288756
590.022155	0.287597
590.374470	0.286823
590.726731	0.288642
591.078937	0.293461
591.431090	0.289771
591.783188	0.294004
592.135232	0.294172
592.487222	0.294312
592.839157	0.292371
593.191038	0.294887
593.542866	0.297175
593.894639	0.300223
594.246358	0.298594
594.598022	0.297606
594.949633	0.301430
595.301190	0.302121
595.652692	0.301625
596.004141	0.297852
596.355535	0.305371
596.706876	0.305849
597.058162	0.308765
597.409395	0.305642
597.760573	0.303412
598.111698	0.306645
598.462768	0.307252
598.813785	0.308522
599.164748	0.309957
599.515657	0.310108
599.866511	0.313353
600.217312	0.308545
600.568060	0.314092
600.918753	0.310321
601.269392	0.311596
601.619978	0.314779
601.970510	0.312451
602.320988	0.312438
602.671412	0.309901
603.021783	0.312869
603.372100	0.314114
603.722363	0.313382
604.072572	0.314421
604.422728	0.314715
604.772830	0.316384
605.122878	0.315932
605.472872	0.316671
605.822813	0.314574
606.172701	0.317498
606.522534	0.314645
606.872314	0.314960
607.222041	0.315938
607.571714	0.314023
607.921333	0.315412
608.270899	0.315191
608.620411	0.311635
608.969870	0.315556
609.319276	0.316055
609.668627	0.315896
610.017926	0.314131
610.367171	0.312929
610.716362	0.313592
611.065500	0.313504
611.414585	0.312562
611.763616	0.313103
612.112594	0.313160
612.461518	0.312847
612.810389	0.310769
613.159207	0.313077
613.507971	0.314714
613.856682	0.310375
614.205340	0.311793
614.553945	0.308612
614.902496	0.312981
615.250994	0.310676
615.599439	0.311740
615.947830	0.310994
616.296169	0.312125
616.644454	0.311739
616.992686	0.311337
617.340864	0.309386
617.688990	0.313105
618.037063	0.309613
618.385082	0.311485
618.733048	0.308240
619.080961	0.310594
619.428821	0.310171
619.776628	0.309719
620.124382	0.311433
620.472083	0.311943
620.819731	0.311269
621.167326	0.315062
621.514868	0.314887
621.862357	0.319522
622.209793	0.318565
622.557176	0.321008
622.904506	0.322184
623.251783	0.324343
623.599007	0.326551
623.946179	0.326377
624.293297	0.328052
624.640363	0.331807
624.987376	0.332497
625.334336	0.335242
625.681243	0.337470
626.028097	0.338114
626.374899	0.339269
626.721647	0.339031
627.068343	0.342931
627.414987	0.343366
627.761577	0.345775
628.108115	0.343880
628.454600	0.348932
628.801032	0.346628
629.147412	0.348593
629.493739	0.349151
629.840014	0.352121
630.186236	0.349565
630.532405	0.355411
630.878521	0.352530
631.224585	0.354716
631.570597	0.358397
631.916556	0.356701
632.262462	0.357029
632.608316	0.358899
632.954117	0.359992
633.299866	0.360587
633.645562	0.361403
633.991206	0.365327
634.336797	0.368281
634.682336	0.370424
635.027823	0.372578
635.373257	0.372708
635.718639	0.376544
636.063968	0.375724
636.409245	0.381567
636.754470	0.382001
637.099642	0.384475
637.444762	0.387523
637.789829	0.386818
638.134845	0.389927
638.479808	0.391336
638.824719	0.390985
639.169577	0.394886
639.514383	0.393815
639.859137	0.398242
640.203839	0.397641
640.548489	0.398243
640.893086	0.400069
641.237632	0.401425
641.582125	0.399711
641.926566	0.401223
642.270955	0.401334
642.615292	0.402004
642.959576	0.400975
643.303809	0.401615
643.647990	0.401081
643.992118	0.401893
644.336195	0.405462
644.680219	0.403383
645.024192	0.404274
645.368112	0.397900
645.711981	0.397007
646.055797	0.392170
646.399562	0.394795
646.743274	0.386641
647.086935	0.383745
647.430544	0.383907
647.774101	0.383099
648.117606	0.382373
648.461059	0.382860
648.804460	0.385308
649.147810	0.390930
649.491108	0.392853
649.834354	0.393420
650.177548	0.399354
650.520690	0.405022
650.863781	0.406544
651.206820	0.405143
651.549807	0.409625
651.892742	0.414366
652.235626	0.413530
652.578458	0.414322
652.921238	0.420354
653.263967	0.417986
653.606644	0.421837
653.949269	0.422327
654.291843	0.425909
654.634365	0.422674
654.976836	0.425474
655.319255	0.426042
655.661622	0.427734
656.003938	0.427588
656.346203	0.430729
656.688416	0.428636
657.030577	0.431945
657.372687	0.433738
657.714746	0.435080
658.056753	0.431697
658.398708	0.435641
658.740612	0.436517
659.082465	0.432625
659.424266	0.432904
659.766016	0.432340
660.107715	0.435679
660.449362	0.434481
660.790958	0.434761
661.132503	0.435214
661.473996	0.433001
661.815438	0.433974
662.156829	0.434085
662.498168	0.434130
662.839456	0.436399
663.180693	0.434305
663.521879	0.433824
663.863013	0.435338
664.204097	0.433349
664.545129	0.430667
664.886110	0.430347
665.227040	0.428311
665.567918	0.430744
665.908746	0.428872
666.249522	0.428438
666.590248	0.428971
666.930922	0.427503
667.271545	0.426436
667.612118	0.426486
667.952639	0.428054
668.293109	0.426736
668.633528	0.429645
668.973896	0.429118
669.314213	0.430080
669.654480	0.431463
669.994695	0.432015
670.334859	0.433000
670.674973	0.433033
671.015035	0.433312
671.355047	0.432723
671.695008	0.434549
672.034918	0.436083
672.374777	0.435488
672.714585	0.436243
673.054342	0.435910
673.394049	0.436581
673.733705	0.434410
674.073310	0.435418
674.412864	0.438364
674.752368	0.439024
675.091820	0.438668
675.431223	0.443223
675.770574	0.442871
676.109875	0.446360
676.449125	0.446016
676.788324	0.448323
677.127473	0.454334
677.466571	0.453503
677.805619	0.455314
678.144616	0.456633
678.483562	0.458194
678.822458	0.460294
679.161303	0.461772
679.500098	0.461988
679.838842	0.463926
680.177535	0.463253
680.516179	0.462229
680.854771	0.461113
681.193314	0.454447
681.531805	0.445170
681.870247	0.434096
682.208638	0.426823
682.546978	0.425221
682.885268	0.427062
683.223508	0.433574
683.561697	0.437461
683.899836	0.439703
684.237925	0.443563
684.575963	0.445775
684.913951	0.449134
685.251889	0.445269
685.589776	0.446747
685.927614	0.449146
686.265401	0.443615
686.603137	0.444601
686.940824	0.438761
687.278460	0.437317
687.616046	0.436522
687.953582	0.431245
688.291068	0.432308
688.628504	0.428122
688.965889	0.430442
689.303224	0.434608
689.640510	0.438498
689.977745	0.444388
690.314930	0.452465
690.652065	0.456923
690.989150	0.464677
691.326185	0.471079
691.663170	0.475452
692.000105	0.482981
692.336990	0.489576
692.673825	0.492133
693.010610	0.499179
693.347345	0.504381
693.684030	0.505898
694.020665	0.511266
694.357251	0.519364
694.693786	0.519269
695.030272	0.523655
695.366707	0.527029
695.703093	0.530555
696.039429	0.527902
696.375716	0.529868
696.711952	0.532631
697.048139	0.534228
697.384276	0.536918
697.720363	0.534542
698.056400	0.534553
698.392388	0.539327
698.728326	0.542671
699.064214	0.544984
699.400053	0.546179
699.735842	0.549336
700.071581	0.552754
700.407270	0.555783
700.742910	0.557871
701.078501	0.564787
701.414042	0.564342
701.749533	0.567859
702.084974	0.577038
702.420366	0.568348
702.755709	0.577122
703.091002	0.584734
703.426246	0.577850
703.761440	0.583783
704.096584	0.588309
704.431679	0.585385
704.766725	0.587588
705.101721	0.588984
705.436668	0.584838
705.771565	0.591922
706.106413	0.588826
706.441212	0.584470
706.775961	0.583838
707.110661	0.585647
707.445311	0.581822
707.779913	0.579674
708.114465	0.577827
708.448967	0.575434
708.783421	0.566099
709.117825	0.561145
709.452180	0.560868
709.786485	0.554845
710.120742	0.544920
710.454949	0.547261
710.789107	0.538905
711.123216	0.529575
711.457275	0.531081
711.791286	0.522646
712.125247	0.521302
712.459159	0.531938
712.793023	0.524908
713.126837	0.529015
713.460602	0.529249
713.794318	0.538904
714.127985	0.537697
714.461602	0.548152
714.795171	0.550625
715.128691	0.558296
715.462162	0.566546
715.795584	0.571877
716.128957	0.575011
716.462281	0.581560
716.795556	0.585029
717.128782	0.589508
717.461960	0.599367
717.795088	0.597799
718.128167	0.604231
718.461198	0.612215
718.794180	0.613535
719.127113	0.615959
719.459997	0.619714
719.792833	0.625737
720.125619	0.627193
720.458357	0.633019
720.791046	0.632607
721.123686	0.635816
721.456278	0.642405
721.788821	0.640531
722.121315	0.644352
722.453761	0.648933
722.786158	0.647365
723.118506	0.643059
723.450805	0.651163
723.783056	0.646907
724.115259	0.644622
724.447412	0.643968
724.779518	0.645143
725.111574	0.644184
725.443582	0.639411
725.775542	0.642244
726.107453	0.634451
726.439315	0.633767
726.771129	0.631979
727.102895	0.625591
727.434612	0.619244
727.766281	0.616741
728.097901	0.616018
728.429473	0.615598
728.760996	0.613932
729.092471	0.613366
729.423897	0.617376
729.755276	0.617231
730.086606	0.616538
730.417887	0.610416
730.749120	0.602192
731.080305	0.593329
731.411442	0.588752
731.742530	0.594330
732.073570	0.592819
732.404562	0.585416
732.735506	0.586875
733.066401	0.591737
733.397249	0.601508
733.728048	0.611455
734.058798	0.624300
734.389501	0.635567
734.720156	0.645139
735.050762	0.653572
735.381320	0.654347
735.711831	0.663899
736.042293	0.668141
736.372707	0.664436
736.703073	0.668104
737.033391	0.671054
737.363661	0.667315
737.693883	0.663193
738.024056	0.661782
738.354182	0.662152
738.684260	0.651656
739.014290	0.647176
739.344272	0.648621
739.674207	0.641571
740.004093	0.641601
740.333931	0.641125
740.663722	0.641808
740.993464	0.641798
741.323159	0.645975
741.652806	0.650355
741.982405	0.655595
742.311956	0.660260
742.641460	0.662494
742.970915	0.666656
743.300323	0.673905
743.629683	0.680259
743.958996	0.682621
744.288260	0.687221
744.617477	0.692020
744.946647	0.694330
745.275768	0.699464
745.604842	0.699565
745.933869	0.709857
746.262847	0.709701
746.591778	0.703542
746.920662	0.709499
747.249498	0.716068
747.578286	0.707123
747.907027	0.703650
748.235720	0.704419
748.564365	0.699508
748.892963	0.699464
749.221514	0.702069
749.550017	0.706911
749.878473	0.706381
750.206881	0.712549
750.535242	0.714524
750.863555	0.713845
751.191821	0.715774
751.520039	0.718855
751.848210	0.723228
752.176334	0.716434
752.504411	0.715219
752.832440	0.723045
753.160421	0.727013
753.488356	0.724968
753.816243	0.723270
754.144082	0.731110
754.471875	0.734366
754.799620	0.730292
755.127318	0.731185
755.454969	0.731093
755.782572	0.730745
756.110129	0.735860
756.437638	0.737822
756.765100	0.735140
757.092515	0.732606
757.419882	0.730591
757.747203	0.736902
758.074477	0.735838
758.401703	0.733358
758.728882	0.728233
759.056014	0.726941
759.383099	0.726505
759.710138	0.727399
760.037129	0.723319
760.364073	0.718148
760.690970	0.720019
761.017820	0.726038
761.344623	0.722245
761.671379	0.712530
761.998088	0.700888
762.324751	0.677811
762.651366	0.636455
762.977935	0.568882
763.304456	0.516921
763.630931	0.507486
763.957359	0.546070
764.283740	0.591378
764.610074	0.618286
764.936362	0.649779
765.262602	0.675582
765.588796	0.697332
765.914943	0.716066
766.241044	0.733277
766.567097	0.740876
766.893104	0.750302
767.219064	0.756043
767.544978	0.763897
767.870845	0.776530
768.196665	0.780695
768.522438	0.778681
768.848165	0.780713
769.173846	0.789203
769.499479	0.792889
769.825066	0.796647
770.150607	0.801470
770.476101	0.795913
770.801548	0.798112
771.126949	0.809891
771.452303	0.812961
771.777611	0.812025
772.102872	0.812512
772.428087	0.817467
772.753256	0.819199
773.078378	0.822464
773.403453	0.831632
773.728482	0.834779
774.053465	0.828914
774.378401	0.833111
774.703291	0.841784
775.028135	0.841236
775.352932	0.842003
775.677683	0.844868
776.002388	0.845600
776.327046	0.844714
776.651658	0.847451
776.976224	0.851440
777.300743	0.852044
777.625216	0.853515
777.949643	0.856306
778.274024	0.856651
778.598359	0.857667
778.922647	0.856473
779.246889	0.857189
779.571086	0.859733
779.895236	0.863125
780.219339	0.859731
780.543397	0.857252
780.867409	0.855990
781.191374	0.857537
781.515294	0.859454
781.839167	0.858240
782.162995	0.861598
782.486776	0.858748
782.810511	0.859030
783.134201	0.863011
783.457844	0.860641
783.781441	0.863048
784.104993	0.869282
784.428498	0.869937
784.751958	0.866194
785.075372	0.867541
785.398739	0.872476
785.722061	0.867636
786.045337	0.863907
786.368568	0.868958
786.691752	0.871275
787.014891	0.856396
787.337983	0.847105
787.661030	0.840579
787.984031	0.823233
788.306987	0.809273
788.629897	0.811769
788.952760	0.816426
789.275579	0.820391
789.598351	0.834633
789.921078	0.848986
790.243759	0.850616
790.566395	0.855885
790.888984	0.862344
791.211529	0.867796
791.534027	0.871348
791.856480	0.873279
792.178888	0.878048
792.501249	0.880534
792.823566	0.882953
793.145836	0.881568
793.468062	0.883953
793.790241	0.883693
794.112375	0.882423
794.434464	0.877658
794.756507	0.876767
795.078505	0.876843
795.400457	0.871767
795.722364	0.859394
796.044226	0.852506
796.366042	0.851710
796.687812	0.854620
797.009538	0.850492
797.331218	0.853611
797.652852	0.858398
797.974442	0.863462
798.295986	0.862883
798.617484	0.866092
798.938938	0.870011
799.260346	0.874978
799.581709	0.876556
799.903026	0.879626
800.224299	0.879003
800.545526	0.884293
800.866708	0.887935
801.187845	0.891340
801.508936	0.892041
801.829983	0.889221
802.150984	0.891319
802.471940	0.896518
802.792851	0.896133
803.113717	0.898039
803.434538	0.895008
803.755314	0.897496
804.076045	0.899245
804.396731	0.899709
804.717372	0.899244
805.037967	0.900740
805.358518	0.898283
805.679024	0.895988
805.999485	0.896265
806.319901	0.896733
806.640272	0.897359
806.960598	0.896234
807.280879	0.893218
807.601115	0.891172
807.921306	0.895473
808.241453	0.895595
808.561554	0.893443
808.881611	0.893136
809.201623	0.894934
809.521590	0.895738
809.841513	0.896905
810.161390	0.894870
810.481223	0.897535
810.801011	0.900729
811.120755	0.902145
811.440453	0.900825
811.760107	0.900192
812.079716	0.899769
812.399281	0.902350
812.718801	0.904855
813.038276	0.907030
813.357707	0.905751
813.677093	0.902828
813.996434	0.906383
814.315731	0.907841
814.634983	0.909228
814.954191	0.906636
815.273354	0.903567
815.592473	0.901132
815.911547	0.900973
816.230577	0.899145
816.549562	0.894582
816.868502	0.896111
817.187399	0.892117
817.506250	0.887443
817.825058	0.888717
818.143821	0.885647
818.462539	0.879687
818.781213	0.871572
819.099843	0.860946
819.418429	0.845764
819.736970	0.828335
820.055466	0.808030
820.373919	0.782872
820.692327	0.748818
821.010691	0.712931
821.329011	0.635432
821.647286	0.519576
821.965517	0.405096
822.283704	0.362132
822.601847	0.362764
822.919945	0.398674
823.237999	0.432515
823.556010	0.480328
823.873976	0.536766
824.191897	0.586937
824.509775	0.630325
824.827609	0.676024
825.145398	0.698206
825.463144	0.701870
825.780845	0.685330
826.098502	0.666319
826.416116	0.619141
826.733685	0.574673
827.051210	0.565807
827.368692	0.581625
827.686129	0.618981
828.003522	0.672876
828.320872	0.720595
828.638177	0.764883
828.955439	0.797269
829.272656	0.821035
829.589830	0.837332
829.906960	0.853103
830.224046	0.866411
830.541088	0.876804
830.858086	0.879833
831.175041	0.887036
831.491952	0.885277
831.808819	0.882832
832.125642	0.874579
832.442421	0.861155
832.759157	0.837708
833.075849	0.791581
833.392497	0.728036
833.709101	0.686914
834.025662	0.696038
834.342179	0.727892
834.658653	0.767005
834.975083	0.804079
835.291469	0.830106
835.607811	0.853394
835.924110	0.869128
836.240366	0.886757
836.556578	0.900965
836.872746	0.908670
837.188871	0.913597
837.504952	0.919912
837.820990	0.921998
838.136984	0.926596
838.452935	0.930003
838.768842	0.931243
839.084706	0.924978
839.400526	0.898914
839.716303	0.857713
840.032037	0.835381
840.347727	0.838906
840.663373	0.856874
840.978977	0.879101
841.294537	0.901470
841.610054	0.917839
841.925527	0.925182
842.240957	0.932580
842.556344	0.939591
842.871687	0.945510
843.186987	0.950025
843.502244	0.949962
843.817458	0.952417
844.132629	0.955142
844.447756	0.960785
844.762840	0.960133
845.077881	0.960018
845.392879	0.959250
845.707833	0.962919
846.022745	0.964439
846.337613	0.965091
846.652438	0.967089
846.967221	0.964526
847.281960	0.964616
847.596656	0.966247
847.911309	0.965636
848.225919	0.968218
848.540485	0.968503
848.855009	0.969549
849.169490	0.968260
849.483928	0.968439
849.798323	0.968838
850.112675	0.969298
850.426984	0.969848
850.741251	0.969882
851.055474	0.970565
851.369654	0.967279
851.683792	0.968214
851.997887	0.970217
852.311938	0.969763
852.625947	0.969470
852.939914	0.968178
853.253837	0.969016
853.567718	0.970691
853.881555	0.971677
854.195350	0.968477
854.509103	0.969955
854.822812	0.970560
855.136479	0.968612
855.450103	0.969483
855.763685	0.968905
856.077224	0.968755
856.390720	0.969840
856.704173	0.970181
857.017584	0.967790
857.330953	0.967329
857.644278	0.968682
857.957561	0.969306
858.270802	0.967790
858.584000	0.968614
858.897155	0.967299
859.210268	0.967643
859.523339	0.968297
859.836367	0.969714
860.149352	0.970286
860.462295	0.968081
860.775195	0.969035
861.088054	0.968958
861.400869	0.969360
861.713642	0.970333
862.026373	0.970834
862.339062	0.970824
862.651708	0.967449
862.964312	0.968881
863.276873	0.969647
863.589392	0.967748
863.901869	0.966116
864.214303	0.964856
864.526696	0.963807
864.839045	0.963168
865.151353	0.961116
865.463619	0.961602
865.775842	0.961382
866.088023	0.961814
866.400162	0.961865
866.712258	0.963181
867.024313	0.962285
867.336325	0.962734
867.648296	0.962696
867.960224	0.962543
868.272110	0.960857
868.583954	0.963962
868.895755	0.963007
869.207515	0.961928
869.519233	0.958749
869.830909	0.961328
870.142542	0.962151
870.454134	0.961018
870.765684	0.959845
871.077191	0.957743
871.388657	0.959380
871.700081	0.957755
872.011463	0.957948
872.322803	0.957091
872.634101	0.957111
872.945357	0.952629
873.256571	0.952416
873.567744	0.951870
873.878874	0.952283
874.189963	0.951648
874.501010	0.950669
874.812015	0.948461
875.122979	0.950668
875.433900	0.951776
875.744780	0.953235
876.055618	0.950950
876.366415	0.949574
876.677169	0.949383
876.987882	0.951145
877.298554	0.950442
877.609183	0.946643
877.919771	0.943933
878.230317	0.942274
878.540822	0.939369
878.851285	0.934275
879.161707	0.925353
879.472087	0.913702
879.782425	0.896474
880.092722	0.863575
880.402977	0.809126
880.713191	0.747937
881.023363	0.687062
881.333494	0.651680
881.643583	0.625262
881.953631	0.625017
882.263637	0.653663
882.573602	0.693352
882.883526	0.720099
883.193408	0.744096
883.503248	0.766570
883.813048	0.793920
884.122806	0.824254
884.432522	0.846994
884.742197	0.868754
885.051831	0.878623
885.361424	0.890262
885.670975	0.901650
885.980485	0.912726
886.289954	0.917318
886.599382	0.923716
886.908768	0.927583
887.218113	0.932812
887.527417	0.937014
887.836680	0.940323
888.145901	0.943921
888.455082	0.945916
888.764221	0.949663
889.073319	0.951823
889.382376	0.951880
889.691392	0.952317
890.000366	0.951414
890.309300	0.952638
890.618193	0.951809
890.927044	0.950669
891.235855	0.950860
891.544625	0.950831
891.853353	0.951066
892.162041	0.948355
892.470687	0.942638
892.779293	0.937058
893.087858	0.933387
893.396381	0.924865
893.704864	0.911195
894.013306	0.887343
894.321707	0.860041
894.630068	0.845786
894.938387	0.839944
895.246665	0.841832
895.554903	0.854086
895.863100	0.868055
896.171256	0.885326
896.479371	0.904450
896.787446	0.918230
897.095480	0.923025
897.403473	0.926637
897.711425	0.931993
898.019336	0.939201
898.327207	0.941735
898.635038	0.943437
898.942827	0.943938
899.250576	0.945732
899.558284	0.952194
899.865952	0.952756
900.173579	0.954826
900.481165	0.955003
900.788711	0.959646
901.096216	0.960126
901.403681	0.960702
901.711105	0.962809
902.018489	0.962728
902.325832	0.961277
902.633135	0.960866
902.940397	0.955185
903.247619	0.942470
903.554800	0.917117
903.861941	0.875509
904.169041	0.839122
904.476101	0.821840
904.783121	0.822143
905.090100	0.838978
905.397039	0.861612
905.703938	0.882761
906.010796	0.903368
906.317614	0.922150
906.624391	0.932235
906.931129	0.942813
907.237826	0.951375
907.544483	0.958805
907.851099	0.961658
908.157675	0.967313
908.464211	0.969411
908.770707	0.971962
909.077163	0.973161
909.383578	0.975120
909.689954	0.974465
909.996289	0.974773
910.302584	0.976915
910.608839	0.979284
910.915054	0.977842
911.221229	0.978639
911.527363	0.976409
911.833458	0.976668
912.139513	0.977080
912.445527	0.974455
912.751502	0.975201
913.057436	0.972267
913.363331	0.970127
913.669186	0.964505
913.975000	0.960917
914.280775	0.954699
914.586510	0.946643
914.892205	0.932590
915.197859	0.912358
915.503475	0.884377
915.809050	0.864077
916.114585	0.857879
916.420081	0.854991
916.725536	0.852488
917.030952	0.860396
917.336328	0.873525
917.641665	0.889373
917.946961	0.905003
918.252218	0.916528
918.557435	0.926449
918.862612	0.934650
919.167750	0.940688
919.472848	0.946592
919.777906	0.951061
920.082925	0.958072
920.387904	0.960997
920.692843	0.961440
920.997743	0.962954
921.302603	0.966985
921.607423	0.968910
921.912204	0.970893
922.216946	0.970436
922.521647	0.973559
922.826310	0.974072
923.130932	0.977045
923.435516	0.977545
923.740059	0.978979
924.044564	0.979125
924.349028	0.980460
924.653454	0.982975
924.957840	0.984683
925.262186	0.983677
925.566493	0.984435
925.870761	0.983619
926.174989	0.986864
926.479178	0.988411
926.783328	0.987026
927.087438	0.988240
927.391509	0.987354
927.695541	0.989737
927.999533	0.989112
928.303486	0.989686
928.607400	0.990846
928.911275	0.989705
929.215110	0.990883
929.518906	0.992178
929.822663	0.989685
930.126381	0.990838
930.430060	0.990754
930.733699	0.989999
931.037299	0.990149
931.340861	0.991068
931.644383	0.989763
931.947866	0.989512
932.251309	0.990423
932.554714	0.990849
932.858080	0.989738
933.161407	0.990279
933.464694	0.991009
933.767943	0.989543
934.071153	0.990101
934.374323	0.992536
934.677455	0.992200
934.980548	0.991425
935.283602	0.990428
935.586617	0.990530
935.889593	0.991420
936.192530	0.989984
936.495428	0.991276
936.798287	0.989488
937.101108	0.990524
937.403890	0.988663
937.706632	0.988326
938.009336	0.986952
938.312002	0.985557
938.614628	0.983911
938.917216	0.983337
939.219765	0.981038
939.522275	0.983364
939.824747	0.982443
940.127179	0.982667
940.429573	0.984344
940.731929	0.982832
941.034246	0.983827
941.336524	0.984564
941.638763	0.985761
941.940964	0.986333
942.243126	0.986448
942.545250	0.988712
942.847335	0.987601
943.149381	0.987459
943.451389	0.988307
943.753359	0.988763
944.055290	0.991134
944.357182	0.989479
944.659036	0.987687
944.960851	0.989185
945.262628	0.989519
945.564367	0.990552
945.866067	0.990136
946.167729	0.990420
946.469352	0.990025
946.770937	0.989170
947.072484	0.990243
947.373992	0.990368
947.675462	0.990196
947.976893	0.990933
948.278286	0.991174
948.579641	0.993057
948.880958	0.990426
949.182236	0.990458
949.483476	0.991212
949.784678	0.990202
950.085841	0.991885
950.386967	0.990182
950.688054	0.989629
950.989103	0.991803
951.290114	0.988730
951.591087	0.989190
951.892021	0.990019
952.192917	0.988331
952.493776	0.989030
952.794596	0.988555
953.095378	0.988064
953.396122	0.987616
953.696828	0.986565
953.997496	0.988534
954.298126	0.990186
954.598718	0.990507
954.899272	0.990565
955.199788	0.989618
955.500266	0.992311
955.800706	0.992386
956.101108	0.993530
956.401472	0.992967
956.701798	0.993960
957.002087	0.992979
957.302337	0.993726
957.602550	0.995384
957.902724	0.994697
958.202861	0.995669
958.502960	0.995345
958.803022	0.994461
959.103045	0.995972
959.403031	0.996212
959.702979	0.995920
960.002889	0.995206
960.302762	0.994859
960.602596	0.995898
960.902393	0.994141
961.202153	0.997102
961.501875	0.997422
961.801559	0.996443
962.101205	0.996262
962.400814	0.996395
962.700385	0.996989
962.999918	0.996438
963.299414	0.995875
963.598873	0.995730
963.898293	0.996851
964.197677	0.995797
964.497022	0.996673
964.796331	0.997825
965.095601	0.997080
965.394835	0.996326
965.694030	0.996554
965.993189	0.997754
966.292309	0.997301
966.591393	0.997206
966.890439	0.997437
967.189447	0.996718
967.488419	0.997350
967.787353	0.995543
968.086249	0.996213
968.385108	0.996729
968.683930	0.997743
968.982714	0.997222
969.281462	0.997379
969.580172	0.996863
969.878844	0.997763
970.177480	0.996898
970.476078	0.997665
970.774639	0.995737
971.073162	0.997853
971.371649	0.995853
971.670098	0.996220
971.968510	0.997281
972.266885	0.995689
972.565223	0.996188
972.863524	0.996978
973.161788	0.996636
973.460014	0.997536
973.758204	0.994871
974.056356	0.996430
974.354471	0.993429
974.652550	0.996506
974.950591	0.996715
975.248595	0.996937
975.546563	0.996019
975.844493	0.998864
976.142386	0.997002
976.440243	0.998287
976.738062	0.996303
977.035845	0.997934
977.333590	0.996967
977.631299	0.997925
977.928971	0.996361
978.226606	0.995876
978.524204	0.995364
978.821765	0.998059
979.119290	0.996323
979.416777	0.997095
979.714228	0.997301
980.011642	0.996862
980.309020	0.997458
980.606360	0.996639
980.903664	0.998573
981.200931	0.996614
981.498162	0.994731
981.795356	0.995021
982.092513	0.994707
982.389633	0.995422
982.686717	0.991421
982.983764	0.991248
983.280775	0.990468
983.577749	0.990199
983.874686	0.992334
984.171587	0.991350
984.468451	0.994618
984.765279	0.994783
985.062070	0.994415
985.358824	0.995293
985.655543	0.996157
985.952224	0.996497
986.248869	0.996232
986.545478	0.996490
986.842050	0.998818
987.138586	0.996412
987.435086	0.997642
987.731549	0.999704
988.027975	0.997876
988.324366	0.998865
988.620719	0.998177
988.917037	0.997182
989.213318	0.998715
989.509563	0.999615
989.805772	0.999122
990.101944	0.999508
990.398080	0.997185
990.694180	0.998128
990.990244	0.998174
991.286271	0.997849
991.582262	0.998348
991.878217	0.998208
992.174136	0.999567
992.470019	0.999571
992.765865	0.998694
993.061676	0.999014
993.357450	0.997214
993.653188	0.996869
993.948890	0.997676
994.244556	0.998177
994.540186	0.998372
994.835780	0.996672
995.131337	0.997929
995.426859	0.996583
995.722345	0.997568
996.017795	0.997378
996.313208	0.995222
996.608586	0.997072
996.903928	0.996577
997.199234	0.996265
997.494504	0.996766
997.789738	0.997007
998.084936	0.996804
998.380099	0.998478
998.675225	0.996767
998.970316	0.997377
999.265371	0.997427
999.560390	0.997946
999.855373	0.999153
1000.150320	0.998454
1000.445232	0.998769
1000.740108	0.997992
1001.034948	0.997880
1001.329752	0.998639
1001.624521	0.998918
1001.919254	0.997442
1002.213951	0.998983
1002.508613	0.998250
1002.803239	0.999769
1003.097829	0.999245
1003.392384	0.999295
1003.686903	0.998847
1003.981386	0.998890
1004.275834	0.999470
1004.570246	0.999883
1004.864623	0.998931
1005.158964	0.999814
1005.453270	0.998833
1005.747540	0.998126
1006.041775	0.998679
1006.335974	1.000802
1006.630138	0.999615
1006.924266	1.001110
1007.218359	1.000080
1007.512416	0.999933
1007.806438	0.999857
1008.100425	0.999276
1008.394376	1.000214
1008.688292	0.997837
1008.982172	1.000396
1009.276017	0.998929
1009.569827	0.999338
1009.863602	0.999024
1010.157341	0.998993
1010.451045	1.000293
1010.744714	0.998366
1011.038347	0.999075
1011.331945	0.998303
1011.625508	0.998176
1011.919036	0.999410
1012.212528	0.998962
1012.505986	0.999243
1012.799408	0.999254
1013.092795	0.999510
1013.386147	0.998902
1013.679464	0.999370
1013.972745	0.998134
1014.265992	0.998455
1014.559204	0.998139
1014.852380	0.999912
1015.145521	0.998644
1015.438628	0.998770
1015.731699	1.000166
1016.024736	0.998956
1016.317737	0.998931
1016.610703	0.999905
1016.903635	0.999523
1017.196531	0.999797
1017.489393	1.000081
1017.782219	1.000136
1018.075011	0.998471
1018.367768	0.999485
1018.660490	1.000254
1018.953177	1.000254
1019.245829	1.000254
