Dividing Wavelength (nm)	Counts (n)	Blue Motor Position (mm): 0.000000	Red Motor Position (mm): 33.600000	
326.493990	1.000385
326.888308	1.000385
327.282561	1.000385
327.676750	1.000263
328.070874	0.999396
328.464933	1.000131
328.858929	0.999431
329.252859	0.999895
329.646726	0.997904
330.040528	0.999439
330.434265	0.999686
330.827938	1.000632
331.221547	1.000115
331.615091	1.000805
332.008571	0.999168
332.401986	0.999484
332.795338	0.999316
333.188625	0.998312
333.581847	1.000120
333.975006	0.998900
334.368100	0.999331
334.761129	0.998852
335.154095	1.000272
335.546996	0.998278
335.939833	0.993813
336.332606	0.995740
336.725315	0.995588
337.117960	0.997378
337.510540	0.996434
337.903056	0.996327
338.295508	0.994822
338.687896	0.996972
339.080220	0.995871
339.472480	0.995946
339.864676	0.995551
340.256807	0.995150
340.648875	0.996876
341.040879	0.995695
341.432818	0.995574
341.824694	0.996610
342.216506	0.996725
342.608253	0.996109
342.999937	0.996172
343.391557	0.996719
343.783113	0.995534
344.174605	0.995957
344.566033	0.996604
344.957397	0.994566
345.348697	0.995963
345.739934	0.995511
346.131106	0.995385
346.522215	0.994763
346.913260	0.995962
347.304241	0.995881
347.695159	0.995794
348.086012	0.995471
348.476802	0.995711
348.867528	0.996499
349.258191	0.995733
349.648789	0.996522
350.039324	0.995348
350.429796	0.996195
350.820203	0.995926
351.210548	0.994848
351.600828	0.995824
351.991045	0.995334
352.381198	0.995332
352.771288	0.995355
353.161314	0.996397
353.551276	0.996911
353.941175	0.995265
354.331010	0.996090
354.720782	0.996012
355.110490	0.996745
355.500135	0.996763
355.889717	0.995552
356.279235	0.996000
356.668689	0.995256
357.058080	0.995686
357.447408	0.996776
357.836672	0.996529
358.225873	0.996628
358.615010	0.996129
359.004084	0.996956
359.393095	0.996390
359.782043	0.995860
360.170927	0.997931
360.559748	0.996482
360.948505	0.994656
361.337199	0.996611
361.725830	0.996198
362.114398	0.995503
362.502903	0.996758
362.891344	0.996959
363.279722	0.995752
363.668037	0.996794
364.056289	0.996591
364.444478	0.996365
364.832603	0.996055
365.220665	0.995624
365.608665	0.995267
365.996601	0.996974
366.384474	0.996322
366.772284	0.995790
367.160031	0.995526
367.547715	0.994436
367.935336	0.996629
368.322893	0.996442
368.710388	0.995927
369.097820	0.995987
369.485189	0.995066
369.872495	0.995082
370.259738	0.995175
370.646918	0.997127
371.034035	0.996283
371.421090	0.997100
371.808081	0.996188
372.195010	0.996653
372.581875	0.996932
372.968678	0.996134
373.355418	0.995978
373.742096	0.995695
374.128710	0.997485
374.515262	0.996659
374.901751	0.996799
375.288177	0.995940
375.674540	0.996820
376.060841	0.995309
376.447079	0.996462
376.833254	0.996158
377.219367	0.996832
377.605417	0.996168
377.991404	0.996403
378.377329	0.995787
378.763191	0.995668
379.148991	0.996989
379.534727	0.996727
379.920402	0.997451
380.306013	0.997443
380.691563	0.997269
381.077049	0.996081
381.462474	0.996764
381.847835	0.997172
382.233134	0.996423
382.618371	0.997133
383.003545	0.996347
383.388657	0.996688
383.773706	0.996718
384.158693	0.997186
384.543618	0.997136
384.928480	0.997529
385.313280	0.997076
385.698017	0.997659
386.082692	0.997718
386.467305	0.997320
386.851856	0.996466
387.236344	0.996829
387.620770	0.996107
388.005133	0.998199
388.389435	0.998847
388.773674	0.997510
389.157851	0.997992
389.541965	0.997609
389.926018	0.997502
390.310008	0.999383
390.693936	0.997579
391.077802	0.998397
391.461606	0.997643
391.845348	0.997835
392.229027	0.998582
392.612645	0.997981
392.996200	0.999018
393.379694	0.998040
393.763125	0.998339
394.146494	0.998029
394.529801	0.997812
394.913047	0.998018
395.296230	0.998050
395.679351	0.998927
396.062410	0.997814
396.445408	0.997978
396.828343	0.997648
397.211217	0.997515
397.594028	0.998886
397.976778	0.998349
398.359466	0.997577
398.742092	0.998647
399.124656	0.997533
399.507158	0.998518
399.889598	0.997732
400.271977	0.998831
400.654294	0.999262
401.036549	0.998777
401.418742	1.000010
401.800874	0.998337
402.182944	0.998377
402.564952	0.998068
402.946898	0.999314
403.328783	0.998052
403.710606	0.998092
404.092367	0.998224
404.474067	0.999063
404.855705	0.998581
405.237282	0.998544
405.618797	0.998713
406.000250	0.997874
406.381642	0.998906
406.762972	0.998280
407.144240	0.998452
407.525447	0.999065
407.906593	0.998684
408.287677	0.998391
408.668700	0.998989
409.049661	0.997752
409.430560	0.998872
409.811399	0.998210
410.192176	0.998103
410.572891	0.998397
410.953545	0.998516
411.334138	0.997339
411.714669	0.998990
412.095139	0.998060
412.475547	0.999176
412.855894	0.999183
413.236180	0.998892
413.616405	0.998717
413.996568	0.999310
414.376670	0.998726
414.756711	0.998237
415.136691	0.998519
415.516609	0.998324
415.896466	0.998173
416.276262	0.997687
416.655997	0.998760
417.035670	0.998403
417.415283	0.999349
417.794834	0.999200
418.174324	0.998566
418.553753	0.999419
418.933121	0.998399
419.312428	0.999088
419.691674	0.998323
420.070859	0.998899
420.449983	0.998251
420.829045	0.999288
421.208047	0.998914
421.586988	0.999359
421.965867	0.999136
422.344686	0.999426
422.723444	0.998848
423.102141	0.999072
423.480777	0.998752
423.859352	0.998411
424.237866	0.998913
424.616319	0.998908
424.994712	0.999168
425.373044	1.000153
425.751314	0.998186
426.129524	0.998695
426.507673	0.999015
426.885762	0.999367
427.263789	0.999022
427.641756	0.999093
428.019662	1.000076
428.397508	0.999158
428.775292	0.997900
429.153016	0.999147
429.530679	0.999104
429.908282	0.999386
430.285824	0.998109
430.663305	0.998293
431.040726	0.998735
431.418086	1.000301
431.795385	0.999822
432.172624	0.998795
432.549802	0.999057
432.926920	0.999734
433.303977	0.998902
433.680974	0.999258
434.057910	0.999437
434.434786	0.999577
434.811601	0.998069
435.188355	0.999237
435.565050	0.998616
435.941683	0.998962
436.318257	1.000815
436.694770	0.998797
437.071222	0.999123
437.447614	1.000254
437.823946	0.999192
438.200218	0.999600
438.576429	0.998536
438.952580	0.999936
439.328670	0.998527
439.704700	0.999501
440.080670	1.000052
440.456580	0.999675
440.832429	0.998742
441.208218	0.999831
441.583947	0.999697
441.959616	1.000048
442.335224	0.999768
442.710773	1.000830
443.086261	0.999735
443.461689	0.998526
443.837057	0.999774
444.212365	0.999509
444.587612	0.999257
444.962800	0.998296
445.337927	0.999186
445.712995	0.999652
446.088002	1.000265
446.462949	1.000095
446.837837	1.000925
447.212664	0.999219
447.587431	0.999376
447.962139	1.000031
448.336786	0.999939
448.711374	1.000142
449.085901	0.998946
449.460369	0.999950
449.834776	0.999755
450.209124	1.000416
450.583412	0.999577
450.957640	0.998606
451.331808	0.999360
451.705917	0.999560
452.079965	0.999122
452.453954	0.998815
452.827883	0.998418
453.201752	0.999911
453.575562	1.000427
453.949311	0.999718
454.323001	0.999511
454.696632	0.998703
455.070202	0.999051
455.443713	0.998766
455.817164	0.999222
456.190556	0.999912
456.563888	0.999276
456.937160	0.999754
457.310373	0.998733
457.683526	0.998733
458.056619	0.999559
458.429653	0.999912
458.802628	0.998678
459.175542	0.998573
459.548398	0.999990
459.921194	0.998684
460.293930	0.999737
460.666607	0.998648
461.039224	0.997379
461.411782	0.999368
461.784280	0.999021
462.156719	1.000015
462.529099	0.999720
462.901419	0.999257
463.273680	0.998961
463.645882	0.998896
464.018024	0.999149
464.390106	0.999159
464.762130	0.999351
465.134094	0.999190
465.505999	1.000126
465.877845	0.999818
466.249631	1.000625
466.621358	0.999338
466.993026	0.999738
467.364634	0.999421
467.736184	1.000404
468.107674	0.999470
468.479105	0.999137
468.850477	0.999937
469.221790	0.999771
469.593043	0.999499
469.964238	0.999851
470.335373	0.998797
470.706449	0.999483
471.077467	1.000030
471.448425	0.999708
471.819324	1.000821
472.190164	0.998855
472.560945	0.999280
472.931667	0.999011
473.302330	0.999395
473.672934	0.999643
474.043479	0.999662
474.413965	0.999229
474.784393	0.999504
475.154761	0.998924
475.525070	0.998680
475.895321	0.999840
476.265513	0.999414
476.635645	0.999561
477.005719	0.999754
477.375734	0.999071
477.745691	0.999878
478.115588	0.999713
478.485427	0.999493
478.855207	0.999989
479.224928	0.999161
479.594591	0.999865
479.964194	0.999255
480.333739	0.999826
480.703226	1.000025
481.072653	0.999826
481.442022	0.999774
481.811333	0.998530
482.180584	0.999945
482.549777	0.998594
482.918912	0.999515
483.287988	0.999429
483.657005	0.999227
484.025964	0.999796
484.394864	0.999707
484.763706	0.999018
485.132489	0.999158
485.501213	0.998562
485.869879	0.999292
486.238487	0.999312
486.607036	0.998532
486.975527	0.998144
487.343959	0.997958
487.712333	0.997827
488.080648	0.997984
488.448905	0.998539
488.817104	0.998072
489.185244	0.998259
489.553326	0.998077
489.921350	0.997244
490.289315	0.997783
490.657222	0.997220
491.025070	0.997013
491.392861	0.997086
491.760593	0.996301
492.128267	0.995880
492.495883	0.995404
492.863440	0.995598
493.230939	0.995089
493.598380	0.994662
493.965763	0.993666
494.333088	0.993756
494.700354	0.992946
495.067563	0.993063
495.434713	0.992092
495.801805	0.991198
496.168839	0.991174
496.535815	0.989698
496.902733	0.989471
497.269593	0.988651
497.636395	0.987962
498.003139	0.986658
498.369825	0.987120
498.736453	0.984671
499.103023	0.983792
499.469535	0.983367
499.835989	0.983061
500.202385	0.982021
500.568723	0.980763
500.935003	0.979912
501.301226	0.978704
501.667390	0.977282
502.033497	0.975667
502.399546	0.975530
502.765537	0.973124
503.131470	0.971674
503.497345	0.969643
503.863163	0.969586
504.228923	0.966943
504.594625	0.966255
504.960269	0.964573
505.325856	0.962727
505.691385	0.960123
506.056856	0.958440
506.422270	0.956047
506.787625	0.954622
507.152924	0.952631
507.518164	0.950270
507.883347	0.948040
508.248472	0.945875
508.613540	0.944225
508.978550	0.941646
509.343503	0.938350
509.708398	0.936709
510.073236	0.933527
510.438016	0.931628
510.802738	0.928455
511.167403	0.925480
511.532010	0.922671
511.896561	0.920280
512.261053	0.917304
512.625488	0.913677
512.989866	0.910779
513.354186	0.907174
513.718449	0.904065
514.082655	0.900617
514.446803	0.897053
514.810894	0.893508
515.174927	0.889538
515.538904	0.885430
515.902822	0.881741
516.266684	0.878963
516.630488	0.874741
516.994235	0.870534
517.357925	0.865262
517.721558	0.862300
518.085133	0.856647
518.448651	0.854286
518.812112	0.849691
519.175516	0.844593
519.538863	0.840215
519.902152	0.835811
520.265385	0.829779
520.628560	0.827121
520.991678	0.821305
521.354739	0.817592
521.717743	0.813033
522.080690	0.808478
522.443580	0.801615
522.806413	0.797348
523.169189	0.792374
523.531908	0.787059
523.894569	0.783139
524.257174	0.778078
524.619722	0.771370
524.982213	0.768272
525.344647	0.761234
525.707025	0.756582
526.069345	0.750141
526.431608	0.744959
526.793815	0.739566
527.155964	0.735075
527.518057	0.730406
527.880093	0.724945
528.242072	0.719399
528.603995	0.713789
528.965860	0.709820
529.327669	0.703257
529.689421	0.698846
530.051117	0.693166
530.412755	0.685930
530.774337	0.682740
531.135862	0.675828
531.497331	0.670865
531.858743	0.666282
532.220098	0.659176
532.581396	0.655166
532.942638	0.650612
533.303824	0.645461
533.664953	0.639444
534.026025	0.634395
534.387040	0.628304
534.747999	0.623123
535.108902	0.616498
535.469748	0.614074
535.830537	0.608151
536.191270	0.602107
536.551947	0.596205
536.912567	0.591185
537.273131	0.587023
537.633638	0.581251
537.994089	0.576512
538.354483	0.571641
538.714821	0.564742
539.075103	0.559193
539.435328	0.554594
539.795497	0.552667
540.155609	0.544299
540.515665	0.538612
540.875665	0.536975
541.235609	0.530268
541.595496	0.525919
541.955328	0.517598
542.315102	0.515126
542.674821	0.511049
543.034483	0.505990
543.394090	0.500869
543.753640	0.497963
544.113134	0.488973
544.472571	0.487508
544.831953	0.479850
545.191278	0.478054
545.550548	0.473828
545.909761	0.466409
546.268918	0.462798
546.628019	0.456899
546.987064	0.453780
547.346053	0.452082
547.704986	0.445270
548.063863	0.441390
548.422684	0.438199
548.781449	0.434892
549.140158	0.428579
549.498811	0.426801
549.857408	0.426255
550.215949	0.417105
550.574434	0.416161
550.932864	0.410058
551.291237	0.405935
551.649555	0.402505
552.007817	0.399374
552.366022	0.396364
552.724173	0.392680
553.082267	0.389775
553.440305	0.382948
553.798288	0.384395
554.156215	0.377130
554.514086	0.374560
554.871902	0.374354
555.229661	0.370436
555.587365	0.367777
555.945014	0.367456
556.302606	0.360765
556.660143	0.360968
557.017625	0.353912
557.375050	0.353512
557.732421	0.347834
558.089735	0.346972
558.446994	0.344545
558.804197	0.340784
559.161345	0.338093
559.518437	0.339081
559.875474	0.334193
560.232455	0.330878
560.589381	0.330180
560.946251	0.326791
561.303065	0.323254
561.659825	0.321376
562.016528	0.320816
562.373177	0.321408
562.729770	0.316205
563.086307	0.316516
563.442789	0.312513
563.799216	0.312611
564.155587	0.309706
564.511904	0.308889
564.868164	0.307159
565.224370	0.305620
565.580520	0.304867
565.936615	0.303882
566.292654	0.304186
566.648638	0.300264
567.004567	0.299226
567.360441	0.298529
567.716260	0.298731
568.072023	0.295165
568.427732	0.294163
568.783385	0.295850
569.138982	0.292321
569.494525	0.290646
569.850013	0.292655
570.205445	0.289297
570.560823	0.290631
570.916145	0.291606
571.271412	0.288572
571.626625	0.288623
571.981782	0.288348
572.336884	0.288343
572.691931	0.286984
573.046923	0.287032
573.401860	0.287496
573.756743	0.288027
574.111570	0.286041
574.466342	0.285539
574.821059	0.284095
575.175722	0.285797
575.530330	0.285271
575.884882	0.284574
576.239380	0.285768
576.593823	0.285353
576.948211	0.284018
577.302544	0.286914
577.656823	0.286005
578.011047	0.285608
578.365216	0.285431
578.719330	0.286817
579.073389	0.286126
579.427394	0.286968
579.781344	0.287335
580.135239	0.288261
580.489080	0.287214
580.842866	0.289517
581.196597	0.289182
581.550273	0.287737
581.903895	0.288433
582.257463	0.285856
582.610975	0.289093
582.964434	0.288220
583.317837	0.290549
583.671186	0.290600
584.024481	0.290415
584.377721	0.292340
584.730906	0.292705
585.084037	0.291792
585.437113	0.293358
585.790135	0.292599
586.143103	0.295157
586.496016	0.296181
586.848874	0.293343
587.201679	0.293406
587.554428	0.296942
587.907124	0.295427
588.259765	0.295995
588.612352	0.296251
588.964884	0.300108
589.317362	0.299689
589.669786	0.299052
590.022155	0.297677
590.374470	0.296818
590.726731	0.298687
591.078937	0.303019
591.431090	0.299653
591.783188	0.303885
592.135232	0.303907
592.487222	0.303655
592.839157	0.301682
593.191038	0.304273
593.542866	0.305799
593.894639	0.309160
594.246358	0.307266
594.598022	0.306564
594.949633	0.310305
595.301190	0.310530
595.652692	0.309817
596.004141	0.305923
596.355535	0.313637
596.706876	0.314277
597.058162	0.316723
597.409395	0.314033
597.760573	0.311548
598.111698	0.314679
598.462768	0.315224
598.813785	0.316676
599.164748	0.317308
599.515657	0.317935
599.866511	0.321030
600.217312	0.316189
600.568060	0.321637
600.918753	0.317668
601.269392	0.318630
601.619978	0.322257
601.970510	0.319787
602.320988	0.319571
602.671412	0.317189
603.021783	0.319747
603.372100	0.321252
603.722363	0.320631
604.072572	0.321677
604.422728	0.321505
604.772830	0.323459
605.122878	0.322787
605.472872	0.323385
605.822813	0.321615
606.172701	0.323901
606.522534	0.321866
606.872314	0.321995
607.222041	0.322609
607.571714	0.320822
607.921333	0.321973
608.270899	0.321861
608.620411	0.318829
608.969870	0.322376
609.319276	0.322435
609.668627	0.322400
610.017926	0.320943
610.367171	0.319373
610.716362	0.319872
611.065500	0.320555
611.414585	0.318685
611.763616	0.320090
612.112594	0.319942
612.461518	0.319457
612.810389	0.317178
613.159207	0.319344
613.507971	0.321166
613.856682	0.316810
614.205340	0.318551
614.553945	0.315264
614.902496	0.319346
615.250994	0.317219
615.599439	0.317787
615.947830	0.317108
616.296169	0.318016
616.644454	0.317967
616.992686	0.317569
617.340864	0.315541
617.688990	0.319198
618.037063	0.315770
618.385082	0.317767
618.733048	0.314654
619.080961	0.316696
619.428821	0.316394
619.776628	0.315855
620.124382	0.317968
620.472083	0.317834
620.819731	0.317500
621.167326	0.321065
621.514868	0.321136
621.862357	0.325255
622.209793	0.325062
622.557176	0.326850
622.904506	0.328066
623.251783	0.330296
623.599007	0.332765
623.946179	0.332268
624.293297	0.334335
624.640363	0.337812
624.987376	0.338388
625.334336	0.340910
625.681243	0.342910
626.028097	0.344137
626.374899	0.345113
626.721647	0.344958
627.068343	0.348756
627.414987	0.349218
627.761577	0.351430
628.108115	0.349413
628.454600	0.354926
628.801032	0.352374
629.147412	0.354569
629.493739	0.354873
629.840014	0.357725
630.186236	0.355154
630.532405	0.360479
630.878521	0.358425
631.224585	0.360238
631.570597	0.363869
631.916556	0.362459
632.262462	0.362652
632.608316	0.364614
632.954117	0.365280
633.299866	0.366137
633.645562	0.366774
633.991206	0.371063
634.336797	0.374155
634.682336	0.375806
635.027823	0.377494
635.373257	0.378818
635.718639	0.381970
636.063968	0.381054
636.409245	0.386779
636.754470	0.387618
637.099642	0.389650
637.444762	0.393073
637.789829	0.391981
638.134845	0.395735
638.479808	0.396329
638.824719	0.396196
639.169577	0.400520
639.514383	0.398813
639.859137	0.403649
640.203839	0.403326
640.548489	0.404206
640.893086	0.405027
641.237632	0.406850
641.582125	0.404977
641.926566	0.406651
642.270955	0.406879
642.615292	0.407288
642.959576	0.406624
643.303809	0.406874
643.647990	0.406407
643.992118	0.406985
644.336195	0.410588
644.680219	0.408891
645.024192	0.409348
645.368112	0.403412
645.711981	0.402447
646.055797	0.397222
646.399562	0.399951
646.743274	0.392360
647.086935	0.389404
647.430544	0.389864
647.774101	0.388234
648.117606	0.388263
648.461059	0.388522
648.804460	0.391289
649.147810	0.396028
649.491108	0.397849
649.834354	0.399796
650.177548	0.404809
650.520690	0.409831
650.863781	0.410981
651.206820	0.410709
651.549807	0.415412
651.892742	0.418952
652.235626	0.418215
652.578458	0.419714
652.921238	0.425387
653.263967	0.423781
653.606644	0.427160
653.949269	0.427249
654.291843	0.431362
654.634365	0.427721
654.976836	0.431109
655.319255	0.431256
655.661622	0.432986
656.003938	0.433138
656.346203	0.436135
656.688416	0.433599
657.030577	0.437262
657.372687	0.438967
657.714746	0.439523
658.056753	0.437026
658.398708	0.440624
658.740612	0.442213
659.082465	0.437289
659.424266	0.438405
659.766016	0.438222
660.107715	0.440490
660.449362	0.439731
660.790958	0.440272
661.132503	0.440538
661.473996	0.437868
661.815438	0.439419
662.156829	0.439495
662.498168	0.440006
662.839456	0.441478
663.180693	0.439012
663.521879	0.439417
663.863013	0.439946
664.204097	0.438628
664.545129	0.435516
664.886110	0.436094
665.227040	0.433054
665.567918	0.435692
665.908746	0.433444
666.249522	0.433470
666.590248	0.434450
666.930922	0.432778
667.271545	0.431522
667.612118	0.431931
667.952639	0.433452
668.293109	0.431949
668.633528	0.435080
668.973896	0.434231
669.314213	0.434596
669.654480	0.436676
669.994695	0.436942
670.334859	0.438079
670.674973	0.438094
671.015035	0.438422
671.355047	0.438409
671.695008	0.439385
672.034918	0.441068
672.374777	0.440454
672.714585	0.441952
673.054342	0.442177
673.394049	0.442002
673.733705	0.439437
674.073310	0.440781
674.412864	0.443887
674.752368	0.443763
675.091820	0.443950
675.431223	0.448953
675.770574	0.448507
676.109875	0.451272
676.449125	0.451925
676.788324	0.453838
677.127473	0.459439
677.466571	0.458990
677.805619	0.460703
678.144616	0.461576
678.483562	0.462983
678.822458	0.465701
679.161303	0.466931
679.500098	0.466888
679.838842	0.469221
680.177535	0.468428
680.516179	0.467255
680.854771	0.466202
681.193314	0.459659
681.531805	0.451054
681.870247	0.439336
682.208638	0.431937
682.546978	0.431262
682.885268	0.432479
683.223508	0.438994
683.561697	0.442718
683.899836	0.445460
684.237925	0.448858
684.575963	0.450682
684.913951	0.454431
685.251889	0.450154
685.589776	0.451994
685.927614	0.454520
686.265401	0.448926
686.603137	0.450192
686.940824	0.443743
687.278460	0.442358
687.616046	0.441406
687.953582	0.436339
688.291068	0.438315
688.628504	0.433804
688.965889	0.435619
689.303224	0.439675
689.640510	0.443998
689.977745	0.449983
690.314930	0.457282
690.652065	0.461996
690.989150	0.469527
691.326185	0.476244
691.663170	0.480669
692.000105	0.487878
692.336990	0.494738
692.673825	0.496927
693.010610	0.504062
693.347345	0.509659
693.684030	0.510850
694.020665	0.515898
694.357251	0.524346
694.693786	0.523986
695.030272	0.528627
695.366707	0.531710
695.703093	0.535041
696.039429	0.532866
696.375716	0.533952
696.711952	0.537661
697.048139	0.539783
697.384276	0.541066
697.720363	0.539160
698.056400	0.538990
698.392388	0.544606
698.728326	0.547111
699.064214	0.549514
699.400053	0.550385
699.735842	0.554203
700.071581	0.556660
700.407270	0.560176
700.742910	0.562442
701.078501	0.569470
701.414042	0.569710
701.749533	0.572190
702.084974	0.581295
702.420366	0.572765
702.755709	0.580899
703.091002	0.588724
703.426246	0.581905
703.761440	0.587818
704.096584	0.593097
704.431679	0.589430
704.766725	0.591651
705.101721	0.593451
705.436668	0.589382
705.771565	0.596768
706.106413	0.593820
706.441212	0.589050
706.775961	0.587471
707.110661	0.589988
707.445311	0.586326
707.779913	0.583782
708.114465	0.582836
708.448967	0.579357
708.783421	0.571016
709.117825	0.566085
709.452180	0.565798
709.786485	0.559537
710.120742	0.549177
710.454949	0.551845
710.789107	0.543946
711.123216	0.534760
711.457275	0.537000
711.791286	0.527177
712.125247	0.526709
712.459159	0.537448
712.793023	0.530365
713.126837	0.533373
713.460602	0.534531
713.794318	0.544024
714.127985	0.542105
714.461602	0.552371
714.795171	0.555552
715.128691	0.563648
715.462162	0.571029
715.795584	0.576618
716.128957	0.578824
716.462281	0.585698
716.795556	0.589193
717.128782	0.594442
717.461960	0.604397
717.795088	0.601710
718.128167	0.608451
718.461198	0.617397
718.794180	0.618030
719.127113	0.620289
719.459997	0.624653
719.792833	0.629543
720.125619	0.632469
720.458357	0.637657
720.791046	0.637328
721.123686	0.640632
721.456278	0.647028
721.788821	0.644698
722.121315	0.648420
722.453761	0.653459
722.786158	0.650551
723.118506	0.647692
723.450805	0.655494
723.783056	0.650861
724.115259	0.648079
724.447412	0.648451
724.779518	0.649850
725.111574	0.648153
725.443582	0.643804
725.775542	0.645146
726.107453	0.638151
726.439315	0.638226
726.771129	0.636722
727.102895	0.629971
727.434612	0.623552
727.766281	0.621556
728.097901	0.619923
728.429473	0.620052
728.760996	0.618407
729.092471	0.618701
729.423897	0.622466
729.755276	0.621640
730.086606	0.621802
730.417887	0.615745
730.749120	0.606577
731.080305	0.597746
731.411442	0.594213
731.742530	0.598552
732.073570	0.597868
732.404562	0.590398
732.735506	0.591096
733.066401	0.596337
733.397249	0.605561
733.728048	0.616116
734.058798	0.629103
734.389501	0.639680
734.720156	0.649909
735.050762	0.656995
735.381320	0.658507
735.711831	0.667238
736.042293	0.672580
736.372707	0.668416
736.703073	0.672315
737.033391	0.674923
737.363661	0.672128
737.693883	0.667557
738.024056	0.666530
738.354182	0.667424
738.684260	0.656008
739.014290	0.651900
739.344272	0.652899
739.674207	0.646226
740.004093	0.645242
740.333931	0.646238
740.663722	0.646013
740.993464	0.646937
741.323159	0.651182
741.652806	0.655335
741.982405	0.660069
742.311956	0.664647
742.641460	0.667388
742.970915	0.670718
743.300323	0.678773
743.629683	0.684990
743.958996	0.686734
744.288260	0.690264
744.617477	0.696463
744.946647	0.698423
745.275768	0.704099
745.604842	0.702889
745.933869	0.713710
746.262847	0.713311
746.591778	0.707844
746.920662	0.714696
747.249498	0.719846
747.578286	0.711090
747.907027	0.707153
748.235720	0.708763
748.564365	0.702752
748.892963	0.702969
749.221514	0.705631
749.550017	0.711377
749.878473	0.711234
750.206881	0.717443
750.535242	0.718845
750.863555	0.718483
751.191821	0.719050
751.520039	0.721986
751.848210	0.727400
752.176334	0.719576
752.504411	0.718629
752.832440	0.726945
753.160421	0.730618
753.488356	0.728664
753.816243	0.726496
754.144082	0.735500
754.471875	0.737922
754.799620	0.732779
755.127318	0.735191
755.454969	0.734932
755.782572	0.734638
756.110129	0.739835
756.437638	0.741530
756.765100	0.738298
757.092515	0.736106
757.419882	0.734944
757.747203	0.740178
758.074477	0.740362
758.401703	0.737761
758.728882	0.732257
759.056014	0.731576
759.383099	0.730304
759.710138	0.731419
760.037129	0.727838
760.364073	0.721578
760.690970	0.724429
761.017820	0.730322
761.344623	0.725440
761.671379	0.716946
761.998088	0.704800
762.324751	0.682866
762.651366	0.641277
762.977935	0.575428
763.304456	0.523772
763.630931	0.514009
763.957359	0.553039
764.283740	0.597184
764.610074	0.624528
764.936362	0.654985
765.262602	0.680839
765.588796	0.701558
765.914943	0.720217
766.241044	0.738173
766.567097	0.744998
766.893104	0.754225
767.219064	0.759917
767.544978	0.767025
767.870845	0.779491
768.196665	0.783939
768.522438	0.781634
768.848165	0.783421
769.173846	0.792024
769.499479	0.796587
769.825066	0.799764
770.150607	0.804679
770.476101	0.800086
770.801548	0.801101
771.126949	0.812091
771.452303	0.816050
771.777611	0.816037
772.102872	0.815520
772.428087	0.819998
772.753256	0.823404
773.078378	0.824506
773.403453	0.834834
773.728482	0.838505
774.053465	0.832561
774.378401	0.834668
774.703291	0.843407
775.028135	0.842311
775.352932	0.845638
775.677683	0.847749
776.002388	0.847893
776.327046	0.847888
776.651658	0.851160
776.976224	0.854509
777.300743	0.854115
777.625216	0.856939
777.949643	0.858146
778.274024	0.858944
778.598359	0.859942
778.922647	0.859875
779.246889	0.859093
779.571086	0.863375
779.895236	0.866154
780.219339	0.863730
780.543397	0.859745
780.867409	0.858054
781.191374	0.860215
781.515294	0.861158
781.839167	0.859944
782.162995	0.865346
782.486776	0.861732
782.810511	0.861803
783.134201	0.865243
783.457844	0.863376
783.781441	0.866015
784.104993	0.871989
784.428498	0.872114
784.751958	0.867446
785.075372	0.869721
785.398739	0.873583
785.722061	0.870067
786.045337	0.865981
786.368568	0.870262
786.691752	0.874320
787.014891	0.858665
787.337983	0.849460
787.661030	0.842936
787.984031	0.826313
788.306987	0.813311
788.629897	0.815320
788.952760	0.818875
789.275579	0.823925
789.598351	0.838290
789.921078	0.851577
790.243759	0.853534
790.566395	0.858351
790.888984	0.865710
791.211529	0.870648
791.534027	0.873828
791.856480	0.875891
792.178888	0.880672
792.501249	0.884236
792.823566	0.884909
793.145836	0.884528
793.468062	0.886315
793.790241	0.886254
794.112375	0.885053
794.434464	0.880115
794.756507	0.880082
795.078505	0.879234
795.400457	0.873720
795.722364	0.861325
796.044226	0.855478
796.366042	0.854173
796.687812	0.856763
797.009538	0.853492
797.331218	0.855884
797.652852	0.860421
797.974442	0.866466
798.295986	0.865078
798.617484	0.868834
798.938938	0.873252
799.260346	0.876999
799.581709	0.880156
799.903026	0.881782
800.224299	0.882195
800.545526	0.886458
800.866708	0.890068
801.187845	0.893821
801.508936	0.892631
801.829983	0.890775
802.150984	0.894028
802.471940	0.899127
802.792851	0.898087
803.113717	0.899276
803.434538	0.897808
803.755314	0.899207
804.076045	0.899879
804.396731	0.901826
804.717372	0.901202
805.037967	0.903023
805.358518	0.902109
805.679024	0.899040
805.999485	0.898634
806.319901	0.898238
806.640272	0.899729
806.960598	0.897844
807.280879	0.896394
807.601115	0.895084
807.921306	0.898033
808.241453	0.897421
808.561554	0.895372
808.881611	0.895405
809.201623	0.897567
809.521590	0.898190
809.841513	0.898225
810.161390	0.898472
810.481223	0.899385
810.801011	0.903185
811.120755	0.903934
811.440453	0.903074
811.760107	0.902370
812.079716	0.902383
812.399281	0.906106
812.718801	0.908529
813.038276	0.908239
813.357707	0.908154
813.677093	0.905420
813.996434	0.908438
814.315731	0.909308
814.634983	0.910921
814.954191	0.909949
815.273354	0.906626
815.592473	0.902658
815.911547	0.903042
816.230577	0.901493
816.549562	0.898577
816.868502	0.899752
817.187399	0.894399
817.506250	0.890716
817.825058	0.891922
818.143821	0.888776
818.462539	0.883018
818.781213	0.875734
819.099843	0.864657
819.418429	0.849017
819.736970	0.832733
820.055466	0.812737
820.373919	0.787663
820.692327	0.755255
821.010691	0.722001
821.329011	0.646581
821.647286	0.533406
821.965517	0.420702
822.283704	0.378651
822.601847	0.380316
822.919945	0.415754
823.237999	0.448208
823.556010	0.494206
823.873976	0.549096
824.191897	0.599199
824.509775	0.640738
824.827609	0.686225
825.145398	0.707563
825.463144	0.710903
825.780845	0.693314
826.098502	0.674990
826.416116	0.630060
826.733685	0.586647
827.051210	0.578762
827.368692	0.592758
827.686129	0.629491
828.003522	0.681850
828.320872	0.728420
828.638177	0.771829
828.955439	0.803693
829.272656	0.825953
829.589830	0.842361
829.906960	0.857191
830.224046	0.869221
830.541088	0.878737
830.858086	0.883894
831.175041	0.889795
831.491952	0.889004
831.808819	0.885372
832.125642	0.879362
832.442421	0.864423
832.759157	0.844126
833.075849	0.797910
833.392497	0.736278
833.709101	0.695522
834.025662	0.704548
834.342179	0.736661
834.658653	0.774170
834.975083	0.809587
835.291469	0.835775
835.607811	0.857972
835.924110	0.871733
836.240366	0.889523
836.556578	0.903784
836.872746	0.910329
837.188871	0.916636
837.504952	0.922015
837.820990	0.925212
838.136984	0.928386
838.452935	0.930903
838.768842	0.933759
839.084706	0.927245
839.400526	0.901862
839.716303	0.861143
840.032037	0.840574
840.347727	0.844246
840.663373	0.861642
840.978977	0.882217
841.294537	0.904991
841.610054	0.920174
841.925527	0.928400
842.240957	0.933919
842.556344	0.940755
842.871687	0.947405
843.186987	0.952049
843.502244	0.950949
843.817458	0.953762
844.132629	0.956655
844.447756	0.961158
844.762840	0.962293
845.077881	0.959868
845.392879	0.961609
845.707833	0.964466
846.022745	0.965199
846.337613	0.966798
846.652438	0.967671
846.967221	0.966651
847.281960	0.965871
847.596656	0.968457
847.911309	0.966872
848.225919	0.968781
848.540485	0.968858
848.855009	0.969971
849.169490	0.968861
849.483928	0.970045
849.798323	0.969867
850.112675	0.970996
850.426984	0.969344
850.741251	0.969974
851.055474	0.971045
851.369654	0.968662
851.683792	0.970054
851.997887	0.970700
852.311938	0.970782
852.625947	0.970819
852.939914	0.969727
853.253837	0.969792
853.567718	0.971532
853.881555	0.971372
854.195350	0.968156
854.509103	0.970475
854.822812	0.970814
855.136479	0.971289
855.450103	0.970635
855.763685	0.969455
856.077224	0.969897
856.390720	0.971115
856.704173	0.970671
857.017584	0.969763
857.330953	0.967366
857.644278	0.969409
857.957561	0.969036
858.270802	0.968847
858.584000	0.968699
858.897155	0.968199
859.210268	0.969637
859.523339	0.970064
859.836367	0.970644
860.149352	0.971879
860.462295	0.969956
860.775195	0.971047
861.088054	0.969661
861.400869	0.969917
861.713642	0.971837
862.026373	0.970716
862.339062	0.972097
862.651708	0.969069
862.964312	0.969546
863.276873	0.971205
863.589392	0.969102
863.901869	0.967751
864.214303	0.965696
864.526696	0.965515
864.839045	0.965158
865.151353	0.962409
865.463619	0.964029
865.775842	0.963918
866.088023	0.963964
866.400162	0.963171
866.712258	0.963502
867.024313	0.963185
867.336325	0.963757
867.648296	0.964345
867.960224	0.963332
868.272110	0.963661
868.583954	0.964546
868.895755	0.965315
869.207515	0.962469
869.519233	0.960714
869.830909	0.961072
870.142542	0.963632
870.454134	0.963623
870.765684	0.961696
871.077191	0.959214
871.388657	0.960764
871.700081	0.958595
872.011463	0.959645
872.322803	0.959988
872.634101	0.957716
872.945357	0.955974
873.256571	0.955715
873.567744	0.955166
873.878874	0.955408
874.189963	0.952960
874.501010	0.952380
874.812015	0.951876
875.122979	0.952587
875.433900	0.954738
875.744780	0.955381
876.055618	0.952810
876.366415	0.951857
876.677169	0.952038
876.987882	0.953209
877.298554	0.952668
877.609183	0.949627
877.919771	0.947009
878.230317	0.944979
878.540822	0.942775
878.851285	0.936724
879.161707	0.929003
879.472087	0.918814
879.782425	0.903115
880.092722	0.869497
880.402977	0.819662
880.713191	0.761019
881.023363	0.705558
881.333494	0.671483
881.643583	0.643534
881.953631	0.642973
882.263637	0.671739
882.573602	0.710148
882.883526	0.736334
883.193408	0.757078
883.503248	0.779261
883.813048	0.805582
884.122806	0.834170
884.432522	0.857208
884.742197	0.876568
885.051831	0.885926
885.361424	0.895160
885.670975	0.907447
885.980485	0.916791
886.289954	0.922595
886.599382	0.927679
886.908768	0.931292
887.218113	0.937460
887.527417	0.942247
887.836680	0.945111
888.145901	0.945906
888.455082	0.948656
888.764221	0.953822
889.073319	0.954578
889.382376	0.954933
889.691392	0.955189
890.000366	0.954675
890.309300	0.955507
890.618193	0.954917
890.927044	0.953918
891.235855	0.953358
891.544625	0.953511
891.853353	0.954025
892.162041	0.951181
892.470687	0.944738
892.779293	0.941065
893.087858	0.937821
893.396381	0.930419
893.704864	0.917602
894.013306	0.893442
894.321707	0.867518
894.630068	0.854108
894.938387	0.850745
895.246665	0.851372
895.554903	0.863064
895.863100	0.875234
896.171256	0.892685
896.479371	0.910285
896.787446	0.923746
897.095480	0.929337
897.403473	0.930651
897.711425	0.934952
898.019336	0.943678
898.327207	0.945928
898.635038	0.948555
898.942827	0.947986
899.250576	0.950186
899.558284	0.953949
899.865952	0.955772
900.173579	0.957753
900.481165	0.957371
900.788711	0.961775
901.096216	0.962894
901.403681	0.963190
901.711105	0.964605
902.018489	0.965018
902.325832	0.963526
902.633135	0.963185
902.940397	0.957146
903.247619	0.946665
903.554800	0.922101
903.861941	0.884930
904.169041	0.850187
904.476101	0.835004
904.783121	0.835092
905.090100	0.850957
905.397039	0.870933
905.703938	0.892600
906.010796	0.910748
906.317614	0.927079
906.624391	0.937282
906.931129	0.946348
907.237826	0.953892
907.544483	0.960622
907.851099	0.964129
908.157675	0.969069
908.464211	0.971688
908.770707	0.974757
909.077163	0.975845
909.383578	0.974605
909.689954	0.976983
909.996289	0.977130
910.302584	0.979059
910.608839	0.980830
910.915054	0.979622
911.221229	0.978567
911.527363	0.978175
911.833458	0.978437
912.139513	0.977969
912.445527	0.976287
912.751502	0.974042
913.057436	0.973827
913.363331	0.972138
913.669186	0.967431
913.975000	0.963663
914.280775	0.957707
914.586510	0.950911
914.892205	0.938816
915.197859	0.920184
915.503475	0.893245
915.809050	0.874958
916.114585	0.870375
916.420081	0.868219
916.725536	0.863257
917.030952	0.872362
917.336328	0.883034
917.641665	0.898339
917.946961	0.913605
918.252218	0.923930
918.557435	0.932507
918.862612	0.940536
919.167750	0.945251
919.472848	0.949924
919.777906	0.955563
920.082925	0.961065
920.387904	0.963112
920.692843	0.965437
920.997743	0.965666
921.302603	0.969301
921.607423	0.970551
921.912204	0.974217
922.216946	0.973353
922.521647	0.974508
922.826310	0.976193
923.130932	0.978696
923.435516	0.979507
923.740059	0.980593
924.044564	0.979781
924.349028	0.981858
924.653454	0.984254
924.957840	0.985491
925.262186	0.986195
925.566493	0.984121
925.870761	0.985647
926.174989	0.987524
926.479178	0.988892
926.783328	0.988653
927.087438	0.989184
927.391509	0.988326
927.695541	0.990370
927.999533	0.990985
928.303486	0.989995
928.607400	0.992165
928.911275	0.989719
929.215110	0.990494
929.518906	0.991404
929.822663	0.990013
930.126381	0.991797
930.430060	0.990716
930.733699	0.989915
931.037299	0.990508
931.340861	0.991361
931.644383	0.989935
931.947866	0.990072
932.251309	0.990249
932.554714	0.991030
932.858080	0.990346
933.161407	0.990941
933.464694	0.992071
933.767943	0.989930
934.071153	0.991442
934.374323	0.991305
934.677455	0.991786
934.980548	0.991567
935.283602	0.991664
935.586617	0.991745
935.889593	0.991901
936.192530	0.991474
936.495428	0.991546
936.798287	0.991002
937.101108	0.990801
937.403890	0.988682
937.706632	0.988833
938.009336	0.988495
938.312002	0.985621
938.614628	0.984621
938.917216	0.984653
939.219765	0.983440
939.522275	0.985332
939.824747	0.983632
940.127179	0.984492
940.429573	0.985749
940.731929	0.984841
941.034246	0.985323
941.336524	0.986433
941.638763	0.987662
941.940964	0.987103
942.243126	0.987285
942.545250	0.988296
942.847335	0.988429
943.149381	0.988550
943.451389	0.988612
943.753359	0.988612
944.055290	0.990935
944.357182	0.991082
944.659036	0.988722
944.960851	0.991346
945.262628	0.991483
945.564367	0.990565
945.866067	0.990372
946.167729	0.991062
946.469352	0.989666
946.770937	0.988175
947.072484	0.991471
947.373992	0.990600
947.675462	0.991234
947.976893	0.991290
948.278286	0.990231
948.579641	0.992445
948.880958	0.991654
949.182236	0.992306
949.483476	0.992095
949.784678	0.991118
950.085841	0.991604
950.386967	0.992269
950.688054	0.991336
950.989103	0.991635
951.290114	0.990525
951.591087	0.991012
951.892021	0.990166
952.192917	0.989166
952.493776	0.988586
952.794596	0.989071
953.095378	0.988479
953.396122	0.989599
953.696828	0.987595
953.997496	0.989879
954.298126	0.992386
954.598718	0.990846
954.899272	0.991384
955.199788	0.991883
955.500266	0.992226
955.800706	0.992923
956.101108	0.994219
956.401472	0.992509
956.701798	0.993698
957.002087	0.994052
957.302337	0.993447
957.602550	0.995294
957.902724	0.995121
958.202861	0.994348
958.502960	0.995389
958.803022	0.994278
959.103045	0.995851
959.403031	0.995314
959.702979	0.994279
960.002889	0.995985
960.302762	0.994137
960.602596	0.996058
960.902393	0.995151
961.202153	0.996088
961.501875	0.998085
961.801559	0.995235
962.101205	0.995116
962.400814	0.996661
962.700385	0.996620
962.999918	0.996832
963.299414	0.995525
963.598873	0.995820
963.898293	0.995330
964.197677	0.995246
964.497022	0.995608
964.796331	0.996717
965.095601	0.997615
965.394835	0.996107
965.694030	0.996922
965.993189	0.997136
966.292309	0.995782
966.591393	0.997148
966.890439	0.997040
967.189447	0.996514
967.488419	0.997606
967.787353	0.995124
968.086249	0.996282
968.385108	0.996864
968.683930	0.997597
968.982714	0.997423
969.281462	0.997018
969.580172	0.996872
969.878844	0.997195
970.177480	0.996595
970.476078	0.998495
970.774639	0.995895
971.073162	0.998823
971.371649	0.996296
971.670098	0.995650
971.968510	0.997355
972.266885	0.995278
972.565223	0.995922
972.863524	0.994899
973.161788	0.996200
973.460014	0.997537
973.758204	0.995404
974.056356	0.996762
974.354471	0.994410
974.652550	0.995808
974.950591	0.996152
975.248595	0.997615
975.546563	0.997926
975.844493	0.997955
976.142386	0.996738
976.440243	0.996835
976.738062	0.997531
977.035845	0.998075
977.333590	0.996715
977.631299	0.997880
977.928971	0.996063
978.226606	0.996286
978.524204	0.995213
978.821765	0.998146
979.119290	0.997058
979.416777	0.996675
979.714228	0.997023
980.011642	0.995953
980.309020	0.996842
980.606360	0.996160
980.903664	0.997994
981.200931	0.996019
981.498162	0.994464
981.795356	0.995328
982.092513	0.993417
982.389633	0.995953
982.686717	0.992375
982.983764	0.991685
983.280775	0.990811
983.577749	0.990569
983.874686	0.991803
984.171587	0.992162
984.468451	0.994237
984.765279	0.994486
985.062070	0.993978
985.358824	0.995073
985.655543	0.994482
985.952224	0.995671
986.248869	0.996088
986.545478	0.997783
986.842050	0.997528
987.138586	0.996502
987.435086	0.996992
987.731549	0.999627
988.027975	0.998246
988.324366	0.997200
988.620719	0.996485
988.917037	0.997616
989.213318	0.997494
989.509563	0.998076
989.805772	0.997948
990.101944	0.997878
990.398080	0.996561
990.694180	0.998206
990.990244	0.996066
991.286271	0.997838
991.582262	0.997305
991.878217	0.997521
992.174136	0.998095
992.470019	0.997782
992.765865	0.997545
993.061676	0.997248
993.357450	0.998225
993.653188	0.997194
993.948890	0.996684
994.244556	0.998375
994.540186	0.997098
994.835780	0.996143
995.131337	0.997216
995.426859	0.996170
995.722345	0.997459
996.017795	0.996367
996.313208	0.994961
996.608586	0.995749
996.903928	0.996266
997.199234	0.996508
997.494504	0.996080
997.789738	0.997530
998.084936	0.996366
998.380099	0.997827
998.675225	0.998046
998.970316	0.996911
999.265371	0.996796
999.560390	0.998213
999.855373	0.998674
1000.150320	0.997085
1000.445232	0.997222
1000.740108	0.998236
1001.034948	0.996892
1001.329752	0.998876
1001.624521	0.998490
1001.919254	0.997041
1002.213951	0.998077
1002.508613	0.997530
1002.803239	0.999152
1003.097829	0.997848
1003.392384	0.998664
1003.686903	0.998043
1003.981386	0.998383
1004.275834	0.998265
1004.570246	0.998809
1004.864623	0.998963
1005.158964	0.999100
1005.453270	0.996905
1005.747540	0.997068
1006.041775	0.998364
1006.335974	0.999185
1006.630138	0.998439
1006.924266	0.998810
1007.218359	0.999108
1007.512416	0.998768
1007.806438	0.999517
1008.100425	0.999568
1008.394376	0.998769
1008.688292	0.998781
1008.982172	0.999246
1009.276017	0.998265
1009.569827	0.998154
1009.863602	0.998624
1010.157341	0.999030
1010.451045	0.999031
1010.744714	0.998764
1011.038347	0.998614
1011.331945	0.998539
1011.625508	0.996870
1011.919036	0.998130
1012.212528	0.998220
1012.505986	0.997695
1012.799408	0.999660
1013.092795	0.999574
1013.386147	0.999042
1013.679464	0.999931
1013.972745	0.997397
1014.265992	0.996751
1014.559204	0.997699
1014.852380	0.999668
1015.145521	0.998729
1015.438628	0.997964
1015.731699	0.998982
1016.024736	0.998432
1016.317737	0.997634
1016.610703	0.999573
1016.903635	0.999473
1017.196531	0.997779
1017.489393	0.999756
1017.782219	0.997688
1018.075011	0.998991
1018.367768	0.998933
1018.660490	0.999889
1018.953177	0.999889
1019.245829	0.999889
