Dividing Wavelength (nm)	Counts (n)	Blue Motor Position (mm): 0.000000	Red Motor Position (mm): 28.200000	
326.493990	1.002408
326.888308	1.002408
327.282561	1.002408
327.676750	1.001318
328.070874	1.000137
328.464933	1.001289
328.858929	1.000156
329.252859	1.000481
329.646726	0.999904
330.040528	1.000863
330.434265	0.997958
330.827938	1.002239
331.221547	1.001305
331.615091	1.000797
332.008571	1.001355
332.401986	1.000886
332.795338	1.001286
333.188625	0.999303
333.581847	1.001325
333.975006	0.999958
334.368100	1.000585
334.761129	1.001217
335.154095	1.000462
335.546996	0.999140
335.939833	0.995675
336.332606	0.995863
336.725315	0.995617
337.117960	0.997870
337.510540	0.995056
337.903056	0.996446
338.295508	0.995188
338.687896	0.996167
339.080220	0.995500
339.472480	0.996121
339.864676	0.994752
340.256807	0.995724
340.648875	0.996925
341.040879	0.997338
341.432818	0.995560
341.824694	0.995429
342.216506	0.996086
342.608253	0.995150
342.999937	0.995255
343.391557	0.995848
343.783113	0.993675
344.174605	0.995334
344.566033	0.996899
344.957397	0.995001
345.348697	0.994491
345.739934	0.995556
346.131106	0.995848
346.522215	0.993831
346.913260	0.995850
347.304241	0.995624
347.695159	0.995622
348.086012	0.994213
348.476802	0.996111
348.867528	0.996688
349.258191	0.994915
349.648789	0.996103
350.039324	0.996685
350.429796	0.996465
350.820203	0.995040
351.210548	0.995939
351.600828	0.995908
351.991045	0.995893
352.381198	0.994269
352.771288	0.995536
353.161314	0.996334
353.551276	0.996327
353.941175	0.995499
354.331010	0.995040
354.720782	0.996054
355.110490	0.995724
355.500135	0.996073
355.889717	0.994924
356.279235	0.995758
356.668689	0.995717
357.058080	0.995732
357.447408	0.996384
357.836672	0.996229
358.225873	0.995937
358.615010	0.995921
359.004084	0.997360
359.393095	0.996900
359.782043	0.995574
360.170927	0.997187
360.559748	0.996288
360.948505	0.996343
361.337199	0.995398
361.725830	0.995557
362.114398	0.994864
362.502903	0.996626
362.891344	0.996236
363.279722	0.994951
363.668037	0.996768
364.056289	0.995378
364.444478	0.996869
364.832603	0.996770
365.220665	0.995716
365.608665	0.994926
365.996601	0.996250
366.384474	0.995453
366.772284	0.994718
367.160031	0.994962
367.547715	0.994930
367.935336	0.994862
368.322893	0.995125
368.710388	0.995288
369.097820	0.996312
369.485189	0.996171
369.872495	0.995217
370.259738	0.994639
370.646918	0.995227
371.034035	0.996127
371.421090	0.995635
371.808081	0.995362
372.195010	0.995745
372.581875	0.995098
372.968678	0.996224
373.355418	0.995217
373.742096	0.995542
374.128710	0.996996
374.515262	0.996296
374.901751	0.995893
375.288177	0.995964
375.674540	0.996745
376.060841	0.995270
376.447079	0.996472
376.833254	0.996394
377.219367	0.995686
377.605417	0.996876
377.991404	0.995773
378.377329	0.994801
378.763191	0.995930
379.148991	0.996869
379.534727	0.997197
379.920402	0.997272
380.306013	0.996190
380.691563	0.997400
381.077049	0.996500
381.462474	0.997398
381.847835	0.996998
382.233134	0.995777
382.618371	0.997402
383.003545	0.997098
383.388657	0.996524
383.773706	0.998119
384.158693	0.996616
384.543618	0.996901
384.928480	0.998041
385.313280	0.997188
385.698017	0.997860
386.082692	0.996896
386.467305	0.997636
386.851856	0.996328
387.236344	0.996164
387.620770	0.996121
388.005133	0.997741
388.389435	0.998351
388.773674	0.997544
389.157851	0.997851
389.541965	0.997472
389.926018	0.996952
390.310008	0.998136
390.693936	0.997304
391.077802	0.997071
391.461606	0.996696
391.845348	0.996729
392.229027	0.998270
392.612645	0.996837
392.996200	0.998201
393.379694	0.997077
393.763125	0.998921
394.146494	0.997275
394.529801	0.996429
394.913047	0.997503
395.296230	0.997634
395.679351	0.997317
396.062410	0.997373
396.445408	0.997631
396.828343	0.998185
397.211217	0.997328
397.594028	0.997850
397.976778	0.997927
398.359466	0.996321
398.742092	0.996364
399.124656	0.996516
399.507158	0.997373
399.889598	0.997898
400.271977	0.997856
400.654294	0.997990
401.036549	0.997863
401.418742	0.997366
401.800874	0.996869
402.182944	0.997272
402.564952	0.996924
402.946898	0.997908
403.328783	0.998342
403.710606	0.997090
404.092367	0.997407
404.474067	0.997734
404.855705	0.997524
405.237282	0.997770
405.618797	0.997509
406.000250	0.997146
406.381642	0.998117
406.762972	0.997318
407.144240	0.998205
407.525447	0.998982
407.906593	0.997953
408.287677	0.997803
408.668700	0.998142
409.049661	0.996769
409.430560	0.997130
409.811399	0.996479
410.192176	0.996392
410.572891	0.997442
410.953545	0.996997
411.334138	0.996359
411.714669	0.997638
412.095139	0.996794
412.475547	0.997740
412.855894	0.997462
413.236180	0.997801
413.616405	0.998304
413.996568	0.998368
414.376670	0.996866
414.756711	0.997331
415.136691	0.998487
415.516609	0.997535
415.896466	0.997790
416.276262	0.996237
416.655997	0.998220
417.035670	0.997077
417.415283	0.997725
417.794834	0.997213
418.174324	0.997709
418.553753	0.997903
418.933121	0.997650
419.312428	0.997466
419.691674	0.997351
420.070859	0.997987
420.449983	0.998237
420.829045	0.997455
421.208047	0.998172
421.586988	0.998590
421.965867	0.997566
422.344686	0.998249
422.723444	0.997449
423.102141	0.997860
423.480777	0.997299
423.859352	0.997550
424.237866	0.997328
424.616319	0.997649
424.994712	0.997782
425.373044	0.997647
425.751314	0.997992
426.129524	0.997670
426.507673	0.998001
426.885762	0.998336
427.263789	0.997215
427.641756	0.998022
428.019662	0.997960
428.397508	0.996574
428.775292	0.997412
429.153016	0.997671
429.530679	0.998360
429.908282	0.998083
430.285824	0.998277
430.663305	0.997489
431.040726	0.997795
431.418086	0.998495
431.795385	0.997933
432.172624	0.997855
432.549802	0.998449
432.926920	0.998247
433.303977	0.997252
433.680974	0.997317
434.057910	0.997899
434.434786	0.998298
434.811601	0.996792
435.188355	0.996767
435.565050	0.996428
435.941683	0.997404
436.318257	0.997508
436.694770	0.997112
437.071222	0.998500
437.447614	0.997984
437.823946	0.997974
438.200218	0.997790
438.576429	0.997887
438.952580	0.997749
439.328670	0.996901
439.704700	0.997314
440.080670	0.997710
440.456580	0.996842
440.832429	0.996691
441.208218	0.997185
441.583947	0.997456
441.959616	0.997273
442.335224	0.997034
442.710773	0.997861
443.086261	0.996119
443.461689	0.997213
443.837057	0.997211
444.212365	0.996922
444.587612	0.995912
444.962800	0.996059
445.337927	0.996724
445.712995	0.996578
446.088002	0.997006
446.462949	0.997049
446.837837	0.996591
447.212664	0.996496
447.587431	0.997090
447.962139	0.995761
448.336786	0.996220
448.711374	0.996291
449.085901	0.995281
449.460369	0.996232
449.834776	0.994849
450.209124	0.995575
450.583412	0.993958
450.957640	0.993788
451.331808	0.993063
451.705917	0.992733
452.079965	0.992384
452.453954	0.992213
452.827883	0.990693
453.201752	0.990839
453.575562	0.990315
453.949311	0.990272
454.323001	0.988552
454.696632	0.988181
455.070202	0.986977
455.443713	0.985324
455.817164	0.984767
456.190556	0.982557
456.563888	0.981405
456.937160	0.981503
457.310373	0.979454
457.683526	0.978598
458.056619	0.977094
458.429653	0.976299
458.802628	0.974487
459.175542	0.973031
459.548398	0.969780
459.921194	0.967164
460.293930	0.964644
460.666607	0.959887
461.039224	0.956105
461.411782	0.955374
461.784280	0.953034
462.156719	0.952152
462.529099	0.950069
462.901419	0.947285
463.273680	0.945616
463.645882	0.942841
464.018024	0.940220
464.390106	0.936290
464.762130	0.932102
465.134094	0.924549
465.505999	0.914837
465.877845	0.905110
466.249631	0.901845
466.621358	0.900077
466.993026	0.897731
467.364634	0.895866
467.736184	0.893482
468.107674	0.889048
468.479105	0.882547
468.850477	0.880024
469.221790	0.876317
469.593043	0.872632
469.964238	0.867658
470.335373	0.861069
470.706449	0.855121
471.077467	0.850552
471.448425	0.834394
471.819324	0.821879
472.190164	0.817335
472.560945	0.818734
472.931667	0.816212
473.302330	0.811103
473.672934	0.807334
474.043479	0.796944
474.413965	0.790951
474.784393	0.784717
475.154761	0.777234
475.525070	0.768105
475.895321	0.763909
476.265513	0.754446
476.635645	0.746524
477.005719	0.737440
477.375734	0.728619
477.745691	0.719218
478.115588	0.709647
478.485427	0.699201
478.855207	0.686245
479.224928	0.669914
479.594591	0.658093
479.964194	0.651132
480.333739	0.644556
480.703226	0.634670
481.072653	0.626852
481.442022	0.615301
481.811333	0.606678
482.180584	0.600515
482.549777	0.593704
482.918912	0.587618
483.287988	0.579554
483.657005	0.571804
484.025964	0.567046
484.394864	0.557242
484.763706	0.549346
485.132489	0.544968
485.501213	0.537126
485.869879	0.529078
486.238487	0.522224
486.607036	0.514204
486.975527	0.508380
487.343959	0.498889
487.712333	0.490649
488.080648	0.485042
488.448905	0.476397
488.817104	0.470534
489.185244	0.459772
489.553326	0.450558
489.921350	0.437239
490.289315	0.417870
490.657222	0.408431
491.025070	0.402056
491.392861	0.397617
491.760593	0.395238
492.128267	0.392086
492.495883	0.389839
492.863440	0.388211
493.230939	0.387393
493.598380	0.382057
493.965763	0.378157
494.333088	0.375762
494.700354	0.370309
495.067563	0.365825
495.434713	0.362672
495.801805	0.356270
496.168839	0.352736
496.535815	0.348422
496.902733	0.344771
497.269593	0.341215
497.636395	0.335726
498.003139	0.331318
498.369825	0.330596
498.736453	0.323013
499.103023	0.321093
499.469535	0.316488
499.835989	0.313559
500.202385	0.310868
500.568723	0.310458
500.935003	0.303518
501.301226	0.303791
501.667390	0.295854
502.033497	0.291437
502.399546	0.291698
502.765537	0.290171
503.131470	0.286177
503.497345	0.280111
503.863163	0.286371
504.228923	0.277146
504.594625	0.273535
504.960269	0.276884
505.325856	0.270203
505.691385	0.272689
506.056856	0.267657
506.422270	0.265368
506.787625	0.266403
507.152924	0.261880
507.518164	0.260957
507.883347	0.261358
508.248472	0.261423
508.613540	0.255640
508.978550	0.257018
509.343503	0.256232
509.708398	0.252971
510.073236	0.249353
510.438016	0.248789
510.802738	0.248774
511.167403	0.246925
511.532010	0.248173
511.896561	0.242618
512.261053	0.240888
512.625488	0.242181
512.989866	0.241718
513.354186	0.241925
513.718449	0.243158
514.082655	0.238907
514.446803	0.240960
514.810894	0.237976
515.174927	0.240025
515.538904	0.239443
515.902822	0.235868
516.266684	0.238246
516.630488	0.239069
516.994235	0.237119
517.357925	0.235627
517.721558	0.233999
518.085133	0.233179
518.448651	0.233159
518.812112	0.235085
519.175516	0.234512
519.538863	0.232218
519.902152	0.233512
520.265385	0.229990
520.628560	0.231911
520.991678	0.232037
521.354739	0.230757
521.717743	0.232131
522.080690	0.232391
522.443580	0.229432
522.806413	0.230433
523.169189	0.229614
523.531908	0.228271
523.894569	0.231795
524.257174	0.231557
524.619722	0.229140
524.982213	0.230503
525.344647	0.229288
525.707025	0.230083
526.069345	0.228045
526.431608	0.229301
526.793815	0.227677
527.155964	0.231690
527.518057	0.230347
527.880093	0.231503
528.242072	0.229946
528.603995	0.231907
528.965860	0.233311
529.327669	0.232228
529.689421	0.232981
530.051117	0.233903
530.412755	0.231512
530.774337	0.233815
531.135862	0.234348
531.497331	0.233430
531.858743	0.236229
532.220098	0.232987
532.581396	0.235774
532.942638	0.235987
533.303824	0.236866
533.664953	0.236677
534.026025	0.238433
534.387040	0.236145
534.747999	0.236394
535.108902	0.235056
535.469748	0.239885
535.830537	0.237845
536.191270	0.238211
536.551947	0.237632
536.912567	0.237863
537.273131	0.239429
537.633638	0.239658
537.994089	0.240110
538.354483	0.240900
538.714821	0.238263
539.075103	0.237947
539.435328	0.238473
539.795497	0.242367
540.155609	0.238766
540.515665	0.237197
540.875665	0.242682
541.235609	0.241159
541.595496	0.241373
541.955328	0.237693
542.315102	0.240502
542.674821	0.241640
543.034483	0.241646
543.394090	0.241262
543.753640	0.243045
544.113134	0.238031
544.472571	0.241278
544.831953	0.237888
545.191278	0.242297
545.550548	0.241718
545.909761	0.238648
546.268918	0.239297
546.628019	0.237930
546.987064	0.240349
547.346053	0.241987
547.704986	0.239785
548.063863	0.240094
548.422684	0.240431
548.781449	0.242464
549.140158	0.239980
549.498811	0.242887
549.857408	0.245861
550.215949	0.240699
550.574434	0.243608
550.932864	0.241914
551.291237	0.240562
551.649555	0.241524
552.007817	0.241232
552.366022	0.242387
552.724173	0.242470
553.082267	0.242766
553.440305	0.239762
553.798288	0.244071
554.156215	0.240707
554.514086	0.241410
554.871902	0.244674
555.229661	0.243788
555.587365	0.244277
555.945014	0.246898
556.302606	0.243638
556.660143	0.246391
557.017625	0.242809
557.375050	0.245182
557.732421	0.242180
558.089735	0.244052
558.446994	0.244257
558.804197	0.243283
559.161345	0.243198
559.518437	0.246571
559.875474	0.244553
560.232455	0.243852
560.589381	0.244933
560.946251	0.245302
561.303065	0.242816
561.659825	0.244155
562.016528	0.245666
562.373177	0.248475
562.729770	0.245953
563.086307	0.247912
563.442789	0.245782
563.799216	0.248456
564.155587	0.247354
564.511904	0.248216
564.868164	0.248481
565.224370	0.248302
565.580520	0.250154
565.936615	0.249834
566.292654	0.252729
566.648638	0.249791
567.004567	0.250634
567.360441	0.251446
567.716260	0.253514
568.072023	0.251278
568.427732	0.252199
568.783385	0.254486
569.138982	0.252652
569.494525	0.252120
569.850013	0.255029
570.205445	0.253649
570.560823	0.255842
570.916145	0.258009
571.271412	0.256141
571.626625	0.257570
571.981782	0.258045
572.336884	0.258689
572.691931	0.258652
573.046923	0.259920
573.401860	0.261014
573.756743	0.262642
574.111570	0.261369
574.466342	0.262443
574.821059	0.261149
575.175722	0.264187
575.530330	0.264202
575.884882	0.264396
576.239380	0.266244
576.593823	0.266784
576.948211	0.266373
577.302544	0.269667
577.656823	0.268993
578.011047	0.269104
578.365216	0.269708
578.719330	0.271944
579.073389	0.271439
579.427394	0.273098
579.781344	0.273660
580.135239	0.275038
580.489080	0.274910
580.842866	0.277688
581.196597	0.277649
581.550273	0.276524
581.903895	0.277205
582.257463	0.275432
582.610975	0.278955
582.964434	0.278029
583.317837	0.281001
583.671186	0.281198
584.024481	0.281143
584.377721	0.283702
584.730906	0.284274
585.084037	0.283519
585.437113	0.285368
585.790135	0.284729
586.143103	0.287552
586.496016	0.288731
586.848874	0.286441
587.201679	0.287012
587.554428	0.290414
587.907124	0.289180
588.259765	0.289568
588.612352	0.290411
588.964884	0.293866
589.317362	0.293615
589.669786	0.293465
590.022155	0.292277
590.374470	0.291440
590.726731	0.293329
591.078937	0.298246
591.431090	0.294465
591.783188	0.299083
592.135232	0.299081
592.487222	0.299252
592.839157	0.297337
593.191038	0.299683
593.542866	0.301470
593.894639	0.305157
594.246358	0.302911
594.598022	0.302320
594.949633	0.306163
595.301190	0.306758
595.652692	0.306180
596.004141	0.302482
596.355535	0.310222
596.706876	0.310601
597.058162	0.313041
597.409395	0.310458
597.760573	0.308048
598.111698	0.311479
598.462768	0.311818
598.813785	0.312985
599.164748	0.314216
599.515657	0.314761
599.866511	0.318103
600.217312	0.313454
600.568060	0.318467
600.918753	0.315262
601.269392	0.315946
601.619978	0.319317
601.970510	0.317078
602.320988	0.316956
602.671412	0.314891
603.021783	0.317055
603.372100	0.318791
603.722363	0.317963
604.072572	0.319418
604.422728	0.318847
604.772830	0.320963
605.122878	0.320770
605.472872	0.321209
605.822813	0.319333
606.172701	0.322098
606.522534	0.319421
606.872314	0.319455
607.222041	0.320254
607.571714	0.318508
607.921333	0.320288
608.270899	0.319849
608.620411	0.316770
608.969870	0.320453
609.319276	0.320379
609.668627	0.320417
610.017926	0.319088
610.367171	0.317718
610.716362	0.318312
611.065500	0.318756
611.414585	0.317383
611.763616	0.317766
612.112594	0.318356
612.461518	0.317920
612.810389	0.315365
613.159207	0.317628
613.507971	0.319568
613.856682	0.315138
614.205340	0.316695
614.553945	0.313572
614.902496	0.317475
615.250994	0.315648
615.599439	0.316466
615.947830	0.315350
616.296169	0.316819
616.644454	0.316111
616.992686	0.316274
617.340864	0.313850
617.688990	0.317841
618.037063	0.314376
618.385082	0.316233
618.733048	0.313054
619.080961	0.315477
619.428821	0.314482
619.776628	0.314289
620.124382	0.316440
620.472083	0.316723
620.819731	0.315902
621.167326	0.319483
621.514868	0.319565
621.862357	0.324105
622.209793	0.323358
622.557176	0.325642
622.904506	0.326772
623.251783	0.329200
623.599007	0.331277
623.946179	0.331058
624.293297	0.332972
624.640363	0.336782
624.987376	0.336908
625.334336	0.339563
625.681243	0.341947
626.028097	0.342585
626.374899	0.343905
626.721647	0.343803
627.068343	0.347180
627.414987	0.348271
627.761577	0.350657
628.108115	0.348386
628.454600	0.353691
628.801032	0.351195
629.147412	0.353211
629.493739	0.353183
629.840014	0.356757
630.186236	0.353924
630.532405	0.359608
630.878521	0.357042
631.224585	0.359383
631.570597	0.362836
631.916556	0.361207
632.262462	0.361397
632.608316	0.363743
632.954117	0.364474
633.299866	0.365080
633.645562	0.366005
633.991206	0.369924
634.336797	0.372859
634.682336	0.375085
635.027823	0.376780
635.373257	0.377535
635.718639	0.380581
636.063968	0.380005
636.409245	0.385844
636.754470	0.386077
637.099642	0.388780
637.444762	0.392228
637.789829	0.391346
638.134845	0.394914
638.479808	0.395242
638.824719	0.395034
639.169577	0.399305
639.514383	0.398161
639.859137	0.402744
640.203839	0.402378
640.548489	0.402855
640.893086	0.404005
641.237632	0.406031
641.582125	0.404201
641.926566	0.406003
642.270955	0.406149
642.615292	0.406426
642.959576	0.405424
643.303809	0.406275
643.647990	0.405407
643.992118	0.406294
644.336195	0.409513
644.680219	0.407946
645.024192	0.408631
645.368112	0.402156
645.711981	0.401428
646.055797	0.396704
646.399562	0.399235
646.743274	0.390740
647.086935	0.388744
647.430544	0.388586
647.774101	0.387456
648.117606	0.387181
648.461059	0.387946
648.804460	0.389815
649.147810	0.395048
649.491108	0.397311
649.834354	0.398228
650.177548	0.403854
650.520690	0.408789
650.863781	0.410762
651.206820	0.409275
651.549807	0.414243
651.892742	0.418341
652.235626	0.417584
652.578458	0.418998
652.921238	0.425110
653.263967	0.422677
653.606644	0.426553
653.949269	0.426312
654.291843	0.430115
654.634365	0.426710
654.976836	0.430389
655.319255	0.430323
655.661622	0.431767
656.003938	0.432200
656.346203	0.435042
656.688416	0.432574
657.030577	0.436064
657.372687	0.438110
657.714746	0.438687
658.056753	0.436056
658.398708	0.439643
658.740612	0.440887
659.082465	0.436873
659.424266	0.437800
659.766016	0.436995
660.107715	0.439761
660.449362	0.438924
660.790958	0.438937
661.132503	0.439434
661.473996	0.437413
661.815438	0.438241
662.156829	0.438404
662.498168	0.439286
662.839456	0.440198
663.180693	0.438898
663.521879	0.437994
663.863013	0.439385
664.204097	0.437950
664.545129	0.434603
664.886110	0.434929
665.227040	0.432619
665.567918	0.435037
665.908746	0.432802
666.249522	0.433000
666.590248	0.433401
666.930922	0.431913
667.271545	0.430412
667.612118	0.430898
667.952639	0.432348
668.293109	0.431186
668.633528	0.433841
668.973896	0.433946
669.314213	0.434291
669.654480	0.435879
669.994695	0.435997
670.334859	0.436977
670.674973	0.436869
671.015035	0.437270
671.355047	0.437243
671.695008	0.438585
672.034918	0.440521
672.374777	0.439627
672.714585	0.440839
673.054342	0.440475
673.394049	0.440460
673.733705	0.438430
674.073310	0.439775
674.412864	0.443124
674.752368	0.443207
675.091820	0.443554
675.431223	0.447627
675.770574	0.447088
676.109875	0.450536
676.449125	0.450639
676.788324	0.452634
677.127473	0.457741
677.466571	0.458138
677.805619	0.459519
678.144616	0.461504
678.483562	0.462344
678.822458	0.465294
679.161303	0.465702
679.500098	0.466559
679.838842	0.467791
680.177535	0.467302
680.516179	0.466198
680.854771	0.465453
681.193314	0.458349
681.531805	0.450264
681.870247	0.438630
682.208638	0.431004
682.546978	0.430070
682.885268	0.431688
683.223508	0.438658
683.561697	0.441534
683.899836	0.444799
684.237925	0.447973
684.575963	0.450074
684.913951	0.453344
685.251889	0.449202
685.589776	0.451083
685.927614	0.453580
686.265401	0.447771
686.603137	0.448992
686.940824	0.443071
687.278460	0.441654
687.616046	0.441058
687.953582	0.436446
688.291068	0.436878
688.628504	0.432876
688.965889	0.435269
689.303224	0.439291
689.640510	0.443067
689.977745	0.448602
690.314930	0.456674
690.652065	0.461635
690.989150	0.468929
691.326185	0.475157
691.663170	0.479511
692.000105	0.486953
692.336990	0.493863
692.673825	0.496133
693.010610	0.503396
693.347345	0.508525
693.684030	0.509778
694.020665	0.514653
694.357251	0.523799
694.693786	0.523327
695.030272	0.527237
695.366707	0.531259
695.703093	0.534644
696.039429	0.533088
696.375716	0.533882
696.711952	0.536077
697.048139	0.538670
697.384276	0.540458
697.720363	0.538459
698.056400	0.538268
698.392388	0.543403
698.728326	0.546861
699.064214	0.549007
699.400053	0.550035
699.735842	0.553228
700.071581	0.555890
700.407270	0.559084
700.742910	0.561193
701.078501	0.568138
701.414042	0.568594
701.749533	0.571950
702.084974	0.579879
702.420366	0.572960
702.755709	0.579865
703.091002	0.588390
703.426246	0.581788
703.761440	0.587545
704.096584	0.593040
704.431679	0.589439
704.766725	0.590943
705.101721	0.593028
705.436668	0.588984
705.771565	0.596047
706.106413	0.592860
706.441212	0.587709
706.775961	0.586646
707.110661	0.589500
707.445311	0.585902
707.779913	0.583336
708.114465	0.581001
708.448967	0.578448
708.783421	0.570202
709.117825	0.565073
709.452180	0.565326
709.786485	0.558808
710.120742	0.549331
710.454949	0.550998
710.789107	0.543260
711.123216	0.533989
711.457275	0.535388
711.791286	0.526379
712.125247	0.525289
712.459159	0.536384
712.793023	0.529008
713.126837	0.533445
713.460602	0.533997
713.794318	0.542625
714.127985	0.541971
714.461602	0.551315
714.795171	0.554757
715.128691	0.562844
715.462162	0.569569
715.795584	0.575428
716.128957	0.578939
716.462281	0.585172
716.795556	0.588918
717.128782	0.593873
717.461960	0.603077
717.795088	0.601067
718.128167	0.607119
718.461198	0.616700
718.794180	0.617016
719.127113	0.620094
719.459997	0.623230
719.792833	0.629622
720.125619	0.630390
720.458357	0.636403
720.791046	0.636722
721.123686	0.639886
721.456278	0.646596
721.788821	0.643817
722.121315	0.647584
722.453761	0.652541
722.786158	0.649819
723.118506	0.646752
723.450805	0.654431
723.783056	0.651012
724.115259	0.647017
724.447412	0.647224
724.779518	0.649590
725.111574	0.647901
725.443582	0.643334
725.775542	0.645122
726.107453	0.637795
726.439315	0.637619
726.771129	0.635513
727.102895	0.629055
727.434612	0.622483
727.766281	0.619363
728.097901	0.619614
728.429473	0.619276
728.760996	0.617240
729.092471	0.618334
729.423897	0.621783
729.755276	0.620647
730.086606	0.620786
730.417887	0.614362
730.749120	0.606371
731.080305	0.597012
731.411442	0.593424
731.742530	0.598250
732.073570	0.597038
732.404562	0.589206
732.735506	0.590283
733.066401	0.595693
733.397249	0.604811
733.728048	0.616253
734.058798	0.628424
734.389501	0.638857
734.720156	0.648390
735.050762	0.657278
735.381320	0.657135
735.711831	0.667624
736.042293	0.672030
736.372707	0.667132
736.703073	0.672037
737.033391	0.674161
737.363661	0.671124
737.693883	0.666436
738.024056	0.665299
738.354182	0.666379
738.684260	0.655002
739.014290	0.651724
739.344272	0.651823
739.674207	0.645634
740.004093	0.644516
740.333931	0.645667
740.663722	0.645547
740.993464	0.646007
741.323159	0.649747
741.652806	0.654741
741.982405	0.659423
742.311956	0.663776
742.641460	0.666132
742.970915	0.670536
743.300323	0.678083
743.629683	0.683592
743.958996	0.685152
744.288260	0.691362
744.617477	0.695543
744.946647	0.697954
745.275768	0.702375
745.604842	0.703576
745.933869	0.712886
746.262847	0.713648
746.591778	0.707021
746.920662	0.713088
747.249498	0.719777
747.578286	0.710047
747.907027	0.707212
748.235720	0.708704
748.564365	0.702583
748.892963	0.702514
749.221514	0.705360
749.550017	0.710555
749.878473	0.709820
750.206881	0.717475
750.535242	0.717057
750.863555	0.717117
751.191821	0.719135
751.520039	0.722604
751.848210	0.726762
752.176334	0.719344
752.504411	0.718847
752.832440	0.726497
753.160421	0.730832
753.488356	0.728251
753.816243	0.725946
754.144082	0.734297
754.471875	0.737317
754.799620	0.733069
755.127318	0.735418
755.454969	0.733925
755.782572	0.733632
756.110129	0.739373
756.437638	0.740467
756.765100	0.737836
757.092515	0.736038
757.419882	0.734600
757.747203	0.739711
758.074477	0.740018
758.401703	0.737302
758.728882	0.731710
759.056014	0.730943
759.383099	0.730483
759.710138	0.730910
760.037129	0.727381
760.364073	0.721313
760.690970	0.723373
761.017820	0.729462
761.344623	0.725282
761.671379	0.716164
761.998088	0.704741
762.324751	0.682020
762.651366	0.640431
762.977935	0.573745
763.304456	0.522071
763.630931	0.513203
763.957359	0.551952
764.283740	0.596195
764.610074	0.622368
764.936362	0.653862
765.262602	0.680185
765.588796	0.701900
765.914943	0.720082
766.241044	0.736558
766.567097	0.743530
766.893104	0.753211
767.219064	0.759711
767.544978	0.765882
767.870845	0.779667
768.196665	0.783525
768.522438	0.781815
768.848165	0.782779
769.173846	0.791985
769.499479	0.795941
769.825066	0.799356
770.150607	0.804998
770.476101	0.799380
770.801548	0.800725
771.126949	0.811830
771.452303	0.816104
771.777611	0.815847
772.102872	0.813583
772.428087	0.819593
772.753256	0.822575
773.078378	0.825547
773.403453	0.834049
773.728482	0.838506
774.053465	0.831007
774.378401	0.835333
774.703291	0.843918
775.028135	0.841232
775.352932	0.844134
775.677683	0.847683
776.002388	0.848359
776.327046	0.847677
776.651658	0.850353
776.976224	0.854070
777.300743	0.854198
777.625216	0.856950
777.949643	0.858128
778.274024	0.858656
778.598359	0.859772
778.922647	0.857969
779.246889	0.858515
779.571086	0.862390
779.895236	0.865766
780.219339	0.862766
780.543397	0.860350
780.867409	0.857288
781.191374	0.859068
781.515294	0.862301
781.839167	0.860096
782.162995	0.863883
782.486776	0.860574
782.810511	0.861749
783.134201	0.866330
783.457844	0.862620
783.781441	0.866371
784.104993	0.871817
784.428498	0.871956
784.751958	0.867670
785.075372	0.869593
785.398739	0.873840
785.722061	0.869597
786.045337	0.865492
786.368568	0.871629
786.691752	0.873225
787.014891	0.859112
787.337983	0.850547
787.661030	0.842883
787.984031	0.825724
788.306987	0.812788
788.629897	0.814754
788.952760	0.818898
789.275579	0.822397
789.598351	0.837516
789.921078	0.850714
790.243759	0.853056
790.566395	0.858387
790.888984	0.866399
791.211529	0.870447
791.534027	0.872548
791.856480	0.875093
792.178888	0.880795
792.501249	0.884080
792.823566	0.884260
793.145836	0.884716
793.468062	0.885430
793.790241	0.885912
794.112375	0.884178
794.434464	0.879255
794.756507	0.879029
795.078505	0.878742
795.400457	0.873820
795.722364	0.862833
796.044226	0.853612
796.366042	0.853700
796.687812	0.856616
797.009538	0.852745
797.331218	0.856662
797.652852	0.861252
797.974442	0.866134
798.295986	0.865153
798.617484	0.868701
798.938938	0.872424
799.260346	0.877466
799.581709	0.879671
799.903026	0.881874
800.224299	0.882158
800.545526	0.885927
800.866708	0.890152
801.187845	0.893362
801.508936	0.893321
801.829983	0.891465
802.150984	0.894494
802.471940	0.899192
802.792851	0.897754
803.113717	0.899704
803.434538	0.897372
803.755314	0.900594
804.076045	0.902298
804.396731	0.901131
804.717372	0.901552
805.037967	0.902119
805.358518	0.901377
805.679024	0.898190
805.999485	0.897788
806.319901	0.898437
806.640272	0.899870
806.960598	0.897795
807.280879	0.894074
807.601115	0.893803
807.921306	0.897765
808.241453	0.897426
808.561554	0.895813
808.881611	0.895272
809.201623	0.897723
809.521590	0.897071
809.841513	0.898126
810.161390	0.896884
810.481223	0.899628
810.801011	0.902927
811.120755	0.903469
811.440453	0.903709
811.760107	0.901174
812.079716	0.901973
812.399281	0.905354
812.718801	0.907966
813.038276	0.909206
813.357707	0.908203
813.677093	0.904744
813.996434	0.908443
814.315731	0.909992
814.634983	0.911950
814.954191	0.909063
815.273354	0.906933
815.592473	0.903122
815.911547	0.903564
816.230577	0.900894
816.549562	0.897940
816.868502	0.898488
817.187399	0.895079
817.506250	0.889069
817.825058	0.892054
818.143821	0.888093
818.462539	0.883372
818.781213	0.875816
819.099843	0.863205
819.418429	0.848661
819.736970	0.831669
820.055466	0.811995
820.373919	0.787383
820.692327	0.754065
821.010691	0.720073
821.329011	0.643882
821.647286	0.530017
821.965517	0.417061
822.283704	0.374096
822.601847	0.376254
822.919945	0.411743
823.237999	0.444596
823.556010	0.490808
823.873976	0.546339
824.191897	0.596809
824.509775	0.638910
824.827609	0.683842
825.145398	0.706181
825.463144	0.707525
825.780845	0.692014
826.098502	0.672523
826.416116	0.627865
826.733685	0.583474
827.051210	0.575776
827.368692	0.590194
827.686129	0.626902
828.003522	0.679261
828.320872	0.726357
828.638177	0.769769
828.955439	0.802590
829.272656	0.824310
829.589830	0.841314
829.906960	0.857059
830.224046	0.868784
830.541088	0.879043
830.858086	0.883881
831.175041	0.889230
831.491952	0.888204
831.808819	0.885576
832.125642	0.879269
832.442421	0.864093
832.759157	0.842702
833.075849	0.796742
833.392497	0.733460
833.709101	0.693022
834.025662	0.703142
834.342179	0.734146
834.658653	0.773292
834.975083	0.808755
835.291469	0.834497
835.607811	0.857525
835.924110	0.871942
836.240366	0.889714
836.556578	0.902887
836.872746	0.911112
837.188871	0.916226
837.504952	0.922731
837.820990	0.924168
838.136984	0.928402
838.452935	0.932306
838.768842	0.933573
839.084706	0.926469
839.400526	0.901088
839.716303	0.860866
840.032037	0.838813
840.347727	0.843280
840.663373	0.861126
840.978977	0.882139
841.294537	0.903570
841.610054	0.920960
841.925527	0.927478
842.240957	0.934981
842.556344	0.941152
842.871687	0.947805
843.186987	0.951302
843.502244	0.951662
843.817458	0.954614
844.132629	0.955474
844.447756	0.961926
844.762840	0.962431
845.077881	0.959488
845.392879	0.962336
845.707833	0.964379
846.022745	0.966206
846.337613	0.965779
846.652438	0.968068
846.967221	0.965575
847.281960	0.966257
847.596656	0.967914
847.911309	0.966724
848.225919	0.968293
848.540485	0.969817
848.855009	0.969877
849.169490	0.969501
849.483928	0.970345
849.798323	0.970108
850.112675	0.971592
850.426984	0.970837
850.741251	0.970532
851.055474	0.970283
851.369654	0.968687
851.683792	0.970581
851.997887	0.970765
852.311938	0.972295
852.625947	0.969836
852.939914	0.969591
853.253837	0.970391
853.567718	0.972128
853.881555	0.972104
854.195350	0.969441
854.509103	0.970810
854.822812	0.971106
855.136479	0.971328
855.450103	0.970499
855.763685	0.969978
856.077224	0.969991
856.390720	0.970643
856.704173	0.970860
857.017584	0.969335
857.330953	0.968030
857.644278	0.969235
857.957561	0.969827
858.270802	0.969230
858.584000	0.968427
858.897155	0.967873
859.210268	0.969443
859.523339	0.968932
859.836367	0.970741
860.149352	0.972433
860.462295	0.970102
860.775195	0.970771
861.088054	0.970108
861.400869	0.971378
861.713642	0.972351
862.026373	0.972526
862.339062	0.971952
862.651708	0.968682
862.964312	0.967951
863.276873	0.970347
863.589392	0.969389
863.901869	0.967806
864.214303	0.965034
864.526696	0.964909
864.839045	0.964854
865.151353	0.964435
865.463619	0.963896
865.775842	0.963498
866.088023	0.962824
866.400162	0.964232
866.712258	0.963081
867.024313	0.963952
867.336325	0.965475
867.648296	0.964708
867.960224	0.963528
868.272110	0.962423
868.583954	0.964630
868.895755	0.964584
869.207515	0.962640
869.519233	0.960688
869.830909	0.962987
870.142542	0.964360
870.454134	0.962732
870.765684	0.961957
871.077191	0.959182
871.388657	0.959404
871.700081	0.958752
872.011463	0.960223
872.322803	0.959701
872.634101	0.959056
872.945357	0.956649
873.256571	0.954639
873.567744	0.954244
873.878874	0.955302
874.189963	0.953246
874.501010	0.952614
874.812015	0.950517
875.122979	0.951956
875.433900	0.953837
875.744780	0.956097
876.055618	0.952100
876.366415	0.952931
876.677169	0.950992
876.987882	0.952690
877.298554	0.952390
877.609183	0.949362
877.919771	0.947078
878.230317	0.945324
878.540822	0.942144
878.851285	0.936042
879.161707	0.929057
879.472087	0.917314
879.782425	0.902086
880.092722	0.868479
880.402977	0.817289
880.713191	0.758257
881.023363	0.700236
881.333494	0.666395
881.643583	0.637848
881.953631	0.637509
882.263637	0.667777
882.573602	0.706150
882.883526	0.731301
883.193408	0.754180
883.503248	0.775216
883.813048	0.803054
884.122806	0.832362
884.432522	0.855339
884.742197	0.874473
885.051831	0.884017
885.361424	0.893666
885.670975	0.906294
885.980485	0.916221
886.289954	0.921542
886.599382	0.926979
886.908768	0.930692
887.218113	0.936415
887.527417	0.941180
887.836680	0.943689
888.145901	0.945385
888.455082	0.947746
888.764221	0.951848
889.073319	0.953531
889.382376	0.954406
889.691392	0.954528
890.000366	0.955840
890.309300	0.955291
890.618193	0.955194
890.927044	0.952964
891.235855	0.953136
891.544625	0.952324
891.853353	0.953734
892.162041	0.951396
892.470687	0.944587
892.779293	0.940385
893.087858	0.937070
893.396381	0.928034
893.704864	0.917199
894.013306	0.893481
894.321707	0.866061
894.630068	0.852567
894.938387	0.848466
895.246665	0.849595
895.554903	0.861066
895.863100	0.873904
896.171256	0.890612
896.479371	0.909439
896.787446	0.922764
897.095480	0.928175
897.403473	0.930377
897.711425	0.934356
898.019336	0.942220
898.327207	0.944364
898.635038	0.947542
898.942827	0.947814
899.250576	0.950278
899.558284	0.954066
899.865952	0.955729
900.173579	0.956539
900.481165	0.958545
900.788711	0.961995
901.096216	0.962723
901.403681	0.962563
901.711105	0.965338
902.018489	0.965858
902.325832	0.963939
902.633135	0.962302
902.940397	0.957741
903.247619	0.946225
903.554800	0.920654
903.861941	0.882753
904.169041	0.847253
904.476101	0.831401
904.783121	0.831946
905.090100	0.847612
905.397039	0.868762
905.703938	0.890037
906.010796	0.909377
906.317614	0.926501
906.624391	0.936446
906.931129	0.946260
907.237826	0.954313
907.544483	0.961249
907.851099	0.964864
908.157675	0.970286
908.464211	0.971469
908.770707	0.972953
909.077163	0.974987
909.383578	0.974736
909.689954	0.976482
909.996289	0.977180
910.302584	0.979022
910.608839	0.979993
910.915054	0.980088
911.221229	0.979732
911.527363	0.977761
911.833458	0.977918
912.139513	0.978357
912.445527	0.977032
912.751502	0.975310
913.057436	0.973316
913.363331	0.972000
913.669186	0.967371
913.975000	0.962700
914.280775	0.957603
914.586510	0.952627
914.892205	0.938196
915.197859	0.916783
915.503475	0.890802
915.809050	0.872029
916.114585	0.866967
916.420081	0.864027
916.725536	0.861387
917.030952	0.868194
917.336328	0.881528
917.641665	0.895546
917.946961	0.911336
918.252218	0.922372
918.557435	0.930010
918.862612	0.938184
919.167750	0.944757
919.472848	0.949487
919.777906	0.954099
920.082925	0.960368
920.387904	0.963043
920.692843	0.964539
920.997743	0.965927
921.302603	0.969512
921.607423	0.970698
921.912204	0.972166
922.216946	0.973504
922.521647	0.974760
922.826310	0.975799
923.130932	0.977255
923.435516	0.980060
923.740059	0.980448
924.044564	0.979317
924.349028	0.982152
924.653454	0.984747
924.957840	0.986363
925.262186	0.986035
925.566493	0.984124
925.870761	0.986125
926.174989	0.986792
926.479178	0.989790
926.783328	0.990276
927.087438	0.988399
927.391509	0.987711
927.695541	0.990895
927.999533	0.991406
928.303486	0.990563
928.607400	0.993037
928.911275	0.990523
929.215110	0.990832
929.518906	0.992359
929.822663	0.989630
930.126381	0.991907
930.430060	0.990842
930.733699	0.991747
931.037299	0.989983
931.340861	0.991517
931.644383	0.991351
931.947866	0.990293
932.251309	0.991444
932.554714	0.991396
932.858080	0.990808
933.161407	0.991361
933.464694	0.991661
933.767943	0.990893
934.071153	0.992217
934.374323	0.992282
934.677455	0.992129
934.980548	0.992919
935.283602	0.991675
935.586617	0.992989
935.889593	0.992793
936.192530	0.990858
936.495428	0.991671
936.798287	0.991880
937.101108	0.991107
937.403890	0.989317
937.706632	0.990128
938.009336	0.987575
938.312002	0.987014
938.614628	0.984768
938.917216	0.985383
939.219765	0.982663
939.522275	0.985148
939.824747	0.982860
940.127179	0.985333
940.429573	0.986836
940.731929	0.984448
941.034246	0.986232
941.336524	0.986475
941.638763	0.987408
941.940964	0.987652
942.243126	0.988018
942.545250	0.988332
942.847335	0.989472
943.149381	0.989097
943.451389	0.988623
943.753359	0.989211
944.055290	0.992217
944.357182	0.990146
944.659036	0.989168
944.960851	0.990090
945.262628	0.990630
945.564367	0.991867
945.866067	0.990655
946.167729	0.990466
946.469352	0.991304
946.770937	0.990204
947.072484	0.991254
947.373992	0.991678
947.675462	0.990153
947.976893	0.991921
948.278286	0.990502
948.579641	0.991933
948.880958	0.991524
949.182236	0.992455
949.483476	0.991022
949.784678	0.990072
950.085841	0.992416
950.386967	0.992013
950.688054	0.991513
950.989103	0.991801
951.290114	0.989570
951.591087	0.990183
951.892021	0.989825
952.192917	0.990303
952.493776	0.989464
952.794596	0.989244
953.095378	0.989525
953.396122	0.989577
953.696828	0.988350
953.997496	0.990028
954.298126	0.991031
954.598718	0.991156
954.899272	0.991424
955.199788	0.991582
955.500266	0.993157
955.800706	0.993979
956.101108	0.994211
956.401472	0.994543
956.701798	0.995422
957.002087	0.994608
957.302337	0.993837
957.602550	0.994881
957.902724	0.995742
958.202861	0.995849
958.502960	0.996997
958.803022	0.994858
959.103045	0.997042
959.403031	0.997054
959.702979	0.994700
960.002889	0.996481
960.302762	0.994188
960.602596	0.995928
960.902393	0.996038
961.202153	0.997080
961.501875	0.998153
961.801559	0.996672
962.101205	0.996861
962.400814	0.996936
962.700385	0.997351
962.999918	0.997494
963.299414	0.996975
963.598873	0.995313
963.898293	0.996592
964.197677	0.996701
964.497022	0.996607
964.796331	0.998794
965.095601	0.996577
965.394835	0.996581
965.694030	0.998640
965.993189	0.997162
966.292309	0.997280
966.591393	0.997669
966.890439	0.998180
967.189447	0.997099
967.488419	0.997722
967.787353	0.996226
968.086249	0.997569
968.385108	0.998575
968.683930	0.997457
968.982714	0.997046
969.281462	0.998812
969.580172	0.996999
969.878844	0.998033
970.177480	0.996341
970.476078	0.997445
970.774639	0.997746
971.073162	0.998710
971.371649	0.996755
971.670098	0.996200
971.968510	0.998136
972.266885	0.995825
972.565223	0.996155
972.863524	0.996195
973.161788	0.997499
973.460014	0.996673
973.758204	0.996814
974.056356	0.997338
974.354471	0.996190
974.652550	0.997180
974.950591	0.995842
975.248595	0.995596
975.546563	0.998342
975.844493	0.998898
976.142386	0.997498
976.440243	0.996478
976.738062	0.998042
977.035845	0.997877
977.333590	0.997771
977.631299	0.998445
977.928971	0.996846
978.226606	0.996750
978.524204	0.996020
978.821765	0.998682
979.119290	0.996408
979.416777	0.997906
979.714228	0.998079
980.011642	0.996251
980.309020	0.998994
980.606360	0.997098
980.903664	0.999674
981.200931	0.997426
981.498162	0.996585
981.795356	0.995381
982.092513	0.995956
982.389633	0.994690
982.686717	0.992755
982.983764	0.991541
983.280775	0.990733
983.577749	0.991356
983.874686	0.993139
984.171587	0.993094
984.468451	0.995457
984.765279	0.994967
985.062070	0.994660
985.358824	0.995647
985.655543	0.996597
985.952224	0.996599
986.248869	0.996564
986.545478	0.997497
986.842050	0.998629
987.138586	0.996066
987.435086	0.997976
987.731549	0.999487
988.027975	0.998043
988.324366	0.998565
988.620719	0.997409
988.917037	0.997702
989.213318	0.998435
989.509563	0.999426
989.805772	0.999355
990.101944	0.999288
990.398080	0.998322
990.694180	0.998848
990.990244	0.997349
991.286271	0.998049
991.582262	0.999932
991.878217	0.998034
992.174136	0.998619
992.470019	0.998876
992.765865	0.997704
993.061676	0.999179
993.357450	0.998604
993.653188	0.997519
993.948890	0.996749
994.244556	0.998821
994.540186	0.996894
994.835780	0.996864
995.131337	0.998472
995.426859	0.997053
995.722345	0.997784
996.017795	0.998155
996.313208	0.995996
996.608586	0.997076
996.903928	0.997624
997.199234	0.995841
997.494504	0.997617
997.789738	0.996953
998.084936	0.997741
998.380099	0.998386
998.675225	0.998914
998.970316	0.998602
999.265371	0.998507
999.560390	0.998489
999.855373	0.999405
1000.150320	0.998052
1000.445232	0.998999
1000.740108	0.998408
1001.034948	0.998352
1001.329752	1.000436
1001.624521	0.999767
1001.919254	0.998648
1002.213951	0.999328
1002.508613	0.998289
1002.803239	0.999302
1003.097829	1.000025
1003.392384	0.999611
1003.686903	0.999264
1003.981386	0.999349
1004.275834	0.998836
1004.570246	0.999514
1004.864623	0.999386
1005.158964	1.000207
1005.453270	1.000316
1005.747540	0.997311
1006.041775	0.998447
1006.335974	1.001509
1006.630138	0.999706
1006.924266	0.999790
1007.218359	1.000637
1007.512416	1.000139
1007.806438	0.999575
1008.100425	0.999482
1008.394376	0.999139
1008.688292	0.999463
1008.982172	0.999986
1009.276017	0.998683
1009.569827	0.998960
1009.863602	0.999243
1010.157341	1.000129
1010.451045	0.999243
1010.744714	0.999594
1011.038347	0.998625
1011.331945	0.998863
1011.625508	0.998006
1011.919036	0.999758
1012.212528	0.999645
1012.505986	0.997608
1012.799408	0.999797
1013.092795	0.998627
1013.386147	0.999531
1013.679464	1.000206
1013.972745	0.997802
1014.265992	0.997992
1014.559204	0.999533
1014.852380	0.999145
1015.145521	0.999975
1015.438628	0.999630
1015.731699	0.999863
1016.024736	1.000311
1016.317737	0.999480
1016.610703	0.999021
1016.903635	0.999708
1017.196531	0.998851
1017.489393	0.999533
1017.782219	0.999412
1018.075011	0.999274
1018.367768	0.999741
1018.660490	1.000475
1018.953177	1.000475
1019.245829	1.000475
