Dividing Wavelength (nm)	Counts (n)	Blue Motor Position (mm): 0.000000	Red Motor Position (mm): 20.100000	
326.493990	1.001372
326.888308	1.001372
327.282561	1.001372
327.676750	0.999299
328.070874	0.998707
328.464933	1.000107
328.858929	0.999777
329.252859	0.999579
329.646726	0.999107
330.040528	1.000367
330.434265	0.999683
330.827938	1.000645
331.221547	1.000446
331.615091	1.000259
332.008571	1.000107
332.401986	0.999836
332.795338	1.000359
333.188625	0.997265
333.581847	1.001292
333.975006	1.001505
334.368100	0.999522
334.761129	1.000425
335.154095	1.000747
335.546996	0.999149
335.939833	0.992607
336.332606	0.994144
336.725315	0.994680
337.117960	0.995658
337.510540	0.994064
337.903056	0.993823
338.295508	0.992832
338.687896	0.994667
339.080220	0.994777
339.472480	0.994638
339.864676	0.995190
340.256807	0.994466
340.648875	0.995062
341.040879	0.994486
341.432818	0.994119
341.824694	0.994249
342.216506	0.995100
342.608253	0.994708
342.999937	0.994170
343.391557	0.993785
343.783113	0.995050
344.174605	0.994693
344.566033	0.996144
344.957397	0.992658
345.348697	0.994442
345.739934	0.993677
346.131106	0.993574
346.522215	0.994225
346.913260	0.994127
347.304241	0.994783
347.695159	0.994167
348.086012	0.994009
348.476802	0.994272
348.867528	0.996191
349.258191	0.994799
349.648789	0.994052
350.039324	0.993852
350.429796	0.994814
350.820203	0.994740
351.210548	0.994546
351.600828	0.993944
351.991045	0.994762
352.381198	0.994269
352.771288	0.994556
353.161314	0.994410
353.551276	0.995712
353.941175	0.993438
354.331010	0.994054
354.720782	0.994926
355.110490	0.993365
355.500135	0.993709
355.889717	0.994178
356.279235	0.993547
356.668689	0.992945
357.058080	0.994886
357.447408	0.995185
357.836672	0.995140
358.225873	0.994247
358.615010	0.994337
359.004084	0.995058
359.393095	0.994092
359.782043	0.994739
360.170927	0.995242
360.559748	0.995971
360.948505	0.994025
361.337199	0.995581
361.725830	0.994629
362.114398	0.994723
362.502903	0.995612
362.891344	0.994705
363.279722	0.993935
363.668037	0.994801
364.056289	0.995023
364.444478	0.995574
364.832603	0.995339
365.220665	0.992941
365.608665	0.993499
365.996601	0.993647
366.384474	0.993743
366.772284	0.993965
367.160031	0.993217
367.547715	0.993293
367.935336	0.993188
368.322893	0.994201
368.710388	0.993134
369.097820	0.994555
369.485189	0.994241
369.872495	0.994523
370.259738	0.993042
370.646918	0.995098
371.034035	0.994769
371.421090	0.995108
371.808081	0.995182
372.195010	0.995033
372.581875	0.993035
372.968678	0.993612
373.355418	0.994343
373.742096	0.994182
374.128710	0.996052
374.515262	0.994318
374.901751	0.995006
375.288177	0.995359
375.674540	0.995795
376.060841	0.994161
376.447079	0.995266
376.833254	0.994922
377.219367	0.995606
377.605417	0.995107
377.991404	0.996478
378.377329	0.994658
378.763191	0.995849
379.148991	0.995831
379.534727	0.996295
379.920402	0.995707
380.306013	0.996213
380.691563	0.996169
381.077049	0.995395
381.462474	0.995619
381.847835	0.995822
382.233134	0.995159
382.618371	0.996630
383.003545	0.995260
383.388657	0.994492
383.773706	0.997363
384.158693	0.995968
384.543618	0.995922
384.928480	0.995861
385.313280	0.996713
385.698017	0.996143
386.082692	0.996607
386.467305	0.996458
386.851856	0.995095
387.236344	0.995309
387.620770	0.994969
388.005133	0.996059
388.389435	0.996752
388.773674	0.995993
389.157851	0.995813
389.541965	0.996769
389.926018	0.995347
390.310008	0.997265
390.693936	0.996316
391.077802	0.996954
391.461606	0.996478
391.845348	0.996439
392.229027	0.997363
392.612645	0.996341
392.996200	0.996989
393.379694	0.995374
393.763125	0.996616
394.146494	0.997397
394.529801	0.996104
394.913047	0.996903
395.296230	0.997349
395.679351	0.996388
396.062410	0.996055
396.445408	0.996105
396.828343	0.996348
397.211217	0.995681
397.594028	0.997139
397.976778	0.996196
398.359466	0.996755
398.742092	0.995201
399.124656	0.995279
399.507158	0.996504
399.889598	0.996428
400.271977	0.996460
400.654294	0.996443
401.036549	0.996381
401.418742	0.996694
401.800874	0.995341
402.182944	0.995536
402.564952	0.995136
402.946898	0.997581
403.328783	0.996279
403.710606	0.995384
404.092367	0.996076
404.474067	0.996248
404.855705	0.996267
405.237282	0.996469
405.618797	0.996756
406.000250	0.995468
406.381642	0.995339
406.762972	0.995876
407.144240	0.996830
407.525447	0.995346
407.906593	0.995840
408.287677	0.995939
408.668700	0.995144
409.049661	0.994489
409.430560	0.994335
409.811399	0.993998
410.192176	0.993333
410.572891	0.993624
410.953545	0.991917
411.334138	0.991362
411.714669	0.990921
412.095139	0.989315
412.475547	0.989352
412.855894	0.987245
413.236180	0.986108
413.616405	0.985673
413.996568	0.983333
414.376670	0.980543
414.756711	0.980104
415.136691	0.977229
415.516609	0.973921
415.896466	0.971117
416.276262	0.967820
416.655997	0.965608
417.035670	0.960559
417.415283	0.957771
417.794834	0.954704
418.174324	0.951478
418.553753	0.949349
418.933121	0.941950
419.312428	0.937264
419.691674	0.933972
420.070859	0.928011
420.449983	0.923485
420.829045	0.916861
421.208047	0.914938
421.586988	0.906834
421.965867	0.900683
422.344686	0.892075
422.723444	0.888736
423.102141	0.886282
423.480777	0.874300
423.859352	0.871611
424.237866	0.857380
424.616319	0.852015
424.994712	0.842580
425.373044	0.837051
425.751314	0.825949
426.129524	0.822614
426.507673	0.808817
426.885762	0.800249
427.263789	0.791397
427.641756	0.788450
428.019662	0.775157
428.397508	0.766269
428.775292	0.758058
429.153016	0.746399
429.530679	0.741644
429.908282	0.729469
430.285824	0.725717
430.663305	0.704442
431.040726	0.706550
431.418086	0.699967
431.795385	0.685904
432.172624	0.676341
432.549802	0.668855
432.926920	0.659513
433.303977	0.649999
433.680974	0.640454
434.057910	0.631352
434.434786	0.622792
434.811601	0.616806
435.188355	0.596218
435.565050	0.595022
435.941683	0.589433
436.318257	0.570211
436.694770	0.563139
437.071222	0.554684
437.447614	0.550616
437.823946	0.549529
438.200218	0.534046
438.576429	0.536536
438.952580	0.523928
439.328670	0.515477
439.704700	0.515645
440.080670	0.511269
440.456580	0.489303
440.832429	0.490913
441.208218	0.496306
441.583947	0.481569
441.959616	0.477047
442.335224	0.477291
442.710773	0.465387
443.086261	0.458951
443.461689	0.468854
443.837057	0.455250
444.212365	0.443218
444.587612	0.446579
444.962800	0.434036
445.337927	0.432791
445.712995	0.455498
446.088002	0.417195
446.462949	0.425047
446.837837	0.427404
447.212664	0.414816
447.587431	0.405096
447.962139	0.374909
448.336786	0.333624
448.711374	0.342472
449.085901	0.383934
449.460369	0.387039
449.834776	0.389174
450.209124	0.368264
450.583412	0.360115
450.957640	0.352491
451.331808	0.362461
451.705917	0.385393
452.079965	0.389147
452.453954	0.377156
452.827883	0.383338
453.201752	0.377656
453.575562	0.388896
453.949311	0.377419
454.323001	0.382882
454.696632	0.378604
455.070202	0.371135
455.443713	0.362864
455.817164	0.357506
456.190556	0.352811
456.563888	0.349183
456.937160	0.346962
457.310373	0.364093
457.683526	0.362711
458.056619	0.367999
458.429653	0.368955
458.802628	0.371720
459.175542	0.366118
459.548398	0.348961
459.921194	0.341473
460.293930	0.341357
460.666607	0.318862
461.039224	0.306893
461.411782	0.302857
461.784280	0.301746
462.156719	0.306290
462.529099	0.310614
462.901419	0.326378
463.273680	0.331071
463.645882	0.330110
464.018024	0.335966
464.390106	0.329306
464.762130	0.313716
465.134094	0.297165
465.505999	0.266253
465.877845	0.236821
466.249631	0.223722
466.621358	0.231198
466.993026	0.245070
467.364634	0.251010
467.736184	0.259957
468.107674	0.268487
468.479105	0.267524
468.850477	0.274434
469.221790	0.281493
469.593043	0.291391
469.964238	0.296188
470.335373	0.295264
470.706449	0.293525
471.077467	0.294423
471.448425	0.256299
471.819324	0.232453
472.190164	0.231767
472.560945	0.260635
472.931667	0.282355
473.302330	0.286697
473.672934	0.298536
474.043479	0.286660
474.413965	0.288949
474.784393	0.292362
475.154761	0.287315
475.525070	0.284003
475.895321	0.289919
476.265513	0.284142
476.635645	0.279497
477.005719	0.279523
477.375734	0.275851
477.745691	0.269515
478.115588	0.265873
478.485427	0.259530
478.855207	0.246762
479.224928	0.229247
479.594591	0.217087
479.964194	0.220651
480.333739	0.221899
480.703226	0.223285
481.072653	0.221705
481.442022	0.217348
481.811333	0.213912
482.180584	0.217834
482.549777	0.222550
482.918912	0.226070
483.287988	0.225958
483.657005	0.225184
484.025964	0.231604
484.394864	0.229131
484.763706	0.229595
485.132489	0.234619
485.501213	0.235452
485.869879	0.233847
486.238487	0.237019
486.607036	0.234928
486.975527	0.239397
487.343959	0.235333
487.712333	0.234246
488.080648	0.235788
488.448905	0.234801
488.817104	0.236289
489.185244	0.230593
489.553326	0.227758
489.921350	0.217613
490.289315	0.200108
490.657222	0.195093
491.025070	0.196307
491.392861	0.198240
491.760593	0.204038
492.128267	0.209552
492.495883	0.214885
492.863440	0.221213
493.230939	0.227627
493.598380	0.229039
493.965763	0.230943
494.333088	0.233262
494.700354	0.234942
495.067563	0.233697
495.434713	0.236823
495.801805	0.234598
496.168839	0.236094
496.535815	0.237816
496.902733	0.237686
497.269593	0.239422
497.636395	0.237008
498.003139	0.237255
498.369825	0.240188
498.736453	0.236377
499.103023	0.238099
499.469535	0.237382
499.835989	0.237747
500.202385	0.238682
500.568723	0.241835
500.935003	0.237444
501.301226	0.241444
501.667390	0.235509
502.033497	0.233625
502.399546	0.236749
502.765537	0.238266
503.131470	0.236966
503.497345	0.233151
503.863163	0.242023
504.228923	0.234768
504.594625	0.233770
504.960269	0.238943
505.325856	0.234362
505.691385	0.238627
506.056856	0.235335
506.422270	0.234964
506.787625	0.237262
507.152924	0.234740
507.518164	0.235003
507.883347	0.236701
508.248472	0.238660
508.613540	0.233535
508.978550	0.236180
509.343503	0.236674
509.708398	0.234155
510.073236	0.231822
510.438016	0.232079
510.802738	0.232635
511.167403	0.231748
511.532010	0.233682
511.896561	0.229098
512.261053	0.227902
512.625488	0.230154
512.989866	0.230266
513.354186	0.230799
513.718449	0.232422
514.082655	0.229002
514.446803	0.231213
514.810894	0.228880
515.174927	0.231294
515.538904	0.230981
515.902822	0.227981
516.266684	0.230011
516.630488	0.231389
516.994235	0.230143
517.357925	0.228960
517.721558	0.227439
518.085133	0.226763
518.448651	0.226790
518.812112	0.229009
519.175516	0.228896
519.538863	0.226481
519.902152	0.227991
520.265385	0.224933
520.628560	0.226679
520.991678	0.227272
521.354739	0.226048
521.717743	0.226956
522.080690	0.227598
522.443580	0.224748
522.806413	0.225768
523.169189	0.225279
523.531908	0.224091
523.894569	0.227873
524.257174	0.227667
524.619722	0.225145
524.982213	0.226275
525.344647	0.225332
525.707025	0.226057
526.069345	0.224081
526.431608	0.225836
526.793815	0.224219
527.155964	0.227958
527.518057	0.227205
527.880093	0.228299
528.242072	0.226563
528.603995	0.228598
528.965860	0.230075
529.327669	0.229009
529.689421	0.229913
530.051117	0.230988
530.412755	0.228264
530.774337	0.230962
531.135862	0.231068
531.497331	0.230508
531.858743	0.233204
532.220098	0.230186
532.581396	0.232608
532.942638	0.233115
533.303824	0.234104
533.664953	0.233670
534.026025	0.235715
534.387040	0.233371
534.747999	0.233334
535.108902	0.232441
535.469748	0.237396
535.830537	0.235153
536.191270	0.235883
536.551947	0.235312
536.912567	0.235346
537.273131	0.236932
537.633638	0.237333
537.994089	0.237688
538.354483	0.238823
538.714821	0.235415
539.075103	0.235276
539.435328	0.236075
539.795497	0.239834
540.155609	0.236174
540.515665	0.234655
540.875665	0.240252
541.235609	0.238918
541.595496	0.238654
541.955328	0.235440
542.315102	0.238207
542.674821	0.239090
543.034483	0.238841
543.394090	0.238817
543.753640	0.240722
544.113134	0.235429
544.472571	0.238897
544.831953	0.235673
545.191278	0.239890
545.550548	0.239211
545.909761	0.236329
546.268918	0.237174
546.628019	0.235166
546.987064	0.237946
547.346053	0.239855
547.704986	0.237694
548.063863	0.237994
548.422684	0.238125
548.781449	0.239900
549.140158	0.237631
549.498811	0.240414
549.857408	0.243361
550.215949	0.238500
550.574434	0.241470
550.932864	0.239555
551.291237	0.238062
551.649555	0.239505
552.007817	0.239128
552.366022	0.239939
552.724173	0.240413
553.082267	0.240255
553.440305	0.237503
553.798288	0.241835
554.156215	0.238293
554.514086	0.239085
554.871902	0.242105
555.229661	0.241277
555.587365	0.242029
555.945014	0.244479
556.302606	0.241629
556.660143	0.243920
557.017625	0.240726
557.375050	0.242778
557.732421	0.239814
558.089735	0.241684
558.446994	0.241715
558.804197	0.241001
559.161345	0.240884
559.518437	0.244310
559.875474	0.241944
560.232455	0.241755
560.589381	0.242727
560.946251	0.242518
561.303065	0.240301
561.659825	0.241753
562.016528	0.243241
562.373177	0.245904
562.729770	0.243532
563.086307	0.245521
563.442789	0.243525
563.799216	0.246005
564.155587	0.244794
564.511904	0.245905
564.868164	0.246242
565.224370	0.245933
565.580520	0.247702
565.936615	0.247432
566.292654	0.250430
566.648638	0.247590
567.004567	0.248335
567.360441	0.249096
567.716260	0.251148
568.072023	0.248827
568.427732	0.249567
568.783385	0.251944
569.138982	0.250137
569.494525	0.249737
569.850013	0.252728
570.205445	0.250944
570.560823	0.253714
570.916145	0.255500
571.271412	0.253897
571.626625	0.255201
571.981782	0.255739
572.336884	0.256564
572.691931	0.256428
573.046923	0.257516
573.401860	0.258601
573.756743	0.260508
574.111570	0.259273
574.466342	0.259857
574.821059	0.258753
575.175722	0.261783
575.530330	0.261347
575.884882	0.261724
576.239380	0.263620
576.593823	0.264508
576.948211	0.263640
577.302544	0.266895
577.656823	0.266532
578.011047	0.266965
578.365216	0.267162
578.719330	0.269557
579.073389	0.268983
579.427394	0.270292
579.781344	0.271235
580.135239	0.272683
580.489080	0.272573
580.842866	0.275266
581.196597	0.275483
581.550273	0.273602
581.903895	0.274643
582.257463	0.272838
582.610975	0.276630
582.964434	0.275507
583.317837	0.278022
583.671186	0.278560
584.024481	0.278434
584.377721	0.281088
584.730906	0.281993
585.084037	0.280849
585.437113	0.282561
585.790135	0.282095
586.143103	0.285074
586.496016	0.286215
586.848874	0.283730
587.201679	0.284267
587.554428	0.287717
587.907124	0.286296
588.259765	0.287270
588.612352	0.287733
588.964884	0.291293
589.317362	0.291260
589.669786	0.290973
590.022155	0.289557
590.374470	0.288706
590.726731	0.290936
591.078937	0.295704
591.431090	0.291775
591.783188	0.296557
592.135232	0.296580
592.487222	0.296437
592.839157	0.294772
593.191038	0.297134
593.542866	0.298886
593.894639	0.302430
594.246358	0.300480
594.598022	0.300021
594.949633	0.303492
595.301190	0.304357
595.652692	0.303430
596.004141	0.299794
596.355535	0.307700
596.706876	0.308313
597.058162	0.310751
597.409395	0.308036
597.760573	0.305824
598.111698	0.308747
598.462768	0.309333
598.813785	0.310808
599.164748	0.311843
599.515657	0.312187
599.866511	0.315341
600.217312	0.310660
600.568060	0.316415
600.918753	0.312419
601.269392	0.313326
601.619978	0.316826
601.970510	0.314193
602.320988	0.314861
602.671412	0.311879
603.021783	0.314838
603.372100	0.316136
603.722363	0.315615
604.072572	0.316780
604.422728	0.316042
604.772830	0.318023
605.122878	0.317991
605.472872	0.318380
605.822813	0.316505
606.172701	0.319528
606.522534	0.316955
606.872314	0.317030
607.222041	0.317845
607.571714	0.315932
607.921333	0.317315
608.270899	0.316910
608.620411	0.313582
608.969870	0.317666
609.319276	0.317961
609.668627	0.317584
610.017926	0.316103
610.367171	0.314901
610.716362	0.315742
611.065500	0.315850
611.414585	0.314238
611.763616	0.315375
612.112594	0.315819
612.461518	0.315135
612.810389	0.312421
613.159207	0.315261
613.507971	0.316829
613.856682	0.312234
614.205340	0.313995
614.553945	0.310742
614.902496	0.314707
615.250994	0.312725
615.599439	0.313628
615.947830	0.313047
616.296169	0.314168
616.644454	0.313316
616.992686	0.313498
617.340864	0.311287
617.688990	0.315048
618.037063	0.311376
618.385082	0.313699
618.733048	0.310207
619.080961	0.312800
619.428821	0.312267
619.776628	0.311199
620.124382	0.313635
620.472083	0.313879
620.819731	0.313415
621.167326	0.317038
621.514868	0.316717
621.862357	0.321320
622.209793	0.320186
622.557176	0.322935
622.904506	0.323700
623.251783	0.326671
623.599007	0.328695
623.946179	0.328406
624.293297	0.329954
624.640363	0.333937
624.987376	0.334538
625.334336	0.337067
625.681243	0.339007
626.028097	0.339795
626.374899	0.340862
626.721647	0.340747
627.068343	0.344190
627.414987	0.345315
627.761577	0.347572
628.108115	0.345941
628.454600	0.351043
628.801032	0.348242
629.147412	0.350328
629.493739	0.350980
629.840014	0.353324
630.186236	0.351501
630.532405	0.357051
630.878521	0.354512
631.224585	0.356110
631.570597	0.360552
631.916556	0.358424
632.262462	0.359342
632.608316	0.360706
632.954117	0.361668
633.299866	0.362491
633.645562	0.363098
633.991206	0.367115
634.336797	0.370299
634.682336	0.372758
635.027823	0.374020
635.373257	0.374835
635.718639	0.378095
636.063968	0.377551
636.409245	0.383460
636.754470	0.383389
637.099642	0.385718
637.444762	0.389674
637.789829	0.388154
638.134845	0.391969
638.479808	0.392920
638.824719	0.392356
639.169577	0.396575
639.514383	0.395387
639.859137	0.399489
640.203839	0.399486
640.548489	0.400132
640.893086	0.401412
641.237632	0.403126
641.582125	0.401865
641.926566	0.402959
642.270955	0.403102
642.615292	0.403659
642.959576	0.403021
643.303809	0.403027
643.647990	0.402316
643.992118	0.403394
644.336195	0.406989
644.680219	0.405297
645.024192	0.406224
645.368112	0.399333
645.711981	0.398428
646.055797	0.393941
646.399562	0.396171
646.743274	0.388287
647.086935	0.386124
647.430544	0.385880
647.774101	0.384578
648.117606	0.384206
648.461059	0.384886
648.804460	0.387205
649.147810	0.392491
649.491108	0.394391
649.834354	0.395910
650.177548	0.401242
650.520690	0.406250
650.863781	0.407627
651.206820	0.406709
651.549807	0.411682
651.892742	0.415610
652.235626	0.415127
652.578458	0.416059
652.921238	0.421944
653.263967	0.419672
653.606644	0.424042
653.949269	0.423873
654.291843	0.427488
654.634365	0.423940
654.976836	0.427191
655.319255	0.427371
655.661622	0.429121
656.003938	0.429304
656.346203	0.432536
656.688416	0.429751
657.030577	0.433815
657.372687	0.435216
657.714746	0.436505
658.056753	0.433239
658.398708	0.437190
658.740612	0.438442
659.082465	0.434627
659.424266	0.435125
659.766016	0.434659
660.107715	0.436764
660.449362	0.436012
660.790958	0.436434
661.132503	0.436680
661.473996	0.434997
661.815438	0.435755
662.156829	0.435459
662.498168	0.436403
662.839456	0.438460
663.180693	0.435415
663.521879	0.435477
663.863013	0.437196
664.204097	0.435104
664.545129	0.431834
664.886110	0.432438
665.227040	0.429722
665.567918	0.432780
665.908746	0.430746
666.249522	0.429846
666.590248	0.430643
666.930922	0.429503
667.271545	0.428470
667.612118	0.427999
667.952639	0.429789
668.293109	0.428587
668.633528	0.431513
668.973896	0.431173
669.314213	0.431866
669.654480	0.432765
669.994695	0.433592
670.334859	0.434401
670.674973	0.434810
671.015035	0.435026
671.355047	0.434051
671.695008	0.435537
672.034918	0.437314
672.374777	0.436746
672.714585	0.437970
673.054342	0.437629
673.394049	0.438318
673.733705	0.435555
674.073310	0.436432
674.412864	0.440109
674.752368	0.440743
675.091820	0.440227
675.431223	0.445102
675.770574	0.444522
676.109875	0.448087
676.449125	0.447427
676.788324	0.450405
677.127473	0.455564
677.466571	0.455791
677.805619	0.456704
678.144616	0.458024
678.483562	0.459155
678.822458	0.462545
679.161303	0.463475
679.500098	0.463800
679.838842	0.465116
680.177535	0.465017
680.516179	0.463165
680.854771	0.462200
681.193314	0.455772
681.531805	0.446995
681.870247	0.435910
682.208638	0.427912
682.546978	0.427212
682.885268	0.428844
683.223508	0.435002
683.561697	0.438476
683.899836	0.441642
684.237925	0.445545
684.575963	0.447118
684.913951	0.450320
685.251889	0.446467
685.589776	0.448385
685.927614	0.450832
686.265401	0.444970
686.603137	0.446183
686.940824	0.440974
687.278460	0.438613
687.616046	0.437782
687.953582	0.432755
688.291068	0.434044
688.628504	0.430209
688.965889	0.432125
689.303224	0.436767
689.640510	0.440340
689.977745	0.445934
690.314930	0.453940
690.652065	0.458551
690.989150	0.466250
691.326185	0.472462
691.663170	0.476940
692.000105	0.484095
692.336990	0.490871
692.673825	0.493508
693.010610	0.500720
693.347345	0.506217
693.684030	0.508055
694.020665	0.512972
694.357251	0.521188
694.693786	0.520872
695.030272	0.524686
695.366707	0.528477
695.703093	0.531869
696.039429	0.530053
696.375716	0.531713
696.711952	0.534017
697.048139	0.535752
697.384276	0.537883
697.720363	0.536141
698.056400	0.535680
698.392388	0.541084
698.728326	0.543794
699.064214	0.546277
699.400053	0.547393
699.735842	0.550881
700.071581	0.553740
700.407270	0.557323
700.742910	0.559263
701.078501	0.565783
701.414042	0.565976
701.749533	0.569279
702.084974	0.577810
702.420366	0.570207
702.755709	0.577608
703.091002	0.585645
703.426246	0.578666
703.761440	0.584666
704.096584	0.589623
704.431679	0.586100
704.766725	0.589153
705.101721	0.590226
705.436668	0.586437
705.771565	0.593877
706.106413	0.590277
706.441212	0.585648
706.775961	0.583950
707.110661	0.586950
707.445311	0.583628
707.779913	0.581355
708.114465	0.579084
708.448967	0.576020
708.783421	0.567311
709.117825	0.562936
709.452180	0.562744
709.786485	0.556598
710.120742	0.545929
710.454949	0.548352
710.789107	0.540607
711.123216	0.531692
711.457275	0.533725
711.791286	0.523681
712.125247	0.522873
712.459159	0.533248
712.793023	0.526134
713.126837	0.530038
713.460602	0.531428
713.794318	0.540037
714.127985	0.539008
714.461602	0.549013
714.795171	0.552723
715.128691	0.560184
715.462162	0.567373
715.795584	0.572707
716.128957	0.576347
716.462281	0.582478
716.795556	0.586302
717.128782	0.591426
717.461960	0.601475
717.795088	0.599201
718.128167	0.605479
718.461198	0.614198
718.794180	0.614725
719.127113	0.617685
719.459997	0.620767
719.792833	0.627256
720.125619	0.628412
720.458357	0.633824
720.791046	0.634626
721.123686	0.637506
721.456278	0.644907
721.788821	0.641931
722.121315	0.645692
722.453761	0.649406
722.786158	0.647635
723.118506	0.643814
723.450805	0.652658
723.783056	0.648664
724.115259	0.645796
724.447412	0.645420
724.779518	0.646841
725.111574	0.644709
725.443582	0.640684
725.775542	0.642983
726.107453	0.634937
726.439315	0.634945
726.771129	0.633738
727.102895	0.627404
727.434612	0.619929
727.766281	0.617445
728.097901	0.617648
728.429473	0.616621
728.760996	0.615084
729.092471	0.615097
729.423897	0.618160
729.755276	0.617957
730.086606	0.618628
730.417887	0.612550
730.749120	0.603675
731.080305	0.594016
731.411442	0.590633
731.742530	0.595668
732.073570	0.594778
732.404562	0.586938
732.735506	0.589063
733.066401	0.593220
733.397249	0.602079
733.728048	0.614163
734.058798	0.626045
734.389501	0.637438
734.720156	0.646568
735.050762	0.654341
735.381320	0.655336
735.711831	0.665019
736.042293	0.669468
736.372707	0.665595
736.703073	0.670729
737.033391	0.672212
737.363661	0.668777
737.693883	0.664273
738.024056	0.663497
738.354182	0.664174
738.684260	0.653398
739.014290	0.648850
739.344272	0.649087
739.674207	0.643184
740.004093	0.642218
740.333931	0.643125
740.663722	0.643719
740.993464	0.643561
741.323159	0.647433
741.652806	0.652334
741.982405	0.657190
742.311956	0.662307
742.641460	0.664101
742.970915	0.667233
743.300323	0.675443
743.629683	0.682334
743.958996	0.683647
744.288260	0.687840
744.617477	0.694238
744.946647	0.695978
745.275768	0.700753
745.604842	0.700824
745.933869	0.710832
746.262847	0.711386
746.591778	0.704655
746.920662	0.711107
747.249498	0.717218
747.578286	0.707681
747.907027	0.704189
748.235720	0.705714
748.564365	0.699792
748.892963	0.700137
749.221514	0.703020
749.550017	0.708661
749.878473	0.707973
750.206881	0.713907
750.535242	0.715337
750.863555	0.715035
751.191821	0.716104
751.520039	0.719320
751.848210	0.724653
752.176334	0.716344
752.504411	0.716288
752.832440	0.724075
753.160421	0.728203
753.488356	0.726578
753.816243	0.723603
754.144082	0.733286
754.471875	0.735861
754.799620	0.732400
755.127318	0.732366
755.454969	0.731955
755.782572	0.732138
756.110129	0.736138
756.437638	0.739119
756.765100	0.735421
757.092515	0.733690
757.419882	0.732733
757.747203	0.738609
758.074477	0.737509
758.401703	0.735102
758.728882	0.729070
759.056014	0.728329
759.383099	0.727415
759.710138	0.728874
760.037129	0.725381
760.364073	0.719641
760.690970	0.721986
761.017820	0.727268
761.344623	0.723291
761.671379	0.713927
761.998088	0.702045
762.324751	0.679660
762.651366	0.638125
762.977935	0.570300
763.304456	0.518868
763.630931	0.509852
763.957359	0.548754
764.283740	0.592819
764.610074	0.619898
764.936362	0.650565
765.262602	0.677970
765.588796	0.699993
765.914943	0.716398
766.241044	0.735119
766.567097	0.741695
766.893104	0.751064
767.219064	0.757506
767.544978	0.764833
767.870845	0.777836
768.196665	0.780762
768.522438	0.779288
768.848165	0.780796
769.173846	0.789324
769.499479	0.793675
769.825066	0.797236
770.150607	0.802734
770.476101	0.797719
770.801548	0.798416
771.126949	0.810103
771.452303	0.814457
771.777611	0.813168
772.102872	0.812740
772.428087	0.818138
772.753256	0.821423
773.078378	0.822350
773.403453	0.832140
773.728482	0.835591
774.053465	0.829366
774.378401	0.833605
774.703291	0.841644
775.028135	0.842228
775.352932	0.843280
775.677683	0.845677
776.002388	0.846919
776.327046	0.844691
776.651658	0.848589
776.976224	0.852456
777.300743	0.852887
777.625216	0.855380
777.949643	0.856734
778.274024	0.858041
778.598359	0.858696
778.922647	0.857291
779.246889	0.857968
779.571086	0.862312
779.895236	0.864039
780.219339	0.860729
780.543397	0.858267
780.867409	0.856199
781.191374	0.858970
781.515294	0.859809
781.839167	0.860264
782.162995	0.862117
782.486776	0.858505
782.810511	0.860584
783.134201	0.863892
783.457844	0.861184
783.781441	0.863566
784.104993	0.870055
784.428498	0.870690
784.751958	0.865791
785.075372	0.869025
785.398739	0.872759
785.722061	0.868400
786.045337	0.864919
786.368568	0.869415
786.691752	0.871053
787.014891	0.857961
787.337983	0.848500
787.661030	0.840477
787.984031	0.823743
788.306987	0.810685
788.629897	0.812417
788.952760	0.817241
789.275579	0.820921
789.598351	0.836107
789.921078	0.849520
790.243759	0.852080
790.566395	0.855762
790.888984	0.863844
791.211529	0.868102
791.534027	0.872221
791.856480	0.874760
792.178888	0.878837
792.501249	0.880884
792.823566	0.882693
793.145836	0.881637
793.468062	0.885580
793.790241	0.885460
794.112375	0.883439
794.434464	0.878379
794.756507	0.877590
795.078505	0.878243
795.400457	0.872602
795.722364	0.859885
796.044226	0.853000
796.366042	0.851911
796.687812	0.855876
797.009538	0.851666
797.331218	0.854374
797.652852	0.859183
797.974442	0.864135
798.295986	0.863389
798.617484	0.866480
798.938938	0.870637
799.260346	0.875436
799.581709	0.877319
799.903026	0.879994
800.224299	0.881208
800.545526	0.883935
800.866708	0.888833
801.187845	0.892869
801.508936	0.891713
801.829983	0.889400
802.150984	0.892875
802.471940	0.897123
802.792851	0.896530
803.113717	0.898255
803.434538	0.895288
803.755314	0.898301
804.076045	0.899922
804.396731	0.900011
804.717372	0.899575
805.037967	0.901838
805.358518	0.898938
805.679024	0.897858
805.999485	0.895933
806.319901	0.896189
806.640272	0.897833
806.960598	0.896722
807.280879	0.893499
807.601115	0.891803
807.921306	0.895822
808.241453	0.896054
808.561554	0.894549
808.881611	0.894459
809.201623	0.896128
809.521590	0.896057
809.841513	0.897341
810.161390	0.896013
810.481223	0.898147
810.801011	0.900651
811.120755	0.903379
811.440453	0.901017
811.760107	0.900982
812.079716	0.900130
812.399281	0.903686
812.718801	0.906693
813.038276	0.907230
813.357707	0.906281
813.677093	0.903328
813.996434	0.906705
814.315731	0.907942
814.634983	0.909264
814.954191	0.907850
815.273354	0.904935
815.592473	0.900308
815.911547	0.901638
816.230577	0.898835
816.549562	0.896244
816.868502	0.897151
817.187399	0.893911
817.506250	0.887945
817.825058	0.890250
818.143821	0.886414
818.462539	0.881009
818.781213	0.873573
819.099843	0.861509
819.418429	0.846731
819.736970	0.829678
820.055466	0.809963
820.373919	0.784936
820.692327	0.751874
821.010691	0.716622
821.329011	0.639301
821.647286	0.524419
821.965517	0.410308
822.283704	0.367613
822.601847	0.368972
822.919945	0.404293
823.237999	0.438224
823.556010	0.485438
823.873976	0.540501
824.191897	0.590692
824.509775	0.633869
824.827609	0.679040
825.145398	0.701929
825.463144	0.705160
825.780845	0.687247
826.098502	0.669002
826.416116	0.623007
826.733685	0.578873
827.051210	0.570429
827.368692	0.585397
827.686129	0.622001
828.003522	0.675878
828.320872	0.723592
828.638177	0.767404
828.955439	0.800106
829.272656	0.822265
829.589830	0.838941
829.906960	0.854873
830.224046	0.866183
830.541088	0.876956
830.858086	0.881673
831.175041	0.887577
831.491952	0.887254
831.808819	0.883521
832.125642	0.876607
832.442421	0.862262
832.759157	0.840285
833.075849	0.793165
833.392497	0.730214
833.709101	0.689634
834.025662	0.699088
834.342179	0.730089
834.658653	0.769874
834.975083	0.806301
835.291469	0.832744
835.607811	0.854899
835.924110	0.870317
836.240366	0.888032
836.556578	0.901272
836.872746	0.908883
837.188871	0.915920
837.504952	0.920425
837.820990	0.923349
838.136984	0.927445
838.452935	0.930621
838.768842	0.931842
839.084706	0.925835
839.400526	0.899847
839.716303	0.858892
840.032037	0.836638
840.347727	0.841214
840.663373	0.858001
840.978977	0.879774
841.294537	0.903224
841.610054	0.918853
841.925527	0.925325
842.240957	0.933367
842.556344	0.940518
842.871687	0.946049
843.186987	0.951189
843.502244	0.950184
843.817458	0.952384
844.132629	0.955785
844.447756	0.961028
844.762840	0.961203
845.077881	0.960011
845.392879	0.960008
845.707833	0.963204
846.022745	0.965353
846.337613	0.966003
846.652438	0.965896
846.967221	0.964196
847.281960	0.964715
847.596656	0.968343
847.911309	0.966192
848.225919	0.967597
848.540485	0.968574
848.855009	0.968925
849.169490	0.969170
849.483928	0.969812
849.798323	0.969604
850.112675	0.970363
850.426984	0.971434
850.741251	0.970714
851.055474	0.969831
851.369654	0.968416
851.683792	0.969523
851.997887	0.970240
852.311938	0.970627
852.625947	0.969273
852.939914	0.967764
853.253837	0.968961
853.567718	0.971723
853.881555	0.970989
854.195350	0.968551
854.509103	0.969328
854.822812	0.970825
855.136479	0.970093
855.450103	0.970049
855.763685	0.969194
856.077224	0.968862
856.390720	0.970996
856.704173	0.970257
857.017584	0.968371
857.330953	0.966250
857.644278	0.968294
857.957561	0.968320
858.270802	0.969226
858.584000	0.967483
858.897155	0.967638
859.210268	0.967513
859.523339	0.969145
859.836367	0.970952
860.149352	0.971043
860.462295	0.968513
860.775195	0.969986
861.088054	0.969595
861.400869	0.968415
861.713642	0.970246
862.026373	0.970380
862.339062	0.970505
862.651708	0.968933
862.964312	0.968113
863.276873	0.969694
863.589392	0.968272
863.901869	0.967297
864.214303	0.964761
864.526696	0.964477
864.839045	0.962869
865.151353	0.962395
865.463619	0.962867
865.775842	0.962501
866.088023	0.961390
866.400162	0.962896
866.712258	0.963006
867.024313	0.963149
867.336325	0.964240
867.648296	0.963402
867.960224	0.962401
868.272110	0.961283
868.583954	0.964098
868.895755	0.963968
869.207515	0.961772
869.519233	0.960211
869.830909	0.961205
870.142542	0.962362
870.454134	0.961850
870.765684	0.961002
871.077191	0.957562
871.388657	0.958612
871.700081	0.959467
872.011463	0.959283
872.322803	0.957731
872.634101	0.956500
872.945357	0.954977
873.256571	0.953450
873.567744	0.953135
873.878874	0.954381
874.189963	0.952740
874.501010	0.951447
874.812015	0.949585
875.122979	0.951558
875.433900	0.953673
875.744780	0.954122
876.055618	0.952217
876.366415	0.949414
876.677169	0.949950
876.987882	0.951508
877.298554	0.951346
877.609183	0.948097
877.919771	0.944649
878.230317	0.943693
878.540822	0.940125
878.851285	0.935592
879.161707	0.927980
879.472087	0.915309
879.782425	0.899714
880.092722	0.865036
880.402977	0.813136
880.713191	0.752607
881.023363	0.693866
881.333494	0.660688
881.643583	0.631769
881.953631	0.631152
882.263637	0.660189
882.573602	0.699384
882.883526	0.725181
883.193408	0.747769
883.503248	0.771706
883.813048	0.798881
884.122806	0.827860
884.432522	0.851917
884.742197	0.870929
885.051831	0.881362
885.361424	0.890692
885.670975	0.903606
885.980485	0.913919
886.289954	0.919449
886.599382	0.924266
886.908768	0.929050
887.218113	0.934021
887.527417	0.939347
887.836680	0.942068
888.145901	0.943787
888.455082	0.946914
888.764221	0.951458
889.073319	0.953093
889.382376	0.952664
889.691392	0.953390
890.000366	0.953086
890.309300	0.954325
890.618193	0.953365
890.927044	0.952415
891.235855	0.951709
891.544625	0.951959
891.853353	0.952270
892.162041	0.949616
892.470687	0.942033
892.779293	0.938237
893.087858	0.935047
893.396381	0.926462
893.704864	0.913046
894.013306	0.890166
894.321707	0.863490
894.630068	0.847988
894.938387	0.844606
895.246665	0.844338
895.554903	0.857684
895.863100	0.871258
896.171256	0.887490
896.479371	0.907130
896.787446	0.918945
897.095480	0.925762
897.403473	0.928790
897.711425	0.932784
898.019336	0.941069
898.327207	0.943067
898.635038	0.946226
898.942827	0.944866
899.250576	0.948508
899.558284	0.952444
899.865952	0.954647
900.173579	0.954690
900.481165	0.955333
900.788711	0.961462
901.096216	0.961273
901.403681	0.962046
901.711105	0.963856
902.018489	0.964115
902.325832	0.962874
902.633135	0.961470
902.940397	0.956304
903.247619	0.943050
903.554800	0.918306
903.861941	0.878551
904.169041	0.844367
904.476101	0.826874
904.783121	0.827181
905.090100	0.843614
905.397039	0.865183
905.703938	0.886864
906.010796	0.907426
906.317614	0.924060
906.624391	0.935582
906.931129	0.944108
907.237826	0.951788
907.544483	0.959462
907.851099	0.962800
908.157675	0.967566
908.464211	0.969724
908.770707	0.972760
909.077163	0.975172
909.383578	0.975988
909.689954	0.975394
909.996289	0.976322
910.302584	0.978093
910.608839	0.980087
910.915054	0.978872
911.221229	0.977968
911.527363	0.977286
911.833458	0.977430
912.139513	0.977331
912.445527	0.975074
912.751502	0.974839
913.057436	0.972659
913.363331	0.971530
913.669186	0.966699
913.975000	0.961835
914.280775	0.955723
914.586510	0.949062
914.892205	0.935601
915.197859	0.914183
915.503475	0.887246
915.809050	0.867430
916.114585	0.862579
916.420081	0.859822
916.725536	0.855641
917.030952	0.864420
917.336328	0.877295
917.641665	0.891831
917.946961	0.907883
918.252218	0.918769
918.557435	0.928355
918.862612	0.936581
919.167750	0.942726
919.472848	0.947215
919.777906	0.952460
920.082925	0.959080
920.387904	0.962725
920.692843	0.964081
920.997743	0.964659
921.302603	0.968176
921.607423	0.968489
921.912204	0.971644
922.216946	0.972863
922.521647	0.973896
922.826310	0.974791
923.130932	0.977083
923.435516	0.978637
923.740059	0.979690
924.044564	0.978866
924.349028	0.981469
924.653454	0.981040
924.957840	0.985424
925.262186	0.983932
925.566493	0.984358
925.870761	0.985347
926.174989	0.986006
926.479178	0.987240
926.783328	0.987402
927.087438	0.988000
927.391509	0.987947
927.695541	0.989176
927.999533	0.989369
928.303486	0.989059
928.607400	0.990093
928.911275	0.989105
929.215110	0.990804
929.518906	0.990991
929.822663	0.989112
930.126381	0.990744
930.430060	0.990266
930.733699	0.989475
931.037299	0.990271
931.340861	0.990907
931.644383	0.990088
931.947866	0.990328
932.251309	0.991070
932.554714	0.990820
932.858080	0.990281
933.161407	0.990343
933.464694	0.991872
933.767943	0.989759
934.071153	0.990549
934.374323	0.992069
934.677455	0.991198
934.980548	0.992166
935.283602	0.991055
935.586617	0.992013
935.889593	0.990889
936.192530	0.990223
936.495428	0.990092
936.798287	0.991077
937.101108	0.990084
937.403890	0.987940
937.706632	0.989394
938.009336	0.986666
938.312002	0.985874
938.614628	0.983630
938.917216	0.983808
939.219765	0.980928
939.522275	0.984003
939.824747	0.983354
940.127179	0.983483
940.429573	0.985069
940.731929	0.984958
941.034246	0.984166
941.336524	0.986222
941.638763	0.986674
941.940964	0.987539
942.243126	0.985805
942.545250	0.988145
942.847335	0.989130
943.149381	0.987839
943.451389	0.987593
943.753359	0.988056
944.055290	0.991052
944.357182	0.988703
944.659036	0.988535
944.960851	0.990198
945.262628	0.990448
945.564367	0.989490
945.866067	0.990026
946.167729	0.990813
946.469352	0.989859
946.770937	0.988135
947.072484	0.990642
947.373992	0.989881
947.675462	0.990262
947.976893	0.989568
948.278286	0.990951
948.579641	0.991841
948.880958	0.990642
949.182236	0.990722
949.483476	0.991931
949.784678	0.991617
950.085841	0.991952
950.386967	0.990967
950.688054	0.990365
950.989103	0.991369
951.290114	0.988751
951.591087	0.989146
951.892021	0.989871
952.192917	0.989180
952.493776	0.988317
952.794596	0.988523
953.095378	0.988058
953.396122	0.987689
953.696828	0.987172
953.997496	0.989809
954.298126	0.990179
954.598718	0.990244
954.899272	0.991478
955.199788	0.990771
955.500266	0.992290
955.800706	0.993730
956.101108	0.993563
956.401472	0.993847
956.701798	0.994693
957.002087	0.993829
957.302337	0.993925
957.602550	0.994489
957.902724	0.995248
958.202861	0.995751
958.502960	0.995455
958.803022	0.994033
959.103045	0.996488
959.403031	0.996608
959.702979	0.995294
960.002889	0.996592
960.302762	0.994215
960.602596	0.995958
960.902393	0.995841
961.202153	0.997216
961.501875	0.997109
961.801559	0.994437
962.101205	0.995354
962.400814	0.996284
962.700385	0.996346
962.999918	0.995665
963.299414	0.995624
963.598873	0.995876
963.898293	0.997251
964.197677	0.996560
964.497022	0.996897
964.796331	0.998329
965.095601	0.997182
965.394835	0.996829
965.694030	0.996122
965.993189	0.996634
966.292309	0.996366
966.591393	0.997874
966.890439	0.997292
967.189447	0.997211
967.488419	0.997172
967.787353	0.996152
968.086249	0.997084
968.385108	0.996887
968.683930	0.998199
968.982714	0.997422
969.281462	0.997543
969.580172	0.997030
969.878844	0.996605
970.177480	0.996826
970.476078	0.997188
970.774639	0.997723
971.073162	0.997547
971.371649	0.996569
971.670098	0.996676
971.968510	0.997005
972.266885	0.995908
972.565223	0.996916
972.863524	0.995869
973.161788	0.996284
973.460014	0.997925
973.758204	0.995889
974.056356	0.996871
974.354471	0.994200
974.652550	0.996572
974.950591	0.996840
975.248595	0.997082
975.546563	0.996990
975.844493	0.998446
976.142386	0.996792
976.440243	0.997798
976.738062	0.997740
977.035845	0.998301
977.333590	0.996580
977.631299	0.998641
977.928971	0.997024
978.226606	0.995704
978.524204	0.995936
978.821765	0.998140
979.119290	0.995799
979.416777	0.997407
979.714228	0.997884
980.011642	0.995273
980.309020	0.997400
980.606360	0.998317
980.903664	0.997762
981.200931	0.996965
981.498162	0.995858
981.795356	0.995309
982.092513	0.993853
982.389633	0.994674
982.686717	0.992083
982.983764	0.991926
983.280775	0.990591
983.577749	0.990416
983.874686	0.991578
984.171587	0.991857
984.468451	0.995359
984.765279	0.995082
985.062070	0.994345
985.358824	0.996525
985.655543	0.995902
985.952224	0.996008
986.248869	0.996800
986.545478	0.995713
986.842050	0.999131
987.138586	0.996279
987.435086	0.996151
987.731549	0.997900
988.027975	0.997836
988.324366	0.997827
988.620719	0.998125
988.917037	0.995106
989.213318	0.998254
989.509563	0.999871
989.805772	0.998816
990.101944	0.998427
990.398080	0.997279
990.694180	0.998724
990.990244	0.997167
991.286271	0.998403
991.582262	0.997030
991.878217	0.997701
992.174136	0.998377
992.470019	0.998303
992.765865	0.997480
993.061676	0.998690
993.357450	0.997763
993.653188	0.997302
993.948890	0.998733
994.244556	0.997638
994.540186	0.997839
994.835780	0.996609
995.131337	0.997071
995.426859	0.996958
995.722345	0.998131
996.017795	0.996798
996.313208	0.996926
996.608586	0.995951
996.903928	0.997165
997.199234	0.996630
997.494504	0.996071
997.789738	0.996048
998.084936	0.996938
998.380099	0.998538
998.675225	0.997155
998.970316	0.998622
999.265371	0.999166
999.560390	0.997314
999.855373	0.998194
1000.150320	0.998404
1000.445232	0.998942
1000.740108	0.997146
1001.034948	0.998991
1001.329752	0.998507
1001.624521	0.998523
1001.919254	0.998811
1002.213951	0.997101
1002.508613	0.997725
1002.803239	1.000544
1003.097829	0.997829
1003.392384	1.000353
1003.686903	1.000051
1003.981386	0.998429
1004.275834	0.999237
1004.570246	0.999343
1004.864623	0.998857
1005.158964	0.999261
1005.453270	0.998981
1005.747540	0.996853
1006.041775	0.999013
1006.335974	0.999889
1006.630138	0.999949
1006.924266	0.999306
1007.218359	1.001652
1007.512416	1.000638
1007.806438	0.999834
1008.100425	0.999813
1008.394376	0.999530
1008.688292	0.998559
1008.982172	1.001856
1009.276017	0.999453
1009.569827	0.998543
1009.863602	0.998033
1010.157341	0.999828
1010.451045	0.999205
1010.744714	0.998458
1011.038347	0.999193
1011.331945	0.998751
1011.625508	0.998455
1011.919036	0.999407
1012.212528	0.998393
1012.505986	0.996811
1012.799408	0.999767
1013.092795	1.000925
1013.386147	0.998310
1013.679464	0.999462
1013.972745	0.997797
1014.265992	0.998660
1014.559204	0.999752
1014.852380	0.999622
1015.145521	0.998832
1015.438628	1.000617
1015.731699	0.998489
1016.024736	0.999176
1016.317737	0.998459
1016.610703	0.998963
1016.903635	0.998982
1017.196531	0.999158
1017.489393	0.998751
1017.782219	0.999189
1018.075011	0.999058
1018.367768	0.999727
1018.660490	1.000041
1018.953177	1.000041
1019.245829	1.000041
