Dividing Wavelength (nm)	Counts (n)	Blue Motor Position (mm): 0.000000	Red Motor Position (mm): 29.000000	
326.493990	1.000308
326.888308	1.000308
327.282561	1.000308
327.676750	0.999715
328.070874	0.999761
328.464933	0.999582
328.858929	0.999301
329.252859	0.998380
329.646726	0.999555
330.040528	0.999697
330.434265	0.998578
330.827938	0.999979
331.221547	1.000230
331.615091	0.999557
332.008571	0.999157
332.401986	0.999828
332.795338	1.000829
333.188625	0.997710
333.581847	0.999374
333.975006	0.998504
334.368100	0.999629
334.761129	0.998606
335.154095	1.000494
335.546996	0.998804
335.939833	0.993040
336.332606	0.994234
336.725315	0.993790
337.117960	0.996004
337.510540	0.994779
337.903056	0.996265
338.295508	0.993665
338.687896	0.994929
339.080220	0.995280
339.472480	0.994854
339.864676	0.994975
340.256807	0.995787
340.648875	0.995650
341.040879	0.994801
341.432818	0.994549
341.824694	0.994458
342.216506	0.996291
342.608253	0.994153
342.999937	0.994362
343.391557	0.995333
343.783113	0.994460
344.174605	0.994205
344.566033	0.996816
344.957397	0.993558
345.348697	0.994570
345.739934	0.994866
346.131106	0.993916
346.522215	0.994926
346.913260	0.993922
347.304241	0.994254
347.695159	0.994022
348.086012	0.993090
348.476802	0.995071
348.867528	0.994095
349.258191	0.995336
349.648789	0.994903
350.039324	0.994975
350.429796	0.994850
350.820203	0.995984
351.210548	0.995007
351.600828	0.995735
351.991045	0.993111
352.381198	0.993858
352.771288	0.995022
353.161314	0.994425
353.551276	0.995204
353.941175	0.994805
354.331010	0.994361
354.720782	0.995081
355.110490	0.995239
355.500135	0.994872
355.889717	0.996300
356.279235	0.994239
356.668689	0.994274
357.058080	0.995254
357.447408	0.996712
357.836672	0.996115
358.225873	0.994954
358.615010	0.995284
359.004084	0.995374
359.393095	0.995283
359.782043	0.995338
360.170927	0.995700
360.559748	0.996847
360.948505	0.994572
361.337199	0.995819
361.725830	0.995359
362.114398	0.994984
362.502903	0.994529
362.891344	0.995956
363.279722	0.993666
363.668037	0.995081
364.056289	0.995255
364.444478	0.994935
364.832603	0.996123
365.220665	0.994773
365.608665	0.995952
365.996601	0.994227
366.384474	0.995642
366.772284	0.996445
367.160031	0.992968
367.547715	0.993768
367.935336	0.995062
368.322893	0.994065
368.710388	0.993918
369.097820	0.994938
369.485189	0.995045
369.872495	0.993882
370.259738	0.993472
370.646918	0.995862
371.034035	0.996002
371.421090	0.994177
371.808081	0.994230
372.195010	0.995719
372.581875	0.995531
372.968678	0.995901
373.355418	0.995268
373.742096	0.994533
374.128710	0.996736
374.515262	0.994919
374.901751	0.994744
375.288177	0.995313
375.674540	0.996072
376.060841	0.995258
376.447079	0.996041
376.833254	0.995297
377.219367	0.994484
377.605417	0.996636
377.991404	0.996089
378.377329	0.994326
378.763191	0.995562
379.148991	0.996040
379.534727	0.995774
379.920402	0.995825
380.306013	0.995807
380.691563	0.997759
381.077049	0.995802
381.462474	0.996346
381.847835	0.995915
382.233134	0.996105
382.618371	0.996210
383.003545	0.996833
383.388657	0.996063
383.773706	0.996880
384.158693	0.996248
384.543618	0.995634
384.928480	0.997208
385.313280	0.996790
385.698017	0.997862
386.082692	0.997243
386.467305	0.996432
386.851856	0.996133
387.236344	0.995690
387.620770	0.995852
388.005133	0.996711
388.389435	0.998088
388.773674	0.996151
389.157851	0.996863
389.541965	0.997220
389.926018	0.996401
390.310008	0.997826
390.693936	0.996650
391.077802	0.997161
391.461606	0.996564
391.845348	0.997545
392.229027	0.998403
392.612645	0.997062
392.996200	0.997595
393.379694	0.996550
393.763125	0.997448
394.146494	0.997236
394.529801	0.997833
394.913047	0.996793
395.296230	0.997312
395.679351	0.996409
396.062410	0.997130
396.445408	0.997155
396.828343	0.996281
397.211217	0.997337
397.594028	0.997229
397.976778	0.996988
398.359466	0.997525
398.742092	0.996837
399.124656	0.997043
399.507158	0.997278
399.889598	0.997530
400.271977	0.997186
400.654294	0.997901
401.036549	0.997500
401.418742	0.997259
401.800874	0.996672
402.182944	0.997477
402.564952	0.996984
402.946898	0.997941
403.328783	0.997989
403.710606	0.996977
404.092367	0.997512
404.474067	0.997808
404.855705	0.996795
405.237282	0.997474
405.618797	0.997940
406.000250	0.997196
406.381642	0.997806
406.762972	0.997958
407.144240	0.997695
407.525447	0.997516
407.906593	0.997407
408.287677	0.997228
408.668700	0.997672
409.049661	0.996351
409.430560	0.997935
409.811399	0.997607
410.192176	0.997671
410.572891	0.996896
410.953545	0.997201
411.334138	0.996073
411.714669	0.997598
412.095139	0.997054
412.475547	0.999198
412.855894	0.997433
413.236180	0.997857
413.616405	0.998217
413.996568	0.998194
414.376670	0.997836
414.756711	0.997047
415.136691	0.998018
415.516609	0.998605
415.896466	0.997525
416.276262	0.996463
416.655997	0.998221
417.035670	0.997462
417.415283	0.998097
417.794834	0.997528
418.174324	0.997462
418.553753	0.998939
418.933121	0.997726
419.312428	0.997917
419.691674	0.998199
420.070859	0.998256
420.449983	0.997904
420.829045	0.998161
421.208047	0.999032
421.586988	0.998918
421.965867	0.998547
422.344686	0.999042
422.723444	0.997634
423.102141	0.998014
423.480777	0.998582
423.859352	0.997595
424.237866	0.997936
424.616319	0.998857
424.994712	0.998572
425.373044	0.998335
425.751314	0.998766
426.129524	0.998216
426.507673	0.998212
426.885762	0.998557
427.263789	0.997997
427.641756	0.998579
428.019662	0.998946
428.397508	0.997596
428.775292	0.997424
429.153016	0.997934
429.530679	0.998071
429.908282	0.998896
430.285824	0.997941
430.663305	0.998267
431.040726	0.997882
431.418086	0.998812
431.795385	0.998804
432.172624	0.997407
432.549802	0.998813
432.926920	0.998977
433.303977	0.997681
433.680974	0.998622
434.057910	0.998338
434.434786	0.998390
434.811601	0.998084
435.188355	0.997809
435.565050	0.997666
435.941683	0.998315
436.318257	0.999488
436.694770	0.997511
437.071222	0.998169
437.447614	0.997897
437.823946	0.998881
438.200218	0.998301
438.576429	0.998549
438.952580	0.997879
439.328670	0.997212
439.704700	0.998074
440.080670	0.998755
440.456580	0.997911
440.832429	0.997085
441.208218	0.998557
441.583947	0.998406
441.959616	0.998635
442.335224	0.997794
442.710773	0.998628
443.086261	0.997535
443.461689	0.997407
443.837057	0.997252
444.212365	0.998173
444.587612	0.997820
444.962800	0.998374
445.337927	0.997558
445.712995	0.998572
446.088002	0.999141
446.462949	0.998112
446.837837	0.998208
447.212664	0.998829
447.587431	0.998130
447.962139	0.997154
448.336786	0.998140
448.711374	0.998014
449.085901	0.997297
449.460369	0.998406
449.834776	0.997185
450.209124	0.997651
450.583412	0.997444
450.957640	0.997236
451.331808	0.997588
451.705917	0.997395
452.079965	0.996569
452.453954	0.997365
452.827883	0.996569
453.201752	0.996806
453.575562	0.997987
453.949311	0.996077
454.323001	0.996136
454.696632	0.996423
455.070202	0.996231
455.443713	0.994699
455.817164	0.995855
456.190556	0.994982
456.563888	0.994420
456.937160	0.994263
457.310373	0.993329
457.683526	0.992736
458.056619	0.992218
458.429653	0.992698
458.802628	0.991067
459.175542	0.990623
459.548398	0.989588
459.921194	0.988937
460.293930	0.988022
460.666607	0.985799
461.039224	0.984356
461.411782	0.983575
461.784280	0.982394
462.156719	0.982763
462.529099	0.981658
462.901419	0.979362
463.273680	0.979092
463.645882	0.977571
464.018024	0.977086
464.390106	0.974098
464.762130	0.973550
465.134094	0.969075
465.505999	0.964316
465.877845	0.960265
466.249631	0.958454
466.621358	0.957784
466.993026	0.956497
467.364634	0.955566
467.736184	0.954037
468.107674	0.951949
468.479105	0.947702
468.850477	0.947150
469.221790	0.944139
469.593043	0.942607
469.964238	0.939669
470.335373	0.936168
470.706449	0.932258
471.077467	0.928699
471.448425	0.920269
471.819324	0.913199
472.190164	0.910375
472.560945	0.910955
472.931667	0.908043
473.302330	0.904329
473.672934	0.902036
474.043479	0.895803
474.413965	0.892270
474.784393	0.886278
475.154761	0.880982
475.525070	0.875721
475.895321	0.871737
476.265513	0.865534
476.635645	0.860164
477.005719	0.853124
477.375734	0.847224
477.745691	0.840302
478.115588	0.832905
478.485427	0.825435
478.855207	0.815408
479.224928	0.802042
479.594591	0.793819
479.964194	0.788385
480.333739	0.784006
480.703226	0.775781
481.072653	0.768977
481.442022	0.758680
481.811333	0.749831
482.180584	0.745329
482.549777	0.737905
482.918912	0.732263
483.287988	0.724494
483.657005	0.717150
484.025964	0.712130
484.394864	0.703543
484.763706	0.696070
485.132489	0.690217
485.501213	0.681748
485.869879	0.674713
486.238487	0.667168
486.607036	0.659926
486.975527	0.652286
487.343959	0.643760
487.712333	0.634513
488.080648	0.628746
488.448905	0.619018
488.817104	0.613081
489.185244	0.602584
489.553326	0.592102
489.921350	0.579424
490.289315	0.561169
490.657222	0.551884
491.025070	0.544425
491.392861	0.538022
491.760593	0.534269
492.128267	0.529316
492.495883	0.524572
492.863440	0.520858
493.230939	0.516928
493.598380	0.510327
493.965763	0.503630
494.333088	0.499603
494.700354	0.492157
495.067563	0.485960
495.434713	0.480078
495.801805	0.472463
496.168839	0.466892
496.535815	0.460490
496.902733	0.455043
497.269593	0.448742
497.636395	0.442268
498.003139	0.434988
498.369825	0.432234
498.736453	0.422794
499.103023	0.419152
499.469535	0.412213
499.835989	0.407184
500.202385	0.402003
500.568723	0.398996
500.935003	0.390633
501.301226	0.387901
501.667390	0.379337
502.033497	0.372435
502.399546	0.370094
502.765537	0.366852
503.131470	0.360470
503.497345	0.352469
503.863163	0.355991
504.228923	0.345359
504.594625	0.340057
504.960269	0.340998
505.325856	0.332243
505.691385	0.332661
506.056856	0.325775
506.422270	0.321613
506.787625	0.320545
507.152924	0.314421
507.518164	0.311413
507.883347	0.309619
508.248472	0.308312
508.613540	0.300857
508.978550	0.300260
509.343503	0.297709
509.708398	0.292779
510.073236	0.287872
510.438016	0.285302
510.802738	0.283404
511.167403	0.280311
511.532010	0.279665
511.896561	0.273371
512.261053	0.270194
512.625488	0.269864
512.989866	0.268139
513.354186	0.266593
513.718449	0.266769
514.082655	0.261693
514.446803	0.262204
514.810894	0.258228
515.174927	0.259401
515.538904	0.257513
515.902822	0.253035
516.266684	0.254050
516.630488	0.253953
516.994235	0.251578
517.357925	0.249437
517.721558	0.246819
518.085133	0.245128
518.448651	0.244410
518.812112	0.245810
519.175516	0.244553
519.538863	0.241428
519.902152	0.242426
520.265385	0.238333
520.628560	0.239449
520.991678	0.239321
521.354739	0.237618
521.717743	0.238297
522.080690	0.238609
522.443580	0.235019
522.806413	0.235789
523.169189	0.234900
523.531908	0.233356
523.894569	0.236607
524.257174	0.235977
524.619722	0.233459
524.982213	0.234542
525.344647	0.232980
525.707025	0.233403
526.069345	0.231212
526.431608	0.232757
526.793815	0.230551
527.155964	0.234484
527.518057	0.233173
527.880093	0.234081
528.242072	0.232539
528.603995	0.234199
528.965860	0.235828
529.327669	0.234390
529.689421	0.235125
530.051117	0.235878
530.412755	0.233576
530.774337	0.235698
531.135862	0.235952
531.497331	0.235338
531.858743	0.237734
532.220098	0.234800
532.581396	0.237095
532.942638	0.237598
533.303824	0.238232
533.664953	0.237804
534.026025	0.239817
534.387040	0.237401
534.747999	0.237320
535.108902	0.236271
535.469748	0.240781
535.830537	0.238745
536.191270	0.239279
536.551947	0.238657
536.912567	0.238709
537.273131	0.240476
537.633638	0.240580
537.994089	0.240695
538.354483	0.241833
538.714821	0.238758
539.075103	0.238200
539.435328	0.239175
539.795497	0.242851
540.155609	0.239351
540.515665	0.237354
540.875665	0.243212
541.235609	0.241725
541.595496	0.241898
541.955328	0.238406
542.315102	0.241011
542.674821	0.242090
543.034483	0.241738
543.394090	0.241675
543.753640	0.243637
544.113134	0.238399
544.472571	0.241537
544.831953	0.238593
545.191278	0.242706
545.550548	0.241818
545.909761	0.238922
546.268918	0.239692
546.628019	0.238047
546.987064	0.240462
547.346053	0.242047
547.704986	0.240277
548.063863	0.240458
548.422684	0.240686
548.781449	0.242369
549.140158	0.240242
549.498811	0.243163
549.857408	0.246201
550.215949	0.240792
550.574434	0.243994
550.932864	0.241923
551.291237	0.240425
551.649555	0.242192
552.007817	0.241661
552.366022	0.242489
552.724173	0.242767
553.082267	0.242959
553.440305	0.240089
553.798288	0.244295
554.156215	0.240983
554.514086	0.241530
554.871902	0.244736
555.229661	0.244082
555.587365	0.244392
555.945014	0.246935
556.302606	0.243863
556.660143	0.246432
557.017625	0.242746
557.375050	0.245047
557.732421	0.242204
558.089735	0.244184
558.446994	0.244493
558.804197	0.243657
559.161345	0.243419
559.518437	0.246910
559.875474	0.244557
560.232455	0.243850
560.589381	0.245084
560.946251	0.245299
561.303065	0.242970
561.659825	0.244182
562.016528	0.245838
562.373177	0.248493
562.729770	0.245926
563.086307	0.247937
563.442789	0.245669
563.799216	0.248268
564.155587	0.247306
564.511904	0.248416
564.868164	0.248538
565.224370	0.248425
565.580520	0.250142
565.936615	0.249916
566.292654	0.252782
566.648638	0.249866
567.004567	0.250900
567.360441	0.251482
567.716260	0.253533
568.072023	0.251267
568.427732	0.251892
568.783385	0.254411
569.138982	0.252454
569.494525	0.251945
569.850013	0.255074
570.205445	0.253546
570.560823	0.256028
570.916145	0.258027
571.271412	0.256242
571.626625	0.257801
571.981782	0.258421
572.336884	0.258883
572.691931	0.258886
573.046923	0.259910
573.401860	0.261225
573.756743	0.262782
574.111570	0.261702
574.466342	0.262094
574.821059	0.261505
575.175722	0.264173
575.530330	0.263852
575.884882	0.264074
576.239380	0.266162
576.593823	0.266935
576.948211	0.265993
577.302544	0.269437
577.656823	0.268913
578.011047	0.269118
578.365216	0.269619
578.719330	0.271864
579.073389	0.271571
579.427394	0.273053
579.781344	0.273386
580.135239	0.274948
580.489080	0.274896
580.842866	0.277839
581.196597	0.277410
581.550273	0.276193
581.903895	0.277066
582.257463	0.275161
582.610975	0.278827
582.964434	0.278032
583.317837	0.280909
583.671186	0.280914
584.024481	0.281008
584.377721	0.283579
584.730906	0.284331
585.084037	0.283158
585.437113	0.284993
585.790135	0.284412
586.143103	0.287596
586.496016	0.288669
586.848874	0.286249
587.201679	0.286676
587.554428	0.290373
587.907124	0.289261
588.259765	0.289711
588.612352	0.289973
588.964884	0.293909
589.317362	0.293569
589.669786	0.293455
590.022155	0.292240
590.374470	0.291386
590.726731	0.293277
591.078937	0.298036
591.431090	0.294466
591.783188	0.298640
592.135232	0.298955
592.487222	0.299267
592.839157	0.297292
593.191038	0.299407
593.542866	0.301417
593.894639	0.305101
594.246358	0.303020
594.598022	0.302243
594.949633	0.306306
595.301190	0.306785
595.652692	0.305761
596.004141	0.302022
596.355535	0.310028
596.706876	0.310322
597.058162	0.313304
597.409395	0.310434
597.760573	0.308045
598.111698	0.311345
598.462768	0.312204
598.813785	0.313373
599.164748	0.314316
599.515657	0.314392
599.866511	0.317962
600.217312	0.313055
600.568060	0.318920
600.918753	0.315094
601.269392	0.315846
601.619978	0.319278
601.970510	0.316520
602.320988	0.317078
602.671412	0.314671
603.021783	0.317086
603.372100	0.318436
603.722363	0.318123
604.072572	0.319069
604.422728	0.319140
604.772830	0.320686
605.122878	0.320351
605.472872	0.320763
605.822813	0.319417
606.172701	0.322218
606.522534	0.319621
606.872314	0.319366
607.222041	0.320327
607.571714	0.318742
607.921333	0.320031
608.270899	0.319504
608.620411	0.316625
608.969870	0.320265
609.319276	0.320517
609.668627	0.320199
610.017926	0.318972
610.367171	0.317431
610.716362	0.317962
611.065500	0.318336
611.414585	0.316963
611.763616	0.317964
612.112594	0.318266
612.461518	0.317954
612.810389	0.315258
613.159207	0.317566
613.507971	0.319616
613.856682	0.315026
614.205340	0.316726
614.553945	0.313509
614.902496	0.317562
615.250994	0.315494
615.599439	0.316307
615.947830	0.315438
616.296169	0.316753
616.644454	0.316208
616.992686	0.316188
617.340864	0.313876
617.688990	0.317689
618.037063	0.314116
618.385082	0.315861
618.733048	0.312725
619.080961	0.315088
619.428821	0.314374
619.776628	0.314404
620.124382	0.316421
620.472083	0.316516
620.819731	0.315845
621.167326	0.319684
621.514868	0.319323
621.862357	0.323818
622.209793	0.323640
622.557176	0.325644
622.904506	0.326771
623.251783	0.328847
623.599007	0.331157
623.946179	0.331252
624.293297	0.332651
624.640363	0.336488
624.987376	0.336973
625.334336	0.339464
625.681243	0.341590
626.028097	0.342347
626.374899	0.343749
626.721647	0.343634
627.068343	0.347053
627.414987	0.348123
627.761577	0.350084
628.108115	0.348408
628.454600	0.353727
628.801032	0.350964
629.147412	0.353275
629.493739	0.353548
629.840014	0.356684
630.186236	0.354132
630.532405	0.359560
630.878521	0.356754
631.224585	0.359139
631.570597	0.362937
631.916556	0.360967
632.262462	0.361619
632.608316	0.363117
632.954117	0.364009
633.299866	0.364815
633.645562	0.365429
633.991206	0.369732
634.336797	0.372465
634.682336	0.374856
635.027823	0.376653
635.373257	0.377249
635.718639	0.380583
636.063968	0.380127
636.409245	0.385713
636.754470	0.386266
637.099642	0.388881
637.444762	0.391802
637.789829	0.390787
638.134845	0.394411
638.479808	0.395178
638.824719	0.395023
639.169577	0.399197
639.514383	0.398052
639.859137	0.402409
640.203839	0.402320
640.548489	0.403011
640.893086	0.404028
641.237632	0.405990
641.582125	0.403925
641.926566	0.405599
642.270955	0.405769
642.615292	0.405915
642.959576	0.405007
643.303809	0.405665
643.647990	0.405426
643.992118	0.406022
644.336195	0.409519
644.680219	0.407502
645.024192	0.408208
645.368112	0.402018
645.711981	0.401118
646.055797	0.396167
646.399562	0.398786
646.743274	0.391067
647.086935	0.388347
647.430544	0.388477
647.774101	0.387274
648.117606	0.387105
648.461059	0.387661
648.804460	0.390328
649.147810	0.395195
649.491108	0.397257
649.834354	0.398120
650.177548	0.403868
650.520690	0.408858
650.863781	0.410346
651.206820	0.409365
651.549807	0.414356
651.892742	0.417957
652.235626	0.417405
652.578458	0.418486
652.921238	0.424538
653.263967	0.422406
653.606644	0.426450
653.949269	0.426408
654.291843	0.430563
654.634365	0.426800
654.976836	0.429644
655.319255	0.429952
655.661622	0.432036
656.003938	0.431557
656.346203	0.435133
656.688416	0.432284
657.030577	0.436264
657.372687	0.437878
657.714746	0.438987
658.056753	0.436022
658.398708	0.439433
658.740612	0.440566
659.082465	0.436840
659.424266	0.436898
659.766016	0.436856
660.107715	0.439630
660.449362	0.438033
660.790958	0.438597
661.132503	0.439522
661.473996	0.437185
661.815438	0.438422
662.156829	0.438465
662.498168	0.438922
662.839456	0.440785
663.180693	0.438146
663.521879	0.438329
663.863013	0.439453
664.204097	0.437978
664.545129	0.434806
664.886110	0.434969
665.227040	0.432025
665.567918	0.434522
665.908746	0.433072
666.249522	0.432441
666.590248	0.433255
666.930922	0.431872
667.271545	0.430279
667.612118	0.430449
667.952639	0.431981
668.293109	0.430854
668.633528	0.433701
668.973896	0.433520
669.314213	0.434186
669.654480	0.435643
669.994695	0.436111
670.334859	0.436835
670.674973	0.437393
671.015035	0.437348
671.355047	0.436868
671.695008	0.438119
672.034918	0.440324
672.374777	0.439522
672.714585	0.440445
673.054342	0.440407
673.394049	0.440752
673.733705	0.438022
674.073310	0.439110
674.412864	0.442170
674.752368	0.442663
675.091820	0.443111
675.431223	0.447205
675.770574	0.447273
676.109875	0.450473
676.449125	0.450669
676.788324	0.452290
677.127473	0.458690
677.466571	0.457732
677.805619	0.459764
678.144616	0.460217
678.483562	0.462504
678.822458	0.464791
679.161303	0.465880
679.500098	0.465705
679.838842	0.468303
680.177535	0.467249
680.516179	0.466073
680.854771	0.464867
681.193314	0.458744
681.531805	0.450111
681.870247	0.437845
682.208638	0.430444
682.546978	0.429634
682.885268	0.431157
683.223508	0.437556
683.561697	0.441538
683.899836	0.443823
684.237925	0.447763
684.575963	0.450195
684.913951	0.453457
685.251889	0.448916
685.589776	0.451016
685.927614	0.453696
686.265401	0.447315
686.603137	0.448992
686.940824	0.442770
687.278460	0.441457
687.616046	0.440801
687.953582	0.435677
688.291068	0.436940
688.628504	0.432631
688.965889	0.434448
689.303224	0.439260
689.640510	0.443305
689.977745	0.448718
690.314930	0.456591
690.652065	0.460845
690.989150	0.468339
691.326185	0.475196
691.663170	0.479640
692.000105	0.486844
692.336990	0.493493
692.673825	0.496390
693.010610	0.503168
693.347345	0.508679
693.684030	0.509896
694.020665	0.514196
694.357251	0.523728
694.693786	0.522975
695.030272	0.527150
695.366707	0.530596
695.703093	0.533992
696.039429	0.531699
696.375716	0.533272
696.711952	0.536500
697.048139	0.537985
697.384276	0.540220
697.720363	0.538677
698.056400	0.537313
698.392388	0.543237
698.728326	0.545692
699.064214	0.548806
699.400053	0.549723
699.735842	0.553382
700.071581	0.556110
700.407270	0.559223
700.742910	0.560854
701.078501	0.567853
701.414042	0.567656
701.749533	0.571400
702.084974	0.580329
702.420366	0.572849
702.755709	0.580386
703.091002	0.587930
703.426246	0.581333
703.761440	0.586921
704.096584	0.591452
704.431679	0.589201
704.766725	0.590816
705.101721	0.592136
705.436668	0.588244
705.771565	0.596328
706.106413	0.592596
706.441212	0.587843
706.775961	0.586426
707.110661	0.589231
707.445311	0.585849
707.779913	0.582792
708.114465	0.581538
708.448967	0.577602
708.783421	0.570558
709.117825	0.564752
709.452180	0.564880
709.786485	0.558999
710.120742	0.548373
710.454949	0.550270
710.789107	0.542455
711.123216	0.533889
711.457275	0.535422
711.791286	0.526914
712.125247	0.524849
712.459159	0.536074
712.793023	0.528491
713.126837	0.533181
713.460602	0.533081
713.794318	0.542641
714.127985	0.540920
714.461602	0.551697
714.795171	0.554680
715.128691	0.562937
715.462162	0.570077
715.795584	0.575256
716.128957	0.577663
716.462281	0.585124
716.795556	0.588934
717.128782	0.593577
717.461960	0.603388
717.795088	0.600764
718.128167	0.607747
718.461198	0.615675
718.794180	0.616678
719.127113	0.619098
719.459997	0.623122
719.792833	0.629246
720.125619	0.631171
720.458357	0.636293
720.791046	0.635526
721.123686	0.639361
721.456278	0.646253
721.788821	0.643933
722.121315	0.648053
722.453761	0.651201
722.786158	0.650089
723.118506	0.646207
723.450805	0.654089
723.783056	0.650532
724.115259	0.646504
724.447412	0.646144
724.779518	0.647617
725.111574	0.647322
725.443582	0.643091
725.775542	0.644308
726.107453	0.637201
726.439315	0.637067
726.771129	0.635276
727.102895	0.629055
727.434612	0.622251
727.766281	0.620116
728.097901	0.619220
728.429473	0.618684
728.760996	0.617925
729.092471	0.617415
729.423897	0.621927
729.755276	0.620025
730.086606	0.620272
730.417887	0.614711
730.749120	0.605403
731.080305	0.596736
731.411442	0.592484
731.742530	0.598137
732.073570	0.597053
732.404562	0.589358
732.735506	0.590399
733.066401	0.595169
733.397249	0.604364
733.728048	0.615432
734.058798	0.627864
734.389501	0.638971
734.720156	0.648917
735.050762	0.656578
735.381320	0.657552
735.711831	0.666887
736.042293	0.671235
736.372707	0.666889
736.703073	0.671609
737.033391	0.673986
737.363661	0.670155
737.693883	0.666357
738.024056	0.664591
738.354182	0.665616
738.684260	0.655068
739.014290	0.651373
739.344272	0.651561
739.674207	0.644860
740.004093	0.644237
740.333931	0.645389
740.663722	0.645478
740.993464	0.645980
741.323159	0.648829
741.652806	0.654593
741.982405	0.658697
742.311956	0.663537
742.641460	0.665976
742.970915	0.669935
743.300323	0.676766
743.629683	0.683557
743.958996	0.685203
744.288260	0.690488
744.617477	0.694994
744.946647	0.697415
745.275768	0.702649
745.604842	0.702516
745.933869	0.712861
746.262847	0.713094
746.591778	0.705818
746.920662	0.713378
747.249498	0.719179
747.578286	0.709647
747.907027	0.706683
748.235720	0.707665
748.564365	0.702175
748.892963	0.701339
749.221514	0.704762
749.550017	0.710029
749.878473	0.709513
750.206881	0.716146
750.535242	0.717833
750.863555	0.717207
751.191821	0.718411
751.520039	0.721537
751.848210	0.726102
752.176334	0.718412
752.504411	0.717638
752.832440	0.725505
753.160421	0.730035
753.488356	0.728578
753.816243	0.725329
754.144082	0.734001
754.471875	0.737370
754.799620	0.733387
755.127318	0.734957
755.454969	0.733554
755.782572	0.733453
756.110129	0.738798
756.437638	0.740704
756.765100	0.737424
757.092515	0.735112
757.419882	0.735000
757.747203	0.739499
758.074477	0.738650
758.401703	0.736284
758.728882	0.731457
759.056014	0.730518
759.383099	0.729790
759.710138	0.730634
760.037129	0.726814
760.364073	0.721196
760.690970	0.723519
761.017820	0.729245
761.344623	0.724453
761.671379	0.714992
761.998088	0.703949
762.324751	0.681750
762.651366	0.640755
762.977935	0.573897
763.304456	0.522252
763.630931	0.512484
763.957359	0.551634
764.283740	0.596208
764.610074	0.622741
764.936362	0.653419
765.262602	0.679662
765.588796	0.701220
765.914943	0.718824
766.241044	0.737106
766.567097	0.743065
766.893104	0.753129
767.219064	0.759060
767.544978	0.765819
767.870845	0.778076
768.196665	0.783500
768.522438	0.780855
768.848165	0.782180
769.173846	0.790789
769.499479	0.795333
769.825066	0.798972
770.150607	0.803691
770.476101	0.799015
770.801548	0.800585
771.126949	0.811836
771.452303	0.814236
771.777611	0.815135
772.102872	0.813146
772.428087	0.819155
772.753256	0.822425
773.078378	0.824025
773.403453	0.833569
773.728482	0.837192
774.053465	0.830574
774.378401	0.834972
774.703291	0.843110
775.028135	0.841750
775.352932	0.843925
775.677683	0.846955
776.002388	0.847581
776.327046	0.846780
776.651658	0.850081
776.976224	0.853364
777.300743	0.854191
777.625216	0.856308
777.949643	0.857360
778.274024	0.858378
778.598359	0.858895
778.922647	0.857589
779.246889	0.857568
779.571086	0.862641
779.895236	0.865315
780.219339	0.861919
780.543397	0.858468
780.867409	0.856627
781.191374	0.860174
781.515294	0.861062
781.839167	0.859873
782.162995	0.862665
782.486776	0.859960
782.810511	0.862180
783.134201	0.864387
783.457844	0.862874
783.781441	0.864514
784.104993	0.871504
784.428498	0.870914
784.751958	0.867791
785.075372	0.869862
785.398739	0.872255
785.722061	0.869673
786.045337	0.864849
786.368568	0.871060
786.691752	0.873342
787.014891	0.858305
787.337983	0.849876
787.661030	0.842321
787.984031	0.824363
788.306987	0.811976
788.629897	0.814330
788.952760	0.817764
789.275579	0.822885
789.598351	0.837276
789.921078	0.850625
790.243759	0.851367
790.566395	0.857866
790.888984	0.863777
791.211529	0.868856
791.534027	0.872986
791.856480	0.875427
792.178888	0.880585
792.501249	0.882273
792.823566	0.883198
793.145836	0.883127
793.468062	0.885741
793.790241	0.885272
794.112375	0.883510
794.434464	0.879189
794.756507	0.879267
795.078505	0.878585
795.400457	0.873245
795.722364	0.860887
796.044226	0.853805
796.366042	0.853778
796.687812	0.856650
797.009538	0.852868
797.331218	0.857014
797.652852	0.861069
797.974442	0.864597
798.295986	0.863809
798.617484	0.868843
798.938938	0.871804
799.260346	0.877031
799.581709	0.878553
799.903026	0.880008
800.224299	0.881318
800.545526	0.884923
800.866708	0.889672
801.187845	0.893069
801.508936	0.892976
801.829983	0.891554
802.150984	0.893946
802.471940	0.899096
802.792851	0.897752
803.113717	0.898888
803.434538	0.897049
803.755314	0.898822
804.076045	0.900917
804.396731	0.900217
804.717372	0.899577
805.037967	0.901850
805.358518	0.899661
805.679024	0.898023
805.999485	0.897474
806.319901	0.897875
806.640272	0.899451
806.960598	0.896668
807.280879	0.894408
807.601115	0.893372
807.921306	0.896745
808.241453	0.896763
808.561554	0.895035
808.881611	0.894712
809.201623	0.896364
809.521590	0.897474
809.841513	0.898291
810.161390	0.896908
810.481223	0.898352
810.801011	0.902062
811.120755	0.903073
811.440453	0.902938
811.760107	0.900557
812.079716	0.900971
812.399281	0.904461
812.718801	0.907437
813.038276	0.908360
813.357707	0.908000
813.677093	0.903663
813.996434	0.908523
814.315731	0.908134
814.634983	0.910729
814.954191	0.908144
815.273354	0.905618
815.592473	0.901911
815.911547	0.901858
816.230577	0.899758
816.549562	0.896761
816.868502	0.898426
817.187399	0.893725
817.506250	0.888578
817.825058	0.890995
818.143821	0.887165
818.462539	0.882425
818.781213	0.874212
819.099843	0.863045
819.418429	0.847930
819.736970	0.830812
820.055466	0.812303
820.373919	0.786924
820.692327	0.754509
821.010691	0.720026
821.329011	0.644530
821.647286	0.530539
821.965517	0.417118
822.283704	0.374925
822.601847	0.376769
822.919945	0.412254
823.237999	0.445296
823.556010	0.491002
823.873976	0.546104
824.191897	0.596381
824.509775	0.638358
824.827609	0.682677
825.145398	0.705596
825.463144	0.707404
825.780845	0.691710
826.098502	0.672502
826.416116	0.627387
826.733685	0.584099
827.051210	0.576043
827.368692	0.590406
827.686129	0.626859
828.003522	0.680088
828.320872	0.726821
828.638177	0.769597
828.955439	0.802188
829.272656	0.824466
829.589830	0.840875
829.906960	0.854992
830.224046	0.867102
830.541088	0.878225
830.858086	0.882729
831.175041	0.889333
831.491952	0.887811
831.808819	0.884707
832.125642	0.878657
832.442421	0.863503
832.759157	0.842993
833.075849	0.796751
833.392497	0.734403
833.709101	0.692738
834.025662	0.702796
834.342179	0.734463
834.658653	0.773622
834.975083	0.808181
835.291469	0.834366
835.607811	0.856356
835.924110	0.872653
836.240366	0.889799
836.556578	0.902590
836.872746	0.911123
837.188871	0.915804
837.504952	0.921351
837.820990	0.924590
838.136984	0.928421
838.452935	0.930830
838.768842	0.932685
839.084706	0.925444
839.400526	0.900277
839.716303	0.860603
840.032037	0.837642
840.347727	0.843265
840.663373	0.860595
840.978977	0.880288
841.294537	0.902852
841.610054	0.918756
841.925527	0.926446
842.240957	0.934023
842.556344	0.940181
842.871687	0.947211
843.186987	0.950727
843.502244	0.950734
843.817458	0.952685
844.132629	0.955308
844.447756	0.959361
844.762840	0.960855
845.077881	0.959260
845.392879	0.960073
845.707833	0.963413
846.022745	0.964530
846.337613	0.964171
846.652438	0.966581
846.967221	0.964782
847.281960	0.965659
847.596656	0.967579
847.911309	0.965375
848.225919	0.968025
848.540485	0.969760
848.855009	0.969008
849.169490	0.968085
849.483928	0.969438
849.798323	0.969333
850.112675	0.969749
850.426984	0.969970
850.741251	0.968048
851.055474	0.970881
851.369654	0.967912
851.683792	0.970072
851.997887	0.969922
852.311938	0.970037
852.625947	0.969859
852.939914	0.967591
853.253837	0.969720
853.567718	0.971568
853.881555	0.969977
854.195350	0.969120
854.509103	0.969748
854.822812	0.970261
855.136479	0.970810
855.450103	0.969879
855.763685	0.968535
856.077224	0.968568
856.390720	0.969419
856.704173	0.970395
857.017584	0.967784
857.330953	0.967756
857.644278	0.967978
857.957561	0.969163
858.270802	0.968959
858.584000	0.968032
858.897155	0.966691
859.210268	0.967437
859.523339	0.968089
859.836367	0.970534
860.149352	0.970283
860.462295	0.969430
860.775195	0.969578
861.088054	0.969714
861.400869	0.969886
861.713642	0.969808
862.026373	0.970480
862.339062	0.970259
862.651708	0.969171
862.964312	0.968244
863.276873	0.968452
863.589392	0.968324
863.901869	0.966180
864.214303	0.964966
864.526696	0.964478
864.839045	0.962884
865.151353	0.962298
865.463619	0.961412
865.775842	0.963430
866.088023	0.961923
866.400162	0.962882
866.712258	0.962068
867.024313	0.962832
867.336325	0.963629
867.648296	0.964070
867.960224	0.962714
868.272110	0.962907
868.583954	0.964955
868.895755	0.964145
869.207515	0.962385
869.519233	0.958651
869.830909	0.961904
870.142542	0.962089
870.454134	0.962558
870.765684	0.961893
871.077191	0.958118
871.388657	0.959000
871.700081	0.958086
872.011463	0.959164
872.322803	0.958697
872.634101	0.956856
872.945357	0.955789
873.256571	0.953416
873.567744	0.953259
873.878874	0.953953
874.189963	0.953665
874.501010	0.951712
874.812015	0.950282
875.122979	0.951901
875.433900	0.953861
875.744780	0.956197
876.055618	0.951192
876.366415	0.951482
876.677169	0.951577
876.987882	0.952544
877.298554	0.951872
877.609183	0.948542
877.919771	0.946015
878.230317	0.943415
878.540822	0.942440
878.851285	0.936480
879.161707	0.929127
879.472087	0.916345
879.782425	0.900726
880.092722	0.867738
880.402977	0.817389
880.713191	0.757578
881.023363	0.700172
881.333494	0.666837
881.643583	0.639705
881.953631	0.638564
882.263637	0.667012
882.573602	0.706584
882.883526	0.731731
883.193408	0.754693
883.503248	0.775787
883.813048	0.803447
884.122806	0.831097
884.432522	0.854943
884.742197	0.873607
885.051831	0.884399
885.361424	0.894026
885.670975	0.905274
885.980485	0.914600
886.289954	0.921868
886.599382	0.926787
886.908768	0.930064
887.218113	0.936415
887.527417	0.940534
887.836680	0.943682
888.145901	0.945028
888.455082	0.947884
888.764221	0.951039
889.073319	0.953129
889.382376	0.953515
889.691392	0.953698
890.000366	0.953453
890.309300	0.955063
890.618193	0.953844
890.927044	0.952579
891.235855	0.952070
891.544625	0.952163
891.853353	0.952467
892.162041	0.950574
892.470687	0.944174
892.779293	0.939134
893.087858	0.936428
893.396381	0.928015
893.704864	0.916357
894.013306	0.892166
894.321707	0.866414
894.630068	0.852457
894.938387	0.848202
895.246665	0.849252
895.554903	0.860653
895.863100	0.873657
896.171256	0.888898
896.479371	0.909086
896.787446	0.921670
897.095480	0.927609
897.403473	0.928591
897.711425	0.934772
898.019336	0.941044
898.327207	0.943580
898.635038	0.947115
898.942827	0.945682
899.250576	0.948901
899.558284	0.953302
899.865952	0.955400
900.173579	0.956727
900.481165	0.956347
900.788711	0.960694
901.096216	0.962281
901.403681	0.962835
901.711105	0.963702
902.018489	0.964339
902.325832	0.962424
902.633135	0.961777
902.940397	0.956717
903.247619	0.944880
903.554800	0.920655
903.861941	0.882693
904.169041	0.847942
904.476101	0.832033
904.783121	0.831936
905.090100	0.846795
905.397039	0.868531
905.703938	0.889750
906.010796	0.908619
906.317614	0.925033
906.624391	0.935549
906.931129	0.945350
907.237826	0.953434
907.544483	0.960345
907.851099	0.962929
908.157675	0.967828
908.464211	0.969514
908.770707	0.973826
909.077163	0.974695
909.383578	0.975028
909.689954	0.976267
909.996289	0.976736
910.302584	0.978608
910.608839	0.980368
910.915054	0.978893
911.221229	0.978357
911.527363	0.976761
911.833458	0.976792
912.139513	0.977142
912.445527	0.976590
912.751502	0.974360
913.057436	0.973073
913.363331	0.970195
913.669186	0.967553
913.975000	0.961524
914.280775	0.957195
914.586510	0.950017
914.892205	0.937127
915.197859	0.916928
915.503475	0.890329
915.809050	0.870798
916.114585	0.866456
916.420081	0.864297
916.725536	0.861130
917.030952	0.869322
917.336328	0.880527
917.641665	0.895469
917.946961	0.910004
918.252218	0.922168
918.557435	0.931118
918.862612	0.938321
919.167750	0.944291
919.472848	0.948477
919.777906	0.954567
920.082925	0.960120
920.387904	0.963370
920.692843	0.965011
920.997743	0.964669
921.302603	0.969174
921.607423	0.969539
921.912204	0.971945
922.216946	0.972123
922.521647	0.973854
922.826310	0.975215
923.130932	0.976653
923.435516	0.978820
923.740059	0.979954
924.044564	0.978085
924.349028	0.980844
924.653454	0.982661
924.957840	0.984113
925.262186	0.984633
925.566493	0.984261
925.870761	0.985474
926.174989	0.986913
926.479178	0.988007
926.783328	0.988024
927.087438	0.988311
927.391509	0.988047
927.695541	0.990049
927.999533	0.989230
928.303486	0.988726
928.607400	0.991076
928.911275	0.989665
929.215110	0.989929
929.518906	0.990343
929.822663	0.989368
930.126381	0.990786
930.430060	0.990454
930.733699	0.990633
931.037299	0.989546
931.340861	0.990218
931.644383	0.990113
931.947866	0.989545
932.251309	0.991544
932.554714	0.991225
932.858080	0.990047
933.161407	0.989439
933.464694	0.990399
933.767943	0.989569
934.071153	0.990670
934.374323	0.990882
934.677455	0.990711
934.980548	0.992395
935.283602	0.991359
935.586617	0.990566
935.889593	0.990761
936.192530	0.991289
936.495428	0.990170
936.798287	0.990925
937.101108	0.989687
937.403890	0.989069
937.706632	0.989164
938.009336	0.988188
938.312002	0.985097
938.614628	0.985493
938.917216	0.983830
939.219765	0.981034
939.522275	0.983308
939.824747	0.983407
940.127179	0.983252
940.429573	0.984100
940.731929	0.984268
941.034246	0.985477
941.336524	0.986031
941.638763	0.986296
941.940964	0.987055
942.243126	0.986027
942.545250	0.987276
942.847335	0.988581
943.149381	0.988209
943.451389	0.990006
943.753359	0.987919
944.055290	0.990747
944.357182	0.990686
944.659036	0.989146
944.960851	0.989046
945.262628	0.989813
945.564367	0.990706
945.866067	0.990621
946.167729	0.990466
946.469352	0.989680
946.770937	0.989184
947.072484	0.991434
947.373992	0.989592
947.675462	0.990052
947.976893	0.989245
948.278286	0.990602
948.579641	0.991406
948.880958	0.990325
949.182236	0.991600
949.483476	0.990581
949.784678	0.990366
950.085841	0.991547
950.386967	0.990523
950.688054	0.990919
950.989103	0.991636
951.290114	0.990157
951.591087	0.989599
951.892021	0.990213
952.192917	0.989666
952.493776	0.987661
952.794596	0.988614
953.095378	0.988245
953.396122	0.988122
953.696828	0.987726
953.997496	0.989422
954.298126	0.990254
954.598718	0.991427
954.899272	0.990433
955.199788	0.989746
955.500266	0.993249
955.800706	0.993142
956.101108	0.993662
956.401472	0.993061
956.701798	0.994672
957.002087	0.992572
957.302337	0.993143
957.602550	0.995479
957.902724	0.994658
958.202861	0.995634
958.502960	0.994393
958.803022	0.994498
959.103045	0.995175
959.403031	0.995441
959.702979	0.995425
960.002889	0.996300
960.302762	0.994328
960.602596	0.997024
960.902393	0.993958
961.202153	0.996319
961.501875	0.995300
961.801559	0.994812
962.101205	0.994846
962.400814	0.996437
962.700385	0.996273
962.999918	0.995899
963.299414	0.996101
963.598873	0.994886
963.898293	0.995695
964.197677	0.995746
964.497022	0.996004
964.796331	0.996706
965.095601	0.996031
965.394835	0.996134
965.694030	0.995727
965.993189	0.996734
966.292309	0.995907
966.591393	0.997635
966.890439	0.995818
967.189447	0.994816
967.488419	0.996036
967.787353	0.995638
968.086249	0.995520
968.385108	0.996583
968.683930	0.996051
968.982714	0.996807
969.281462	0.997148
969.580172	0.995291
969.878844	0.996118
970.177480	0.996363
970.476078	0.997637
970.774639	0.996899
971.073162	0.997421
971.371649	0.996315
971.670098	0.996035
971.968510	0.997962
972.266885	0.995829
972.565223	0.996356
972.863524	0.995774
973.161788	0.996013
973.460014	0.996624
973.758204	0.995613
974.056356	0.995013
974.354471	0.993456
974.652550	0.996699
974.950591	0.995193
975.248595	0.996157
975.546563	0.997144
975.844493	0.996966
976.142386	0.996192
976.440243	0.997665
976.738062	0.996398
977.035845	0.997828
977.333590	0.995869
977.631299	0.998203
977.928971	0.996550
978.226606	0.996273
978.524204	0.995372
978.821765	0.997420
979.119290	0.995151
979.416777	0.996995
979.714228	0.996575
980.011642	0.995086
980.309020	0.996739
980.606360	0.996773
980.903664	0.998518
981.200931	0.995156
981.498162	0.994612
981.795356	0.994799
982.092513	0.993363
982.389633	0.994242
982.686717	0.991164
982.983764	0.990764
983.280775	0.989963
983.577749	0.989514
983.874686	0.990760
984.171587	0.991047
984.468451	0.994364
984.765279	0.995275
985.062070	0.993674
985.358824	0.995138
985.655543	0.994793
985.952224	0.995770
986.248869	0.996191
986.545478	0.996113
986.842050	0.998183
987.138586	0.995535
987.435086	0.996706
987.731549	0.997564
988.027975	0.997529
988.324366	0.997268
988.620719	0.997985
988.917037	0.996863
989.213318	0.997697
989.509563	0.997718
989.805772	0.998492
990.101944	0.997070
990.398080	0.997331
990.694180	0.996458
990.990244	0.997811
991.286271	0.998490
991.582262	0.997902
991.878217	0.997504
992.174136	0.997735
992.470019	0.998837
992.765865	0.997567
993.061676	0.997860
993.357450	0.997689
993.653188	0.996188
993.948890	0.996524
994.244556	0.997250
994.540186	0.997755
994.835780	0.996648
995.131337	0.996119
995.426859	0.994990
995.722345	0.996869
996.017795	0.995755
996.313208	0.995778
996.608586	0.996288
996.903928	0.996380
997.199234	0.996400
997.494504	0.995578
997.789738	0.995559
998.084936	0.996265
998.380099	0.998143
998.675225	0.996864
998.970316	0.997602
999.265371	0.997765
999.560390	0.997140
999.855373	0.997744
1000.150320	0.996803
1000.445232	0.997765
1000.740108	0.996676
1001.034948	0.997698
1001.329752	0.998437
1001.624521	0.998095
1001.919254	0.997304
1002.213951	0.998062
1002.508613	0.997104
1002.803239	0.998533
1003.097829	0.998022
1003.392384	0.999387
1003.686903	0.997022
1003.981386	0.998997
1004.275834	0.998872
1004.570246	0.998312
1004.864623	0.998806
1005.158964	0.998996
1005.453270	0.997148
1005.747540	0.997997
1006.041775	0.996988
1006.335974	0.999239
1006.630138	0.998168
1006.924266	1.000289
1007.218359	1.001153
1007.512416	0.998916
1007.806438	0.998403
1008.100425	0.999097
1008.394376	0.998841
1008.688292	0.998101
1008.982172	1.000240
1009.276017	0.997977
1009.569827	0.998123
1009.863602	0.997730
1010.157341	0.999016
1010.451045	0.999107
1010.744714	0.998897
1011.038347	0.998365
1011.331945	0.998771
1011.625508	0.996221
1011.919036	0.999064
1012.212528	0.998599
1012.505986	0.997888
1012.799408	0.997200
1013.092795	0.998924
1013.386147	0.999277
1013.679464	0.997537
1013.972745	0.997127
1014.265992	0.997416
1014.559204	0.998438
1014.852380	0.998544
1015.145521	0.998617
1015.438628	0.998724
1015.731699	0.997706
1016.024736	0.999481
1016.317737	0.997766
1016.610703	0.998157
1016.903635	0.997906
1017.196531	0.997661
1017.489393	0.999157
1017.782219	0.997802
1018.075011	0.998347
1018.367768	0.998084
1018.660490	0.998120
1018.953177	0.998120
1019.245829	0.998120
