Dividing Wavelength (nm)	Counts (n)	Blue Motor Position (mm): 0.000000	Red Motor Position (mm): 16.600000	
326.493990	1.001858
326.888308	1.001858
327.282561	1.001858
327.676750	1.000866
328.070874	1.000294
328.464933	1.001127
328.858929	0.999580
329.252859	1.000801
329.646726	1.000307
330.040528	1.000604
330.434265	1.000421
330.827938	1.002109
331.221547	1.000762
331.615091	1.000612
332.008571	1.000884
332.401986	1.000547
332.795338	1.001449
333.188625	0.999526
333.581847	1.001431
333.975006	1.000015
334.368100	1.001053
334.761129	0.999937
335.154095	1.002014
335.546996	0.997742
335.939833	0.992745
336.332606	0.994059
336.725315	0.995587
337.117960	0.996608
337.510540	0.994830
337.903056	0.995060
338.295508	0.993743
338.687896	0.994750
339.080220	0.993917
339.472480	0.996656
339.864676	0.993952
340.256807	0.995296
340.648875	0.996086
341.040879	0.995941
341.432818	0.994053
341.824694	0.994252
342.216506	0.995889
342.608253	0.995003
342.999937	0.994632
343.391557	0.994238
343.783113	0.994630
344.174605	0.994940
344.566033	0.994565
344.957397	0.993269
345.348697	0.993145
345.739934	0.993996
346.131106	0.993359
346.522215	0.994752
346.913260	0.994199
347.304241	0.993879
347.695159	0.994302
348.086012	0.993849
348.476802	0.994011
348.867528	0.994612
349.258191	0.993008
349.648789	0.995279
350.039324	0.993835
350.429796	0.995167
350.820203	0.994665
351.210548	0.994589
351.600828	0.994211
351.991045	0.994735
352.381198	0.992987
352.771288	0.994968
353.161314	0.994018
353.551276	0.994899
353.941175	0.994907
354.331010	0.994447
354.720782	0.994685
355.110490	0.994515
355.500135	0.994211
355.889717	0.994300
356.279235	0.993870
356.668689	0.994132
357.058080	0.993462
357.447408	0.995337
357.836672	0.995471
358.225873	0.995555
358.615010	0.995035
359.004084	0.995999
359.393095	0.995155
359.782043	0.994957
360.170927	0.994964
360.559748	0.994373
360.948505	0.993600
361.337199	0.993933
361.725830	0.995544
362.114398	0.994998
362.502903	0.994266
362.891344	0.995650
363.279722	0.994605
363.668037	0.994555
364.056289	0.994002
364.444478	0.994916
364.832603	0.995330
365.220665	0.994683
365.608665	0.994285
365.996601	0.994654
366.384474	0.994157
366.772284	0.994648
367.160031	0.993606
367.547715	0.993560
367.935336	0.994316
368.322893	0.994660
368.710388	0.993615
369.097820	0.994095
369.485189	0.993939
369.872495	0.993700
370.259738	0.992465
370.646918	0.995173
371.034035	0.995048
371.421090	0.994753
371.808081	0.993887
372.195010	0.995447
372.581875	0.994878
372.968678	0.994039
373.355418	0.994488
373.742096	0.994015
374.128710	0.994388
374.515262	0.993566
374.901751	0.994597
375.288177	0.995301
375.674540	0.994799
376.060841	0.993634
376.447079	0.995633
376.833254	0.994364
377.219367	0.995340
377.605417	0.994358
377.991404	0.994469
378.377329	0.994272
378.763191	0.994718
379.148991	0.995271
379.534727	0.995610
379.920402	0.994316
380.306013	0.995721
380.691563	0.995238
381.077049	0.994417
381.462474	0.995433
381.847835	0.995536
382.233134	0.993721
382.618371	0.995071
383.003545	0.994216
383.388657	0.994685
383.773706	0.995088
384.158693	0.994855
384.543618	0.995466
384.928480	0.996170
385.313280	0.994799
385.698017	0.996162
386.082692	0.995769
386.467305	0.995823
386.851856	0.994308
387.236344	0.995083
387.620770	0.993758
388.005133	0.995008
388.389435	0.995313
388.773674	0.995195
389.157851	0.995551
389.541965	0.994575
389.926018	0.994539
390.310008	0.995525
390.693936	0.995076
391.077802	0.995018
391.461606	0.994862
391.845348	0.994851
392.229027	0.995726
392.612645	0.995298
392.996200	0.996215
393.379694	0.995063
393.763125	0.995696
394.146494	0.995444
394.529801	0.994698
394.913047	0.995686
395.296230	0.994642
395.679351	0.995354
396.062410	0.994578
396.445408	0.995629
396.828343	0.994257
397.211217	0.993890
397.594028	0.994106
397.976778	0.992734
398.359466	0.992465
398.742092	0.991024
399.124656	0.989397
399.507158	0.990086
399.889598	0.988500
400.271977	0.986950
400.654294	0.985995
401.036549	0.983002
401.418742	0.981524
401.800874	0.977190
402.182944	0.974790
402.564952	0.970347
402.946898	0.969203
403.328783	0.965828
403.710606	0.961628
404.092367	0.955612
404.474067	0.952899
404.855705	0.946905
405.237282	0.944029
405.618797	0.936737
406.000250	0.929328
406.381642	0.923181
406.762972	0.918666
407.144240	0.912809
407.525447	0.906887
407.906593	0.898094
408.287677	0.891490
408.668700	0.886836
409.049661	0.877010
409.430560	0.868461
409.811399	0.862880
410.192176	0.849755
410.572891	0.844853
410.953545	0.832555
411.334138	0.828318
411.714669	0.817975
412.095139	0.813442
412.475547	0.800030
412.855894	0.791663
413.236180	0.782474
413.616405	0.776039
413.996568	0.763495
414.376670	0.757176
414.756711	0.751503
415.136691	0.742047
415.516609	0.727380
415.896466	0.716960
416.276262	0.706037
416.655997	0.698803
417.035670	0.678954
417.415283	0.665436
417.794834	0.659900
418.174324	0.656052
418.553753	0.654371
418.933121	0.633703
419.312428	0.621062
419.691674	0.616855
420.070859	0.600878
420.449983	0.599972
420.829045	0.585092
421.208047	0.585595
421.586988	0.573443
421.965867	0.565982
422.344686	0.549722
422.723444	0.555333
423.102141	0.564345
423.480777	0.536082
423.859352	0.548169
424.237866	0.523205
424.616319	0.519779
424.994712	0.507705
425.373044	0.512878
425.751314	0.497478
426.129524	0.508413
426.507673	0.490669
426.885762	0.481376
427.263789	0.483439
427.641756	0.490250
428.019662	0.477688
428.397508	0.474347
428.775292	0.476531
429.153016	0.466095
429.530679	0.470839
429.908282	0.462435
430.285824	0.471186
430.663305	0.448301
431.040726	0.467317
431.418086	0.466694
431.795385	0.457175
432.172624	0.454691
432.549802	0.454917
432.926920	0.452525
433.303977	0.452005
433.680974	0.448700
434.057910	0.446654
434.434786	0.445349
434.811601	0.447846
435.188355	0.429904
435.565050	0.438260
435.941683	0.439825
436.318257	0.424203
436.694770	0.424386
437.071222	0.422110
437.447614	0.426296
437.823946	0.432927
438.200218	0.422397
438.576429	0.432040
438.952580	0.425014
439.328670	0.421271
439.704700	0.428175
440.080670	0.428747
440.456580	0.410128
440.832429	0.417756
441.208218	0.428524
441.583947	0.417688
441.959616	0.417569
442.335224	0.421843
442.710773	0.412956
443.086261	0.411208
443.461689	0.425255
443.837057	0.415125
444.212365	0.404897
444.587612	0.411393
444.962800	0.401419
445.337927	0.403372
445.712995	0.429216
446.088002	0.391722
446.462949	0.402048
446.837837	0.406774
447.212664	0.395436
447.587431	0.387177
447.962139	0.357905
448.336786	0.317113
448.711374	0.327304
449.085901	0.371275
449.460369	0.375705
449.834776	0.379269
450.209124	0.358608
450.583412	0.351164
450.957640	0.343933
451.331808	0.355455
451.705917	0.378786
452.079965	0.382572
452.453954	0.371446
452.827883	0.378147
453.201752	0.373189
453.575562	0.384603
453.949311	0.372696
454.323001	0.379285
454.696632	0.374611
455.070202	0.367636
455.443713	0.358981
455.817164	0.354718
456.190556	0.350392
456.563888	0.347210
456.937160	0.344626
457.310373	0.361843
457.683526	0.360684
458.056619	0.366125
458.429653	0.366994
458.802628	0.370449
459.175542	0.364608
459.548398	0.346794
459.921194	0.339525
460.293930	0.339321
460.666607	0.317653
461.039224	0.305733
461.411782	0.301483
461.784280	0.300725
462.156719	0.304706
462.529099	0.309200
462.901419	0.325073
463.273680	0.329757
463.645882	0.329121
464.018024	0.334913
464.390106	0.327697
464.762130	0.312599
465.134094	0.295771
465.505999	0.264815
465.877845	0.235612
466.249631	0.222688
466.621358	0.230125
466.993026	0.243886
467.364634	0.249921
467.736184	0.258806
468.107674	0.267540
468.479105	0.266583
468.850477	0.273435
469.221790	0.280303
469.593043	0.290375
469.964238	0.295352
470.335373	0.294512
470.706449	0.292870
471.077467	0.293608
471.448425	0.255534
471.819324	0.231236
472.190164	0.230384
472.560945	0.259502
472.931667	0.281668
473.302330	0.285637
473.672934	0.297188
474.043479	0.285432
474.413965	0.287693
474.784393	0.291405
475.154761	0.286310
475.525070	0.283178
475.895321	0.289145
476.265513	0.283351
476.635645	0.278364
477.005719	0.278815
477.375734	0.275054
477.745691	0.268493
478.115588	0.264995
478.485427	0.258829
478.855207	0.245678
479.224928	0.228066
479.594591	0.216035
479.964194	0.219674
480.333739	0.220780
480.703226	0.222470
481.072653	0.220767
481.442022	0.216165
481.811333	0.212616
482.180584	0.216390
482.549777	0.221463
482.918912	0.224747
483.287988	0.224456
483.657005	0.224316
484.025964	0.230582
484.394864	0.227986
484.763706	0.228551
485.132489	0.233627
485.501213	0.234304
485.869879	0.232571
486.238487	0.235778
486.607036	0.233614
486.975527	0.238215
487.343959	0.234091
487.712333	0.233323
488.080648	0.234604
488.448905	0.233790
488.817104	0.234901
489.185244	0.229442
489.553326	0.226456
489.921350	0.216252
490.289315	0.198817
490.657222	0.193746
491.025070	0.195068
491.392861	0.197110
491.760593	0.202701
492.128267	0.208272
492.495883	0.213852
492.863440	0.220128
493.230939	0.226163
493.598380	0.227888
493.965763	0.229787
494.333088	0.232129
494.700354	0.233642
495.067563	0.232430
495.434713	0.235906
495.801805	0.233790
496.168839	0.235019
496.535815	0.236664
496.902733	0.236680
497.269593	0.238127
497.636395	0.236097
498.003139	0.236227
498.369825	0.239128
498.736453	0.235573
499.103023	0.237139
499.469535	0.236800
499.835989	0.236975
500.202385	0.237820
500.568723	0.241161
500.935003	0.236222
501.301226	0.240547
501.667390	0.235148
502.033497	0.232748
502.399546	0.235967
502.765537	0.237666
503.131470	0.236132
503.497345	0.232225
503.863163	0.241397
504.228923	0.234038
504.594625	0.232713
504.960269	0.238240
505.325856	0.233605
505.691385	0.238041
506.056856	0.234611
506.422270	0.233941
506.787625	0.236298
507.152924	0.234108
507.518164	0.234528
507.883347	0.236289
508.248472	0.237815
508.613540	0.232798
508.978550	0.235104
509.343503	0.235867
509.708398	0.233621
510.073236	0.231003
510.438016	0.231196
510.802738	0.231774
511.167403	0.230779
511.532010	0.232938
511.896561	0.228222
512.261053	0.227178
512.625488	0.229001
512.989866	0.229489
513.354186	0.229866
513.718449	0.231766
514.082655	0.228226
514.446803	0.230201
514.810894	0.227812
515.174927	0.230346
515.538904	0.230027
515.902822	0.226820
516.266684	0.229294
516.630488	0.230739
516.994235	0.229215
517.357925	0.227932
517.721558	0.226420
518.085133	0.225932
518.448651	0.226071
518.812112	0.228048
519.175516	0.227738
519.538863	0.225417
519.902152	0.226956
520.265385	0.223757
520.628560	0.225638
520.991678	0.226093
521.354739	0.224861
521.717743	0.226299
522.080690	0.226754
522.443580	0.223900
522.806413	0.224970
523.169189	0.224276
523.531908	0.223164
523.894569	0.226660
524.257174	0.226759
524.619722	0.224452
524.982213	0.225263
525.344647	0.224237
525.707025	0.224966
526.069345	0.223354
526.431608	0.224981
526.793815	0.223068
527.155964	0.227056
527.518057	0.225950
527.880093	0.226970
528.242072	0.225557
528.603995	0.227570
528.965860	0.229059
529.327669	0.227970
529.689421	0.229161
530.051117	0.229898
530.412755	0.227594
530.774337	0.229410
531.135862	0.230091
531.497331	0.229477
531.858743	0.232224
532.220098	0.228961
532.581396	0.231568
532.942638	0.232175
533.303824	0.233000
533.664953	0.232789
534.026025	0.234610
534.387040	0.232373
534.747999	0.232299
535.108902	0.231324
535.469748	0.236206
535.830537	0.234130
536.191270	0.234780
536.551947	0.233973
536.912567	0.233973
537.273131	0.235820
537.633638	0.235661
537.994089	0.236586
538.354483	0.237375
538.714821	0.234379
539.075103	0.233952
539.435328	0.234905
539.795497	0.238827
540.155609	0.235211
540.515665	0.233487
540.875665	0.238996
541.235609	0.237408
541.595496	0.237678
541.955328	0.234067
542.315102	0.236819
542.674821	0.237937
543.034483	0.237953
543.394090	0.237513
543.753640	0.239412
544.113134	0.234663
544.472571	0.237738
544.831953	0.234567
545.191278	0.238760
545.550548	0.238028
545.909761	0.235012
546.268918	0.235647
546.628019	0.234054
546.987064	0.236929
547.346053	0.238627
547.704986	0.236198
548.063863	0.236600
548.422684	0.237085
548.781449	0.238900
549.140158	0.236354
549.498811	0.239079
549.857408	0.242389
550.215949	0.237303
550.574434	0.239934
550.932864	0.238188
551.291237	0.236657
551.649555	0.238365
552.007817	0.238029
552.366022	0.238908
552.724173	0.239173
553.082267	0.239456
553.440305	0.236424
553.798288	0.240646
554.156215	0.237224
554.514086	0.237665
554.871902	0.241205
555.229661	0.240379
555.587365	0.240823
555.945014	0.243208
556.302606	0.240135
556.660143	0.242674
557.017625	0.239030
557.375050	0.241528
557.732421	0.238443
558.089735	0.240714
558.446994	0.240539
558.804197	0.239649
559.161345	0.239741
559.518437	0.243430
559.875474	0.240940
560.232455	0.240356
560.589381	0.241458
560.946251	0.241575
561.303065	0.239217
561.659825	0.240726
562.016528	0.242286
562.373177	0.244795
562.729770	0.242218
563.086307	0.244197
563.442789	0.242134
563.799216	0.245085
564.155587	0.243736
564.511904	0.244869
564.868164	0.245141
565.224370	0.244499
565.580520	0.246511
565.936615	0.246295
566.292654	0.249281
566.648638	0.246189
567.004567	0.247223
567.360441	0.248052
567.716260	0.249641
568.072023	0.247260
568.427732	0.248604
568.783385	0.250424
569.138982	0.248979
569.494525	0.248650
569.850013	0.251463
570.205445	0.249764
570.560823	0.252261
570.916145	0.254218
571.271412	0.252598
571.626625	0.254053
571.981782	0.254402
572.336884	0.255509
572.691931	0.255069
573.046923	0.256328
573.401860	0.257752
573.756743	0.259188
574.111570	0.258146
574.466342	0.258654
574.821059	0.257782
575.175722	0.260536
575.530330	0.260509
575.884882	0.260733
576.239380	0.262546
576.593823	0.263149
576.948211	0.262577
577.302544	0.265927
577.656823	0.265501
578.011047	0.265698
578.365216	0.266076
578.719330	0.268198
579.073389	0.268204
579.427394	0.269302
579.781344	0.270168
580.135239	0.271717
580.489080	0.271401
580.842866	0.274208
581.196597	0.274052
581.550273	0.272658
581.903895	0.273977
582.257463	0.272051
582.610975	0.275245
582.964434	0.274515
583.317837	0.277095
583.671186	0.277627
584.024481	0.277554
584.377721	0.280025
584.730906	0.280714
585.084037	0.279656
585.437113	0.281985
585.790135	0.281338
586.143103	0.283954
586.496016	0.285310
586.848874	0.282753
587.201679	0.283343
587.554428	0.286375
587.907124	0.285451
588.259765	0.286279
588.612352	0.286537
588.964884	0.290795
589.317362	0.289757
589.669786	0.290004
590.022155	0.288522
590.374470	0.287931
590.726731	0.289839
591.078937	0.294558
591.431090	0.290845
591.783188	0.295111
592.135232	0.295458
592.487222	0.295585
592.839157	0.293756
593.191038	0.296115
593.542866	0.298096
593.894639	0.301237
594.246358	0.299808
594.598022	0.298808
594.949633	0.302280
595.301190	0.303515
595.652692	0.302290
596.004141	0.298944
596.355535	0.306618
596.706876	0.307263
597.058162	0.309709
597.409395	0.307188
597.760573	0.304506
598.111698	0.307939
598.462768	0.308389
598.813785	0.309138
599.164748	0.310451
599.515657	0.310965
599.866511	0.314627
600.217312	0.309862
600.568060	0.315520
600.918753	0.311261
601.269392	0.312214
601.619978	0.315827
601.970510	0.313311
602.320988	0.313625
602.671412	0.310965
603.021783	0.313789
603.372100	0.315215
603.722363	0.314912
604.072572	0.315654
604.422728	0.315731
604.772830	0.317461
605.122878	0.316913
605.472872	0.317486
605.822813	0.315836
606.172701	0.318603
606.522534	0.315752
606.872314	0.316044
607.222041	0.317105
607.571714	0.314991
607.921333	0.316406
608.270899	0.316004
608.620411	0.312966
608.969870	0.316545
609.319276	0.317047
609.668627	0.316819
610.017926	0.315421
610.367171	0.313570
610.716362	0.314717
611.065500	0.314997
611.414585	0.313714
611.763616	0.314434
612.112594	0.314583
612.461518	0.313832
612.810389	0.311346
613.159207	0.314137
613.507971	0.316019
613.856682	0.311669
614.205340	0.313038
614.553945	0.309999
614.902496	0.314047
615.250994	0.311863
615.599439	0.312746
615.947830	0.311945
616.296169	0.313160
616.644454	0.312637
616.992686	0.312738
617.340864	0.310455
617.688990	0.313829
618.037063	0.310814
618.385082	0.312378
618.733048	0.309453
619.080961	0.311386
619.428821	0.311102
619.776628	0.310564
620.124382	0.312473
620.472083	0.312670
620.819731	0.312312
621.167326	0.315921
621.514868	0.315938
621.862357	0.320156
622.209793	0.319787
622.557176	0.322089
622.904506	0.323134
623.251783	0.325575
623.599007	0.327662
623.946179	0.327386
624.293297	0.329105
624.640363	0.332709
624.987376	0.333736
625.334336	0.336104
625.681243	0.338322
626.028097	0.338861
626.374899	0.340004
626.721647	0.340218
627.068343	0.343348
627.414987	0.344476
627.761577	0.346837
628.108115	0.345029
628.454600	0.350117
628.801032	0.347161
629.147412	0.349721
629.493739	0.349792
629.840014	0.352876
630.186236	0.350301
630.532405	0.355795
630.878521	0.353587
631.224585	0.355585
631.570597	0.359433
631.916556	0.357718
632.262462	0.358126
632.608316	0.360204
632.954117	0.361095
633.299866	0.361300
633.645562	0.362169
633.991206	0.366413
634.336797	0.369393
634.682336	0.371636
635.027823	0.373022
635.373257	0.373664
635.718639	0.377343
636.063968	0.376234
636.409245	0.382545
636.754470	0.382540
637.099642	0.385254
637.444762	0.388490
637.789829	0.387523
638.134845	0.390880
638.479808	0.392229
638.824719	0.391683
639.169577	0.395902
639.514383	0.394658
639.859137	0.399113
640.203839	0.398670
640.548489	0.399457
640.893086	0.400575
641.237632	0.401825
641.582125	0.401203
641.926566	0.402372
642.270955	0.402776
642.615292	0.403046
642.959576	0.401771
643.303809	0.401997
643.647990	0.401534
643.992118	0.402464
644.336195	0.405595
644.680219	0.404849
645.024192	0.405551
645.368112	0.398514
645.711981	0.398088
646.055797	0.393372
646.399562	0.395356
646.743274	0.387434
647.086935	0.385015
647.430544	0.384907
647.774101	0.383937
648.117606	0.383178
648.461059	0.384122
648.804460	0.386074
649.147810	0.391693
649.491108	0.393322
649.834354	0.395008
650.177548	0.400801
650.520690	0.405835
650.863781	0.407003
651.206820	0.406144
651.549807	0.410751
651.892742	0.415274
652.235626	0.414442
652.578458	0.415736
652.921238	0.421614
653.263967	0.419014
653.606644	0.423380
653.949269	0.423071
654.291843	0.426600
654.634365	0.423257
654.976836	0.427224
655.319255	0.426743
655.661622	0.428835
656.003938	0.428544
656.346203	0.431102
656.688416	0.429455
657.030577	0.432862
657.372687	0.434689
657.714746	0.435436
658.056753	0.432436
658.398708	0.436673
658.740612	0.437554
659.082465	0.433722
659.424266	0.434289
659.766016	0.433739
660.107715	0.436610
660.449362	0.435232
660.790958	0.435891
661.132503	0.436265
661.473996	0.433845
661.815438	0.434951
662.156829	0.435279
662.498168	0.435718
662.839456	0.437312
663.180693	0.435636
663.521879	0.434890
663.863013	0.435846
664.204097	0.435029
664.545129	0.431053
664.886110	0.431650
665.227040	0.428919
665.567918	0.431554
665.908746	0.429492
666.249522	0.429436
666.590248	0.430197
666.930922	0.428606
667.271545	0.427400
667.612118	0.427640
667.952639	0.429244
668.293109	0.427411
668.633528	0.430806
668.973896	0.430170
669.314213	0.431210
669.654480	0.432035
669.994695	0.432490
670.334859	0.433534
670.674973	0.433468
671.015035	0.434060
671.355047	0.433742
671.695008	0.435452
672.034918	0.436439
672.374777	0.436322
672.714585	0.436954
673.054342	0.436986
673.394049	0.437092
673.733705	0.434931
674.073310	0.435929
674.412864	0.439165
674.752368	0.440117
675.091820	0.439493
675.431223	0.444289
675.770574	0.444290
676.109875	0.447820
676.449125	0.446900
676.788324	0.449063
677.127473	0.454961
677.466571	0.454452
677.805619	0.456175
678.144616	0.457254
678.483562	0.458888
678.822458	0.461732
679.161303	0.462500
679.500098	0.462781
679.838842	0.464734
680.177535	0.463998
680.516179	0.463164
680.854771	0.462161
681.193314	0.455704
681.531805	0.446713
681.870247	0.434872
682.208638	0.427500
682.546978	0.426613
682.885268	0.428797
683.223508	0.434486
683.561697	0.438074
683.899836	0.440685
684.237925	0.444237
684.575963	0.447130
684.913951	0.450057
685.251889	0.446073
685.589776	0.447178
685.927614	0.450352
686.265401	0.444171
686.603137	0.446006
686.940824	0.439821
687.278460	0.438590
687.616046	0.437287
687.953582	0.431808
688.291068	0.433887
688.628504	0.429274
688.965889	0.431142
689.303224	0.435357
689.640510	0.440166
689.977745	0.445545
690.314930	0.453324
690.652065	0.457655
690.989150	0.465277
691.326185	0.471775
691.663170	0.476281
692.000105	0.483912
692.336990	0.490312
692.673825	0.493448
693.010610	0.499484
693.347345	0.505281
693.684030	0.507286
694.020665	0.511406
694.357251	0.520608
694.693786	0.519570
695.030272	0.524331
695.366707	0.528180
695.703093	0.531443
696.039429	0.528541
696.375716	0.531088
696.711952	0.533430
697.048139	0.535479
697.384276	0.537369
697.720363	0.536107
698.056400	0.535056
698.392388	0.540639
698.728326	0.543910
699.064214	0.546197
699.400053	0.546487
699.735842	0.550621
700.071581	0.553281
700.407270	0.556462
700.742910	0.558932
701.078501	0.565171
701.414042	0.565472
701.749533	0.568910
702.084974	0.577572
702.420366	0.569557
702.755709	0.577402
703.091002	0.585015
703.426246	0.578766
703.761440	0.584415
704.096584	0.589716
704.431679	0.585511
704.766725	0.588316
705.101721	0.589642
705.436668	0.586057
705.771565	0.593243
706.106413	0.589419
706.441212	0.585083
706.775961	0.584246
707.110661	0.587000
707.445311	0.582715
707.779913	0.580953
708.114465	0.579110
708.448967	0.575383
708.783421	0.567686
709.117825	0.562028
709.452180	0.561870
709.786485	0.556026
710.120742	0.545962
710.454949	0.547683
710.789107	0.539823
711.123216	0.531199
711.457275	0.532934
711.791286	0.523000
712.125247	0.521812
712.459159	0.533320
712.793023	0.526038
713.126837	0.530324
713.460602	0.530392
713.794318	0.539602
714.127985	0.538331
714.461602	0.548914
714.795171	0.551801
715.128691	0.559500
715.462162	0.566932
715.795584	0.573209
716.128957	0.575483
716.462281	0.582574
716.795556	0.585815
717.128782	0.590988
717.461960	0.600925
717.795088	0.598997
718.128167	0.605372
718.461198	0.613739
718.794180	0.614023
719.127113	0.617475
719.459997	0.621030
719.792833	0.627224
720.125619	0.628130
720.458357	0.634092
720.791046	0.633099
721.123686	0.636860
721.456278	0.644235
721.788821	0.641228
722.121315	0.645654
722.453761	0.649683
722.786158	0.647706
723.118506	0.644470
723.450805	0.651989
723.783056	0.648064
724.115259	0.645362
724.447412	0.644092
724.779518	0.645968
725.111574	0.645242
725.443582	0.640950
725.775542	0.642733
726.107453	0.634616
726.439315	0.634720
726.771129	0.633374
727.102895	0.626350
727.434612	0.619359
727.766281	0.617239
728.097901	0.617158
728.429473	0.616408
728.760996	0.614904
729.092471	0.614684
729.423897	0.618298
729.755276	0.617815
730.086606	0.618014
730.417887	0.612251
730.749120	0.603002
731.080305	0.594257
731.411442	0.590115
731.742530	0.594967
732.073570	0.593921
732.404562	0.586792
732.735506	0.587116
733.066401	0.592856
733.397249	0.601406
733.728048	0.612761
734.058798	0.626361
734.389501	0.636909
734.720156	0.645445
735.050762	0.653843
735.381320	0.655202
735.711831	0.664064
736.042293	0.669527
736.372707	0.664840
736.703073	0.669755
737.033391	0.671748
737.363661	0.668632
737.693883	0.664092
738.024056	0.663364
738.354182	0.663732
738.684260	0.652315
739.014290	0.648564
739.344272	0.649044
739.674207	0.643098
740.004093	0.642250
740.333931	0.642291
740.663722	0.642898
740.993464	0.643188
741.323159	0.646597
741.652806	0.651904
741.982405	0.656634
742.311956	0.661486
742.641460	0.663452
742.970915	0.667344
743.300323	0.674889
743.629683	0.681470
743.958996	0.683580
744.288260	0.688168
744.617477	0.694401
744.946647	0.695247
745.275768	0.699916
745.604842	0.700413
745.933869	0.710849
746.262847	0.710447
746.591778	0.704634
746.920662	0.710569
747.249498	0.717381
747.578286	0.708450
747.907027	0.704646
748.235720	0.705341
748.564365	0.699553
748.892963	0.699310
749.221514	0.702373
749.550017	0.707519
749.878473	0.707616
750.206881	0.713974
750.535242	0.715644
750.863555	0.715190
751.191821	0.715995
751.520039	0.718972
751.848210	0.724106
752.176334	0.717030
752.504411	0.716404
752.832440	0.724052
753.160421	0.727144
753.488356	0.726465
753.816243	0.723303
754.144082	0.732185
754.471875	0.734709
754.799620	0.730821
755.127318	0.732814
755.454969	0.732814
755.782572	0.731618
756.110129	0.737458
756.437638	0.738968
756.765100	0.735729
757.092515	0.733803
757.419882	0.732197
757.747203	0.737481
758.074477	0.737114
758.401703	0.734067
758.728882	0.730098
759.056014	0.728281
759.383099	0.727415
759.710138	0.728245
760.037129	0.724895
760.364073	0.718595
760.690970	0.720876
761.017820	0.727176
761.344623	0.723301
761.671379	0.713838
761.998088	0.701266
762.324751	0.679589
762.651366	0.636554
762.977935	0.570466
763.304456	0.517875
763.630931	0.508545
763.957359	0.547622
764.283740	0.592301
764.610074	0.619382
764.936362	0.650374
765.262602	0.677155
765.588796	0.698991
765.914943	0.716681
766.241044	0.734338
766.567097	0.741360
766.893104	0.750645
767.219064	0.758108
767.544978	0.763771
767.870845	0.777406
768.196665	0.780354
768.522438	0.779070
768.848165	0.781370
769.173846	0.789131
769.499479	0.793929
769.825066	0.796606
770.150607	0.801872
770.476101	0.797736
770.801548	0.799245
771.126949	0.810986
771.452303	0.813148
771.777611	0.813155
772.102872	0.812799
772.428087	0.817898
772.753256	0.821024
773.078378	0.823724
773.403453	0.832532
773.728482	0.836841
774.053465	0.830416
774.378401	0.832638
774.703291	0.841775
775.028135	0.841710
775.352932	0.843326
775.677683	0.846545
776.002388	0.846833
776.327046	0.845389
776.651658	0.849071
776.976224	0.852330
777.300743	0.852595
777.625216	0.855402
777.949643	0.856481
778.274024	0.856483
778.598359	0.858811
778.922647	0.856981
779.246889	0.857838
779.571086	0.861262
779.895236	0.864439
780.219339	0.861008
780.543397	0.858841
780.867409	0.856817
781.191374	0.858103
781.515294	0.860187
781.839167	0.858426
782.162995	0.862646
782.486776	0.859336
782.810511	0.859013
783.134201	0.862912
783.457844	0.861145
783.781441	0.863834
784.104993	0.870582
784.428498	0.870438
784.751958	0.866703
785.075372	0.868430
785.398739	0.872556
785.722061	0.869332
786.045337	0.864106
786.368568	0.869491
786.691752	0.871806
787.014891	0.856703
787.337983	0.847756
787.661030	0.841211
787.984031	0.823722
788.306987	0.810184
788.629897	0.812014
788.952760	0.816135
789.275579	0.821673
789.598351	0.836374
789.921078	0.849051
790.243759	0.851413
790.566395	0.856963
790.888984	0.863071
791.211529	0.868579
791.534027	0.872122
791.856480	0.874132
792.178888	0.879597
792.501249	0.881571
792.823566	0.883110
793.145836	0.883135
793.468062	0.885457
793.790241	0.885665
794.112375	0.882786
794.434464	0.879114
794.756507	0.877568
795.078505	0.877345
795.400457	0.871568
795.722364	0.860229
796.044226	0.851444
796.366042	0.852579
796.687812	0.854952
797.009538	0.852067
797.331218	0.855324
797.652852	0.859411
797.974442	0.864724
798.295986	0.863661
798.617484	0.865976
798.938938	0.870134
799.260346	0.876161
799.581709	0.877905
799.903026	0.879722
800.224299	0.880352
800.545526	0.883828
800.866708	0.887976
801.187845	0.892328
801.508936	0.891800
801.829983	0.890016
802.150984	0.892585
802.471940	0.896746
802.792851	0.897004
803.113717	0.898594
803.434538	0.895866
803.755314	0.899002
804.076045	0.899459
804.396731	0.900342
804.717372	0.900749
805.037967	0.901777
805.358518	0.898859
805.679024	0.896375
805.999485	0.896770
806.319901	0.896221
806.640272	0.898856
806.960598	0.896152
807.280879	0.894212
807.601115	0.891551
807.921306	0.896560
808.241453	0.896321
808.561554	0.893812
808.881611	0.894203
809.201623	0.895855
809.521590	0.896202
809.841513	0.897802
810.161390	0.896142
810.481223	0.897314
810.801011	0.901360
811.120755	0.903921
811.440453	0.902100
811.760107	0.900362
812.079716	0.899946
812.399281	0.903251
812.718801	0.906553
813.038276	0.906946
813.357707	0.906570
813.677093	0.903868
813.996434	0.906351
814.315731	0.908682
814.634983	0.909393
814.954191	0.907654
815.273354	0.905297
815.592473	0.901457
815.911547	0.900798
816.230577	0.899299
816.549562	0.896004
816.868502	0.896534
817.187399	0.893458
817.506250	0.887809
817.825058	0.889119
818.143821	0.885968
818.462539	0.881516
818.781213	0.874069
819.099843	0.862129
819.418429	0.845906
819.736970	0.829067
820.055466	0.809246
820.373919	0.783569
820.692327	0.750317
821.010691	0.715946
821.329011	0.638149
821.647286	0.522267
821.965517	0.408452
822.283704	0.365941
822.601847	0.366211
822.919945	0.402407
823.237999	0.436111
823.556010	0.483244
823.873976	0.539134
824.191897	0.589956
824.509775	0.631989
824.827609	0.678496
825.145398	0.700648
825.463144	0.703896
825.780845	0.686312
826.098502	0.667278
826.416116	0.621909
826.733685	0.577437
827.051210	0.569568
827.368692	0.583832
827.686129	0.621725
828.003522	0.674991
828.320872	0.723100
828.638177	0.765853
828.955439	0.798382
829.272656	0.821232
829.589830	0.838222
829.906960	0.854018
830.224046	0.866904
830.541088	0.877465
830.858086	0.881303
831.175041	0.886671
831.491952	0.886948
831.808819	0.882900
832.125642	0.877257
832.442421	0.860841
832.759157	0.839739
833.075849	0.793711
833.392497	0.730065
833.709101	0.688999
834.025662	0.698757
834.342179	0.729658
834.658653	0.769644
834.975083	0.804894
835.291469	0.830760
835.607811	0.854627
835.924110	0.870283
836.240366	0.886082
836.556578	0.901113
836.872746	0.908871
837.188871	0.914619
837.504952	0.919771
837.820990	0.924291
838.136984	0.927534
838.452935	0.929624
838.768842	0.931706
839.084706	0.925287
839.400526	0.898674
839.716303	0.858944
840.032037	0.835530
840.347727	0.840446
840.663373	0.857904
840.978977	0.880013
841.294537	0.902745
841.610054	0.918555
841.925527	0.925353
842.240957	0.933459
842.556344	0.940254
842.871687	0.946019
843.186987	0.949824
843.502244	0.950529
843.817458	0.952012
844.132629	0.955886
844.447756	0.959977
844.762840	0.960629
845.077881	0.959360
845.392879	0.960154
845.707833	0.963324
846.022745	0.964746
846.337613	0.964628
846.652438	0.966314
846.967221	0.964297
847.281960	0.965295
847.596656	0.967984
847.911309	0.966872
848.225919	0.967391
848.540485	0.968241
848.855009	0.969508
849.169490	0.968409
849.483928	0.970121
849.798323	0.969320
850.112675	0.969964
850.426984	0.969432
850.741251	0.970925
851.055474	0.969995
851.369654	0.967742
851.683792	0.969830
851.997887	0.969299
852.311938	0.970329
852.625947	0.970202
852.939914	0.968995
853.253837	0.969827
853.567718	0.971132
853.881555	0.971437
854.195350	0.969002
854.509103	0.969500
854.822812	0.970044
855.136479	0.971099
855.450103	0.969772
855.763685	0.968449
856.077224	0.967683
856.390720	0.971612
856.704173	0.970805
857.017584	0.968756
857.330953	0.967135
857.644278	0.968553
857.957561	0.969437
858.270802	0.969895
858.584000	0.967529
858.897155	0.966915
859.210268	0.969337
859.523339	0.969350
859.836367	0.969958
860.149352	0.970789
860.462295	0.969386
860.775195	0.969826
861.088054	0.968907
861.400869	0.969976
861.713642	0.971021
862.026373	0.970965
862.339062	0.971575
862.651708	0.967769
862.964312	0.967686
863.276873	0.969081
863.589392	0.968714
863.901869	0.966769
864.214303	0.965061
864.526696	0.964182
864.839045	0.963700
865.151353	0.961455
865.463619	0.962646
865.775842	0.964518
866.088023	0.962029
866.400162	0.963284
866.712258	0.962510
867.024313	0.962603
867.336325	0.964345
867.648296	0.964810
867.960224	0.962538
868.272110	0.961504
868.583954	0.964300
868.895755	0.964485
869.207515	0.961221
869.519233	0.959977
869.830909	0.961919
870.142542	0.962835
870.454134	0.961687
870.765684	0.960108
871.077191	0.958266
871.388657	0.959553
871.700081	0.957787
872.011463	0.958911
872.322803	0.958624
872.634101	0.957291
872.945357	0.955136
873.256571	0.953059
873.567744	0.953129
873.878874	0.953697
874.189963	0.951928
874.501010	0.951041
874.812015	0.950985
875.122979	0.951414
875.433900	0.953603
875.744780	0.954120
876.055618	0.952068
876.366415	0.950630
876.677169	0.950333
876.987882	0.951672
877.298554	0.951129
877.609183	0.948147
877.919771	0.945633
878.230317	0.942936
878.540822	0.940102
878.851285	0.934464
879.161707	0.927595
879.472087	0.915171
879.782425	0.898606
880.092722	0.864053
880.402977	0.811534
880.713191	0.750294
881.023363	0.690948
881.333494	0.656897
881.643583	0.629431
881.953631	0.628833
882.263637	0.658417
882.573602	0.697039
882.883526	0.722435
883.193408	0.747270
883.503248	0.770176
883.813048	0.797149
884.122806	0.826672
884.432522	0.850652
884.742197	0.869686
885.051831	0.880593
885.361424	0.891675
885.670975	0.902569
885.980485	0.913785
886.289954	0.919535
886.599382	0.924272
886.908768	0.928805
887.218113	0.934728
887.527417	0.939049
887.836680	0.942245
888.145901	0.943733
888.455082	0.946485
888.764221	0.949757
889.073319	0.952837
889.382376	0.952850
889.691392	0.953954
890.000366	0.952014
890.309300	0.954024
890.618193	0.953679
890.927044	0.951515
891.235855	0.950810
891.544625	0.952036
891.853353	0.952328
892.162041	0.948934
892.470687	0.943719
892.779293	0.938455
893.087858	0.934664
893.396381	0.926530
893.704864	0.912949
894.013306	0.888695
894.321707	0.862228
894.630068	0.847635
894.938387	0.842856
895.246665	0.843814
895.554903	0.856185
895.863100	0.869548
896.171256	0.885979
896.479371	0.906234
896.787446	0.919716
897.095480	0.924791
897.403473	0.928257
897.711425	0.933277
898.019336	0.940477
898.327207	0.941832
898.635038	0.944930
898.942827	0.945335
899.250576	0.947944
899.558284	0.951722
899.865952	0.954645
900.173579	0.955011
900.481165	0.955736
900.788711	0.960744
901.096216	0.960885
901.403681	0.962252
901.711105	0.963470
902.018489	0.963902
902.325832	0.963318
902.633135	0.961761
902.940397	0.956030
903.247619	0.942666
903.554800	0.918197
903.861941	0.878196
904.169041	0.842628
904.476101	0.824054
904.783121	0.825882
905.090100	0.842668
905.397039	0.863500
905.703938	0.886067
906.010796	0.906215
906.317614	0.923619
906.624391	0.934556
906.931129	0.945011
907.237826	0.952285
907.544483	0.959043
907.851099	0.962850
908.157675	0.967729
908.464211	0.969851
908.770707	0.972513
909.077163	0.974661
909.383578	0.973759
909.689954	0.976292
909.996289	0.976667
910.302584	0.979206
910.608839	0.979909
910.915054	0.978341
911.221229	0.978826
911.527363	0.977244
911.833458	0.977829
912.139513	0.977987
912.445527	0.976140
912.751502	0.973317
913.057436	0.972619
913.363331	0.970441
913.669186	0.966771
913.975000	0.961115
914.280775	0.955634
914.586510	0.949595
914.892205	0.935627
915.197859	0.913724
915.503475	0.886322
915.809050	0.867112
916.114585	0.859962
916.420081	0.858396
916.725536	0.854603
917.030952	0.863033
917.336328	0.876645
917.641665	0.891053
917.946961	0.906709
918.252218	0.918837
918.557435	0.927392
918.862612	0.936862
919.167750	0.943192
919.472848	0.947129
919.777906	0.953045
920.082925	0.957695
920.387904	0.961683
920.692843	0.963424
920.997743	0.963968
921.302603	0.967908
921.607423	0.969955
921.912204	0.972586
922.216946	0.971157
922.521647	0.973150
922.826310	0.975066
923.130932	0.976531
923.435516	0.979060
923.740059	0.979196
924.044564	0.978769
924.349028	0.981359
924.653454	0.982694
924.957840	0.985631
925.262186	0.985489
925.566493	0.985592
925.870761	0.984594
926.174989	0.987512
926.479178	0.988189
926.783328	0.988279
927.087438	0.987747
927.391509	0.988029
927.695541	0.990504
927.999533	0.989994
928.303486	0.990032
928.607400	0.991250
928.911275	0.990083
929.215110	0.991258
929.518906	0.991981
929.822663	0.991229
930.126381	0.992133
930.430060	0.990905
930.733699	0.989736
931.037299	0.989417
931.340861	0.990699
931.644383	0.990469
931.947866	0.989218
932.251309	0.991760
932.554714	0.991533
932.858080	0.990616
933.161407	0.990760
933.464694	0.991719
933.767943	0.990067
934.071153	0.991704
934.374323	0.992719
934.677455	0.991395
934.980548	0.991404
935.283602	0.990957
935.586617	0.992267
935.889593	0.990982
936.192530	0.990699
936.495428	0.990610
936.798287	0.990933
937.101108	0.990722
937.403890	0.988882
937.706632	0.989337
938.009336	0.987956
938.312002	0.985847
938.614628	0.983907
938.917216	0.983751
939.219765	0.981311
939.522275	0.983676
939.824747	0.983103
940.127179	0.983227
940.429573	0.984892
940.731929	0.984126
941.034246	0.984893
941.336524	0.986183
941.638763	0.986594
941.940964	0.986869
942.243126	0.985968
942.545250	0.987149
942.847335	0.989283
943.149381	0.988471
943.451389	0.988870
943.753359	0.989858
944.055290	0.991882
944.357182	0.990095
944.659036	0.988192
944.960851	0.990892
945.262628	0.989273
945.564367	0.991124
945.866067	0.989672
946.167729	0.990195
946.469352	0.990466
946.770937	0.989430
947.072484	0.990648
947.373992	0.990314
947.675462	0.990259
947.976893	0.990752
948.278286	0.990384
948.579641	0.992871
948.880958	0.990685
949.182236	0.991151
949.483476	0.992588
949.784678	0.991726
950.085841	0.992406
950.386967	0.991302
950.688054	0.991138
950.989103	0.990500
951.290114	0.989998
951.591087	0.990866
951.892021	0.990353
952.192917	0.989852
952.493776	0.987524
952.794596	0.988901
953.095378	0.988968
953.396122	0.988642
953.696828	0.988720
953.997496	0.989486
954.298126	0.992983
954.598718	0.990291
954.899272	0.991130
955.199788	0.990987
955.500266	0.991930
955.800706	0.993051
956.101108	0.994433
956.401472	0.993353
956.701798	0.994381
957.002087	0.993787
957.302337	0.994921
957.602550	0.996041
957.902724	0.994906
958.202861	0.996746
958.502960	0.995399
958.803022	0.994338
959.103045	0.996660
959.403031	0.996412
959.702979	0.994918
960.002889	0.995880
960.302762	0.996344
960.602596	0.996279
960.902393	0.996187
961.202153	0.996859
961.501875	0.997517
961.801559	0.997358
962.101205	0.995904
962.400814	0.996667
962.700385	0.996336
962.999918	0.996835
963.299414	0.996219
963.598873	0.996909
963.898293	0.995933
964.197677	0.995505
964.497022	0.997385
964.796331	0.997647
965.095601	0.997469
965.394835	0.996782
965.694030	0.998585
965.993189	0.997949
966.292309	0.996715
966.591393	0.998807
966.890439	0.997572
967.189447	0.997264
967.488419	0.998254
967.787353	0.996220
968.086249	0.996492
968.385108	0.997493
968.683930	0.997030
968.982714	0.997393
969.281462	0.997702
969.580172	0.996792
969.878844	0.997174
970.177480	0.997201
970.476078	0.996751
970.774639	0.997921
971.073162	0.998096
971.371649	0.996288
971.670098	0.996897
971.968510	0.997618
972.266885	0.996459
972.565223	0.996769
972.863524	0.996059
973.161788	0.997510
973.460014	0.997451
973.758204	0.996782
974.056356	0.997378
974.354471	0.994725
974.652550	0.996521
974.950591	0.996726
975.248595	0.997372
975.546563	0.997936
975.844493	0.997874
976.142386	0.997636
976.440243	0.998766
976.738062	0.997707
977.035845	0.997304
977.333590	0.996921
977.631299	0.998839
977.928971	0.997179
978.226606	0.996866
978.524204	0.996830
978.821765	0.999897
979.119290	0.997584
979.416777	0.996826
979.714228	0.997584
980.011642	0.996869
980.309020	0.996902
980.606360	0.996885
980.903664	0.998963
981.200931	0.997177
981.498162	0.995562
981.795356	0.995482
982.092513	0.995844
982.389633	0.995596
982.686717	0.993099
982.983764	0.991846
983.280775	0.991207
983.577749	0.990122
983.874686	0.991461
984.171587	0.992658
984.468451	0.994573
984.765279	0.994911
985.062070	0.994447
985.358824	0.995162
985.655543	0.995783
985.952224	0.996483
986.248869	0.996656
986.545478	0.999141
986.842050	0.998931
987.138586	0.995630
987.435086	0.998322
987.731549	0.999474
988.027975	0.998524
988.324366	0.998609
988.620719	0.997927
988.917037	0.997773
989.213318	0.998646
989.509563	0.998457
989.805772	0.999113
990.101944	0.999188
990.398080	0.997979
990.694180	0.998013
990.990244	0.998647
991.286271	0.997887
991.582262	0.998692
991.878217	0.998739
992.174136	0.999819
992.470019	0.999807
992.765865	0.998145
993.061676	0.999003
993.357450	0.997756
993.653188	0.997797
993.948890	0.998534
994.244556	0.998518
994.540186	0.997682
994.835780	0.997821
995.131337	0.997906
995.426859	0.996400
995.722345	0.997210
996.017795	0.996165
996.313208	0.995983
996.608586	0.996649
996.903928	0.996916
997.199234	0.996684
997.494504	0.997961
997.789738	0.996136
998.084936	0.996829
998.380099	0.998499
998.675225	0.997645
998.970316	0.998907
999.265371	0.998439
999.560390	0.996990
999.855373	0.999706
1000.150320	0.999233
1000.445232	0.997757
1000.740108	0.997774
1001.034948	0.998947
1001.329752	0.999122
1001.624521	0.999625
1001.919254	0.998814
1002.213951	0.998705
1002.508613	0.998604
1002.803239	0.999146
1003.097829	0.999509
1003.392384	1.000104
1003.686903	0.998647
1003.981386	0.999416
1004.275834	0.999786
1004.570246	0.998447
1004.864623	1.000152
1005.158964	1.000456
1005.453270	0.998146
1005.747540	0.997674
1006.041775	0.999214
1006.335974	0.999891
1006.630138	1.000178
1006.924266	0.999859
1007.218359	1.000749
1007.512416	0.999289
1007.806438	0.999167
1008.100425	0.999913
1008.394376	1.000193
1008.688292	1.000054
1008.982172	1.000367
1009.276017	1.000282
1009.569827	0.998632
1009.863602	0.998480
1010.157341	1.000361
1010.451045	0.999898
1010.744714	0.998452
1011.038347	1.000537
1011.331945	0.998915
1011.625508	0.998421
1011.919036	0.998873
1012.212528	0.999100
1012.505986	0.998633
1012.799408	0.999405
1013.092795	1.000125
1013.386147	0.998752
1013.679464	0.998898
1013.972745	0.998140
1014.265992	0.997493
1014.559204	0.999832
1014.852380	1.000083
1015.145521	0.999842
1015.438628	0.999614
1015.731699	1.000430
1016.024736	0.999050
1016.317737	0.999207
1016.610703	0.998433
1016.903635	1.000325
1017.196531	0.998654
1017.489393	0.999192
1017.782219	0.999658
1018.075011	0.999277
1018.367768	0.998680
1018.660490	1.000200
1018.953177	1.000200
1019.245829	1.000200
