Dividing Wavelength (nm)	Counts (n)	Blue Motor Position (mm): 0.000000	Red Motor Position (mm): 33.900000	
326.493990	1.000929
326.888308	1.000929
327.282561	1.000929
327.676750	1.000377
328.070874	0.999510
328.464933	1.000945
328.858929	1.000163
329.252859	0.999983
329.646726	0.998657
330.040528	0.999915
330.434265	0.998900
330.827938	0.999418
331.221547	1.001113
331.615091	0.999356
332.008571	1.000243
332.401986	0.999989
332.795338	0.999712
333.188625	0.998115
333.581847	0.999682
333.975006	0.999632
334.368100	0.999062
334.761129	1.000707
335.154095	1.001340
335.546996	0.998611
335.939833	0.994976
336.332606	0.995944
336.725315	0.997258
337.117960	0.997360
337.510540	0.996540
337.903056	0.995966
338.295508	0.995553
338.687896	0.997367
339.080220	0.995982
339.472480	0.995606
339.864676	0.995667
340.256807	0.996432
340.648875	0.996999
341.040879	0.997066
341.432818	0.996287
341.824694	0.996326
342.216506	0.996668
342.608253	0.996401
342.999937	0.994758
343.391557	0.996322
343.783113	0.996726
344.174605	0.997028
344.566033	0.997166
344.957397	0.995523
345.348697	0.997343
345.739934	0.996493
346.131106	0.995411
346.522215	0.995741
346.913260	0.996765
347.304241	0.995775
347.695159	0.996466
348.086012	0.995073
348.476802	0.996370
348.867528	0.996901
349.258191	0.994831
349.648789	0.997041
350.039324	0.996309
350.429796	0.996145
350.820203	0.996623
351.210548	0.996752
351.600828	0.995516
351.991045	0.996308
352.381198	0.994533
352.771288	0.996698
353.161314	0.996201
353.551276	0.996622
353.941175	0.995686
354.331010	0.996293
354.720782	0.997211
355.110490	0.995774
355.500135	0.996905
355.889717	0.995625
356.279235	0.995979
356.668689	0.995477
357.058080	0.996468
357.447408	0.996928
357.836672	0.996346
358.225873	0.997156
358.615010	0.996635
359.004084	0.997634
359.393095	0.996449
359.782043	0.996926
360.170927	0.997081
360.559748	0.997508
360.948505	0.995971
361.337199	0.996169
361.725830	0.996567
362.114398	0.996081
362.502903	0.996655
362.891344	0.997340
363.279722	0.994961
363.668037	0.997411
364.056289	0.996990
364.444478	0.996612
364.832603	0.996795
365.220665	0.995929
365.608665	0.996259
365.996601	0.994875
366.384474	0.996962
366.772284	0.996386
367.160031	0.994918
367.547715	0.997277
367.935336	0.995273
368.322893	0.997698
368.710388	0.995774
369.097820	0.997065
369.485189	0.995925
369.872495	0.995587
370.259738	0.995016
370.646918	0.997131
371.034035	0.997939
371.421090	0.996670
371.808081	0.996501
372.195010	0.997699
372.581875	0.996941
372.968678	0.997202
373.355418	0.996064
373.742096	0.995997
374.128710	0.996759
374.515262	0.995462
374.901751	0.996605
375.288177	0.996865
375.674540	0.997167
376.060841	0.996590
376.447079	0.997452
376.833254	0.996686
377.219367	0.996458
377.605417	0.997035
377.991404	0.996877
378.377329	0.996846
378.763191	0.997283
379.148991	0.997887
379.534727	0.997398
379.920402	0.996936
380.306013	0.997940
380.691563	0.998322
381.077049	0.996094
381.462474	0.997127
381.847835	0.997342
382.233134	0.996842
382.618371	0.997373
383.003545	0.997682
383.388657	0.996796
383.773706	0.997650
384.158693	0.997527
384.543618	0.997328
384.928480	0.998472
385.313280	0.997665
385.698017	0.998143
386.082692	0.998591
386.467305	0.998436
386.851856	0.998040
387.236344	0.997752
387.620770	0.996588
388.005133	0.998169
388.389435	0.999143
388.773674	0.997694
389.157851	0.998438
389.541965	0.998258
389.926018	0.997416
390.310008	0.999756
390.693936	0.997715
391.077802	0.998921
391.461606	0.998385
391.845348	0.998066
392.229027	0.999136
392.612645	0.998112
392.996200	0.998912
393.379694	0.998021
393.763125	0.999171
394.146494	0.999107
394.529801	0.997998
394.913047	0.998684
395.296230	0.998641
395.679351	0.997991
396.062410	0.997862
396.445408	0.998699
396.828343	0.997587
397.211217	0.997705
397.594028	0.999564
397.976778	0.997922
398.359466	0.997429
398.742092	0.998785
399.124656	0.998193
399.507158	0.998767
399.889598	0.998896
400.271977	0.998893
400.654294	0.999314
401.036549	0.999599
401.418742	0.999209
401.800874	0.997697
402.182944	0.998737
402.564952	0.998343
402.946898	0.999096
403.328783	0.998800
403.710606	0.998129
404.092367	0.998696
404.474067	0.999248
404.855705	0.998683
405.237282	0.998948
405.618797	0.998755
406.000250	0.997625
406.381642	0.999305
406.762972	0.998535
407.144240	0.999549
407.525447	0.998856
407.906593	0.998771
408.287677	0.998657
408.668700	0.998952
409.049661	0.998313
409.430560	0.998716
409.811399	0.998184
410.192176	0.998473
410.572891	0.998654
410.953545	0.998215
411.334138	0.998257
411.714669	0.999639
412.095139	0.998449
412.475547	0.999668
412.855894	0.999939
413.236180	0.999431
413.616405	0.998386
413.996568	0.999420
414.376670	0.997985
414.756711	0.999508
415.136691	0.998720
415.516609	0.998790
415.896466	0.998974
416.276262	0.998210
416.655997	0.999887
417.035670	0.999217
417.415283	0.999612
417.794834	0.998828
418.174324	0.998785
418.553753	0.999796
418.933121	0.999480
419.312428	0.998585
419.691674	0.998646
420.070859	1.000130
420.449983	0.999624
420.829045	0.999160
421.208047	0.999474
421.586988	1.000506
421.965867	0.998778
422.344686	0.999946
422.723444	1.000060
423.102141	0.999972
423.480777	0.999162
423.859352	0.999478
424.237866	0.999102
424.616319	0.999047
424.994712	0.999555
425.373044	1.000186
425.751314	0.999743
426.129524	1.000090
426.507673	0.999535
426.885762	1.000785
427.263789	0.999260
427.641756	0.999665
428.019662	1.000549
428.397508	0.999547
428.775292	0.998729
429.153016	0.999440
429.530679	0.999651
429.908282	0.999687
430.285824	0.998453
430.663305	0.999474
431.040726	0.999578
431.418086	1.000303
431.795385	0.999999
432.172624	0.999041
432.549802	0.999655
432.926920	0.999356
433.303977	0.999215
433.680974	0.999677
434.057910	0.999322
434.434786	0.999840
434.811601	0.999361
435.188355	0.999371
435.565050	0.999229
435.941683	1.000263
436.318257	1.000580
436.694770	0.999569
437.071222	0.999591
437.447614	0.999698
437.823946	0.999621
438.200218	0.999889
438.576429	0.999576
438.952580	0.999592
439.328670	0.998453
439.704700	0.999352
440.080670	0.999693
440.456580	0.999119
440.832429	0.999541
441.208218	0.999943
441.583947	0.999923
441.959616	0.999917
442.335224	0.998923
442.710773	1.000523
443.086261	0.999768
443.461689	0.999479
443.837057	0.999660
444.212365	0.999382
444.587612	0.999701
444.962800	1.000009
445.337927	0.999813
445.712995	1.000147
446.088002	0.999878
446.462949	0.999914
446.837837	0.999864
447.212664	1.000336
447.587431	1.000636
447.962139	1.000342
448.336786	1.000415
448.711374	1.000009
449.085901	0.999427
449.460369	1.000565
449.834776	1.000061
450.209124	1.000638
450.583412	0.999556
450.957640	0.999929
451.331808	1.000325
451.705917	0.999971
452.079965	0.999173
452.453954	0.999958
452.827883	1.000030
453.201752	1.000157
453.575562	1.000747
453.949311	0.999708
454.323001	0.999064
454.696632	1.000077
455.070202	0.999775
455.443713	0.999158
455.817164	1.000240
456.190556	1.000111
456.563888	0.999761
456.937160	0.999946
457.310373	0.999825
457.683526	0.999559
458.056619	0.999989
458.429653	0.999956
458.802628	0.998948
459.175542	0.999001
459.548398	1.000181
459.921194	0.999615
460.293930	1.000531
460.666607	0.999825
461.039224	0.998829
461.411782	1.000675
461.784280	0.999397
462.156719	1.000198
462.529099	1.000362
462.901419	0.999986
463.273680	0.999069
463.645882	1.000491
464.018024	1.000067
464.390106	1.000383
464.762130	1.001375
465.134094	1.000193
465.505999	1.000651
465.877845	1.000818
466.249631	1.000949
466.621358	1.000412
466.993026	1.000247
467.364634	1.000623
467.736184	1.000383
468.107674	0.999968
468.479105	1.000313
468.850477	1.000345
469.221790	1.000326
469.593043	1.000101
469.964238	1.000623
470.335373	0.999534
470.706449	1.000354
471.077467	1.000551
471.448425	1.000401
471.819324	1.001210
472.190164	1.000407
472.560945	1.000706
472.931667	0.999934
473.302330	0.999563
473.672934	1.001145
474.043479	1.000024
474.413965	0.999957
474.784393	0.999800
475.154761	0.999750
475.525070	0.999296
475.895321	1.000167
476.265513	0.999513
476.635645	0.999978
477.005719	1.000570
477.375734	0.999353
477.745691	0.999564
478.115588	1.000167
478.485427	1.000634
478.855207	0.999453
479.224928	1.000607
479.594591	1.000620
479.964194	1.000238
480.333739	1.000031
480.703226	0.999935
481.072653	1.001195
481.442022	1.000213
481.811333	0.999292
482.180584	1.000236
482.549777	0.999451
482.918912	1.000183
483.287988	0.999928
483.657005	0.999909
484.025964	1.000617
484.394864	1.000169
484.763706	0.999610
485.132489	1.000453
485.501213	0.999705
485.869879	0.999652
486.238487	1.000207
486.607036	0.999916
486.975527	0.999423
487.343959	0.999536
487.712333	0.999409
488.080648	0.998954
488.448905	0.999510
488.817104	0.999585
489.185244	0.999364
489.553326	0.999242
489.921350	0.998857
490.289315	0.999285
490.657222	0.999124
491.025070	0.999517
491.392861	0.998812
491.760593	0.998665
492.128267	0.998087
492.495883	0.997607
492.863440	0.998359
493.230939	0.997811
493.598380	0.997131
493.965763	0.997211
494.333088	0.996756
494.700354	0.996429
495.067563	0.995938
495.434713	0.996105
495.801805	0.996333
496.168839	0.994939
496.535815	0.994202
496.902733	0.994012
497.269593	0.993236
497.636395	0.992967
498.003139	0.992780
498.369825	0.992666
498.736453	0.991341
499.103023	0.990214
499.469535	0.989889
499.835989	0.989702
500.202385	0.989298
500.568723	0.988354
500.935003	0.988010
501.301226	0.987053
501.667390	0.985833
502.033497	0.985122
502.399546	0.984259
502.765537	0.983044
503.131470	0.982063
503.497345	0.981105
503.863163	0.980935
504.228923	0.978713
504.594625	0.977752
504.960269	0.977023
505.325856	0.976177
505.691385	0.974214
506.056856	0.972958
506.422270	0.971086
506.787625	0.970305
507.152924	0.968132
507.518164	0.966776
507.883347	0.965783
508.248472	0.963699
508.613540	0.962091
508.978550	0.959906
509.343503	0.957741
509.708398	0.955862
510.073236	0.954015
510.438016	0.951946
510.802738	0.949881
511.167403	0.947821
511.532010	0.945331
511.896561	0.943453
512.261053	0.941516
512.625488	0.937911
512.989866	0.935972
513.354186	0.933177
513.718449	0.930290
514.082655	0.927772
514.446803	0.924516
514.810894	0.921964
515.174927	0.918395
515.538904	0.916029
515.902822	0.912428
516.266684	0.910939
516.630488	0.906850
516.994235	0.903033
517.357925	0.899456
517.721558	0.896125
518.085133	0.892231
518.448651	0.889684
518.812112	0.885883
519.175516	0.881741
519.538863	0.877724
519.902152	0.874126
520.265385	0.869169
520.628560	0.866303
520.991678	0.861831
521.354739	0.858492
521.717743	0.854305
522.080690	0.850974
522.443580	0.844246
522.806413	0.840763
523.169189	0.836621
523.531908	0.831162
523.894569	0.827750
524.257174	0.823315
524.619722	0.817602
524.982213	0.815034
525.344647	0.808053
525.707025	0.804113
526.069345	0.798840
526.431608	0.793595
526.793815	0.789041
527.155964	0.784465
527.518057	0.780238
527.880093	0.775657
528.242072	0.770381
528.603995	0.765297
528.965860	0.761494
529.327669	0.755070
529.689421	0.750601
530.051117	0.746340
530.412755	0.738661
530.774337	0.735380
531.135862	0.728749
531.497331	0.724093
531.858743	0.719412
532.220098	0.713308
532.581396	0.708512
532.942638	0.704205
533.303824	0.698599
533.664953	0.692555
534.026025	0.687979
534.387040	0.681184
534.747999	0.677180
535.108902	0.670518
535.469748	0.667349
535.830537	0.660997
536.191270	0.656857
536.551947	0.650336
536.912567	0.645514
537.273131	0.642167
537.633638	0.635940
537.994089	0.630885
538.354483	0.626258
538.714821	0.619883
539.075103	0.613983
539.435328	0.609272
539.795497	0.606690
540.155609	0.598273
540.515665	0.593284
540.875665	0.590816
541.235609	0.584497
541.595496	0.579698
541.955328	0.571333
542.315102	0.568706
542.674821	0.564493
543.034483	0.559070
543.394090	0.553895
543.753640	0.549784
544.113134	0.541242
544.472571	0.539350
544.831953	0.531491
545.191278	0.529839
545.550548	0.524770
545.909761	0.517564
546.268918	0.512854
546.628019	0.507318
546.987064	0.503829
547.346053	0.501739
547.704986	0.494093
548.063863	0.490077
548.422684	0.486521
548.781449	0.483059
549.140158	0.476067
549.498811	0.473845
549.857408	0.472820
550.215949	0.463150
550.574434	0.461950
550.932864	0.455260
551.291237	0.451588
551.649555	0.447075
552.007817	0.443149
552.366022	0.440097
552.724173	0.436339
553.082267	0.432698
553.440305	0.425174
553.798288	0.426569
554.156215	0.418542
554.514086	0.415318
554.871902	0.414701
555.229661	0.410166
555.587365	0.407568
555.945014	0.406459
556.302606	0.399114
556.660143	0.398839
557.017625	0.391080
557.375050	0.389850
557.732421	0.384196
558.089735	0.382075
558.446994	0.379301
558.804197	0.375462
559.161345	0.372223
559.518437	0.372570
559.875474	0.366860
560.232455	0.363159
560.589381	0.362341
560.946251	0.357760
561.303065	0.354195
561.659825	0.351484
562.016528	0.350531
562.373177	0.350733
562.729770	0.344936
563.086307	0.344574
563.442789	0.340264
563.799216	0.339163
564.155587	0.336146
564.511904	0.334475
564.868164	0.332778
565.224370	0.330360
565.580520	0.329103
565.936615	0.327754
566.292654	0.327911
566.648638	0.323362
567.004567	0.321350
567.360441	0.320224
567.716260	0.319920
568.072023	0.316306
568.427732	0.314187
568.783385	0.315125
569.138982	0.311351
569.494525	0.309519
569.850013	0.310626
570.205445	0.307089
570.560823	0.308243
570.916145	0.308314
571.271412	0.305172
571.626625	0.304736
571.981782	0.304169
572.336884	0.303452
572.691931	0.302179
573.046923	0.301341
573.401860	0.301279
573.756743	0.301921
574.111570	0.299425
574.466342	0.298773
574.821059	0.296688
575.175722	0.298372
575.530330	0.296702
575.884882	0.295736
576.239380	0.296770
576.593823	0.296269
576.948211	0.294892
577.302544	0.297215
577.656823	0.295385
578.011047	0.294737
578.365216	0.294452
578.719330	0.295799
579.073389	0.294673
579.427394	0.295401
579.781344	0.295204
580.135239	0.296133
580.489080	0.294969
580.842866	0.296889
581.196597	0.296355
581.550273	0.294428
581.903895	0.294663
582.257463	0.292282
582.610975	0.295345
582.964434	0.294397
583.317837	0.296041
583.671186	0.296061
584.024481	0.295771
584.377721	0.297417
584.730906	0.297756
585.084037	0.296453
585.437113	0.298090
585.790135	0.296772
586.143103	0.298914
586.496016	0.300412
586.848874	0.297356
587.201679	0.297439
587.554428	0.300658
587.907124	0.298910
588.259765	0.299593
588.612352	0.299334
588.964884	0.303311
589.317362	0.302653
589.669786	0.302061
590.022155	0.300384
590.374470	0.299357
590.726731	0.301263
591.078937	0.305699
591.431090	0.302037
591.783188	0.305846
592.135232	0.305635
592.487222	0.305964
592.839157	0.303708
593.191038	0.305994
593.542866	0.307699
593.894639	0.311151
594.246358	0.308653
594.598022	0.308201
594.949633	0.311703
595.301190	0.312197
595.652692	0.311529
596.004141	0.307395
596.355535	0.315422
596.706876	0.315369
597.058162	0.318239
597.409395	0.315032
597.760573	0.312817
598.111698	0.316084
598.462768	0.316229
598.813785	0.317423
599.164748	0.318608
599.515657	0.318893
599.866511	0.322087
600.217312	0.317278
600.568060	0.322836
600.918753	0.318920
601.269392	0.319786
601.619978	0.322956
601.970510	0.320577
602.320988	0.320687
602.671412	0.318385
603.021783	0.320686
603.372100	0.321965
603.722363	0.321775
604.072572	0.322283
604.422728	0.321997
604.772830	0.324072
605.122878	0.323505
605.472872	0.324259
605.822813	0.322259
606.172701	0.325003
606.522534	0.321999
606.872314	0.322464
607.222041	0.323134
607.571714	0.321639
607.921333	0.322754
608.270899	0.322292
608.620411	0.319227
608.969870	0.322877
609.319276	0.323127
609.668627	0.322905
610.017926	0.321606
610.367171	0.319968
610.716362	0.320898
611.065500	0.320443
611.414585	0.319606
611.763616	0.320231
612.112594	0.320179
612.461518	0.319812
612.810389	0.317568
613.159207	0.319874
613.507971	0.321944
613.856682	0.317282
614.205340	0.318965
614.553945	0.315503
614.902496	0.319525
615.250994	0.317706
615.599439	0.318414
615.947830	0.317709
616.296169	0.318872
616.644454	0.318375
616.992686	0.318077
617.340864	0.316013
617.688990	0.319735
618.037063	0.316261
618.385082	0.317860
618.733048	0.315235
619.080961	0.317283
619.428821	0.316849
619.776628	0.316250
620.124382	0.318373
620.472083	0.318489
620.819731	0.317693
621.167326	0.321475
621.514868	0.321618
621.862357	0.325721
622.209793	0.325044
622.557176	0.327589
622.904506	0.328381
623.251783	0.330643
623.599007	0.332754
623.946179	0.332586
624.293297	0.334589
624.640363	0.338325
624.987376	0.338997
625.334336	0.341416
625.681243	0.343354
626.028097	0.344324
626.374899	0.345547
626.721647	0.345394
627.068343	0.349067
627.414987	0.349872
627.761577	0.351764
628.108115	0.350565
628.454600	0.355225
628.801032	0.352359
629.147412	0.354469
629.493739	0.355164
629.840014	0.358141
630.186236	0.355308
630.532405	0.361132
630.878521	0.358667
631.224585	0.360446
631.570597	0.364498
631.916556	0.362562
632.262462	0.362952
632.608316	0.365445
632.954117	0.365758
633.299866	0.366700
633.645562	0.367319
633.991206	0.371216
634.336797	0.374169
634.682336	0.376198
635.027823	0.378188
635.373257	0.378799
635.718639	0.382405
636.063968	0.381280
636.409245	0.386591
636.754470	0.387516
637.099642	0.390236
637.444762	0.393062
637.789829	0.391960
638.134845	0.395956
638.479808	0.396876
638.824719	0.396537
639.169577	0.400661
639.514383	0.399431
639.859137	0.403874
640.203839	0.403588
640.548489	0.403668
640.893086	0.405351
641.237632	0.406617
641.582125	0.405700
641.926566	0.406852
642.270955	0.407028
642.615292	0.407441
642.959576	0.406495
643.303809	0.407217
643.647990	0.406595
643.992118	0.407421
644.336195	0.410838
644.680219	0.408827
645.024192	0.410116
645.368112	0.403566
645.711981	0.402768
646.055797	0.397500
646.399562	0.400812
646.743274	0.392425
647.086935	0.389500
647.430544	0.389655
647.774101	0.388833
648.117606	0.388325
648.461059	0.389041
648.804460	0.391398
649.147810	0.396021
649.491108	0.398030
649.834354	0.399282
650.177548	0.405412
650.520690	0.410313
650.863781	0.411362
651.206820	0.410608
651.549807	0.415726
651.892742	0.419369
652.235626	0.418962
652.578458	0.420028
652.921238	0.425970
653.263967	0.423726
653.606644	0.428241
653.949269	0.427342
654.291843	0.431983
654.634365	0.427712
654.976836	0.431545
655.319255	0.431140
655.661622	0.432794
656.003938	0.433307
656.346203	0.435841
656.688416	0.433703
657.030577	0.437329
657.372687	0.439158
657.714746	0.440081
658.056753	0.437299
658.398708	0.440709
658.740612	0.441667
659.082465	0.437842
659.424266	0.438886
659.766016	0.437934
660.107715	0.440940
660.449362	0.439666
660.790958	0.440639
661.132503	0.440589
661.473996	0.438273
661.815438	0.439394
662.156829	0.440151
662.498168	0.440097
662.839456	0.441361
663.180693	0.439902
663.521879	0.439161
663.863013	0.440285
664.204097	0.438879
664.545129	0.435891
664.886110	0.436031
665.227040	0.433381
665.567918	0.436140
665.908746	0.434570
666.249522	0.433809
666.590248	0.434529
666.930922	0.432950
667.271545	0.432143
667.612118	0.431869
667.952639	0.433643
668.293109	0.432392
668.633528	0.435129
668.973896	0.434850
669.314213	0.435265
669.654480	0.437012
669.994695	0.437155
670.334859	0.437942
670.674973	0.438609
671.015035	0.438189
671.355047	0.438232
671.695008	0.439178
672.034918	0.441519
672.374777	0.440932
672.714585	0.441609
673.054342	0.441594
673.394049	0.442060
673.733705	0.439339
674.073310	0.441403
674.412864	0.443395
674.752368	0.444058
675.091820	0.444356
675.431223	0.448842
675.770574	0.448604
676.109875	0.451226
676.449125	0.452280
676.788324	0.453727
677.127473	0.459160
677.466571	0.459320
677.805619	0.460184
678.144616	0.461614
678.483562	0.463508
678.822458	0.466049
679.161303	0.466678
679.500098	0.467094
679.838842	0.469477
680.177535	0.468645
680.516179	0.467140
680.854771	0.466474
681.193314	0.459702
681.531805	0.450897
681.870247	0.439599
682.208638	0.431794
682.546978	0.431355
682.885268	0.432677
683.223508	0.439159
683.561697	0.442324
683.899836	0.445536
684.237925	0.448736
684.575963	0.451449
684.913951	0.454470
685.251889	0.450547
685.589776	0.452287
685.927614	0.454579
686.265401	0.449189
686.603137	0.450144
686.940824	0.444809
687.278460	0.442687
687.616046	0.442123
687.953582	0.436750
688.291068	0.438199
688.628504	0.433848
688.965889	0.436187
689.303224	0.440133
689.640510	0.443994
689.977745	0.449965
690.314930	0.458242
690.652065	0.462374
690.989150	0.469810
691.326185	0.476292
691.663170	0.480910
692.000105	0.488179
692.336990	0.494884
692.673825	0.497339
693.010610	0.504024
693.347345	0.509722
693.684030	0.511567
694.020665	0.516076
694.357251	0.525112
694.693786	0.524861
695.030272	0.528266
695.366707	0.531674
695.703093	0.535488
696.039429	0.532943
696.375716	0.534752
696.711952	0.537245
697.048139	0.539862
697.384276	0.541048
697.720363	0.539602
698.056400	0.539003
698.392388	0.544446
698.728326	0.547424
699.064214	0.550893
699.400053	0.551106
699.735842	0.554117
700.071581	0.557483
700.407270	0.560350
700.742910	0.562694
701.078501	0.569639
701.414042	0.569598
701.749533	0.572640
702.084974	0.581496
702.420366	0.573209
702.755709	0.581425
703.091002	0.588974
703.426246	0.582249
703.761440	0.588982
704.096584	0.593234
704.431679	0.590080
704.766725	0.591911
705.101721	0.593566
705.436668	0.589641
705.771565	0.597279
706.106413	0.593668
706.441212	0.589010
706.775961	0.587511
707.110661	0.590361
707.445311	0.587081
707.779913	0.583657
708.114465	0.583262
708.448967	0.579158
708.783421	0.571652
709.117825	0.566400
709.452180	0.565936
709.786485	0.559750
710.120742	0.550275
710.454949	0.551466
710.789107	0.544154
711.123216	0.534982
711.457275	0.536615
711.791286	0.527917
712.125247	0.527069
712.459159	0.536904
712.793023	0.530278
713.126837	0.533499
713.460602	0.534725
713.794318	0.544188
714.127985	0.542651
714.461602	0.551722
714.795171	0.556264
715.128691	0.563836
715.462162	0.571648
715.795584	0.577660
716.128957	0.579788
716.462281	0.585917
716.795556	0.588914
717.128782	0.595336
717.461960	0.603701
717.795088	0.602185
718.128167	0.608749
718.461198	0.617340
718.794180	0.618203
719.127113	0.620664
719.459997	0.624607
719.792833	0.630523
720.125619	0.631880
720.458357	0.637144
720.791046	0.636517
721.123686	0.640284
721.456278	0.647771
721.788821	0.644407
722.121315	0.649302
722.453761	0.652845
722.786158	0.651110
723.118506	0.647466
723.450805	0.655219
723.783056	0.651550
724.115259	0.648669
724.447412	0.648268
724.779518	0.650357
725.111574	0.648074
725.443582	0.644770
725.775542	0.645909
726.107453	0.638606
726.439315	0.638552
726.771129	0.637214
727.102895	0.630443
727.434612	0.623087
727.766281	0.620822
728.097901	0.620813
728.429473	0.620662
728.760996	0.618483
729.092471	0.618844
729.423897	0.622563
729.755276	0.621646
730.086606	0.621841
730.417887	0.615392
730.749120	0.606960
731.080305	0.597851
731.411442	0.593827
731.742530	0.600033
732.073570	0.598594
732.404562	0.590329
732.735506	0.592373
733.066401	0.597006
733.397249	0.606015
733.728048	0.616838
734.058798	0.629598
734.389501	0.640355
734.720156	0.650193
735.050762	0.657940
735.381320	0.658672
735.711831	0.667840
736.042293	0.673033
736.372707	0.668230
736.703073	0.673800
737.033391	0.674903
737.363661	0.672388
737.693883	0.667430
738.024056	0.666179
738.354182	0.667420
738.684260	0.655893
739.014290	0.652156
739.344272	0.652907
739.674207	0.646963
740.004093	0.645910
740.333931	0.646229
740.663722	0.647369
740.993464	0.647194
741.323159	0.651156
741.652806	0.654906
741.982405	0.660816
742.311956	0.665144
742.641460	0.667900
742.970915	0.671057
743.300323	0.678794
743.629683	0.684962
743.958996	0.686820
744.288260	0.690674
744.617477	0.697771
744.946647	0.698099
745.275768	0.703886
745.604842	0.704008
745.933869	0.712805
746.262847	0.714931
746.591778	0.707751
746.920662	0.713499
747.249498	0.720115
747.578286	0.710911
747.907027	0.707353
748.235720	0.708196
748.564365	0.702930
748.892963	0.703140
749.221514	0.706377
749.550017	0.711275
749.878473	0.710963
750.206881	0.717593
750.535242	0.718316
750.863555	0.717869
751.191821	0.719753
751.520039	0.721856
751.848210	0.727385
752.176334	0.719725
752.504411	0.719748
752.832440	0.727246
753.160421	0.731242
753.488356	0.728674
753.816243	0.726876
754.144082	0.734946
754.471875	0.738616
754.799620	0.735320
755.127318	0.735720
755.454969	0.735206
755.782572	0.735246
756.110129	0.739305
756.437638	0.742789
756.765100	0.738724
757.092515	0.736159
757.419882	0.735814
757.747203	0.741130
758.074477	0.739886
758.401703	0.738024
758.728882	0.732555
759.056014	0.731619
759.383099	0.730559
759.710138	0.731691
760.037129	0.728478
760.364073	0.722351
760.690970	0.724432
761.017820	0.730234
761.344623	0.725580
761.671379	0.716870
761.998088	0.705942
762.324751	0.682981
762.651366	0.641673
762.977935	0.575766
763.304456	0.523950
763.630931	0.514321
763.957359	0.553098
764.283740	0.598247
764.610074	0.624103
764.936362	0.655546
765.262602	0.681437
765.588796	0.702764
765.914943	0.720789
766.241044	0.738038
766.567097	0.744806
766.893104	0.754051
767.219064	0.760056
767.544978	0.766612
767.870845	0.779654
768.196665	0.784534
768.522438	0.781691
768.848165	0.783361
769.173846	0.792759
769.499479	0.796534
769.825066	0.799838
770.150607	0.805524
770.476101	0.799610
770.801548	0.800903
771.126949	0.812864
771.452303	0.816469
771.777611	0.815539
772.102872	0.815069
772.428087	0.820420
772.753256	0.824580
773.078378	0.825784
773.403453	0.834266
773.728482	0.838307
774.053465	0.831937
774.378401	0.835515
774.703291	0.845065
775.028135	0.843292
775.352932	0.845325
775.677683	0.848687
776.002388	0.848404
776.327046	0.847473
776.651658	0.851619
776.976224	0.854400
777.300743	0.854899
777.625216	0.856949
777.949643	0.858337
778.274024	0.858375
778.598359	0.861247
778.922647	0.859740
779.246889	0.859169
779.571086	0.863626
779.895236	0.866233
780.219339	0.862595
780.543397	0.860228
780.867409	0.857504
781.191374	0.860075
781.515294	0.862537
781.839167	0.860620
782.162995	0.865133
782.486776	0.862282
782.810511	0.861903
783.134201	0.867058
783.457844	0.863811
783.781441	0.866547
784.104993	0.873077
784.428498	0.872707
784.751958	0.868602
785.075372	0.870642
785.398739	0.874432
785.722061	0.871788
786.045337	0.866602
786.368568	0.870881
786.691752	0.874506
787.014891	0.858329
787.337983	0.850888
787.661030	0.844126
787.984031	0.826249
788.306987	0.813727
788.629897	0.816013
788.952760	0.820320
789.275579	0.824581
789.598351	0.838969
789.921078	0.851744
790.243759	0.854159
790.566395	0.858854
790.888984	0.866106
791.211529	0.870588
791.534027	0.874212
791.856480	0.876531
792.178888	0.881213
792.501249	0.883575
792.823566	0.885043
793.145836	0.884375
793.468062	0.887414
793.790241	0.886664
794.112375	0.884649
794.434464	0.879651
794.756507	0.879510
795.078505	0.880192
795.400457	0.873547
795.722364	0.863199
796.044226	0.854490
796.366042	0.854385
796.687812	0.858252
797.009538	0.853526
797.331218	0.857253
797.652852	0.861567
797.974442	0.866717
798.295986	0.866243
798.617484	0.869808
798.938938	0.872180
799.260346	0.877553
799.581709	0.880086
799.903026	0.882050
800.224299	0.882996
800.545526	0.886769
800.866708	0.890329
801.187845	0.894252
801.508936	0.893660
801.829983	0.892262
802.150984	0.894620
802.471940	0.900043
802.792851	0.899353
803.113717	0.899672
803.434538	0.897490
803.755314	0.900001
804.076045	0.901338
804.396731	0.900960
804.717372	0.901102
805.037967	0.903144
805.358518	0.901725
805.679024	0.898631
805.999485	0.898975
806.319901	0.899336
806.640272	0.899497
806.960598	0.898520
807.280879	0.895449
807.601115	0.894809
807.921306	0.897025
808.241453	0.897700
808.561554	0.896029
808.881611	0.896346
809.201623	0.898411
809.521590	0.898229
809.841513	0.899280
810.161390	0.897504
810.481223	0.899919
810.801011	0.902443
811.120755	0.904612
811.440453	0.904025
811.760107	0.901884
812.079716	0.901899
812.399281	0.905801
812.718801	0.908426
813.038276	0.909508
813.357707	0.908200
813.677093	0.905586
813.996434	0.908575
814.315731	0.910447
814.634983	0.911528
814.954191	0.909275
815.273354	0.907007
815.592473	0.903960
815.911547	0.903058
816.230577	0.901598
816.549562	0.897141
816.868502	0.899993
817.187399	0.895963
817.506250	0.889899
817.825058	0.892638
818.143821	0.888262
818.462539	0.883397
818.781213	0.875852
819.099843	0.865224
819.418429	0.848644
819.736970	0.832621
820.055466	0.813643
820.373919	0.788226
820.692327	0.756564
821.010691	0.722268
821.329011	0.646482
821.647286	0.533258
821.965517	0.420961
822.283704	0.378713
822.601847	0.380269
822.919945	0.415893
823.237999	0.448695
823.556010	0.494658
823.873976	0.549472
824.191897	0.599633
824.509775	0.640708
824.827609	0.685766
825.145398	0.708304
825.463144	0.710276
825.780845	0.693416
826.098502	0.675711
826.416116	0.630368
826.733685	0.587498
827.051210	0.579366
827.368692	0.594024
827.686129	0.629505
828.003522	0.682522
828.320872	0.728646
828.638177	0.771387
828.955439	0.803814
829.272656	0.825068
829.589830	0.841929
829.906960	0.858036
830.224046	0.869817
830.541088	0.879541
830.858086	0.884089
831.175041	0.890318
831.491952	0.889178
831.808819	0.886197
832.125642	0.879829
832.442421	0.865479
832.759157	0.843910
833.075849	0.798389
833.392497	0.735546
833.709101	0.695680
834.025662	0.705509
834.342179	0.736722
834.658653	0.774891
834.975083	0.810235
835.291469	0.836022
835.607811	0.856595
835.924110	0.872909
836.240366	0.889995
836.556578	0.903744
836.872746	0.910278
837.188871	0.917577
837.504952	0.922991
837.820990	0.925767
838.136984	0.928710
838.452935	0.932638
838.768842	0.933185
839.084706	0.927800
839.400526	0.901083
839.716303	0.862617
840.032037	0.840095
840.347727	0.845106
840.663373	0.861549
840.978977	0.883097
841.294537	0.904488
841.610054	0.920853
841.925527	0.928357
842.240957	0.935446
842.556344	0.941839
842.871687	0.947399
843.186987	0.951900
843.502244	0.951598
843.817458	0.953728
844.132629	0.957307
844.447756	0.961701
844.762840	0.961382
845.077881	0.959944
845.392879	0.961178
845.707833	0.964159
846.022745	0.965047
846.337613	0.966843
846.652438	0.967188
846.967221	0.965862
847.281960	0.965503
847.596656	0.968059
847.911309	0.966759
848.225919	0.968589
848.540485	0.969605
848.855009	0.969498
849.169490	0.969683
849.483928	0.970468
849.798323	0.970230
850.112675	0.971030
850.426984	0.971370
850.741251	0.971458
851.055474	0.971449
851.369654	0.969256
851.683792	0.970760
851.997887	0.970343
852.311938	0.970375
852.625947	0.970429
852.939914	0.969868
853.253837	0.971381
853.567718	0.971221
853.881555	0.972232
854.195350	0.969646
854.509103	0.970703
854.822812	0.970823
855.136479	0.971470
855.450103	0.970778
855.763685	0.968227
856.077224	0.969612
856.390720	0.972601
856.704173	0.971872
857.017584	0.970122
857.330953	0.968491
857.644278	0.969119
857.957561	0.969507
858.270802	0.968865
858.584000	0.969754
858.897155	0.968660
859.210268	0.968074
859.523339	0.970089
859.836367	0.970846
860.149352	0.971322
860.462295	0.970272
860.775195	0.971908
861.088054	0.971200
861.400869	0.971490
861.713642	0.971669
862.026373	0.970982
862.339062	0.972061
862.651708	0.968570
862.964312	0.969546
863.276873	0.970955
863.589392	0.968800
863.901869	0.967513
864.214303	0.965253
864.526696	0.966371
864.839045	0.964289
865.151353	0.962756
865.463619	0.963799
865.775842	0.964261
866.088023	0.963763
866.400162	0.962873
866.712258	0.963480
867.024313	0.964708
867.336325	0.965199
867.648296	0.964286
867.960224	0.963589
868.272110	0.963638
868.583954	0.965069
868.895755	0.965199
869.207515	0.963239
869.519233	0.961220
869.830909	0.962511
870.142542	0.964353
870.454134	0.962888
870.765684	0.962753
871.077191	0.959128
871.388657	0.960941
871.700081	0.959920
872.011463	0.960266
872.322803	0.960561
872.634101	0.958938
872.945357	0.956011
873.256571	0.955115
873.567744	0.955014
873.878874	0.956015
874.189963	0.953744
874.501010	0.954123
874.812015	0.951726
875.122979	0.954229
875.433900	0.954466
875.744780	0.955670
876.055618	0.952740
876.366415	0.952582
876.677169	0.951922
876.987882	0.953499
877.298554	0.954037
877.609183	0.949534
877.919771	0.947419
878.230317	0.945160
878.540822	0.943600
878.851285	0.937379
879.161707	0.930043
879.472087	0.917829
879.782425	0.903395
880.092722	0.870865
880.402977	0.819482
880.713191	0.760871
881.023363	0.704872
881.333494	0.671488
881.643583	0.644587
881.953631	0.643476
882.263637	0.672256
882.573602	0.710960
882.883526	0.735625
883.193408	0.758667
883.503248	0.780125
883.813048	0.806769
884.122806	0.835045
884.432522	0.857285
884.742197	0.875937
885.051831	0.886292
885.361424	0.896371
885.670975	0.907431
885.980485	0.917620
886.289954	0.923295
886.599382	0.928419
886.908768	0.931849
887.218113	0.937903
887.527417	0.941483
887.836680	0.945120
888.145901	0.946456
888.455082	0.948602
888.764221	0.953891
889.073319	0.956329
889.382376	0.954697
889.691392	0.956222
890.000366	0.954084
890.309300	0.955948
890.618193	0.955563
890.927044	0.953395
891.235855	0.954935
891.544625	0.953931
891.853353	0.954778
892.162041	0.951602
892.470687	0.945551
892.779293	0.940800
893.087858	0.937347
893.396381	0.929808
893.704864	0.917205
894.013306	0.894438
894.321707	0.868654
894.630068	0.855450
894.938387	0.851002
895.246665	0.852126
895.554903	0.863358
895.863100	0.875770
896.171256	0.893084
896.479371	0.910716
896.787446	0.924312
897.095480	0.929227
897.403473	0.932411
897.711425	0.935811
898.019336	0.943580
898.327207	0.946354
898.635038	0.948720
898.942827	0.947903
899.250576	0.951122
899.558284	0.954774
899.865952	0.956457
900.173579	0.957527
900.481165	0.957705
900.788711	0.962587
901.096216	0.963930
901.403681	0.964290
901.711105	0.965434
902.018489	0.966072
902.325832	0.964226
902.633135	0.962448
902.940397	0.958572
903.247619	0.947163
903.554800	0.922724
903.861941	0.884952
904.169041	0.850789
904.476101	0.834465
904.783121	0.835645
905.090100	0.850894
905.397039	0.871331
905.703938	0.892523
906.010796	0.911328
906.317614	0.926356
906.624391	0.938404
906.931129	0.947389
907.237826	0.954925
907.544483	0.961042
907.851099	0.965513
908.157675	0.969787
908.464211	0.972429
908.770707	0.974090
909.077163	0.976383
909.383578	0.976263
909.689954	0.976557
909.996289	0.977288
910.302584	0.978119
910.608839	0.980561
910.915054	0.979656
911.221229	0.979612
911.527363	0.977585
911.833458	0.978809
912.139513	0.977680
912.445527	0.976943
912.751502	0.977199
913.057436	0.972760
913.363331	0.972089
913.669186	0.968309
913.975000	0.962757
914.280775	0.958705
914.586510	0.950924
914.892205	0.939602
915.197859	0.918653
915.503475	0.893118
915.809050	0.875109
916.114585	0.870992
916.420081	0.867497
916.725536	0.864899
917.030952	0.871895
917.336328	0.885438
917.641665	0.898701
917.946961	0.912480
918.252218	0.923837
918.557435	0.932017
918.862612	0.941704
919.167750	0.945999
919.472848	0.951378
919.777906	0.955172
920.082925	0.962029
920.387904	0.964538
920.692843	0.966163
920.997743	0.966810
921.302603	0.969520
921.607423	0.972283
921.912204	0.973880
922.216946	0.974205
922.521647	0.974995
922.826310	0.976423
923.130932	0.978256
923.435516	0.980452
923.740059	0.981864
924.044564	0.979768
924.349028	0.981410
924.653454	0.983336
924.957840	0.986208
925.262186	0.985223
925.566493	0.985150
925.870761	0.985299
926.174989	0.986442
926.479178	0.989425
926.783328	0.988906
927.087438	0.990049
927.391509	0.987677
927.695541	0.991279
927.999533	0.990195
928.303486	0.991020
928.607400	0.991712
928.911275	0.989304
929.215110	0.990729
929.518906	0.992002
929.822663	0.989763
930.126381	0.993140
930.430060	0.991978
930.733699	0.990965
931.037299	0.990395
931.340861	0.990583
931.644383	0.989806
931.947866	0.990503
932.251309	0.990761
932.554714	0.991326
932.858080	0.991288
933.161407	0.990826
933.464694	0.990664
933.767943	0.989376
934.071153	0.991820
934.374323	0.992257
934.677455	0.991418
934.980548	0.992534
935.283602	0.992689
935.586617	0.991694
935.889593	0.991256
936.192530	0.991089
936.495428	0.991242
936.798287	0.991806
937.101108	0.990735
937.403890	0.990254
937.706632	0.989044
938.009336	0.988468
938.312002	0.986593
938.614628	0.986236
938.917216	0.985044
939.219765	0.983131
939.522275	0.985530
939.824747	0.984428
940.127179	0.984400
940.429573	0.986986
940.731929	0.984972
941.034246	0.985594
941.336524	0.986432
941.638763	0.987335
941.940964	0.987365
942.243126	0.987207
942.545250	0.988720
942.847335	0.989611
943.149381	0.988513
943.451389	0.989465
943.753359	0.989137
944.055290	0.992387
944.357182	0.990178
944.659036	0.989689
944.960851	0.990558
945.262628	0.990303
945.564367	0.992243
945.866067	0.990179
946.167729	0.989884
946.469352	0.991056
946.770937	0.990068
947.072484	0.992582
947.373992	0.990332
947.675462	0.991033
947.976893	0.991512
948.278286	0.990175
948.579641	0.992454
948.880958	0.991683
949.182236	0.992643
949.483476	0.991381
949.784678	0.990385
950.085841	0.991937
950.386967	0.992207
950.688054	0.990857
950.989103	0.991879
951.290114	0.990532
951.591087	0.989970
951.892021	0.991158
952.192917	0.991230
952.493776	0.988762
952.794596	0.988967
953.095378	0.988875
953.396122	0.988802
953.696828	0.988300
953.997496	0.991141
954.298126	0.991183
954.598718	0.990580
954.899272	0.991001
955.199788	0.991508
955.500266	0.993390
955.800706	0.994084
956.101108	0.993685
956.401472	0.993590
956.701798	0.993521
957.002087	0.993390
957.302337	0.994467
957.602550	0.995694
957.902724	0.994931
958.202861	0.995307
958.502960	0.995818
958.803022	0.993681
959.103045	0.996011
959.403031	0.996713
959.702979	0.994949
960.002889	0.996277
960.302762	0.994440
960.602596	0.996020
960.902393	0.994908
961.202153	0.997347
961.501875	0.997885
961.801559	0.996014
962.101205	0.995655
962.400814	0.996554
962.700385	0.996550
962.999918	0.996086
963.299414	0.996823
963.598873	0.995979
963.898293	0.996251
964.197677	0.996002
964.497022	0.996135
964.796331	0.997199
965.095601	0.996851
965.394835	0.996673
965.694030	0.997095
965.993189	0.997731
966.292309	0.996403
966.591393	0.997288
966.890439	0.997833
967.189447	0.996552
967.488419	0.997392
967.787353	0.996503
968.086249	0.997291
968.385108	0.996118
968.683930	0.997345
968.982714	0.997231
969.281462	0.998327
969.580172	0.997532
969.878844	0.997711
970.177480	0.995826
970.476078	0.997280
970.774639	0.996404
971.073162	0.998431
971.371649	0.997118
971.670098	0.996328
971.968510	0.998678
972.266885	0.995680
972.565223	0.996799
972.863524	0.996859
973.161788	0.995742
973.460014	0.999098
973.758204	0.995475
974.056356	0.996581
974.354471	0.994493
974.652550	0.995803
974.950591	0.996182
975.248595	0.996339
975.546563	0.997388
975.844493	0.998271
976.142386	0.997285
976.440243	0.997691
976.738062	0.996220
977.035845	0.997868
977.333590	0.997080
977.631299	0.998820
977.928971	0.997431
978.226606	0.997280
978.524204	0.995780
978.821765	0.998884
979.119290	0.996627
979.416777	0.996563
979.714228	0.996523
980.011642	0.996990
980.309020	0.996764
980.606360	0.997526
980.903664	0.999200
981.200931	0.995991
981.498162	0.995907
981.795356	0.994713
982.092513	0.993908
982.389633	0.995095
982.686717	0.992051
982.983764	0.991242
983.280775	0.991373
983.577749	0.991873
983.874686	0.991875
984.171587	0.992168
984.468451	0.994779
984.765279	0.995014
985.062070	0.994097
985.358824	0.995240
985.655543	0.994789
985.952224	0.995727
986.248869	0.996581
986.545478	0.995748
986.842050	0.997773
987.138586	0.996335
987.435086	0.996959
987.731549	0.997824
988.027975	0.997698
988.324366	0.998342
988.620719	0.997790
988.917037	0.996446
989.213318	0.998707
989.509563	0.999205
989.805772	0.999492
990.101944	0.998119
990.398080	0.997619
990.694180	0.997448
990.990244	0.997458
991.286271	0.998380
991.582262	0.998269
991.878217	0.998577
992.174136	0.998707
992.470019	0.997895
992.765865	0.998019
993.061676	0.997651
993.357450	0.997980
993.653188	0.997954
993.948890	0.997328
994.244556	0.998509
994.540186	0.997908
994.835780	0.997396
995.131337	0.998351
995.426859	0.997757
995.722345	0.997192
996.017795	0.996561
996.313208	0.996377
996.608586	0.996255
996.903928	0.996205
997.199234	0.996322
997.494504	0.996535
997.789738	0.996622
998.084936	0.996431
998.380099	0.998094
998.675225	0.997640
998.970316	0.997743
999.265371	0.997773
999.560390	0.997462
999.855373	0.999394
1000.150320	0.998244
1000.445232	0.998444
1000.740108	0.998616
1001.034948	0.998508
1001.329752	0.999482
1001.624521	0.998514
1001.919254	0.997934
1002.213951	0.998622
1002.508613	0.997930
1002.803239	0.999173
1003.097829	0.998768
1003.392384	0.999282
1003.686903	0.997818
1003.981386	0.998617
1004.275834	0.999205
1004.570246	0.997540
1004.864623	0.999028
1005.158964	0.999331
1005.453270	0.997939
1005.747540	0.998273
1006.041775	0.998986
1006.335974	0.998479
1006.630138	0.998243
1006.924266	0.999506
1007.218359	1.000439
1007.512416	1.000470
1007.806438	0.998488
1008.100425	0.998793
1008.394376	0.998498
1008.688292	0.998918
1008.982172	1.000693
1009.276017	0.998901
1009.569827	0.998027
1009.863602	0.997639
1010.157341	1.000222
1010.451045	1.000546
1010.744714	0.998029
1011.038347	0.999446
1011.331945	0.998962
1011.625508	0.997253
1011.919036	0.998896
1012.212528	1.000110
1012.505986	0.998732
1012.799408	0.997458
1013.092795	0.999179
1013.386147	0.999225
1013.679464	0.998328
1013.972745	0.998784
1014.265992	0.997594
1014.559204	0.998041
1014.852380	0.999675
1015.145521	0.998784
1015.438628	0.999126
1015.731699	0.998831
1016.024736	0.998453
1016.317737	0.999229
1016.610703	0.999112
1016.903635	0.999421
1017.196531	0.998630
1017.489393	0.999630
1017.782219	0.998266
1018.075011	0.998436
1018.367768	0.998746
1018.660490	1.000123
1018.953177	1.000123
1019.245829	1.000123
