Dividing Wavelength (nm)	Counts (n)	Blue Motor Position (mm): 0.000000	Red Motor Position (mm): 5.100000	
326.493990	1.001726
326.888308	1.001726
327.282561	1.001726
327.676750	1.000558
328.070874	0.999316
328.464933	1.000216
328.858929	0.998551
329.252859	0.999278
329.646726	0.998855
330.040528	1.000534
330.434265	0.998823
330.827938	1.001101
331.221547	1.001273
331.615091	1.000084
332.008571	1.000888
332.401986	1.000455
332.795338	0.999937
333.188625	0.997783
333.581847	1.000461
333.975006	1.000378
334.368100	0.998378
334.761129	1.000251
335.154095	1.000191
335.546996	0.998102
335.939833	0.993453
336.332606	0.992425
336.725315	0.993694
337.117960	0.994052
337.510540	0.993273
337.903056	0.994342
338.295508	0.993038
338.687896	0.993561
339.080220	0.993899
339.472480	0.993442
339.864676	0.993406
340.256807	0.993386
340.648875	0.993771
341.040879	0.993545
341.432818	0.993911
341.824694	0.992871
342.216506	0.992795
342.608253	0.994976
342.999937	0.993610
343.391557	0.992943
343.783113	0.992534
344.174605	0.993555
344.566033	0.993665
344.957397	0.992756
345.348697	0.992839
345.739934	0.992765
346.131106	0.993553
346.522215	0.992754
346.913260	0.993143
347.304241	0.992791
347.695159	0.993700
348.086012	0.991621
348.476802	0.992429
348.867528	0.993923
349.258191	0.992908
349.648789	0.994467
350.039324	0.992631
350.429796	0.993606
350.820203	0.993893
351.210548	0.992834
351.600828	0.992951
351.991045	0.991880
352.381198	0.992472
352.771288	0.992154
353.161314	0.993384
353.551276	0.994402
353.941175	0.993053
354.331010	0.992657
354.720782	0.993354
355.110490	0.992421
355.500135	0.993735
355.889717	0.992930
356.279235	0.992387
356.668689	0.991683
357.058080	0.992468
357.447408	0.993824
357.836672	0.993558
358.225873	0.993886
358.615010	0.992622
359.004084	0.994544
359.393095	0.992892
359.782043	0.991793
360.170927	0.993599
360.559748	0.993672
360.948505	0.991855
361.337199	0.992328
361.725830	0.992701
362.114398	0.992059
362.502903	0.992808
362.891344	0.992896
363.279722	0.992247
363.668037	0.991573
364.056289	0.992163
364.444478	0.992112
364.832603	0.993361
365.220665	0.991889
365.608665	0.991982
365.996601	0.992293
366.384474	0.990277
366.772284	0.991644
367.160031	0.990916
367.547715	0.989835
367.935336	0.990790
368.322893	0.990431
368.710388	0.990510
369.097820	0.991549
369.485189	0.988468
369.872495	0.989630
370.259738	0.985803
370.646918	0.987487
371.034035	0.986615
371.421090	0.984443
371.808081	0.981026
372.195010	0.980537
372.581875	0.977768
372.968678	0.974510
373.355418	0.972220
373.742096	0.968444
374.128710	0.964652
374.515262	0.959374
374.901751	0.957816
375.288177	0.952944
375.674540	0.946970
376.060841	0.940766
376.447079	0.936092
376.833254	0.929227
377.219367	0.924393
377.605417	0.915062
377.991404	0.910116
378.377329	0.903202
378.763191	0.897346
379.148991	0.889125
379.534727	0.880973
379.920402	0.872725
380.306013	0.867330
380.691563	0.854719
381.077049	0.848326
381.462474	0.840795
381.847835	0.830937
382.233134	0.823229
382.618371	0.821577
383.003545	0.804494
383.388657	0.800922
383.773706	0.792475
384.158693	0.786708
384.543618	0.778415
384.928480	0.770307
385.313280	0.757407
385.698017	0.756640
386.082692	0.744777
386.467305	0.740830
386.851856	0.733439
387.236344	0.727742
387.620770	0.720321
388.005133	0.714354
388.389435	0.709097
388.773674	0.705010
389.157851	0.696336
389.541965	0.692167
389.926018	0.698287
390.310008	0.685316
390.693936	0.681350
391.077802	0.674025
391.461606	0.675353
391.845348	0.664611
392.229027	0.664299
392.612645	0.661677
392.996200	0.649339
393.379694	0.641259
393.763125	0.631329
394.146494	0.636695
394.529801	0.627054
394.913047	0.618836
395.296230	0.623989
395.679351	0.616036
396.062410	0.612439
396.445408	0.615781
396.828343	0.610444
397.211217	0.605664
397.594028	0.618137
397.976778	0.608184
398.359466	0.604313
398.742092	0.599356
399.124656	0.611644
399.507158	0.599907
399.889598	0.596760
400.271977	0.588155
400.654294	0.592628
401.036549	0.591330
401.418742	0.595870
401.800874	0.580590
402.182944	0.579139
402.564952	0.569806
402.946898	0.572731
403.328783	0.572476
403.710606	0.583885
404.092367	0.558808
404.474067	0.563348
404.855705	0.562567
405.237282	0.571833
405.618797	0.557482
406.000250	0.553043
406.381642	0.544127
406.762972	0.548150
407.144240	0.548197
407.525447	0.547751
407.906593	0.540511
408.287677	0.536006
408.668700	0.544064
409.049661	0.537659
409.430560	0.532998
409.811399	0.541667
410.192176	0.523742
410.572891	0.530436
410.953545	0.519005
411.334138	0.532160
411.714669	0.525464
412.095139	0.536280
412.475547	0.521530
412.855894	0.522722
413.236180	0.521986
413.616405	0.527077
413.996568	0.517663
414.376670	0.524124
414.756711	0.528655
415.136691	0.525960
415.516609	0.517130
415.896466	0.512872
416.276262	0.509677
416.655997	0.511325
417.035670	0.492913
417.415283	0.484537
417.794834	0.489261
418.174324	0.494491
418.553753	0.504127
418.933121	0.486104
419.312428	0.479562
419.691674	0.485511
420.070859	0.473772
420.449983	0.481829
420.829045	0.471443
421.208047	0.480117
421.586988	0.473728
421.965867	0.472418
422.344686	0.461306
422.723444	0.473357
423.102141	0.490569
423.480777	0.463796
423.859352	0.484170
424.237866	0.461038
424.616319	0.461990
424.994712	0.453553
425.373044	0.463337
425.751314	0.451983
426.129524	0.467521
426.507673	0.451276
426.885762	0.445497
427.263789	0.450553
427.641756	0.460491
428.019662	0.450227
428.397508	0.449588
428.775292	0.453602
429.153016	0.446204
429.530679	0.452654
429.908282	0.445628
430.285824	0.455242
430.663305	0.434151
431.040726	0.454766
431.418086	0.455283
431.795385	0.446509
432.172624	0.445445
432.549802	0.446788
432.926920	0.445345
433.303977	0.444382
433.680974	0.441788
434.057910	0.440183
434.434786	0.439800
434.811601	0.442113
435.188355	0.424209
435.565050	0.433398
435.941683	0.435143
436.318257	0.419896
436.694770	0.419888
437.071222	0.418009
437.447614	0.422989
437.823946	0.429319
438.200218	0.418636
438.576429	0.428394
438.952580	0.421531
439.328670	0.418083
439.704700	0.424883
440.080670	0.425739
440.456580	0.406667
440.832429	0.414509
441.208218	0.425735
441.583947	0.415084
441.959616	0.415181
442.335224	0.419707
442.710773	0.410892
443.086261	0.408351
443.461689	0.422887
443.837057	0.412433
444.212365	0.401928
444.587612	0.409111
444.962800	0.398714
445.337927	0.400840
445.712995	0.426620
446.088002	0.389292
446.462949	0.399170
446.837837	0.403959
447.212664	0.392972
447.587431	0.384423
447.962139	0.355212
448.336786	0.314779
448.711374	0.324764
449.085901	0.368551
449.460369	0.372923
449.834776	0.376524
450.209124	0.356316
450.583412	0.348693
450.957640	0.341680
451.331808	0.353344
451.705917	0.376056
452.079965	0.380957
452.453954	0.369113
452.827883	0.375200
453.201752	0.370869
453.575562	0.382203
453.949311	0.370383
454.323001	0.377111
454.696632	0.372527
455.070202	0.365497
455.443713	0.356608
455.817164	0.351968
456.190556	0.347539
456.563888	0.344864
456.937160	0.342316
457.310373	0.359389
457.683526	0.358047
458.056619	0.363804
458.429653	0.364297
458.802628	0.367796
459.175542	0.362139
459.548398	0.344453
459.921194	0.337012
460.293930	0.337380
460.666607	0.314935
461.039224	0.302966
461.411782	0.298364
461.784280	0.298216
462.156719	0.302097
462.529099	0.306869
462.901419	0.322824
463.273680	0.327041
463.645882	0.326428
464.018024	0.332376
464.390106	0.325023
464.762130	0.310091
465.134094	0.292909
465.505999	0.262273
465.877845	0.232669
466.249631	0.219384
466.621358	0.227185
466.993026	0.240610
467.364634	0.246760
467.736184	0.255724
468.107674	0.264542
468.479105	0.263344
468.850477	0.270253
469.221790	0.277066
469.593043	0.287406
469.964238	0.292505
470.335373	0.291961
470.706449	0.289943
471.077467	0.290716
471.448425	0.252399
471.819324	0.228343
472.190164	0.227493
472.560945	0.256139
472.931667	0.278560
473.302330	0.282677
473.672934	0.294497
474.043479	0.282597
474.413965	0.284289
474.784393	0.287868
475.154761	0.282937
475.525070	0.280203
475.895321	0.286029
476.265513	0.279734
476.635645	0.275392
477.005719	0.274848
477.375734	0.271912
477.745691	0.265331
478.115588	0.261722
478.485427	0.255415
478.855207	0.242092
479.224928	0.224605
479.594591	0.212852
479.964194	0.216234
480.333739	0.217435
480.703226	0.218892
481.072653	0.217683
481.442022	0.212912
481.811333	0.209367
482.180584	0.213092
482.549777	0.218287
482.918912	0.221800
483.287988	0.221105
483.657005	0.221139
484.025964	0.227424
484.394864	0.224744
484.763706	0.225470
485.132489	0.230169
485.501213	0.231173
485.869879	0.229247
486.238487	0.232920
486.607036	0.230403
486.975527	0.235252
487.343959	0.231021
487.712333	0.230086
488.080648	0.231550
488.448905	0.230897
488.817104	0.232044
489.185244	0.226456
489.553326	0.223382
489.921350	0.213186
490.289315	0.195486
490.657222	0.190950
491.025070	0.192204
491.392861	0.194087
491.760593	0.200030
492.128267	0.205297
492.495883	0.211050
492.863440	0.217116
493.230939	0.223457
493.598380	0.224995
493.965763	0.227237
494.333088	0.229488
494.700354	0.230782
495.067563	0.229464
495.434713	0.233283
495.801805	0.231157
496.168839	0.232426
496.535815	0.233642
496.902733	0.233677
497.269593	0.235368
497.636395	0.233316
498.003139	0.233489
498.369825	0.236512
498.736453	0.232911
499.103023	0.234190
499.469535	0.233903
499.835989	0.234002
500.202385	0.234976
500.568723	0.238226
500.935003	0.233470
501.301226	0.237566
501.667390	0.232065
502.033497	0.230118
502.399546	0.233290
502.765537	0.234627
503.131470	0.233530
503.497345	0.229479
503.863163	0.238517
504.228923	0.231267
504.594625	0.230064
504.960269	0.235446
505.325856	0.230593
505.691385	0.235163
506.056856	0.231797
506.422270	0.231078
506.787625	0.233428
507.152924	0.231237
507.518164	0.231595
507.883347	0.233245
508.248472	0.234524
508.613540	0.230033
508.978550	0.232513
509.343503	0.232914
509.708398	0.230642
510.073236	0.228173
510.438016	0.228135
510.802738	0.228838
511.167403	0.228111
511.532010	0.230226
511.896561	0.225550
512.261053	0.224118
512.625488	0.226339
512.989866	0.226749
513.354186	0.226962
513.718449	0.228882
514.082655	0.225341
514.446803	0.227435
514.810894	0.224882
515.174927	0.227615
515.538904	0.226964
515.902822	0.223984
516.266684	0.226357
516.630488	0.227732
516.994235	0.226418
517.357925	0.225233
517.721558	0.223503
518.085133	0.222913
518.448651	0.223034
518.812112	0.225050
519.175516	0.224928
519.538863	0.222495
519.902152	0.224230
520.265385	0.220843
520.628560	0.222658
520.991678	0.223234
521.354739	0.221994
521.717743	0.223415
522.080690	0.223841
522.443580	0.220878
522.806413	0.222042
523.169189	0.221207
523.531908	0.220235
523.894569	0.223750
524.257174	0.224015
524.619722	0.221408
524.982213	0.222624
525.344647	0.221505
525.707025	0.222313
526.069345	0.220308
526.431608	0.222191
526.793815	0.219629
527.155964	0.224396
527.518057	0.223017
527.880093	0.224249
528.242072	0.222720
528.603995	0.224676
528.965860	0.226325
529.327669	0.225144
529.689421	0.226196
530.051117	0.226898
530.412755	0.224765
530.774337	0.227001
531.135862	0.227422
531.497331	0.226647
531.858743	0.229562
532.220098	0.226310
532.581396	0.228845
532.942638	0.229107
533.303824	0.230083
533.664953	0.230170
534.026025	0.231607
534.387040	0.229466
534.747999	0.229568
535.108902	0.228708
535.469748	0.233535
535.830537	0.231521
536.191270	0.231864
536.551947	0.231323
536.912567	0.231121
537.273131	0.233135
537.633638	0.233088
537.994089	0.233632
538.354483	0.234879
538.714821	0.231862
539.075103	0.231289
539.435328	0.232193
539.795497	0.235700
540.155609	0.232442
540.515665	0.230722
540.875665	0.236312
541.235609	0.234775
541.595496	0.234810
541.955328	0.231429
542.315102	0.233804
542.674821	0.234930
543.034483	0.234996
543.394090	0.234625
543.753640	0.236852
544.113134	0.231737
544.472571	0.235118
544.831953	0.231993
545.191278	0.235955
545.550548	0.235692
545.909761	0.232511
546.268918	0.232763
546.628019	0.231406
546.987064	0.233950
547.346053	0.235836
547.704986	0.233884
548.063863	0.234095
548.422684	0.234194
548.781449	0.236159
549.140158	0.233797
549.498811	0.236633
549.857408	0.239527
550.215949	0.234400
550.574434	0.237417
550.932864	0.235439
551.291237	0.233934
551.649555	0.235639
552.007817	0.235077
552.366022	0.235976
552.724173	0.236421
553.082267	0.236628
553.440305	0.233389
553.798288	0.237891
554.156215	0.234621
554.514086	0.235271
554.871902	0.238516
555.229661	0.237610
555.587365	0.238104
555.945014	0.240752
556.302606	0.237444
556.660143	0.240180
557.017625	0.236487
557.375050	0.238969
557.732421	0.235902
558.089735	0.237888
558.446994	0.237930
558.804197	0.237073
559.161345	0.237048
559.518437	0.240413
559.875474	0.238182
560.232455	0.237546
560.589381	0.238817
560.946251	0.238848
561.303065	0.236399
561.659825	0.237924
562.016528	0.239275
562.373177	0.242235
562.729770	0.239565
563.086307	0.241659
563.442789	0.239256
563.799216	0.242133
564.155587	0.240981
564.511904	0.241996
564.868164	0.242142
565.224370	0.241826
565.580520	0.243693
565.936615	0.243623
566.292654	0.246735
566.648638	0.243723
567.004567	0.244371
567.360441	0.245358
567.716260	0.247228
568.072023	0.244598
568.427732	0.245580
568.783385	0.248329
569.138982	0.246182
569.494525	0.245856
569.850013	0.248706
570.205445	0.247153
570.560823	0.249762
570.916145	0.252001
571.271412	0.249739
571.626625	0.251570
571.981782	0.251892
572.336884	0.252638
572.691931	0.252108
573.046923	0.253517
573.401860	0.254873
573.756743	0.256742
574.111570	0.255309
574.466342	0.255928
574.821059	0.255269
575.175722	0.257962
575.530330	0.257853
575.884882	0.257931
576.239380	0.259969
576.593823	0.260425
576.948211	0.259773
577.302544	0.263323
577.656823	0.263020
578.011047	0.262818
578.365216	0.263556
578.719330	0.265469
579.073389	0.265647
579.427394	0.266791
579.781344	0.267729
580.135239	0.268927
580.489080	0.268490
580.842866	0.271538
581.196597	0.271822
581.550273	0.270346
581.903895	0.271050
582.257463	0.269397
582.610975	0.272804
582.964434	0.272050
583.317837	0.274346
583.671186	0.274633
584.024481	0.274697
584.377721	0.277445
584.730906	0.278167
585.084037	0.276982
585.437113	0.279152
585.790135	0.278632
586.143103	0.281601
586.496016	0.282491
586.848874	0.280179
587.201679	0.280855
587.554428	0.284066
587.907124	0.282770
588.259765	0.283224
588.612352	0.284095
588.964884	0.288051
589.317362	0.287293
589.669786	0.287534
590.022155	0.286505
590.374470	0.284900
590.726731	0.287202
591.078937	0.292173
591.431090	0.288509
591.783188	0.292600
592.135232	0.293136
592.487222	0.292908
592.839157	0.291238
593.191038	0.293287
593.542866	0.295587
593.894639	0.298731
594.246358	0.296661
594.598022	0.296555
594.949633	0.300141
595.301190	0.300668
595.652692	0.300092
596.004141	0.296264
596.355535	0.304334
596.706876	0.304563
597.058162	0.307000
597.409395	0.304170
597.760573	0.302076
598.111698	0.305307
598.462768	0.305459
598.813785	0.307173
599.164748	0.308243
599.515657	0.308750
599.866511	0.311878
600.217312	0.307316
600.568060	0.312446
600.918753	0.308990
601.269392	0.309726
601.619978	0.313302
601.970510	0.310566
602.320988	0.310991
602.671412	0.309050
603.021783	0.311468
603.372100	0.312318
603.722363	0.312410
604.072572	0.313105
604.422728	0.312938
604.772830	0.315059
605.122878	0.314668
605.472872	0.314897
605.822813	0.313066
606.172701	0.316284
606.522534	0.313840
606.872314	0.313162
607.222041	0.314133
607.571714	0.312793
607.921333	0.314061
608.270899	0.313646
608.620411	0.310357
608.969870	0.314245
609.319276	0.314544
609.668627	0.314482
610.017926	0.312717
610.367171	0.311119
610.716362	0.311806
611.065500	0.312339
611.414585	0.311357
611.763616	0.311676
612.112594	0.311881
612.461518	0.311714
612.810389	0.309027
613.159207	0.311328
613.507971	0.313210
613.856682	0.309122
614.205340	0.310610
614.553945	0.307609
614.902496	0.311187
615.250994	0.309341
615.599439	0.310034
615.947830	0.309587
616.296169	0.310492
616.644454	0.310184
616.992686	0.309992
617.340864	0.308261
617.688990	0.311546
618.037063	0.307900
618.385082	0.310134
618.733048	0.306976
619.080961	0.309276
619.428821	0.308576
619.776628	0.308392
620.124382	0.310014
620.472083	0.310393
620.819731	0.309715
621.167326	0.313613
621.514868	0.313337
621.862357	0.317724
622.209793	0.317300
622.557176	0.319326
622.904506	0.320421
623.251783	0.322728
623.599007	0.325290
623.946179	0.324933
624.293297	0.326589
624.640363	0.330457
624.987376	0.331008
625.334336	0.333307
625.681243	0.335970
626.028097	0.336838
626.374899	0.337537
626.721647	0.337558
627.068343	0.341335
627.414987	0.342058
627.761577	0.344435
628.108115	0.342749
628.454600	0.348041
628.801032	0.344932
629.147412	0.347370
629.493739	0.347606
629.840014	0.350431
630.186236	0.348409
630.532405	0.353756
630.878521	0.351174
631.224585	0.353519
631.570597	0.357149
631.916556	0.355374
632.262462	0.355540
632.608316	0.357824
632.954117	0.358145
633.299866	0.359515
633.645562	0.359554
633.991206	0.363923
634.336797	0.366855
634.682336	0.369261
635.027823	0.370827
635.373257	0.371179
635.718639	0.374947
636.063968	0.374049
636.409245	0.379900
636.754470	0.380217
637.099642	0.382801
637.444762	0.386129
637.789829	0.385271
638.134845	0.388614
638.479808	0.390156
638.824719	0.389849
639.169577	0.393457
639.514383	0.392275
639.859137	0.396808
640.203839	0.396745
640.548489	0.397447
640.893086	0.398062
641.237632	0.399939
641.582125	0.398569
641.926566	0.400021
642.270955	0.400199
642.615292	0.400590
642.959576	0.399627
643.303809	0.400110
643.647990	0.399846
643.992118	0.400558
644.336195	0.403858
644.680219	0.402588
645.024192	0.403080
645.368112	0.396665
645.711981	0.395847
646.055797	0.390855
646.399562	0.393110
646.743274	0.384985
647.086935	0.382313
647.430544	0.383057
647.774101	0.381746
648.117606	0.381005
648.461059	0.381555
648.804460	0.384400
649.147810	0.389664
649.491108	0.391494
649.834354	0.392581
650.177548	0.398753
650.520690	0.403514
650.863781	0.404360
651.206820	0.404310
651.549807	0.408598
651.892742	0.412731
652.235626	0.412153
652.578458	0.413048
652.921238	0.419408
653.263967	0.417063
653.606644	0.421289
653.949269	0.420545
654.291843	0.424648
654.634365	0.420771
654.976836	0.424841
655.319255	0.424726
655.661622	0.426301
656.003938	0.426331
656.346203	0.429407
656.688416	0.427162
657.030577	0.430936
657.372687	0.432501
657.714746	0.433602
658.056753	0.430393
658.398708	0.433865
658.740612	0.435479
659.082465	0.431240
659.424266	0.432231
659.766016	0.431287
660.107715	0.434380
660.449362	0.432862
660.790958	0.433341
661.132503	0.433440
661.473996	0.431922
661.815438	0.432829
662.156829	0.433327
662.498168	0.433585
662.839456	0.435121
663.180693	0.432877
663.521879	0.432967
663.863013	0.433816
664.204097	0.432407
664.545129	0.428904
664.886110	0.429520
665.227040	0.426722
665.567918	0.429362
665.908746	0.427343
666.249522	0.427125
666.590248	0.428112
666.930922	0.426236
667.271545	0.424970
667.612118	0.424960
667.952639	0.426928
668.293109	0.425523
668.633528	0.428028
668.973896	0.428178
669.314213	0.428442
669.654480	0.430461
669.994695	0.430506
670.334859	0.431753
670.674973	0.431704
671.015035	0.431998
671.355047	0.431790
671.695008	0.432552
672.034918	0.434440
672.374777	0.433907
672.714585	0.435211
673.054342	0.434453
673.394049	0.435069
673.733705	0.432687
674.073310	0.433812
674.412864	0.436921
674.752368	0.437717
675.091820	0.437670
675.431223	0.441874
675.770574	0.441878
676.109875	0.445215
676.449125	0.445168
676.788324	0.447237
677.127473	0.452481
677.466571	0.452782
677.805619	0.454453
678.144616	0.455069
678.483562	0.456456
678.822458	0.459581
679.161303	0.460310
679.500098	0.461091
679.838842	0.462883
680.177535	0.462120
680.516179	0.460477
680.854771	0.460128
681.193314	0.453145
681.531805	0.444713
681.870247	0.432683
682.208638	0.425571
682.546978	0.423902
682.885268	0.426089
683.223508	0.432192
683.561697	0.436135
683.899836	0.438959
684.237925	0.442377
684.575963	0.444205
684.913951	0.447522
685.251889	0.443436
685.589776	0.445506
685.927614	0.448278
686.265401	0.442827
686.603137	0.443793
686.940824	0.437381
687.278460	0.435876
687.616046	0.434837
687.953582	0.429863
688.291068	0.431411
688.628504	0.427338
688.965889	0.429290
689.303224	0.433447
689.640510	0.437620
689.977745	0.443413
690.314930	0.451122
690.652065	0.455720
690.989150	0.463407
691.326185	0.469405
691.663170	0.474223
692.000105	0.481158
692.336990	0.488713
692.673825	0.490943
693.010610	0.498078
693.347345	0.503656
693.684030	0.504532
694.020665	0.509575
694.357251	0.518960
694.693786	0.518170
695.030272	0.522474
695.366707	0.525342
695.703093	0.529100
696.039429	0.527024
696.375716	0.528723
696.711952	0.531373
697.048139	0.533458
697.384276	0.535364
697.720363	0.533582
698.056400	0.533266
698.392388	0.538084
698.728326	0.541230
699.064214	0.544282
699.400053	0.545126
699.735842	0.548758
700.071581	0.551416
700.407270	0.553993
700.742910	0.557325
701.078501	0.562753
701.414042	0.563785
701.749533	0.566675
702.084974	0.575609
702.420366	0.568040
702.755709	0.575201
703.091002	0.582856
703.426246	0.576503
703.761440	0.582579
704.096584	0.587328
704.431679	0.584983
704.766725	0.586593
705.101721	0.588246
705.436668	0.584383
705.771565	0.591280
706.106413	0.587379
706.441212	0.582875
706.775961	0.581828
707.110661	0.584357
707.445311	0.581575
707.779913	0.578217
708.114465	0.576779
708.448967	0.573498
708.783421	0.565960
709.117825	0.560260
709.452180	0.560203
709.786485	0.553374
710.120742	0.543687
710.454949	0.545860
710.789107	0.538366
711.123216	0.528672
711.457275	0.530602
711.791286	0.521491
712.125247	0.520005
712.459159	0.530615
712.793023	0.523057
713.126837	0.527323
713.460602	0.528349
713.794318	0.537168
714.127985	0.536203
714.461602	0.546446
714.795171	0.549860
715.128691	0.557475
715.462162	0.564702
715.795584	0.570598
716.128957	0.573666
716.462281	0.580089
716.795556	0.584044
717.128782	0.588720
717.461960	0.598658
717.795088	0.596290
718.128167	0.602751
718.461198	0.611468
718.794180	0.612227
719.127113	0.615640
719.459997	0.618555
719.792833	0.624767
720.125619	0.626029
720.458357	0.631945
720.791046	0.632409
721.123686	0.635702
721.456278	0.641881
721.788821	0.639780
722.121315	0.644141
722.453761	0.647711
722.786158	0.645834
723.118506	0.642098
723.450805	0.650389
723.783056	0.646275
724.115259	0.642818
724.447412	0.643360
724.779518	0.643761
725.111574	0.643748
725.443582	0.638488
725.775542	0.640527
726.107453	0.633179
726.439315	0.632453
726.771129	0.631179
727.102895	0.623815
727.434612	0.617492
727.766281	0.615562
728.097901	0.614630
728.429473	0.614095
728.760996	0.612642
729.092471	0.612211
729.423897	0.617200
729.755276	0.616088
730.086606	0.615910
730.417887	0.610510
730.749120	0.601189
731.080305	0.592209
731.411442	0.588446
731.742530	0.592690
732.073570	0.591649
732.404562	0.584469
732.735506	0.586127
733.066401	0.590789
733.397249	0.599690
733.728048	0.611317
734.058798	0.623953
734.389501	0.634277
734.720156	0.644347
735.050762	0.652408
735.381320	0.652991
735.711831	0.662297
736.042293	0.667148
736.372707	0.662659
736.703073	0.668430
737.033391	0.669788
737.363661	0.666455
737.693883	0.662047
738.024056	0.661221
738.354182	0.661882
738.684260	0.650239
739.014290	0.647130
739.344272	0.646847
739.674207	0.640679
740.004093	0.640247
740.333931	0.640669
740.663722	0.640855
740.993464	0.641847
741.323159	0.644655
741.652806	0.650821
741.982405	0.654973
742.311956	0.660549
742.641460	0.661643
742.970915	0.665308
743.300323	0.672376
743.629683	0.679472
743.958996	0.682077
744.288260	0.685746
744.617477	0.692035
744.946647	0.693316
745.275768	0.698237
745.604842	0.699631
745.933869	0.708279
746.262847	0.708993
746.591778	0.702557
746.920662	0.708771
747.249498	0.715352
747.578286	0.706635
747.907027	0.702584
748.235720	0.702869
748.564365	0.698237
748.892963	0.697718
749.221514	0.700515
749.550017	0.705971
749.878473	0.705954
750.206881	0.712523
750.535242	0.712877
750.863555	0.713473
751.191821	0.713896
751.520039	0.716788
751.848210	0.721868
752.176334	0.715274
752.504411	0.714136
752.832440	0.722424
753.160421	0.725233
753.488356	0.723861
753.816243	0.721538
754.144082	0.730810
754.471875	0.733381
754.799620	0.728084
755.127318	0.731026
755.454969	0.730043
755.782572	0.729575
756.110129	0.734998
756.437638	0.736567
756.765100	0.733442
757.092515	0.732196
757.419882	0.730933
757.747203	0.736394
758.074477	0.736095
758.401703	0.732217
758.728882	0.726813
759.056014	0.726494
759.383099	0.725143
759.710138	0.726944
760.037129	0.722990
760.364073	0.717112
760.690970	0.719394
761.017820	0.725318
761.344623	0.720510
761.671379	0.711356
761.998088	0.700060
762.324751	0.676755
762.651366	0.634983
762.977935	0.567749
763.304456	0.515232
763.630931	0.505316
763.957359	0.545058
764.283740	0.589386
764.610074	0.617376
764.936362	0.648130
765.262602	0.675506
765.588796	0.696248
765.914943	0.715024
766.241044	0.733100
766.567097	0.739407
766.893104	0.749083
767.219064	0.755182
767.544978	0.762824
767.870845	0.775376
768.196665	0.779020
768.522438	0.777556
768.848165	0.778696
769.173846	0.787925
769.499479	0.791201
769.825066	0.795067
770.150607	0.800849
770.476101	0.796428
770.801548	0.795948
771.126949	0.808713
771.452303	0.812840
771.777611	0.811069
772.102872	0.811342
772.428087	0.816480
772.753256	0.819494
773.078378	0.821660
773.403453	0.830210
773.728482	0.835194
774.053465	0.828256
774.378401	0.831190
774.703291	0.839960
775.028135	0.839404
775.352932	0.841857
775.677683	0.844071
776.002388	0.844996
776.327046	0.843062
776.651658	0.847489
776.976224	0.849671
777.300743	0.851545
777.625216	0.853933
777.949643	0.854374
778.274024	0.855453
778.598359	0.856838
778.922647	0.855376
779.246889	0.856082
779.571086	0.859529
779.895236	0.863267
780.219339	0.859754
780.543397	0.856321
780.867409	0.855304
781.191374	0.858249
781.515294	0.859343
781.839167	0.856870
782.162995	0.860372
782.486776	0.858706
782.810511	0.858217
783.134201	0.863024
783.457844	0.859664
783.781441	0.862243
784.104993	0.868238
784.428498	0.870044
784.751958	0.864936
785.075372	0.867584
785.398739	0.871487
785.722061	0.867938
786.045337	0.863323
786.368568	0.867272
786.691752	0.869372
787.014891	0.855968
787.337983	0.846786
787.661030	0.838545
787.984031	0.820692
788.306987	0.808487
788.629897	0.811123
788.952760	0.814766
789.275579	0.819351
789.598351	0.834226
789.921078	0.847134
790.243759	0.849142
790.566395	0.854856
790.888984	0.862043
791.211529	0.866928
791.534027	0.869967
791.856480	0.872896
792.178888	0.877335
792.501249	0.879230
792.823566	0.880829
793.145836	0.881638
793.468062	0.884079
793.790241	0.883690
794.112375	0.881550
794.434464	0.876647
794.756507	0.875785
795.078505	0.875499
795.400457	0.870820
795.722364	0.857780
796.044226	0.851795
796.366042	0.850225
796.687812	0.854344
797.009538	0.849796
797.331218	0.853042
797.652852	0.857403
797.974442	0.862625
798.295986	0.863208
798.617484	0.864919
798.938938	0.869125
799.260346	0.873059
799.581709	0.876587
799.903026	0.877552
800.224299	0.878565
800.545526	0.883062
800.866708	0.885947
801.187845	0.889928
801.508936	0.890620
801.829983	0.889392
802.150984	0.890963
802.471940	0.895983
802.792851	0.895384
803.113717	0.897873
803.434538	0.893640
803.755314	0.895810
804.076045	0.898221
804.396731	0.898662
804.717372	0.898925
805.037967	0.899632
805.358518	0.898303
805.679024	0.894656
805.999485	0.894848
806.319901	0.895152
806.640272	0.896818
806.960598	0.894943
807.280879	0.891959
807.601115	0.890622
807.921306	0.893428
808.241453	0.894194
808.561554	0.892496
808.881611	0.892349
809.201623	0.894205
809.521590	0.894347
809.841513	0.896002
810.161390	0.894613
810.481223	0.895869
810.801011	0.899376
811.120755	0.901594
811.440453	0.900655
811.760107	0.898873
812.079716	0.898438
812.399281	0.901991
812.718801	0.904773
813.038276	0.906063
813.357707	0.904928
813.677093	0.902246
813.996434	0.905852
814.315731	0.906631
814.634983	0.908701
814.954191	0.906512
815.273354	0.903167
815.592473	0.900702
815.911547	0.900973
816.230577	0.896494
816.549562	0.894269
816.868502	0.894946
817.187399	0.890946
817.506250	0.886829
817.825058	0.888454
818.143821	0.883724
818.462539	0.879313
818.781213	0.871817
819.099843	0.860443
819.418429	0.844241
819.736970	0.826039
820.055466	0.807286
820.373919	0.782032
820.692327	0.747822
821.010691	0.711829
821.329011	0.633958
821.647286	0.517212
821.965517	0.401846
822.283704	0.359029
822.601847	0.359841
822.919945	0.395343
823.237999	0.429705
823.556010	0.477306
823.873976	0.533826
824.191897	0.584920
824.509775	0.628437
824.827609	0.673630
825.145398	0.696748
825.463144	0.699468
825.780845	0.683046
826.098502	0.664417
826.416116	0.616910
826.733685	0.572758
827.051210	0.564001
827.368692	0.579056
827.686129	0.616955
828.003522	0.670758
828.320872	0.718669
828.638177	0.763300
828.955439	0.796074
829.272656	0.819296
829.589830	0.835782
829.906960	0.851834
830.224046	0.863924
830.541088	0.876310
830.858086	0.879249
831.175041	0.884834
831.491952	0.884791
831.808819	0.881508
832.125642	0.873989
832.442421	0.860366
832.759157	0.837046
833.075849	0.790366
833.392497	0.726963
833.709101	0.685020
834.025662	0.694815
834.342179	0.727127
834.658653	0.765841
834.975083	0.802346
835.291469	0.828173
835.607811	0.851243
835.924110	0.868116
836.240366	0.885201
836.556578	0.898795
836.872746	0.906382
837.188871	0.913191
837.504952	0.918439
837.820990	0.922100
838.136984	0.926385
838.452935	0.928860
838.768842	0.930098
839.084706	0.922832
839.400526	0.897849
839.716303	0.857317
840.032037	0.833134
840.347727	0.837215
840.663373	0.856284
840.978977	0.877418
841.294537	0.899491
841.610054	0.917191
841.925527	0.923935
842.240957	0.932591
842.556344	0.939405
842.871687	0.945561
843.186987	0.949523
843.502244	0.950012
843.817458	0.951109
844.132629	0.954068
844.447756	0.959572
844.762840	0.959462
845.077881	0.958436
845.392879	0.959335
845.707833	0.960729
846.022745	0.963825
846.337613	0.963675
846.652438	0.965222
846.967221	0.963392
847.281960	0.964644
847.596656	0.966450
847.911309	0.965803
848.225919	0.967016
848.540485	0.967367
848.855009	0.967899
849.169490	0.966678
849.483928	0.968881
849.798323	0.967859
850.112675	0.969347
850.426984	0.968358
850.741251	0.969031
851.055474	0.968674
851.369654	0.967638
851.683792	0.968940
851.997887	0.968563
852.311938	0.970025
852.625947	0.969493
852.939914	0.967646
853.253837	0.969192
853.567718	0.970045
853.881555	0.969708
854.195350	0.967309
854.509103	0.968661
854.822812	0.969837
855.136479	0.968766
855.450103	0.969919
855.763685	0.968011
856.077224	0.968443
856.390720	0.970142
856.704173	0.969457
857.017584	0.968559
857.330953	0.966354
857.644278	0.967373
857.957561	0.967456
858.270802	0.966400
858.584000	0.966960
858.897155	0.965798
859.210268	0.966724
859.523339	0.966752
859.836367	0.969488
860.149352	0.970674
860.462295	0.968589
860.775195	0.968382
861.088054	0.968280
861.400869	0.968809
861.713642	0.969281
862.026373	0.969825
862.339062	0.969855
862.651708	0.967719
862.964312	0.966605
863.276873	0.968585
863.589392	0.967506
863.901869	0.965876
864.214303	0.964385
864.526696	0.963090
864.839045	0.962613
865.151353	0.961255
865.463619	0.961967
865.775842	0.961672
866.088023	0.960545
866.400162	0.961472
866.712258	0.960979
867.024313	0.961424
867.336325	0.962382
867.648296	0.961868
867.960224	0.960674
868.272110	0.961476
868.583954	0.963080
868.895755	0.963030
869.207515	0.960784
869.519233	0.957767
869.830909	0.960095
870.142542	0.961635
870.454134	0.961415
870.765684	0.958871
871.077191	0.956212
871.388657	0.958737
871.700081	0.955288
872.011463	0.957247
872.322803	0.957263
872.634101	0.956561
872.945357	0.952149
873.256571	0.953151
873.567744	0.951903
873.878874	0.952496
874.189963	0.950991
874.501010	0.950391
874.812015	0.948213
875.122979	0.949245
875.433900	0.951760
875.744780	0.951929
876.055618	0.949416
876.366415	0.948861
876.677169	0.948619
876.987882	0.950283
877.298554	0.950184
877.609183	0.946109
877.919771	0.943814
878.230317	0.941201
878.540822	0.938859
878.851285	0.933651
879.161707	0.924697
879.472087	0.912327
879.782425	0.895662
880.092722	0.860592
880.402977	0.807695
880.713191	0.745177
881.023363	0.684690
881.333494	0.649752
881.643583	0.621877
881.953631	0.621993
882.263637	0.650865
882.573602	0.689783
882.883526	0.716796
883.193408	0.741093
883.503248	0.764340
883.813048	0.792434
884.122806	0.821874
884.432522	0.846873
884.742197	0.867790
885.051831	0.876775
885.361424	0.888832
885.670975	0.901060
885.980485	0.911499
886.289954	0.916738
886.599382	0.922830
886.908768	0.926865
887.218113	0.933069
887.527417	0.936768
887.836680	0.940574
888.145901	0.942896
888.455082	0.944812
888.764221	0.949253
889.073319	0.951603
889.382376	0.952305
889.691392	0.951361
890.000366	0.951240
890.309300	0.951772
890.618193	0.951589
890.927044	0.950276
891.235855	0.950184
891.544625	0.949940
891.853353	0.950398
892.162041	0.948092
892.470687	0.940581
892.779293	0.936133
893.087858	0.932578
893.396381	0.923082
893.704864	0.909517
894.013306	0.886823
894.321707	0.859020
894.630068	0.842852
894.938387	0.838612
895.246665	0.839404
895.554903	0.852277
895.863100	0.866931
896.171256	0.883208
896.479371	0.902402
896.787446	0.915762
897.095480	0.922731
897.403473	0.925476
897.711425	0.930066
898.019336	0.937840
898.327207	0.941107
898.635038	0.943222
898.942827	0.943764
899.250576	0.947195
899.558284	0.950511
899.865952	0.951707
900.173579	0.952556
900.481165	0.955420
900.788711	0.958618
901.096216	0.959807
901.403681	0.960445
901.711105	0.961599
902.018489	0.961789
902.325832	0.961137
902.633135	0.960226
902.940397	0.954317
903.247619	0.941727
903.554800	0.915481
903.861941	0.874889
904.169041	0.836785
904.476101	0.819627
904.783121	0.820186
905.090100	0.836568
905.397039	0.859169
905.703938	0.881585
906.010796	0.902622
906.317614	0.920033
906.624391	0.932922
906.931129	0.941976
907.237826	0.950685
907.544483	0.958577
907.851099	0.961720
908.157675	0.966681
908.464211	0.968919
908.770707	0.971489
909.077163	0.972233
909.383578	0.972809
909.689954	0.974067
909.996289	0.974111
910.302584	0.977147
910.608839	0.979009
910.915054	0.977491
911.221229	0.977248
911.527363	0.976256
911.833458	0.976148
912.139513	0.976071
912.445527	0.974722
912.751502	0.972762
913.057436	0.970901
913.363331	0.969046
913.669186	0.964576
913.975000	0.959358
914.280775	0.952511
914.586510	0.946540
914.892205	0.932416
915.197859	0.911017
915.503475	0.882403
915.809050	0.862867
916.114585	0.855932
916.420081	0.853227
916.725536	0.850359
917.030952	0.858638
917.336328	0.871408
917.641665	0.887611
917.946961	0.903448
918.252218	0.915456
918.557435	0.924117
918.862612	0.933894
919.167750	0.939616
919.472848	0.944010
919.777906	0.950430
920.082925	0.956146
920.387904	0.959171
920.692843	0.961042
920.997743	0.961565
921.302603	0.965162
921.607423	0.968311
921.912204	0.971056
922.216946	0.970233
922.521647	0.971816
922.826310	0.973628
923.130932	0.975597
923.435516	0.977175
923.740059	0.978709
924.044564	0.977700
924.349028	0.980616
924.653454	0.981718
924.957840	0.983749
925.262186	0.983194
925.566493	0.983118
925.870761	0.983052
926.174989	0.985966
926.479178	0.987197
926.783328	0.987424
927.087438	0.987206
927.391509	0.986452
927.695541	0.989244
927.999533	0.989166
928.303486	0.990361
928.607400	0.991388
928.911275	0.988736
929.215110	0.989882
929.518906	0.990697
929.822663	0.989175
930.126381	0.991041
930.430060	0.990369
930.733699	0.989615
931.037299	0.990177
931.340861	0.989969
931.644383	0.989468
931.947866	0.988638
932.251309	0.989129
932.554714	0.989388
932.858080	0.989655
933.161407	0.990024
933.464694	0.990926
933.767943	0.989702
934.071153	0.990623
934.374323	0.990654
934.677455	0.991315
934.980548	0.991819
935.283602	0.989513
935.586617	0.990315
935.889593	0.989740
936.192530	0.990793
936.495428	0.989968
936.798287	0.990040
937.101108	0.989997
937.403890	0.987995
937.706632	0.988445
938.009336	0.985979
938.312002	0.985045
938.614628	0.983203
938.917216	0.982401
939.219765	0.980642
939.522275	0.982391
939.824747	0.981960
940.127179	0.981228
940.429573	0.984794
940.731929	0.982734
941.034246	0.983978
941.336524	0.984889
941.638763	0.985304
941.940964	0.986069
942.243126	0.986520
942.545250	0.985848
942.847335	0.987658
943.149381	0.986643
943.451389	0.987806
943.753359	0.987456
944.055290	0.989635
944.357182	0.989325
944.659036	0.987928
944.960851	0.988582
945.262628	0.989169
945.564367	0.990351
945.866067	0.988963
946.167729	0.990437
946.469352	0.989174
946.770937	0.987839
947.072484	0.990844
947.373992	0.989260
947.675462	0.989458
947.976893	0.989719
948.278286	0.989352
948.579641	0.990827
948.880958	0.989504
949.182236	0.989935
949.483476	0.990764
949.784678	0.989549
950.085841	0.990698
950.386967	0.990367
950.688054	0.990895
950.989103	0.989623
951.290114	0.988760
951.591087	0.989703
951.892021	0.988714
952.192917	0.987767
952.493776	0.987217
952.794596	0.988086
953.095378	0.987558
953.396122	0.987983
953.696828	0.986640
953.997496	0.989374
954.298126	0.990257
954.598718	0.990434
954.899272	0.990559
955.199788	0.990983
955.500266	0.991476
955.800706	0.992284
956.101108	0.992196
956.401472	0.992916
956.701798	0.994790
957.002087	0.992727
957.302337	0.993550
957.602550	0.994766
957.902724	0.994684
958.202861	0.994947
958.502960	0.995067
958.803022	0.993774
959.103045	0.995709
959.403031	0.996069
959.702979	0.995602
960.002889	0.994793
960.302762	0.994956
960.602596	0.995469
960.902393	0.995998
961.202153	0.996015
961.501875	0.996577
961.801559	0.995315
962.101205	0.995465
962.400814	0.995896
962.700385	0.997630
962.999918	0.995989
963.299414	0.996786
963.598873	0.995705
963.898293	0.994973
964.197677	0.996110
964.497022	0.996527
964.796331	0.997446
965.095601	0.997556
965.394835	0.995995
965.694030	0.997989
965.993189	0.997183
966.292309	0.997291
966.591393	0.997229
966.890439	0.997611
967.189447	0.996803
967.488419	0.997800
967.787353	0.996407
968.086249	0.996545
968.385108	0.998172
968.683930	0.996441
968.982714	0.997148
969.281462	0.997016
969.580172	0.996603
969.878844	0.996671
970.177480	0.996699
970.476078	0.996137
970.774639	0.997729
971.073162	0.996749
971.371649	0.995922
971.670098	0.995933
971.968510	0.997026
972.266885	0.995450
972.565223	0.997185
972.863524	0.995920
973.161788	0.995523
973.460014	0.996343
973.758204	0.994867
974.056356	0.995613
974.354471	0.994570
974.652550	0.995709
974.950591	0.996516
975.248595	0.996728
975.546563	0.996022
975.844493	0.998283
976.142386	0.996798
976.440243	0.997191
976.738062	0.997453
977.035845	0.999202
977.333590	0.996277
977.631299	0.997148
977.928971	0.996274
978.226606	0.996512
978.524204	0.995078
978.821765	0.998117
979.119290	0.996493
979.416777	0.996057
979.714228	0.996997
980.011642	0.994694
980.309020	0.996540
980.606360	0.996647
980.903664	0.997285
981.200931	0.995320
981.498162	0.994705
981.795356	0.994460
982.092513	0.993752
982.389633	0.993955
982.686717	0.991228
982.983764	0.991004
983.280775	0.990297
983.577749	0.990006
983.874686	0.991752
984.171587	0.990565
984.468451	0.994069
984.765279	0.994617
985.062070	0.993636
985.358824	0.994771
985.655543	0.994754
985.952224	0.995286
986.248869	0.996171
986.545478	0.996920
986.842050	0.998252
987.138586	0.995013
987.435086	0.996593
987.731549	0.998046
988.027975	0.998225
988.324366	0.996763
988.620719	0.997062
988.917037	0.997086
989.213318	0.996634
989.509563	0.998116
989.805772	0.997752
990.101944	0.998457
990.398080	0.997074
990.694180	0.998504
990.990244	0.997193
991.286271	0.998481
991.582262	0.997853
991.878217	0.997934
992.174136	0.998408
992.470019	0.998776
992.765865	0.997600
993.061676	0.997411
993.357450	0.998334
993.653188	0.996882
993.948890	0.997402
994.244556	0.998224
994.540186	0.997005
994.835780	0.996772
995.131337	0.996560
995.426859	0.995688
995.722345	0.997452
996.017795	0.996401
996.313208	0.995203
996.608586	0.995845
996.903928	0.995439
997.199234	0.996256
997.494504	0.996007
997.789738	0.996253
998.084936	0.996539
998.380099	0.998148
998.675225	0.997814
998.970316	0.997563
999.265371	0.998459
999.560390	0.998640
999.855373	0.999502
1000.150320	0.998634
1000.445232	0.997717
1000.740108	0.998016
1001.034948	0.997719
1001.329752	0.998822
1001.624521	0.998977
1001.919254	0.997673
1002.213951	0.997883
1002.508613	0.997237
1002.803239	0.999203
1003.097829	0.998194
1003.392384	0.998103
1003.686903	0.998642
1003.981386	0.998566
1004.275834	0.998570
1004.570246	0.999264
1004.864623	1.000199
1005.158964	1.000459
1005.453270	0.998900
1005.747540	0.997527
1006.041775	0.998823
1006.335974	0.999830
1006.630138	0.999787
1006.924266	0.999297
1007.218359	1.000327
1007.512416	0.998857
1007.806438	1.000135
1008.100425	0.998553
1008.394376	0.999611
1008.688292	0.998246
1008.982172	1.000825
1009.276017	0.999165
1009.569827	0.998861
1009.863602	0.998512
1010.157341	0.999312
1010.451045	0.999780
1010.744714	0.998757
1011.038347	0.998676
1011.331945	0.999027
1011.625508	0.997048
1011.919036	0.998195
1012.212528	0.999067
1012.505986	0.996999
1012.799408	0.998967
1013.092795	0.998093
1013.386147	0.998517
1013.679464	0.998444
1013.972745	0.998607
1014.265992	0.997862
1014.559204	0.998735
1014.852380	0.999292
1015.145521	0.999293
1015.438628	0.999239
1015.731699	0.999202
1016.024736	0.998819
1016.317737	0.998613
1016.610703	0.998327
1016.903635	0.998830
1017.196531	0.999482
1017.489393	0.998556
1017.782219	0.998691
1018.075011	0.998896
1018.367768	0.999004
1018.660490	0.999467
1018.953177	0.999467
1019.245829	0.999467
