Dividing Wavelength (nm)	Counts (n)	Blue Motor Position (mm): 0.000000	Red Motor Position (mm): 14.000000	
326.493990	1.000973
326.888308	1.000973
327.282561	1.000973
327.676750	1.000862
328.070874	1.000259
328.464933	0.999351
328.858929	1.000481
329.252859	0.999034
329.646726	0.999669
330.040528	0.999246
330.434265	0.999092
330.827938	1.000449
331.221547	1.001356
331.615091	1.000716
332.008571	1.000289
332.401986	1.000334
332.795338	1.000430
333.188625	0.997959
333.581847	1.000526
333.975006	0.998936
334.368100	0.999587
334.761129	0.999284
335.154095	1.000927
335.546996	0.997758
335.939833	0.992987
336.332606	0.993229
336.725315	0.994476
337.117960	0.994685
337.510540	0.993807
337.903056	0.994502
338.295508	0.993177
338.687896	0.994531
339.080220	0.994027
339.472480	0.993921
339.864676	0.993388
340.256807	0.994055
340.648875	0.994292
341.040879	0.993687
341.432818	0.994928
341.824694	0.993246
342.216506	0.994483
342.608253	0.994172
342.999937	0.993452
343.391557	0.994108
343.783113	0.993540
344.174605	0.993540
344.566033	0.994318
344.957397	0.993829
345.348697	0.992848
345.739934	0.993587
346.131106	0.993000
346.522215	0.992963
346.913260	0.992756
347.304241	0.993891
347.695159	0.993046
348.086012	0.993195
348.476802	0.993635
348.867528	0.994337
349.258191	0.992477
349.648789	0.994217
350.039324	0.994317
350.429796	0.994089
350.820203	0.994810
351.210548	0.993276
351.600828	0.992655
351.991045	0.994046
352.381198	0.992479
352.771288	0.994160
353.161314	0.994268
353.551276	0.993917
353.941175	0.992651
354.331010	0.994342
354.720782	0.994111
355.110490	0.993482
355.500135	0.994277
355.889717	0.993606
356.279235	0.992450
356.668689	0.992341
357.058080	0.992542
357.447408	0.994147
357.836672	0.993696
358.225873	0.993437
358.615010	0.994368
359.004084	0.994384
359.393095	0.992883
359.782043	0.993104
360.170927	0.994610
360.559748	0.993870
360.948505	0.993067
361.337199	0.993337
361.725830	0.992871
362.114398	0.993271
362.502903	0.993888
362.891344	0.995077
363.279722	0.992906
363.668037	0.993491
364.056289	0.993729
364.444478	0.993530
364.832603	0.993907
365.220665	0.993861
365.608665	0.993079
365.996601	0.992766
366.384474	0.993227
366.772284	0.993312
367.160031	0.992962
367.547715	0.993144
367.935336	0.993164
368.322893	0.993784
368.710388	0.992360
369.097820	0.993775
369.485189	0.992558
369.872495	0.992153
370.259738	0.990847
370.646918	0.992781
371.034035	0.993483
371.421090	0.993124
371.808081	0.992461
372.195010	0.992972
372.581875	0.993597
372.968678	0.992970
373.355418	0.992574
373.742096	0.992203
374.128710	0.993933
374.515262	0.992872
374.901751	0.993948
375.288177	0.993288
375.674540	0.994900
376.060841	0.992672
376.447079	0.993513
376.833254	0.993400
377.219367	0.993248
377.605417	0.993096
377.991404	0.993581
378.377329	0.992232
378.763191	0.993200
379.148991	0.993501
379.534727	0.993980
379.920402	0.992468
380.306013	0.992731
380.691563	0.992622
381.077049	0.992563
381.462474	0.993834
381.847835	0.993004
382.233134	0.993241
382.618371	0.994069
383.003545	0.993327
383.388657	0.993275
383.773706	0.992768
384.158693	0.993456
384.543618	0.992788
384.928480	0.993428
385.313280	0.993885
385.698017	0.993742
386.082692	0.994184
386.467305	0.993270
386.851856	0.993632
387.236344	0.993276
387.620770	0.992042
388.005133	0.993990
388.389435	0.994143
388.773674	0.993288
389.157851	0.993127
389.541965	0.992715
389.926018	0.991137
390.310008	0.992487
390.693936	0.990553
391.077802	0.989497
391.461606	0.988019
391.845348	0.987481
392.229027	0.985956
392.612645	0.982986
392.996200	0.981905
393.379694	0.976296
393.763125	0.973516
394.146494	0.970547
394.529801	0.966726
394.913047	0.961227
395.296230	0.957810
395.679351	0.952350
396.062410	0.946306
396.445408	0.942478
396.828343	0.935938
397.211217	0.930068
397.594028	0.926341
397.976778	0.918081
398.359466	0.911144
398.742092	0.902211
399.124656	0.898550
399.507158	0.888386
399.889598	0.882001
400.271977	0.871159
400.654294	0.865622
401.036549	0.855542
401.418742	0.849930
401.800874	0.835284
402.182944	0.826097
402.564952	0.813713
402.946898	0.807556
403.328783	0.798180
403.710606	0.794645
404.092367	0.773611
404.474067	0.767658
404.855705	0.758127
405.237282	0.755588
405.618797	0.738063
406.000250	0.727043
406.381642	0.713321
406.762972	0.708284
407.144240	0.698778
407.525447	0.691581
407.906593	0.678065
408.287677	0.666598
408.668700	0.664682
409.049661	0.652792
409.430560	0.642640
409.811399	0.641835
410.192176	0.620999
410.572891	0.620636
410.953545	0.604114
411.334138	0.609072
411.714669	0.598307
412.095139	0.602012
412.475547	0.583469
412.855894	0.580764
413.236180	0.574878
413.616405	0.575127
413.996568	0.563174
414.376670	0.564178
414.756711	0.565930
415.136691	0.559442
415.516609	0.548055
415.896466	0.542087
416.276262	0.534814
416.655997	0.534867
417.035670	0.513627
417.415283	0.504707
417.794834	0.507474
418.174324	0.509847
418.553753	0.517562
418.933121	0.498600
419.312428	0.491122
419.691674	0.495455
420.070859	0.483642
420.449983	0.489957
420.829045	0.478893
421.208047	0.486141
421.586988	0.479874
421.965867	0.477637
422.344686	0.466328
422.723444	0.478444
423.102141	0.494286
423.480777	0.467822
423.859352	0.487721
424.237866	0.464067
424.616319	0.464910
424.994712	0.455816
425.373044	0.465795
425.751314	0.454444
426.129524	0.470576
426.507673	0.454065
426.885762	0.447153
427.263789	0.452609
427.641756	0.462584
428.019662	0.452858
428.397508	0.451678
428.775292	0.455733
429.153016	0.448081
429.530679	0.454076
429.908282	0.446832
430.285824	0.457225
430.663305	0.435805
431.040726	0.456507
431.418086	0.457054
431.795385	0.448473
432.172624	0.446573
432.549802	0.448151
432.926920	0.446576
433.303977	0.445886
433.680974	0.443436
434.057910	0.441470
434.434786	0.441163
434.811601	0.443407
435.188355	0.425645
435.565050	0.434940
435.941683	0.436874
436.318257	0.421424
436.694770	0.421468
437.071222	0.419603
437.447614	0.424393
437.823946	0.430578
438.200218	0.420316
438.576429	0.429755
438.952580	0.422906
439.328670	0.419188
439.704700	0.425990
440.080670	0.427458
440.456580	0.408838
440.832429	0.416619
441.208218	0.427128
441.583947	0.416347
441.959616	0.416093
442.335224	0.420896
442.710773	0.411968
443.086261	0.410119
443.461689	0.423631
443.837057	0.414229
444.212365	0.403792
444.587612	0.410814
444.962800	0.400731
445.337927	0.401926
445.712995	0.428343
446.088002	0.390652
446.462949	0.400822
446.837837	0.405876
447.212664	0.394503
447.587431	0.386360
447.962139	0.356320
448.336786	0.315936
448.711374	0.326250
449.085901	0.370337
449.460369	0.374521
449.834776	0.378370
450.209124	0.357170
450.583412	0.350314
450.957640	0.343317
451.331808	0.354481
451.705917	0.378140
452.079965	0.382409
452.453954	0.370459
452.827883	0.376929
453.201752	0.372250
453.575562	0.383683
453.949311	0.372748
454.323001	0.378187
454.696632	0.374030
455.070202	0.366749
455.443713	0.358453
455.817164	0.353329
456.190556	0.349354
456.563888	0.346165
456.937160	0.344039
457.310373	0.360838
457.683526	0.359853
458.056619	0.365594
458.429653	0.366251
458.802628	0.369674
459.175542	0.363425
459.548398	0.346377
459.921194	0.338764
460.293930	0.338683
460.666607	0.315975
461.039224	0.304725
461.411782	0.300601
461.784280	0.299909
462.156719	0.303912
462.529099	0.308420
462.901419	0.324417
463.273680	0.329108
463.645882	0.328383
464.018024	0.334046
464.390106	0.326939
464.762130	0.311862
465.134094	0.294814
465.505999	0.264218
465.877845	0.234617
466.249631	0.221616
466.621358	0.228916
466.993026	0.242978
467.364634	0.249315
467.736184	0.257822
468.107674	0.266604
468.479105	0.265532
468.850477	0.272625
469.221790	0.279343
469.593043	0.289311
469.964238	0.294212
470.335373	0.293616
470.706449	0.291990
471.077467	0.292817
471.448425	0.254435
471.819324	0.230785
472.190164	0.229772
472.560945	0.258398
472.931667	0.280544
473.302330	0.285005
473.672934	0.296890
474.043479	0.285024
474.413965	0.286632
474.784393	0.290323
475.154761	0.284804
475.525070	0.282076
475.895321	0.287975
476.265513	0.282408
476.635645	0.277472
477.005719	0.277446
477.375734	0.273930
477.745691	0.267515
478.115588	0.263801
478.485427	0.257318
478.855207	0.244259
479.224928	0.227043
479.594591	0.215010
479.964194	0.218339
480.333739	0.219627
480.703226	0.220998
481.072653	0.219732
481.442022	0.215297
481.811333	0.211529
482.180584	0.215178
482.549777	0.220226
482.918912	0.223578
483.287988	0.223353
483.657005	0.223126
484.025964	0.229483
484.394864	0.226797
484.763706	0.227200
485.132489	0.232394
485.501213	0.233202
485.869879	0.231291
486.238487	0.234684
486.607036	0.232495
486.975527	0.237116
487.343959	0.233299
487.712333	0.231955
488.080648	0.233475
488.448905	0.232755
488.817104	0.234073
489.185244	0.228394
489.553326	0.225454
489.921350	0.215266
490.289315	0.197888
490.657222	0.193111
491.025070	0.194099
491.392861	0.196241
491.760593	0.201975
492.128267	0.207183
492.495883	0.212959
492.863440	0.219321
493.230939	0.225492
493.598380	0.226917
493.965763	0.228977
494.333088	0.231341
494.700354	0.232829
495.067563	0.231706
495.434713	0.234931
495.801805	0.232918
496.168839	0.234717
496.535815	0.235806
496.902733	0.235641
497.269593	0.237158
497.636395	0.235077
498.003139	0.235582
498.369825	0.238468
498.736453	0.234962
499.103023	0.236338
499.469535	0.235795
499.835989	0.235993
500.202385	0.236930
500.568723	0.240119
500.935003	0.235278
501.301226	0.239530
501.667390	0.234050
502.033497	0.232090
502.399546	0.234918
502.765537	0.236849
503.131470	0.235082
503.497345	0.231560
503.863163	0.240303
504.228923	0.233443
504.594625	0.231765
504.960269	0.237334
505.325856	0.232629
505.691385	0.236807
506.056856	0.233609
506.422270	0.233039
506.787625	0.235663
507.152924	0.232812
507.518164	0.233309
507.883347	0.235048
508.248472	0.236734
508.613540	0.231766
508.978550	0.234523
509.343503	0.234589
509.708398	0.232306
510.073236	0.230108
510.438016	0.229927
510.802738	0.230814
511.167403	0.230152
511.532010	0.231852
511.896561	0.227504
512.261053	0.226011
512.625488	0.228228
512.989866	0.228553
513.354186	0.228735
513.718449	0.230850
514.082655	0.227065
514.446803	0.229263
514.810894	0.226914
515.174927	0.229435
515.538904	0.228967
515.902822	0.225825
516.266684	0.228236
516.630488	0.229417
516.994235	0.228246
517.357925	0.226797
517.721558	0.225181
518.085133	0.224862
518.448651	0.224948
518.812112	0.226930
519.175516	0.226592
519.538863	0.224389
519.902152	0.226087
520.265385	0.222780
520.628560	0.224691
520.991678	0.224986
521.354739	0.224021
521.717743	0.225130
522.080690	0.225610
522.443580	0.222846
522.806413	0.223970
523.169189	0.222870
523.531908	0.221929
523.894569	0.225595
524.257174	0.225789
524.619722	0.222914
524.982213	0.224446
525.344647	0.223245
525.707025	0.224214
526.069345	0.222434
526.431608	0.223847
526.793815	0.222042
527.155964	0.225840
527.518057	0.224997
527.880093	0.226018
528.242072	0.224601
528.603995	0.226379
528.965860	0.228185
529.327669	0.226751
529.689421	0.227999
530.051117	0.228577
530.412755	0.226429
530.774337	0.228445
531.135862	0.229015
531.497331	0.228271
531.858743	0.231127
532.220098	0.228021
532.581396	0.230509
532.942638	0.230957
533.303824	0.231941
533.664953	0.231663
534.026025	0.233391
534.387040	0.231456
534.747999	0.231434
535.108902	0.230351
535.469748	0.235396
535.830537	0.233061
536.191270	0.233559
536.551947	0.232851
536.912567	0.233274
537.273131	0.235007
537.633638	0.235081
537.994089	0.235230
538.354483	0.236299
538.714821	0.233266
539.075103	0.233175
539.435328	0.233884
539.795497	0.237624
540.155609	0.234202
540.515665	0.232600
540.875665	0.238288
541.235609	0.236574
541.595496	0.236739
541.955328	0.233078
542.315102	0.235907
542.674821	0.236892
543.034483	0.237048
543.394090	0.236523
543.753640	0.238759
544.113134	0.233356
544.472571	0.236709
544.831953	0.233624
545.191278	0.237880
545.550548	0.237362
545.909761	0.234127
546.268918	0.234673
546.628019	0.232972
546.987064	0.235699
547.346053	0.237628
547.704986	0.235547
548.063863	0.235768
548.422684	0.236094
548.781449	0.237978
549.140158	0.235261
549.498811	0.238245
549.857408	0.241337
550.215949	0.236277
550.574434	0.239057
550.932864	0.237150
551.291237	0.235898
551.649555	0.237550
552.007817	0.236916
552.366022	0.237864
552.724173	0.238034
553.082267	0.238430
553.440305	0.235105
553.798288	0.239974
554.156215	0.236384
554.514086	0.236882
554.871902	0.239975
555.229661	0.239198
555.587365	0.239645
555.945014	0.242495
556.302606	0.239449
556.660143	0.241912
557.017625	0.238228
557.375050	0.240470
557.732421	0.237858
558.089735	0.239765
558.446994	0.239683
558.804197	0.238785
559.161345	0.238900
559.518437	0.242347
559.875474	0.240097
560.232455	0.239493
560.589381	0.240744
560.946251	0.240634
561.303065	0.238406
561.659825	0.239675
562.016528	0.241105
562.373177	0.244082
562.729770	0.241419
563.086307	0.243354
563.442789	0.241041
563.799216	0.243962
564.155587	0.242655
564.511904	0.243754
564.868164	0.243868
565.224370	0.243721
565.580520	0.245460
565.936615	0.245411
566.292654	0.248269
566.648638	0.245458
567.004567	0.246326
567.360441	0.246888
567.716260	0.248804
568.072023	0.246323
568.427732	0.247361
568.783385	0.249888
569.138982	0.248075
569.494525	0.247441
569.850013	0.250739
570.205445	0.249116
570.560823	0.251737
570.916145	0.253622
571.271412	0.251702
571.626625	0.253066
571.981782	0.253441
572.336884	0.254448
572.691931	0.254200
573.046923	0.255131
573.401860	0.256790
573.756743	0.258256
574.111570	0.257119
574.466342	0.257729
574.821059	0.256905
575.175722	0.259611
575.530330	0.259145
575.884882	0.259236
576.239380	0.261732
576.593823	0.262459
576.948211	0.261909
577.302544	0.265072
577.656823	0.264413
578.011047	0.264593
578.365216	0.265257
578.719330	0.267604
579.073389	0.267057
579.427394	0.268259
579.781344	0.269177
580.135239	0.270644
580.489080	0.270134
580.842866	0.273100
581.196597	0.273022
581.550273	0.271827
581.903895	0.273060
582.257463	0.270733
582.610975	0.274659
582.964434	0.273557
583.317837	0.276150
583.671186	0.276714
584.024481	0.276596
584.377721	0.279047
584.730906	0.279835
585.084037	0.278897
585.437113	0.280571
585.790135	0.280183
586.143103	0.283153
586.496016	0.284211
586.848874	0.281809
587.201679	0.282639
587.554428	0.286103
587.907124	0.284320
588.259765	0.285412
588.612352	0.285773
588.964884	0.289868
589.317362	0.289483
589.669786	0.288862
590.022155	0.287665
590.374470	0.287070
590.726731	0.288936
591.078937	0.293720
591.431090	0.290295
591.783188	0.294429
592.135232	0.294839
592.487222	0.294807
592.839157	0.292683
593.191038	0.295430
593.542866	0.297048
593.894639	0.300529
594.246358	0.298486
594.598022	0.298313
594.949633	0.301614
595.301190	0.302630
595.652692	0.301558
596.004141	0.297850
596.355535	0.305959
596.706876	0.306447
597.058162	0.308914
597.409395	0.306093
597.760573	0.303783
598.111698	0.307009
598.462768	0.307483
598.813785	0.308763
599.164748	0.310063
599.515657	0.310131
599.866511	0.313609
600.217312	0.309110
600.568060	0.314257
600.918753	0.310723
601.269392	0.311529
601.619978	0.314667
601.970510	0.312696
602.320988	0.312290
602.671412	0.310219
603.021783	0.312893
603.372100	0.313736
603.722363	0.314104
604.072572	0.314582
604.422728	0.314838
604.772830	0.316504
605.122878	0.316002
605.472872	0.316615
605.822813	0.315047
606.172701	0.317570
606.522534	0.315200
606.872314	0.315142
607.222041	0.316213
607.571714	0.314269
607.921333	0.315571
608.270899	0.315285
608.620411	0.312387
608.969870	0.316227
609.319276	0.316304
609.668627	0.316428
610.017926	0.314287
610.367171	0.313010
610.716362	0.313868
611.065500	0.314036
611.414585	0.312971
611.763616	0.313268
612.112594	0.313674
612.461518	0.313344
612.810389	0.310891
613.159207	0.313264
613.507971	0.315115
613.856682	0.310754
614.205340	0.312165
614.553945	0.309369
614.902496	0.313364
615.250994	0.311079
615.599439	0.311811
615.947830	0.311154
616.296169	0.312264
616.644454	0.311749
616.992686	0.311725
617.340864	0.309604
617.688990	0.313455
618.037063	0.309804
618.385082	0.311936
618.733048	0.308868
619.080961	0.311025
619.428821	0.310401
619.776628	0.310024
620.124382	0.311821
620.472083	0.312195
620.819731	0.311556
621.167326	0.315345
621.514868	0.315247
621.862357	0.319502
622.209793	0.318749
622.557176	0.321633
622.904506	0.322177
623.251783	0.324400
623.599007	0.326944
623.946179	0.326378
624.293297	0.328271
624.640363	0.332042
624.987376	0.332924
625.334336	0.335405
625.681243	0.337532
626.028097	0.338237
626.374899	0.339517
626.721647	0.339870
627.068343	0.343006
627.414987	0.343813
627.761577	0.345952
628.108115	0.344272
628.454600	0.349382
628.801032	0.346029
629.147412	0.348500
629.493739	0.349358
629.840014	0.352459
630.186236	0.349469
630.532405	0.355287
630.878521	0.352918
631.224585	0.354806
631.570597	0.359049
631.916556	0.356889
632.262462	0.356882
632.608316	0.359254
632.954117	0.360545
633.299866	0.360956
633.645562	0.361213
633.991206	0.365775
634.336797	0.368740
634.682336	0.370876
635.027823	0.372430
635.373257	0.373011
635.718639	0.376589
636.063968	0.375885
636.409245	0.381650
636.754470	0.382240
637.099642	0.384351
637.444762	0.387421
637.789829	0.387043
638.134845	0.390471
638.479808	0.391230
638.824719	0.390825
639.169577	0.395059
639.514383	0.393604
639.859137	0.398304
640.203839	0.397499
640.548489	0.398495
640.893086	0.400066
641.237632	0.402034
641.582125	0.399998
641.926566	0.401624
642.270955	0.401656
642.615292	0.402151
642.959576	0.401340
643.303809	0.401616
643.647990	0.400919
643.992118	0.401703
644.336195	0.405667
644.680219	0.403567
645.024192	0.404783
645.368112	0.397991
645.711981	0.397151
646.055797	0.392140
646.399562	0.394853
646.743274	0.386912
647.086935	0.384155
647.430544	0.384562
647.774101	0.383212
648.117606	0.382753
648.461059	0.382909
648.804460	0.385573
649.147810	0.391367
649.491108	0.392893
649.834354	0.394199
650.177548	0.399531
650.520690	0.405225
650.863781	0.406632
651.206820	0.405519
651.549807	0.410029
651.892742	0.414514
652.235626	0.413511
652.578458	0.414598
652.921238	0.420556
653.263967	0.418658
653.606644	0.421904
653.949269	0.421857
654.291843	0.426077
654.634365	0.422431
654.976836	0.425869
655.319255	0.426270
655.661622	0.427673
656.003938	0.427608
656.346203	0.430963
656.688416	0.428665
657.030577	0.431906
657.372687	0.433670
657.714746	0.434873
658.056753	0.432228
658.398708	0.435355
658.740612	0.436749
659.082465	0.432721
659.424266	0.433300
659.766016	0.432849
660.107715	0.435156
660.449362	0.434191
660.790958	0.434986
661.132503	0.435817
661.473996	0.433102
661.815438	0.434306
662.156829	0.434710
662.498168	0.434912
662.839456	0.436732
663.180693	0.434501
663.521879	0.434175
663.863013	0.434761
664.204097	0.433508
664.545129	0.430472
664.886110	0.430805
665.227040	0.428129
665.567918	0.430426
665.908746	0.429181
666.249522	0.428752
666.590248	0.429359
666.930922	0.427702
667.271545	0.426790
667.612118	0.426557
667.952639	0.428124
668.293109	0.426908
668.633528	0.429543
668.973896	0.429560
669.314213	0.430305
669.654480	0.431858
669.994695	0.432144
670.334859	0.432960
670.674973	0.433273
671.015035	0.433014
671.355047	0.432996
671.695008	0.434428
672.034918	0.436196
672.374777	0.435215
672.714585	0.436713
673.054342	0.436634
673.394049	0.436277
673.733705	0.434512
674.073310	0.435572
674.412864	0.438335
674.752368	0.439177
675.091820	0.439400
675.431223	0.443414
675.770574	0.443453
676.109875	0.446317
676.449125	0.446473
676.788324	0.448728
677.127473	0.453846
677.466571	0.453997
677.805619	0.455306
678.144616	0.456212
678.483562	0.457956
678.822458	0.460843
679.161303	0.462103
679.500098	0.461810
679.838842	0.464237
680.177535	0.463268
680.516179	0.462206
680.854771	0.460937
681.193314	0.454239
681.531805	0.445466
681.870247	0.434470
682.208638	0.427049
682.546978	0.425936
682.885268	0.427474
683.223508	0.433699
683.561697	0.437442
683.899836	0.440187
684.237925	0.443498
684.575963	0.446479
684.913951	0.448969
685.251889	0.445009
685.589776	0.446995
685.927614	0.449396
686.265401	0.443549
686.603137	0.445257
686.940824	0.438937
687.278460	0.437617
687.616046	0.436947
687.953582	0.431616
688.291068	0.432986
688.628504	0.428530
688.965889	0.430820
689.303224	0.434577
689.640510	0.438681
689.977745	0.444601
690.314930	0.453103
690.652065	0.456883
690.989150	0.464283
691.326185	0.471023
691.663170	0.475138
692.000105	0.482617
692.336990	0.489971
692.673825	0.492354
693.010610	0.499239
693.347345	0.505101
693.684030	0.506588
694.020665	0.510811
694.357251	0.519851
694.693786	0.519110
695.030272	0.523713
695.366707	0.526784
695.703093	0.530465
696.039429	0.528443
696.375716	0.530267
696.711952	0.532716
697.048139	0.534784
697.384276	0.537332
697.720363	0.535200
698.056400	0.534808
698.392388	0.539779
698.728326	0.542928
699.064214	0.545789
699.400053	0.546377
699.735842	0.549569
700.071581	0.552605
700.407270	0.554803
700.742910	0.557290
701.078501	0.564635
701.414042	0.564323
701.749533	0.567923
702.084974	0.576484
702.420366	0.568804
702.755709	0.575931
703.091002	0.584565
703.426246	0.578162
703.761440	0.583504
704.096584	0.588628
704.431679	0.585878
704.766725	0.587227
705.101721	0.589384
705.436668	0.585068
705.771565	0.591869
706.106413	0.588885
706.441212	0.584319
706.775961	0.583280
707.110661	0.586340
707.445311	0.582427
707.779913	0.579841
708.114465	0.577832
708.448967	0.574541
708.783421	0.566584
709.117825	0.561413
709.452180	0.561389
709.786485	0.555017
710.120742	0.545110
710.454949	0.547033
710.789107	0.539247
711.123216	0.530663
711.457275	0.531315
711.791286	0.522337
712.125247	0.521114
712.459159	0.531934
712.793023	0.524839
713.126837	0.529016
713.460602	0.529892
713.794318	0.538869
714.127985	0.537645
714.461602	0.547687
714.795171	0.550914
715.128691	0.559424
715.462162	0.566016
715.795584	0.571744
716.128957	0.574757
716.462281	0.581843
716.795556	0.585346
717.128782	0.589996
717.461960	0.599775
717.795088	0.597632
718.128167	0.603940
718.461198	0.612710
718.794180	0.613598
719.127113	0.616419
719.459997	0.620263
719.792833	0.625602
720.125619	0.627485
720.458357	0.633338
720.791046	0.632051
721.123686	0.636714
721.456278	0.643334
721.788821	0.640436
722.121315	0.644656
722.453761	0.648882
722.786158	0.647227
723.118506	0.643735
723.450805	0.651302
723.783056	0.647281
724.115259	0.644757
724.447412	0.643787
724.779518	0.645903
725.111574	0.643980
725.443582	0.639274
725.775542	0.641463
726.107453	0.633580
726.439315	0.634139
726.771129	0.632226
727.102895	0.625937
727.434612	0.618292
727.766281	0.617046
728.097901	0.615718
728.429473	0.615043
728.760996	0.614137
729.092471	0.613990
729.423897	0.617909
729.755276	0.617412
730.086606	0.617049
730.417887	0.611400
730.749120	0.602564
731.080305	0.593311
731.411442	0.588758
731.742530	0.594150
732.073570	0.593562
732.404562	0.585090
732.735506	0.587258
733.066401	0.591377
733.397249	0.599955
733.728048	0.611961
734.058798	0.624931
734.389501	0.634358
734.720156	0.644609
735.050762	0.652841
735.381320	0.654250
735.711831	0.663560
736.042293	0.668502
736.372707	0.663836
736.703073	0.668494
737.033391	0.670803
737.363661	0.668119
737.693883	0.663405
738.024056	0.662011
738.354182	0.662514
738.684260	0.651320
739.014290	0.647478
739.344272	0.648084
739.674207	0.642408
740.004093	0.641586
740.333931	0.641518
740.663722	0.642489
740.993464	0.642369
741.323159	0.646572
741.652806	0.651439
741.982405	0.655310
742.311956	0.660962
742.641460	0.662682
742.970915	0.665982
743.300323	0.674083
743.629683	0.680276
743.958996	0.682179
744.288260	0.687044
744.617477	0.692835
744.946647	0.694560
745.275768	0.699019
745.604842	0.699782
745.933869	0.708914
746.262847	0.710010
746.591778	0.703610
746.920662	0.710260
747.249498	0.715134
747.578286	0.707015
747.907027	0.702925
748.235720	0.704301
748.564365	0.699019
748.892963	0.699205
749.221514	0.701752
749.550017	0.707048
749.878473	0.706365
750.206881	0.713494
750.535242	0.714186
750.863555	0.713965
751.191821	0.715541
751.520039	0.717864
751.848210	0.722800
752.176334	0.716249
752.504411	0.715121
752.832440	0.722949
753.160421	0.726398
753.488356	0.725435
753.816243	0.722498
754.144082	0.731465
754.471875	0.734407
754.799620	0.729967
755.127318	0.731476
755.454969	0.731755
755.782572	0.731004
756.110129	0.735176
756.437638	0.738328
756.765100	0.734949
757.092515	0.732655
757.419882	0.732046
757.747203	0.736266
758.074477	0.736119
758.401703	0.733866
758.728882	0.728428
759.056014	0.727729
759.383099	0.727122
759.710138	0.727532
760.037129	0.723680
760.364073	0.718172
760.690970	0.719808
761.017820	0.725599
761.344623	0.721829
761.671379	0.712623
761.998088	0.700819
762.324751	0.677762
762.651366	0.636475
762.977935	0.569443
763.304456	0.517307
763.630931	0.507651
763.957359	0.546731
764.283740	0.591645
764.610074	0.618050
764.936362	0.649254
765.262602	0.676697
765.588796	0.697410
765.914943	0.715482
766.241044	0.733583
766.567097	0.740592
766.893104	0.750394
767.219064	0.757516
767.544978	0.763354
767.870845	0.775473
768.196665	0.780444
768.522438	0.778053
768.848165	0.780171
769.173846	0.788253
769.499479	0.792693
769.825066	0.796945
770.150607	0.801792
770.476101	0.795389
770.801548	0.797571
771.126949	0.809274
771.452303	0.812750
771.777611	0.811678
772.102872	0.811956
772.428087	0.816721
772.753256	0.820620
773.078378	0.822359
773.403453	0.831461
773.728482	0.836128
774.053465	0.829115
774.378401	0.832559
774.703291	0.841336
775.028135	0.840701
775.352932	0.841836
775.677683	0.845325
776.002388	0.845952
776.327046	0.844690
776.651658	0.848814
776.976224	0.851674
777.300743	0.851751
777.625216	0.854041
777.949643	0.856224
778.274024	0.856493
778.598359	0.856557
778.922647	0.855854
779.246889	0.856823
779.571086	0.860867
779.895236	0.863403
780.219339	0.859872
780.543397	0.856434
780.867409	0.856538
781.191374	0.857141
781.515294	0.858609
781.839167	0.857627
782.162995	0.861371
782.486776	0.858176
782.810511	0.859037
783.134201	0.862419
783.457844	0.861116
783.781441	0.863777
784.104993	0.869034
784.428498	0.870350
784.751958	0.865755
785.075372	0.867819
785.398739	0.871546
785.722061	0.867299
786.045337	0.862847
786.368568	0.867971
786.691752	0.871286
787.014891	0.856628
787.337983	0.848241
787.661030	0.840160
787.984031	0.822079
788.306987	0.809630
788.629897	0.812038
788.952760	0.814699
789.275579	0.820208
789.598351	0.834502
789.921078	0.848012
790.243759	0.850029
790.566395	0.855860
790.888984	0.862377
791.211529	0.868175
791.534027	0.870706
791.856480	0.873000
792.178888	0.878664
792.501249	0.880544
792.823566	0.882027
793.145836	0.882359
793.468062	0.883432
793.790241	0.884393
794.112375	0.882120
794.434464	0.877473
794.756507	0.876631
795.078505	0.876693
795.400457	0.870905
795.722364	0.859549
796.044226	0.852442
796.366042	0.850747
796.687812	0.854047
797.009538	0.851439
797.331218	0.852736
797.652852	0.858720
797.974442	0.863690
798.295986	0.862989
798.617484	0.865813
798.938938	0.869163
799.260346	0.875025
799.581709	0.877147
799.903026	0.879233
800.224299	0.879536
800.545526	0.884605
800.866708	0.887317
801.187845	0.891887
801.508936	0.890635
801.829983	0.889826
802.150984	0.891675
802.471940	0.897536
802.792851	0.895655
803.113717	0.896953
803.434538	0.895031
803.755314	0.897556
804.076045	0.898784
804.396731	0.899467
804.717372	0.898891
805.037967	0.900529
805.358518	0.898589
805.679024	0.895851
805.999485	0.896053
806.319901	0.896618
806.640272	0.897043
806.960598	0.895424
807.280879	0.892556
807.601115	0.891348
807.921306	0.895752
808.241453	0.894965
808.561554	0.892591
808.881611	0.893703
809.201623	0.895691
809.521590	0.895076
809.841513	0.896159
810.161390	0.895152
810.481223	0.897208
810.801011	0.901102
811.120755	0.901467
811.440453	0.900740
811.760107	0.899572
812.079716	0.899631
812.399281	0.903023
812.718801	0.905928
813.038276	0.906408
813.357707	0.906983
813.677093	0.902273
813.996434	0.907162
814.315731	0.907568
814.634983	0.908465
814.954191	0.906838
815.273354	0.904262
815.592473	0.900194
815.911547	0.900131
816.230577	0.897781
816.549562	0.894690
816.868502	0.896124
817.187399	0.892357
817.506250	0.887055
817.825058	0.888723
818.143821	0.885433
818.462539	0.880073
818.781213	0.872196
819.099843	0.861010
819.418429	0.844889
819.736970	0.827753
820.055466	0.807335
820.373919	0.783143
820.692327	0.748828
821.010691	0.714198
821.329011	0.636115
821.647286	0.520123
821.965517	0.406260
822.283704	0.363496
822.601847	0.364524
822.919945	0.400176
823.237999	0.433759
823.556010	0.481244
823.873976	0.537614
824.191897	0.588135
824.509775	0.631073
824.827609	0.676895
825.145398	0.699607
825.463144	0.701824
825.780845	0.685295
826.098502	0.666681
826.416116	0.620028
826.733685	0.575170
827.051210	0.567461
827.368692	0.582115
827.686129	0.620116
828.003522	0.672525
828.320872	0.721603
828.638177	0.764902
828.955439	0.797092
829.272656	0.820342
829.589830	0.837790
829.906960	0.852471
830.224046	0.865839
830.541088	0.875471
830.858086	0.880145
831.175041	0.887518
831.491952	0.885388
831.808819	0.881670
832.125642	0.875417
832.442421	0.859535
832.759157	0.838534
833.075849	0.791862
833.392497	0.728626
833.709101	0.686840
834.025662	0.697091
834.342179	0.728173
834.658653	0.767829
834.975083	0.804465
835.291469	0.830522
835.607811	0.853831
835.924110	0.869048
836.240366	0.886784
836.556578	0.900410
836.872746	0.906908
837.188871	0.914049
837.504952	0.919779
837.820990	0.921659
838.136984	0.927293
838.452935	0.930474
838.768842	0.930317
839.084706	0.924224
839.400526	0.898913
839.716303	0.857686
840.032037	0.834966
840.347727	0.839128
840.663373	0.857513
840.978977	0.878940
841.294537	0.900809
841.610054	0.916874
841.925527	0.925412
842.240957	0.932095
842.556344	0.939149
842.871687	0.945615
843.186987	0.948489
843.502244	0.949769
843.817458	0.951356
844.132629	0.954525
844.447756	0.960625
844.762840	0.960079
845.077881	0.958660
845.392879	0.960420
845.707833	0.962192
846.022745	0.964566
846.337613	0.964005
846.652438	0.964962
846.967221	0.964668
847.281960	0.964113
847.596656	0.965731
847.911309	0.965868
848.225919	0.966830
848.540485	0.967875
848.855009	0.967954
849.169490	0.968327
849.483928	0.968521
849.798323	0.969481
850.112675	0.969607
850.426984	0.969136
850.741251	0.970391
851.055474	0.970230
851.369654	0.967541
851.683792	0.968356
851.997887	0.969325
852.311938	0.970489
852.625947	0.969053
852.939914	0.967919
853.253837	0.968896
853.567718	0.970275
853.881555	0.971171
854.195350	0.968031
854.509103	0.969714
854.822812	0.969060
855.136479	0.969879
855.450103	0.969063
855.763685	0.967943
856.077224	0.968356
856.390720	0.969156
856.704173	0.968573
857.017584	0.967784
857.330953	0.966396
857.644278	0.967449
857.957561	0.967496
858.270802	0.969035
858.584000	0.967251
858.897155	0.966166
859.210268	0.966720
859.523339	0.968316
859.836367	0.969272
860.149352	0.969860
860.462295	0.968096
860.775195	0.970272
861.088054	0.968650
861.400869	0.968899
861.713642	0.969104
862.026373	0.969929
862.339062	0.970924
862.651708	0.968378
862.964312	0.967450
863.276873	0.968467
863.589392	0.967892
863.901869	0.965064
864.214303	0.963968
864.526696	0.963474
864.839045	0.963252
865.151353	0.961078
865.463619	0.961577
865.775842	0.962015
866.088023	0.961105
866.400162	0.962383
866.712258	0.961699
867.024313	0.962762
867.336325	0.962577
867.648296	0.962919
867.960224	0.962043
868.272110	0.961042
868.583954	0.963343
868.895755	0.963581
869.207515	0.961510
869.519233	0.958807
869.830909	0.961654
870.142542	0.960831
870.454134	0.961570
870.765684	0.960421
871.077191	0.957195
871.388657	0.958603
871.700081	0.957538
872.011463	0.957454
872.322803	0.957312
872.634101	0.955938
872.945357	0.954303
873.256571	0.952145
873.567744	0.951347
873.878874	0.952347
874.189963	0.951317
874.501010	0.950136
874.812015	0.948858
875.122979	0.949865
875.433900	0.952228
875.744780	0.953626
876.055618	0.950467
876.366415	0.949930
876.677169	0.948355
876.987882	0.950518
877.298554	0.951112
877.609183	0.947402
877.919771	0.945106
878.230317	0.942069
878.540822	0.939834
878.851285	0.934114
879.161707	0.925900
879.472087	0.914238
879.782425	0.896827
880.092722	0.862749
880.402977	0.811541
880.713191	0.749153
881.023363	0.688732
881.333494	0.654929
881.643583	0.626615
881.953631	0.626768
882.263637	0.655302
882.573602	0.694609
882.883526	0.720650
883.193408	0.744690
883.503248	0.767291
883.813048	0.795344
884.122806	0.825294
884.432522	0.848714
884.742197	0.868094
885.051831	0.879637
885.361424	0.890046
885.670975	0.901747
885.980485	0.912282
886.289954	0.917715
886.599382	0.924321
886.908768	0.926784
887.218113	0.933273
887.527417	0.937569
887.836680	0.941628
888.145901	0.942375
888.455082	0.945214
888.764221	0.949586
889.073319	0.951468
889.382376	0.951970
889.691392	0.952769
890.000366	0.951187
890.309300	0.953348
890.618193	0.953242
890.927044	0.950094
891.235855	0.949084
891.544625	0.951187
891.853353	0.951653
892.162041	0.947220
892.470687	0.942507
892.779293	0.937560
893.087858	0.932742
893.396381	0.924776
893.704864	0.911054
894.013306	0.886958
894.321707	0.860505
894.630068	0.845387
894.938387	0.841016
895.246665	0.841760
895.554903	0.855693
895.863100	0.868566
896.171256	0.884834
896.479371	0.904719
896.787446	0.917865
897.095480	0.924137
897.403473	0.927411
897.711425	0.931799
898.019336	0.939423
898.327207	0.942183
898.635038	0.944514
898.942827	0.942979
899.250576	0.946729
899.558284	0.952119
899.865952	0.953338
900.173579	0.954235
900.481165	0.953789
900.788711	0.959111
901.096216	0.960529
901.403681	0.961021
901.711105	0.962124
902.018489	0.962765
902.325832	0.961290
902.633135	0.961526
902.940397	0.955575
903.247619	0.942640
903.554800	0.916380
903.861941	0.877748
904.169041	0.841253
904.476101	0.822556
904.783121	0.824360
905.090100	0.839871
905.397039	0.861673
905.703938	0.884960
906.010796	0.904579
906.317614	0.921246
906.624391	0.933826
906.931129	0.943671
907.237826	0.950893
907.544483	0.958540
907.851099	0.961465
908.157675	0.966927
908.464211	0.969184
908.770707	0.971377
909.077163	0.973353
909.383578	0.973666
909.689954	0.975276
909.996289	0.975271
910.302584	0.977446
910.608839	0.978441
910.915054	0.978119
911.221229	0.977044
911.527363	0.975830
911.833458	0.976045
912.139513	0.976942
912.445527	0.975377
912.751502	0.973384
913.057436	0.972431
913.363331	0.969601
913.669186	0.966092
913.975000	0.960204
914.280775	0.953647
914.586510	0.947442
914.892205	0.934205
915.197859	0.912335
915.503475	0.883278
915.809050	0.864395
916.114585	0.858103
916.420081	0.856294
916.725536	0.852486
917.030952	0.861244
917.336328	0.874149
917.641665	0.889716
917.946961	0.905464
918.252218	0.917011
918.557435	0.925476
918.862612	0.936767
919.167750	0.941840
919.472848	0.946061
919.777906	0.952438
920.082925	0.957253
920.387904	0.961845
920.692843	0.962189
920.997743	0.962811
921.302603	0.966318
921.607423	0.968367
921.912204	0.971027
922.216946	0.971004
922.521647	0.972056
922.826310	0.974390
923.130932	0.976495
923.435516	0.977712
923.740059	0.977999
924.044564	0.977948
924.349028	0.980309
924.653454	0.983016
924.957840	0.984171
925.262186	0.984348
925.566493	0.983045
925.870761	0.984882
926.174989	0.986095
926.479178	0.987153
926.783328	0.987059
927.087438	0.988352
927.391509	0.986790
927.695541	0.990435
927.999533	0.989389
928.303486	0.989514
928.607400	0.991503
928.911275	0.988281
929.215110	0.989128
929.518906	0.990552
929.822663	0.989360
930.126381	0.991351
930.430060	0.990235
930.733699	0.989952
931.037299	0.988492
931.340861	0.989774
931.644383	0.990037
931.947866	0.989932
932.251309	0.989355
932.554714	0.990456
932.858080	0.989255
933.161407	0.990920
933.464694	0.990075
933.767943	0.989037
934.071153	0.990908
934.374323	0.990816
934.677455	0.991931
934.980548	0.990487
935.283602	0.990551
935.586617	0.990452
935.889593	0.991018
936.192530	0.990184
936.495428	0.989984
936.798287	0.990929
937.101108	0.990790
937.403890	0.988080
937.706632	0.987947
938.009336	0.985476
938.312002	0.984905
938.614628	0.983169
938.917216	0.983197
939.219765	0.980909
939.522275	0.982712
939.824747	0.981774
940.127179	0.983106
940.429573	0.984058
940.731929	0.982746
941.034246	0.983473
941.336524	0.985063
941.638763	0.985988
941.940964	0.985021
942.243126	0.985703
942.545250	0.986978
942.847335	0.987589
943.149381	0.988332
943.451389	0.987745
943.753359	0.987060
944.055290	0.989538
944.357182	0.989894
944.659036	0.988666
944.960851	0.988294
945.262628	0.989494
945.564367	0.990536
945.866067	0.989416
946.167729	0.989126
946.469352	0.990344
946.770937	0.987418
947.072484	0.990938
947.373992	0.989007
947.675462	0.989807
947.976893	0.989922
948.278286	0.989419
948.579641	0.992193
948.880958	0.990134
949.182236	0.991361
949.483476	0.991629
949.784678	0.990264
950.085841	0.989730
950.386967	0.990260
950.688054	0.991295
950.989103	0.990800
951.290114	0.989753
951.591087	0.989131
951.892021	0.989173
952.192917	0.988493
952.493776	0.988404
952.794596	0.987421
953.095378	0.987487
953.396122	0.988445
953.696828	0.987963
953.997496	0.989498
954.298126	0.990310
954.598718	0.989679
954.899272	0.990557
955.199788	0.990292
955.500266	0.991310
955.800706	0.992768
956.101108	0.992171
956.401472	0.994247
956.701798	0.993328
957.002087	0.992798
957.302337	0.993624
957.602550	0.996007
957.902724	0.995056
958.202861	0.995085
958.502960	0.995098
958.803022	0.994034
959.103045	0.996918
959.403031	0.994687
959.702979	0.995166
960.002889	0.996236
960.302762	0.993697
960.602596	0.995470
960.902393	0.994802
961.202153	0.997072
961.501875	0.995662
961.801559	0.995257
962.101205	0.996511
962.400814	0.996645
962.700385	0.996720
962.999918	0.996843
963.299414	0.996278
963.598873	0.996188
963.898293	0.995677
964.197677	0.995323
964.497022	0.996521
964.796331	0.997159
965.095601	0.996709
965.394835	0.995232
965.694030	0.997046
965.993189	0.996944
966.292309	0.995229
966.591393	0.997186
966.890439	0.997059
967.189447	0.996419
967.488419	0.996757
967.787353	0.996425
968.086249	0.996599
968.385108	0.996852
968.683930	0.997149
968.982714	0.998420
969.281462	0.996802
969.580172	0.996751
969.878844	0.996923
970.177480	0.997145
970.476078	0.996325
970.774639	0.996945
971.073162	0.997700
971.371649	0.996764
971.670098	0.995937
971.968510	0.997796
972.266885	0.995243
972.565223	0.995544
972.863524	0.995870
973.161788	0.996540
973.460014	0.998132
973.758204	0.995109
974.056356	0.996096
974.354471	0.995581
974.652550	0.996267
974.950591	0.996149
975.248595	0.996245
975.546563	0.996808
975.844493	0.996935
976.142386	0.997718
976.440243	0.996103
976.738062	0.997135
977.035845	0.996735
977.333590	0.996202
977.631299	0.997323
977.928971	0.996394
978.226606	0.996306
978.524204	0.996850
978.821765	0.997475
979.119290	0.996144
979.416777	0.996806
979.714228	0.997828
980.011642	0.996317
980.309020	0.997197
980.606360	0.996490
980.903664	0.998094
981.200931	0.996027
981.498162	0.996039
981.795356	0.994784
982.092513	0.993017
982.389633	0.993723
982.686717	0.991393
982.983764	0.991864
983.280775	0.990155
983.577749	0.989610
983.874686	0.991040
984.171587	0.991086
984.468451	0.994579
984.765279	0.994955
985.062070	0.993453
985.358824	0.995473
985.655543	0.994879
985.952224	0.996448
986.248869	0.996028
986.545478	0.996752
986.842050	0.998348
987.138586	0.995948
987.435086	0.996943
987.731549	0.997295
988.027975	0.997411
988.324366	0.997515
988.620719	0.996933
988.917037	0.995283
989.213318	0.997488
989.509563	0.998426
989.805772	0.998619
990.101944	0.998535
990.398080	0.997255
990.694180	0.998123
990.990244	0.997268
991.286271	0.997140
991.582262	0.996967
991.878217	0.997529
992.174136	0.999457
992.470019	0.998866
992.765865	0.998244
993.061676	0.997879
993.357450	0.998347
993.653188	0.996866
993.948890	0.997838
994.244556	0.997216
994.540186	0.997261
994.835780	0.997078
995.131337	0.997869
995.426859	0.996293
995.722345	0.997476
996.017795	0.996115
996.313208	0.994941
996.608586	0.995970
996.903928	0.996239
997.199234	0.996327
997.494504	0.995612
997.789738	0.996411
998.084936	0.996347
998.380099	0.998379
998.675225	0.998598
998.970316	0.998333
999.265371	0.997975
999.560390	0.997775
999.855373	0.998282
1000.150320	0.998007
1000.445232	0.997898
1000.740108	0.997653
1001.034948	0.998903
1001.329752	0.998963
1001.624521	0.997896
1001.919254	0.998186
1002.213951	0.997344
1002.508613	0.997918
1002.803239	1.000008
1003.097829	0.999088
1003.392384	0.998284
1003.686903	0.997599
1003.981386	0.998987
1004.275834	0.999302
1004.570246	0.998057
1004.864623	0.999108
1005.158964	0.999340
1005.453270	0.998723
1005.747540	0.997137
1006.041775	0.998366
1006.335974	0.998621
1006.630138	0.999265
1006.924266	0.999101
1007.218359	0.999994
1007.512416	0.999075
1007.806438	0.998164
1008.100425	0.998934
1008.394376	0.998843
1008.688292	0.998328
1008.982172	1.000435
1009.276017	0.999115
1009.569827	0.998065
1009.863602	0.998543
1010.157341	0.999018
1010.451045	1.000225
1010.744714	0.998819
1011.038347	0.998735
1011.331945	0.999246
1011.625508	0.997159
1011.919036	0.997526
1012.212528	0.999212
1012.505986	0.997629
1012.799408	0.997971
1013.092795	0.999193
1013.386147	0.999003
1013.679464	0.998806
1013.972745	0.998315
1014.265992	0.997735
1014.559204	0.998702
1014.852380	0.999034
1015.145521	0.998380
1015.438628	0.999421
1015.731699	0.999190
1016.024736	1.000352
1016.317737	0.998817
1016.610703	0.998288
1016.903635	0.999228
1017.196531	0.998852
1017.489393	0.999348
1017.782219	0.998977
1018.075011	0.998264
1018.367768	0.998589
1018.660490	0.999407
1018.953177	0.999407
1019.245829	0.999407
