Dividing Wavelength (nm)	Counts (n)	Blue Motor Position (mm): 0.000000	Red Motor Position (mm): 31.400000	
326.493990	1.000667
326.888308	1.000667
327.282561	1.000667
327.676750	0.999823
328.070874	0.999492
328.464933	1.001041
328.858929	0.997968
329.252859	0.999709
329.646726	0.999083
330.040528	1.000360
330.434265	0.999127
330.827938	1.001343
331.221547	1.000539
331.615091	0.999853
332.008571	1.000162
332.401986	1.000020
332.795338	1.000749
333.188625	0.997627
333.581847	0.999728
333.975006	0.999355
334.368100	1.000086
334.761129	1.000930
335.154095	1.000870
335.546996	0.996962
335.939833	0.994428
336.332606	0.995031
336.725315	0.996068
337.117960	0.996132
337.510540	0.995683
337.903056	0.996530
338.295508	0.994686
338.687896	0.995965
339.080220	0.995668
339.472480	0.994806
339.864676	0.995788
340.256807	0.996868
340.648875	0.996116
341.040879	0.995931
341.432818	0.994900
341.824694	0.995617
342.216506	0.996102
342.608253	0.995883
342.999937	0.994339
343.391557	0.996283
343.783113	0.994854
344.174605	0.996261
344.566033	0.996256
344.957397	0.994380
345.348697	0.995177
345.739934	0.996127
346.131106	0.995655
346.522215	0.995231
346.913260	0.995763
347.304241	0.995844
347.695159	0.995214
348.086012	0.994649
348.476802	0.995643
348.867528	0.995942
349.258191	0.995036
349.648789	0.995963
350.039324	0.996281
350.429796	0.996640
350.820203	0.994676
351.210548	0.996517
351.600828	0.995915
351.991045	0.996738
352.381198	0.995202
352.771288	0.995978
353.161314	0.995294
353.551276	0.996560
353.941175	0.995022
354.331010	0.994667
354.720782	0.996939
355.110490	0.994785
355.500135	0.995987
355.889717	0.995345
356.279235	0.995247
356.668689	0.995161
357.058080	0.996399
357.447408	0.996915
357.836672	0.996723
358.225873	0.995991
358.615010	0.996393
359.004084	0.996486
359.393095	0.996293
359.782043	0.994996
360.170927	0.995664
360.559748	0.996305
360.948505	0.995759
361.337199	0.996264
361.725830	0.996593
362.114398	0.995282
362.502903	0.996669
362.891344	0.996252
363.279722	0.995577
363.668037	0.997088
364.056289	0.995937
364.444478	0.996397
364.832603	0.996196
365.220665	0.996151
365.608665	0.995052
365.996601	0.995357
366.384474	0.994727
366.772284	0.995754
367.160031	0.994449
367.547715	0.995407
367.935336	0.996010
368.322893	0.995862
368.710388	0.995389
369.097820	0.995083
369.485189	0.996308
369.872495	0.995026
370.259738	0.993908
370.646918	0.996121
371.034035	0.996884
371.421090	0.995084
371.808081	0.995688
372.195010	0.996597
372.581875	0.997028
372.968678	0.995926
373.355418	0.995431
373.742096	0.995142
374.128710	0.996817
374.515262	0.994976
374.901751	0.997266
375.288177	0.995421
375.674540	0.997194
376.060841	0.995318
376.447079	0.995239
376.833254	0.996643
377.219367	0.996090
377.605417	0.996876
377.991404	0.996479
378.377329	0.995714
378.763191	0.996083
379.148991	0.996686
379.534727	0.997689
379.920402	0.996482
380.306013	0.996538
380.691563	0.997879
381.077049	0.995856
381.462474	0.996477
381.847835	0.996453
382.233134	0.996744
382.618371	0.997908
383.003545	0.996345
383.388657	0.996841
383.773706	0.997628
384.158693	0.997096
384.543618	0.996363
384.928480	0.998175
385.313280	0.996493
385.698017	0.997409
386.082692	0.996994
386.467305	0.997562
386.851856	0.996514
387.236344	0.996518
387.620770	0.997014
388.005133	0.997098
388.389435	0.998642
388.773674	0.997208
389.157851	0.996630
389.541965	0.997089
389.926018	0.996599
390.310008	0.998388
390.693936	0.996704
391.077802	0.996816
391.461606	0.997090
391.845348	0.996850
392.229027	0.998336
392.612645	0.997939
392.996200	0.997691
393.379694	0.997341
393.763125	0.998823
394.146494	0.997525
394.529801	0.997524
394.913047	0.998024
395.296230	0.997343
395.679351	0.997763
396.062410	0.997126
396.445408	0.997607
396.828343	0.997746
397.211217	0.996272
397.594028	0.997828
397.976778	0.996831
398.359466	0.997306
398.742092	0.996465
399.124656	0.996946
399.507158	0.997015
399.889598	0.997534
400.271977	0.998287
400.654294	0.998080
401.036549	0.997556
401.418742	0.997555
401.800874	0.996319
402.182944	0.996974
402.564952	0.996290
402.946898	0.997733
403.328783	0.998657
403.710606	0.998233
404.092367	0.997864
404.474067	0.997539
404.855705	0.997366
405.237282	0.997214
405.618797	0.997743
406.000250	0.997669
406.381642	0.998702
406.762972	0.998547
407.144240	0.999409
407.525447	0.998548
407.906593	0.997998
408.287677	0.998067
408.668700	0.998006
409.049661	0.997054
409.430560	0.997832
409.811399	0.996984
410.192176	0.996924
410.572891	0.997854
410.953545	0.997204
411.334138	0.995560
411.714669	0.997626
412.095139	0.997088
412.475547	0.998491
412.855894	0.997797
413.236180	0.998556
413.616405	0.997052
413.996568	0.998520
414.376670	0.997963
414.756711	0.997535
415.136691	0.996862
415.516609	0.997935
415.896466	0.997638
416.276262	0.997102
416.655997	0.997793
417.035670	0.997328
417.415283	0.997575
417.794834	0.998216
418.174324	0.998187
418.553753	0.998322
418.933121	0.997299
419.312428	0.998233
419.691674	0.997806
420.070859	0.997768
420.449983	0.998215
420.829045	0.996965
421.208047	0.998114
421.586988	0.998712
421.965867	0.997520
422.344686	0.998642
422.723444	0.998474
423.102141	0.998022
423.480777	0.998789
423.859352	0.997677
424.237866	0.996996
424.616319	0.997454
424.994712	0.998720
425.373044	0.997568
425.751314	0.997185
426.129524	0.997661
426.507673	0.998063
426.885762	0.998825
427.263789	0.997024
427.641756	0.998459
428.019662	0.998974
428.397508	0.997127
428.775292	0.996885
429.153016	0.997689
429.530679	0.998271
429.908282	0.997809
430.285824	0.997041
430.663305	0.996786
431.040726	0.996879
431.418086	0.998356
431.795385	0.998855
432.172624	0.997618
432.549802	0.998376
432.926920	0.998284
433.303977	0.996606
433.680974	0.998148
434.057910	0.997343
434.434786	0.998629
434.811601	0.997657
435.188355	0.997996
435.565050	0.997950
435.941683	0.998908
436.318257	0.998633
436.694770	0.997475
437.071222	0.998262
437.447614	0.998504
437.823946	0.997819
438.200218	0.997860
438.576429	0.998200
438.952580	0.997699
439.328670	0.997341
439.704700	0.998012
440.080670	0.998155
440.456580	0.998275
440.832429	0.997080
441.208218	0.997905
441.583947	0.998255
441.959616	0.998419
442.335224	0.997568
442.710773	0.998782
443.086261	0.997998
443.461689	0.997812
443.837057	0.997832
444.212365	0.997938
444.587612	0.997404
444.962800	0.997463
445.337927	0.998344
445.712995	0.997910
446.088002	0.998751
446.462949	0.998233
446.837837	0.998613
447.212664	0.998183
447.587431	0.998570
447.962139	0.997784
448.336786	0.998241
448.711374	0.998178
449.085901	0.998021
449.460369	0.998237
449.834776	0.998226
450.209124	0.998287
450.583412	0.998148
450.957640	0.998298
451.331808	0.997699
451.705917	0.998269
452.079965	0.997053
452.453954	0.998106
452.827883	0.997683
453.201752	0.997719
453.575562	0.998454
453.949311	0.998351
454.323001	0.998002
454.696632	0.997575
455.070202	0.997704
455.443713	0.996943
455.817164	0.998016
456.190556	0.997239
456.563888	0.997671
456.937160	0.998395
457.310373	0.996976
457.683526	0.997775
458.056619	0.997275
458.429653	0.997765
458.802628	0.996675
459.175542	0.997768
459.548398	0.997299
459.921194	0.997540
460.293930	0.997381
460.666607	0.997346
461.039224	0.997365
461.411782	0.998284
461.784280	0.997117
462.156719	0.998798
462.529099	0.997899
462.901419	0.996890
463.273680	0.997148
463.645882	0.997880
464.018024	0.998229
464.390106	0.997624
464.762130	0.998427
465.134094	0.998090
465.505999	0.998334
465.877845	0.997502
466.249631	0.998207
466.621358	0.997911
466.993026	0.997518
467.364634	0.996705
467.736184	0.998188
468.107674	0.998059
468.479105	0.996453
468.850477	0.997159
469.221790	0.996349
469.593043	0.996919
469.964238	0.997564
470.335373	0.996574
470.706449	0.996754
471.077467	0.996802
471.448425	0.996021
471.819324	0.996724
472.190164	0.994828
472.560945	0.995936
472.931667	0.995427
473.302330	0.994642
473.672934	0.995200
474.043479	0.994225
474.413965	0.993681
474.784393	0.994128
475.154761	0.992459
475.525070	0.991792
475.895321	0.992697
476.265513	0.991978
476.635645	0.990260
477.005719	0.990425
477.375734	0.988882
477.745691	0.988871
478.115588	0.987590
478.485427	0.987255
478.855207	0.985618
479.224928	0.984465
479.594591	0.982536
479.964194	0.982424
480.333739	0.981813
480.703226	0.980734
481.072653	0.979682
481.442022	0.977769
481.811333	0.975459
482.180584	0.974578
482.549777	0.973211
482.918912	0.971443
483.287988	0.970581
483.657005	0.968611
484.025964	0.968027
484.394864	0.965891
484.763706	0.964022
485.132489	0.962637
485.501213	0.960591
485.869879	0.958170
486.238487	0.955931
486.607036	0.953972
486.975527	0.951330
487.343959	0.949175
487.712333	0.946742
488.080648	0.943832
488.448905	0.940760
488.817104	0.938504
489.185244	0.935552
489.553326	0.931128
489.921350	0.926165
490.289315	0.918295
490.657222	0.914799
491.025070	0.911328
491.392861	0.908826
491.760593	0.907391
492.128267	0.904965
492.495883	0.902810
492.863440	0.899542
493.230939	0.896680
493.598380	0.891798
493.965763	0.887497
494.333088	0.885350
494.700354	0.879683
495.067563	0.875944
495.434713	0.871434
495.801805	0.866732
496.168839	0.861964
496.535815	0.856377
496.902733	0.851978
497.269593	0.847228
497.636395	0.842184
498.003139	0.836004
498.369825	0.833073
498.736453	0.825767
499.103023	0.821004
499.469535	0.814932
499.835989	0.810407
500.202385	0.804645
500.568723	0.799647
500.935003	0.793754
501.301226	0.785554
501.667390	0.780366
502.033497	0.773435
502.399546	0.769342
502.765537	0.762632
503.131470	0.755804
503.497345	0.748338
503.863163	0.746167
504.228923	0.736294
504.594625	0.730632
504.960269	0.725539
505.325856	0.717640
505.691385	0.711837
506.056856	0.704578
506.422270	0.697118
506.787625	0.693095
507.152924	0.684199
507.518164	0.678874
507.883347	0.673051
508.248472	0.667294
508.613540	0.658480
508.978550	0.652852
509.343503	0.646258
509.708398	0.638372
510.073236	0.630545
510.438016	0.624757
510.802738	0.617851
511.167403	0.610995
511.532010	0.604784
511.896561	0.597116
512.261053	0.590351
512.625488	0.583822
512.989866	0.577987
513.354186	0.571611
513.718449	0.565949
514.082655	0.558017
514.446803	0.552900
514.810894	0.545115
515.174927	0.540234
515.538904	0.533890
515.902822	0.525591
516.266684	0.521147
516.630488	0.515446
516.994235	0.509850
517.357925	0.501541
517.721558	0.495118
518.085133	0.488298
518.448651	0.483569
518.812112	0.478932
519.175516	0.471630
519.538863	0.464973
519.902152	0.461212
520.265385	0.452383
520.628560	0.448902
520.991678	0.442888
521.354739	0.437615
521.717743	0.433054
522.080690	0.428283
522.443580	0.419713
522.806413	0.416257
523.169189	0.410582
523.531908	0.405009
523.894569	0.402952
524.257174	0.397905
524.619722	0.391137
524.982213	0.388671
525.344647	0.381903
525.707025	0.378505
526.069345	0.372821
526.431608	0.369278
526.793815	0.363841
527.155964	0.363162
527.518057	0.358470
527.880093	0.355001
528.242072	0.350110
528.603995	0.347452
528.965860	0.345583
529.327669	0.340777
529.689421	0.338215
530.051117	0.335705
530.412755	0.329662
530.774337	0.328812
531.135862	0.325331
531.497331	0.321986
531.858743	0.321242
532.220098	0.315419
532.581396	0.314911
532.942638	0.312676
533.303824	0.310794
533.664953	0.307611
534.026025	0.306509
534.387040	0.302114
534.747999	0.299996
535.108902	0.296124
535.469748	0.298424
535.830537	0.294522
536.191270	0.292288
536.551947	0.289727
536.912567	0.287667
537.273131	0.287915
537.633638	0.285806
537.994089	0.284159
538.354483	0.283511
538.714821	0.279077
539.075103	0.276957
539.435328	0.276080
539.795497	0.278144
540.155609	0.273162
540.515665	0.270185
540.875665	0.273842
541.235609	0.270962
541.595496	0.269983
541.955328	0.264922
542.315102	0.266941
542.674821	0.266491
543.034483	0.265330
543.394090	0.264070
543.753640	0.264764
544.113134	0.258960
544.472571	0.261237
544.831953	0.257083
545.191278	0.260270
545.550548	0.259150
545.909761	0.255040
546.268918	0.255114
546.628019	0.252657
546.987064	0.254660
547.346053	0.255984
547.704986	0.253253
548.063863	0.252730
548.422684	0.252783
548.781449	0.253605
549.140158	0.250875
549.498811	0.253185
549.857408	0.255657
550.215949	0.250271
550.574434	0.253103
550.932864	0.250440
551.291237	0.248915
551.649555	0.249846
552.007817	0.249377
552.366022	0.249896
552.724173	0.249740
553.082267	0.249694
553.440305	0.246151
553.798288	0.250681
554.156215	0.246826
554.514086	0.247269
554.871902	0.250263
555.229661	0.249445
555.587365	0.249745
555.945014	0.251980
556.302606	0.248628
556.660143	0.251275
557.017625	0.247463
557.375050	0.249869
557.732421	0.246501
558.089735	0.248458
558.446994	0.248284
558.804197	0.247322
559.161345	0.247247
559.518437	0.250548
559.875474	0.248182
560.232455	0.247323
560.589381	0.248496
560.946251	0.248631
561.303065	0.245922
561.659825	0.247481
562.016528	0.248821
562.373177	0.251410
562.729770	0.248910
563.086307	0.250971
563.442789	0.248296
563.799216	0.251095
564.155587	0.249985
564.511904	0.250959
564.868164	0.251083
565.224370	0.250647
565.580520	0.252260
565.936615	0.252180
566.292654	0.254868
566.648638	0.252417
567.004567	0.253033
567.360441	0.253373
567.716260	0.255469
568.072023	0.253088
568.427732	0.254348
568.783385	0.256446
569.138982	0.254287
569.494525	0.253854
569.850013	0.256811
570.205445	0.255100
570.560823	0.257674
570.916145	0.259755
571.271412	0.258058
571.626625	0.259457
571.981782	0.259689
572.336884	0.260565
572.691931	0.260455
573.046923	0.261376
573.401860	0.262624
573.756743	0.264361
574.111570	0.262909
574.466342	0.263772
574.821059	0.262984
575.175722	0.265736
575.530330	0.265417
575.884882	0.265518
576.239380	0.267653
576.593823	0.268205
576.948211	0.267491
577.302544	0.270869
577.656823	0.270401
578.011047	0.270647
578.365216	0.270946
578.719330	0.273155
579.073389	0.272849
579.427394	0.274126
579.781344	0.274764
580.135239	0.275997
580.489080	0.275559
580.842866	0.278426
581.196597	0.278833
581.550273	0.277224
581.903895	0.278497
582.257463	0.276236
582.610975	0.279918
582.964434	0.279259
583.317837	0.281678
583.671186	0.282055
584.024481	0.282337
584.377721	0.284545
584.730906	0.285252
585.084037	0.284340
585.437113	0.286219
585.790135	0.285715
586.143103	0.288580
586.496016	0.289953
586.848874	0.287116
587.201679	0.288032
587.554428	0.291246
587.907124	0.289814
588.259765	0.290356
588.612352	0.291132
588.964884	0.295140
589.317362	0.294579
589.669786	0.294509
590.022155	0.292864
590.374470	0.292363
590.726731	0.294194
591.078937	0.299089
591.431090	0.295388
591.783188	0.299633
592.135232	0.299991
592.487222	0.299986
592.839157	0.298508
593.191038	0.300730
593.542866	0.302101
593.894639	0.305842
594.246358	0.303862
594.598022	0.303619
594.949633	0.307071
595.301190	0.307284
595.652692	0.306642
596.004141	0.303147
596.355535	0.311217
596.706876	0.311591
597.058162	0.313973
597.409395	0.311371
597.760573	0.308550
598.111698	0.312178
598.462768	0.312745
598.813785	0.313771
599.164748	0.315335
599.515657	0.315566
599.866511	0.318663
600.217312	0.314207
600.568060	0.319413
600.918753	0.315675
601.269392	0.316945
601.619978	0.320057
601.970510	0.317707
602.320988	0.317889
602.671412	0.315412
603.021783	0.318146
603.372100	0.319415
603.722363	0.319191
604.072572	0.320106
604.422728	0.319740
604.772830	0.321606
605.122878	0.321070
605.472872	0.321528
605.822813	0.320342
606.172701	0.322811
606.522534	0.320086
606.872314	0.320204
607.222041	0.321063
607.571714	0.319437
607.921333	0.320572
608.270899	0.320515
608.620411	0.317039
608.969870	0.321158
609.319276	0.320915
609.668627	0.321288
610.017926	0.319407
610.367171	0.318188
610.716362	0.319163
611.065500	0.319144
611.414585	0.317720
611.763616	0.318458
612.112594	0.319055
612.461518	0.318117
612.810389	0.316022
613.159207	0.318520
613.507971	0.320220
613.856682	0.315807
614.205340	0.317547
614.553945	0.314212
614.902496	0.318453
615.250994	0.315977
615.599439	0.316717
615.947830	0.316570
616.296169	0.317356
616.644454	0.316735
616.992686	0.316699
617.340864	0.314734
617.688990	0.318501
618.037063	0.314749
618.385082	0.316897
618.733048	0.313543
619.080961	0.316039
619.428821	0.315368
619.776628	0.314646
620.124382	0.317085
620.472083	0.317003
620.819731	0.316586
621.167326	0.320592
621.514868	0.320260
621.862357	0.324466
622.209793	0.324186
622.557176	0.325780
622.904506	0.327397
623.251783	0.329236
623.599007	0.331822
623.946179	0.331742
624.293297	0.333339
624.640363	0.337356
624.987376	0.337677
625.334336	0.340510
625.681243	0.342540
626.028097	0.343153
626.374899	0.344263
626.721647	0.344657
627.068343	0.347626
627.414987	0.348899
627.761577	0.351030
628.108115	0.349114
628.454600	0.354004
628.801032	0.351399
629.147412	0.353744
629.493739	0.354034
629.840014	0.357770
630.186236	0.354802
630.532405	0.360242
630.878521	0.357614
631.224585	0.359747
631.570597	0.363181
631.916556	0.361599
632.262462	0.362349
632.608316	0.364041
632.954117	0.365053
633.299866	0.366141
633.645562	0.366501
633.991206	0.370552
634.336797	0.373307
634.682336	0.375548
635.027823	0.377083
635.373257	0.377528
635.718639	0.381564
636.063968	0.380576
636.409245	0.386276
636.754470	0.386469
637.099642	0.389362
637.444762	0.392334
637.789829	0.391332
638.134845	0.395246
638.479808	0.395756
638.824719	0.396014
639.169577	0.399771
639.514383	0.398576
639.859137	0.402713
640.203839	0.402736
640.548489	0.403150
640.893086	0.404589
641.237632	0.406320
641.582125	0.404514
641.926566	0.406288
642.270955	0.406600
642.615292	0.406770
642.959576	0.405975
643.303809	0.406423
643.647990	0.406322
643.992118	0.406588
644.336195	0.410124
644.680219	0.408412
645.024192	0.409325
645.368112	0.402927
645.711981	0.401700
646.055797	0.396998
646.399562	0.399479
646.743274	0.391463
647.086935	0.388799
647.430544	0.389209
647.774101	0.388150
648.117606	0.387442
648.461059	0.388047
648.804460	0.390874
649.147810	0.395968
649.491108	0.397479
649.834354	0.399009
650.177548	0.404983
650.520690	0.409273
650.863781	0.410737
651.206820	0.409738
651.549807	0.414558
651.892742	0.418543
652.235626	0.418325
652.578458	0.418823
652.921238	0.425205
653.263967	0.423364
653.606644	0.427001
653.949269	0.426719
654.291843	0.430832
654.634365	0.427322
654.976836	0.430821
655.319255	0.431183
655.661622	0.432318
656.003938	0.432404
656.346203	0.435409
656.688416	0.433376
657.030577	0.436832
657.372687	0.438568
657.714746	0.439509
658.056753	0.436460
658.398708	0.439868
658.740612	0.441006
659.082465	0.436978
659.424266	0.438163
659.766016	0.438005
660.107715	0.439905
660.449362	0.438792
660.790958	0.439612
661.132503	0.440043
661.473996	0.438106
661.815438	0.439128
662.156829	0.439184
662.498168	0.440088
662.839456	0.441258
663.180693	0.439205
663.521879	0.438920
663.863013	0.440164
664.204097	0.438287
664.545129	0.435272
664.886110	0.435541
665.227040	0.433027
665.567918	0.435479
665.908746	0.433375
666.249522	0.433209
666.590248	0.434170
666.930922	0.432412
667.271545	0.431083
667.612118	0.431324
667.952639	0.433160
668.293109	0.431965
668.633528	0.434037
668.973896	0.434300
669.314213	0.434802
669.654480	0.436318
669.994695	0.436449
670.334859	0.437161
670.674973	0.437558
671.015035	0.437620
671.355047	0.437905
671.695008	0.438630
672.034918	0.440689
672.374777	0.440243
672.714585	0.441272
673.054342	0.441654
673.394049	0.441072
673.733705	0.438473
674.073310	0.439929
674.412864	0.442742
674.752368	0.443642
675.091820	0.444016
675.431223	0.447967
675.770574	0.447884
676.109875	0.451023
676.449125	0.451373
676.788324	0.453318
677.127473	0.458597
677.466571	0.457788
677.805619	0.460672
678.144616	0.461335
678.483562	0.463398
678.822458	0.465461
679.161303	0.466710
679.500098	0.467042
679.838842	0.469032
680.177535	0.468095
680.516179	0.466565
680.854771	0.465716
681.193314	0.459032
681.531805	0.450255
681.870247	0.439166
682.208638	0.431878
682.546978	0.430420
682.885268	0.431819
683.223508	0.438160
683.561697	0.442361
683.899836	0.444654
684.237925	0.448455
684.575963	0.450914
684.913951	0.454045
685.251889	0.449757
685.589776	0.451699
685.927614	0.453831
686.265401	0.448651
686.603137	0.449739
686.940824	0.443560
687.278460	0.441910
687.616046	0.441352
687.953582	0.436004
688.291068	0.437771
688.628504	0.433457
688.965889	0.435447
689.303224	0.440152
689.640510	0.443527
689.977745	0.449485
690.314930	0.456837
690.652065	0.461621
690.989150	0.468947
691.326185	0.475801
691.663170	0.479988
692.000105	0.487428
692.336990	0.494922
692.673825	0.496983
693.010610	0.503486
693.347345	0.509261
693.684030	0.510645
694.020665	0.515920
694.357251	0.524272
694.693786	0.523992
695.030272	0.528062
695.366707	0.531137
695.703093	0.535257
696.039429	0.531961
696.375716	0.534561
696.711952	0.536969
697.048139	0.538809
697.384276	0.541112
697.720363	0.539290
698.056400	0.537981
698.392388	0.543968
698.728326	0.546816
699.064214	0.549635
699.400053	0.550288
699.735842	0.554099
700.071581	0.556741
700.407270	0.559713
700.742910	0.561790
701.078501	0.568764
701.414042	0.569158
701.749533	0.571886
702.084974	0.580039
702.420366	0.573116
702.755709	0.581104
703.091002	0.588067
703.426246	0.581973
703.761440	0.587168
704.096584	0.592665
704.431679	0.589055
704.766725	0.591788
705.101721	0.593444
705.436668	0.588503
705.771565	0.596224
706.106413	0.592935
706.441212	0.588476
706.775961	0.587103
707.110661	0.590091
707.445311	0.586179
707.779913	0.582952
708.114465	0.581881
708.448967	0.579029
708.783421	0.570682
709.117825	0.565617
709.452180	0.565310
709.786485	0.559250
710.120742	0.549560
710.454949	0.551211
710.789107	0.543652
711.123216	0.534304
711.457275	0.536212
711.791286	0.527143
712.125247	0.526120
712.459159	0.536276
712.793023	0.529552
713.126837	0.533628
713.460602	0.533900
713.794318	0.543202
714.127985	0.542669
714.461602	0.552903
714.795171	0.555271
715.128691	0.562717
715.462162	0.570924
715.795584	0.576635
716.128957	0.578653
716.462281	0.585592
716.795556	0.589273
717.128782	0.594260
717.461960	0.603299
717.795088	0.601670
718.128167	0.607934
718.461198	0.616809
718.794180	0.617836
719.127113	0.620165
719.459997	0.623985
719.792833	0.630202
720.125619	0.631648
720.458357	0.637349
720.791046	0.636791
721.123686	0.640315
721.456278	0.646668
721.788821	0.644013
722.121315	0.648141
722.453761	0.652791
722.786158	0.650668
723.118506	0.647076
723.450805	0.655049
723.783056	0.651366
724.115259	0.648085
724.447412	0.647509
724.779518	0.649207
725.111574	0.648255
725.443582	0.643337
725.775542	0.645614
726.107453	0.637842
726.439315	0.638613
726.771129	0.635947
727.102895	0.630245
727.434612	0.622683
727.766281	0.620815
728.097901	0.619785
728.429473	0.620101
728.760996	0.617988
729.092471	0.618199
729.423897	0.621867
729.755276	0.621063
730.086606	0.621022
730.417887	0.615788
730.749120	0.606230
731.080305	0.597353
731.411442	0.593625
731.742530	0.598119
732.073570	0.597934
732.404562	0.590040
732.735506	0.591378
733.066401	0.596191
733.397249	0.605835
733.728048	0.616742
734.058798	0.628978
734.389501	0.639736
734.720156	0.649707
735.050762	0.656931
735.381320	0.658010
735.711831	0.666742
736.042293	0.672351
736.372707	0.668006
736.703073	0.672636
737.033391	0.673988
737.363661	0.671999
737.693883	0.666834
738.024056	0.665351
738.354182	0.666521
738.684260	0.655325
739.014290	0.651724
739.344272	0.652680
739.674207	0.646917
740.004093	0.646020
740.333931	0.646654
740.663722	0.646242
740.993464	0.646056
741.323159	0.650259
741.652806	0.655177
741.982405	0.660083
742.311956	0.664054
742.641460	0.667313
742.970915	0.670236
743.300323	0.678163
743.629683	0.684430
743.958996	0.686368
744.288260	0.690075
744.617477	0.696675
744.946647	0.698133
745.275768	0.703525
745.604842	0.702900
745.933869	0.712739
746.262847	0.714086
746.591778	0.706875
746.920662	0.713978
747.249498	0.719605
747.578286	0.711448
747.907027	0.706677
748.235720	0.708047
748.564365	0.702788
748.892963	0.702506
749.221514	0.705371
749.550017	0.710791
749.878473	0.711055
750.206881	0.715911
750.535242	0.718157
750.863555	0.717277
751.191821	0.718952
751.520039	0.721957
751.848210	0.727384
752.176334	0.720306
752.504411	0.718700
752.832440	0.726272
753.160421	0.730774
753.488356	0.728804
753.816243	0.726995
754.144082	0.735088
754.471875	0.738003
754.799620	0.734112
755.127318	0.734843
755.454969	0.735033
755.782572	0.734391
756.110129	0.739559
756.437638	0.741553
756.765100	0.739042
757.092515	0.736579
757.419882	0.735447
757.747203	0.740747
758.074477	0.739691
758.401703	0.737405
758.728882	0.732337
759.056014	0.730723
759.383099	0.730161
759.710138	0.731310
760.037129	0.728378
760.364073	0.720995
760.690970	0.724291
761.017820	0.729478
761.344623	0.726077
761.671379	0.716571
761.998088	0.705060
762.324751	0.682526
762.651366	0.641998
762.977935	0.574931
763.304456	0.523598
763.630931	0.513888
763.957359	0.552738
764.283740	0.596796
764.610074	0.623835
764.936362	0.653876
765.262602	0.680447
765.588796	0.702070
765.914943	0.720184
766.241044	0.737366
766.567097	0.744096
766.893104	0.754445
767.219064	0.759396
767.544978	0.766379
767.870845	0.779500
768.196665	0.783556
768.522438	0.782266
768.848165	0.782641
769.173846	0.792048
769.499479	0.796118
769.825066	0.799421
770.150607	0.804546
770.476101	0.799545
770.801548	0.800637
771.126949	0.812176
771.452303	0.816658
771.777611	0.814754
772.102872	0.814956
772.428087	0.820073
772.753256	0.822928
773.078378	0.825416
773.403453	0.833940
773.728482	0.838109
774.053465	0.831448
774.378401	0.834994
774.703291	0.843284
775.028135	0.843179
775.352932	0.845143
775.677683	0.847794
776.002388	0.848018
776.327046	0.847529
776.651658	0.850845
776.976224	0.853729
777.300743	0.854328
777.625216	0.856641
777.949643	0.859059
778.274024	0.857811
778.598359	0.859681
778.922647	0.858644
779.246889	0.859675
779.571086	0.863565
779.895236	0.864738
780.219339	0.862701
780.543397	0.859296
780.867409	0.858918
781.191374	0.860638
781.515294	0.861575
781.839167	0.861136
782.162995	0.863083
782.486776	0.861275
782.810511	0.862277
783.134201	0.865195
783.457844	0.863113
783.781441	0.865740
784.104993	0.872543
784.428498	0.871868
784.751958	0.868304
785.075372	0.870749
785.398739	0.873696
785.722061	0.870257
786.045337	0.865119
786.368568	0.871184
786.691752	0.873237
787.014891	0.858628
787.337983	0.848751
787.661030	0.843420
787.984031	0.825500
788.306987	0.812272
788.629897	0.814832
788.952760	0.819781
789.275579	0.823434
789.598351	0.838572
789.921078	0.852134
790.243759	0.852787
790.566395	0.858655
790.888984	0.865654
791.211529	0.869334
791.534027	0.874181
791.856480	0.875859
792.178888	0.879846
792.501249	0.883292
792.823566	0.883519
793.145836	0.884181
793.468062	0.886356
793.790241	0.886887
794.112375	0.884419
794.434464	0.879032
794.756507	0.879240
795.078505	0.878573
795.400457	0.873458
795.722364	0.862362
796.044226	0.854876
796.366042	0.853770
796.687812	0.857079
797.009538	0.853480
797.331218	0.855664
797.652852	0.861972
797.974442	0.866983
798.295986	0.866014
798.617484	0.868758
798.938938	0.872485
799.260346	0.877568
799.581709	0.879212
799.903026	0.881740
800.224299	0.882042
800.545526	0.885731
800.866708	0.889745
801.187845	0.893803
801.508936	0.893048
801.829983	0.891381
802.150984	0.894653
802.471940	0.898436
802.792851	0.899347
803.113717	0.899328
803.434538	0.897904
803.755314	0.899732
804.076045	0.901174
804.396731	0.901642
804.717372	0.900912
805.037967	0.904368
805.358518	0.900330
805.679024	0.898198
805.999485	0.898265
806.319901	0.897160
806.640272	0.900616
806.960598	0.897658
807.280879	0.894864
807.601115	0.894335
807.921306	0.897811
808.241453	0.897088
808.561554	0.894732
808.881611	0.895332
809.201623	0.897916
809.521590	0.897733
809.841513	0.898684
810.161390	0.898538
810.481223	0.898592
810.801011	0.903702
811.120755	0.904428
811.440453	0.902926
811.760107	0.900930
812.079716	0.902171
812.399281	0.905964
812.718801	0.908369
813.038276	0.908487
813.357707	0.908639
813.677093	0.905095
813.996434	0.907994
814.315731	0.910381
814.634983	0.910651
814.954191	0.909325
815.273354	0.906514
815.592473	0.902375
815.911547	0.903520
816.230577	0.900993
816.549562	0.897758
816.868502	0.899282
817.187399	0.896056
817.506250	0.888635
817.825058	0.891591
818.143821	0.888728
818.462539	0.882701
818.781213	0.874984
819.099843	0.864020
819.418429	0.849497
819.736970	0.832603
820.055466	0.812468
820.373919	0.787522
820.692327	0.755288
821.010691	0.721246
821.329011	0.645571
821.647286	0.531972
821.965517	0.419648
822.283704	0.377366
822.601847	0.379073
822.919945	0.414516
823.237999	0.447843
823.556010	0.493071
823.873976	0.548608
824.191897	0.597740
824.509775	0.640329
824.827609	0.685309
825.145398	0.707229
825.463144	0.709744
825.780845	0.693219
826.098502	0.674275
826.416116	0.628999
826.733685	0.586582
827.051210	0.577872
827.368692	0.592701
827.686129	0.628516
828.003522	0.681509
828.320872	0.726702
828.638177	0.770731
828.955439	0.803108
829.272656	0.824747
829.589830	0.841748
829.906960	0.856915
830.224046	0.869366
830.541088	0.879827
830.858086	0.884040
831.175041	0.890612
831.491952	0.889601
831.808819	0.885526
832.125642	0.879269
832.442421	0.863526
832.759157	0.843153
833.075849	0.798288
833.392497	0.734496
833.709101	0.694725
834.025662	0.704948
834.342179	0.736210
834.658653	0.774640
834.975083	0.809430
835.291469	0.836319
835.607811	0.856572
835.924110	0.873129
836.240366	0.888778
836.556578	0.904037
836.872746	0.910808
837.188871	0.915932
837.504952	0.922540
837.820990	0.925177
838.136984	0.928998
838.452935	0.931354
838.768842	0.933252
839.084706	0.926806
839.400526	0.901514
839.716303	0.861652
840.032037	0.840422
840.347727	0.844448
840.663373	0.861973
840.978977	0.882487
841.294537	0.903883
841.610054	0.921108
841.925527	0.927692
842.240957	0.933678
842.556344	0.941176
842.871687	0.947077
843.186987	0.951132
843.502244	0.951336
843.817458	0.952927
844.132629	0.956837
844.447756	0.960841
844.762840	0.961298
845.077881	0.960890
845.392879	0.960450
845.707833	0.964240
846.022745	0.965437
846.337613	0.966153
846.652438	0.967169
846.967221	0.966180
847.281960	0.967502
847.596656	0.968244
847.911309	0.966674
848.225919	0.969669
848.540485	0.968778
848.855009	0.969969
849.169490	0.968052
849.483928	0.969529
849.798323	0.969709
850.112675	0.971452
850.426984	0.970517
850.741251	0.971109
851.055474	0.971018
851.369654	0.968626
851.683792	0.970666
851.997887	0.971109
852.311938	0.971298
852.625947	0.971587
852.939914	0.968308
853.253837	0.969165
853.567718	0.972321
853.881555	0.971741
854.195350	0.968869
854.509103	0.971258
854.822812	0.971168
855.136479	0.969904
855.450103	0.970715
855.763685	0.969364
856.077224	0.969711
856.390720	0.970684
856.704173	0.971961
857.017584	0.969439
857.330953	0.967220
857.644278	0.970460
857.957561	0.969391
858.270802	0.969513
858.584000	0.967549
858.897155	0.967531
859.210268	0.967600
859.523339	0.969055
859.836367	0.972019
860.149352	0.971592
860.462295	0.969402
860.775195	0.971441
861.088054	0.969657
861.400869	0.970642
861.713642	0.970623
862.026373	0.970342
862.339062	0.972276
862.651708	0.969238
862.964312	0.968162
863.276873	0.970443
863.589392	0.970321
863.901869	0.967394
864.214303	0.966318
864.526696	0.965070
864.839045	0.965959
865.151353	0.963081
865.463619	0.964081
865.775842	0.964164
866.088023	0.962917
866.400162	0.963524
866.712258	0.963968
867.024313	0.963695
867.336325	0.964363
867.648296	0.964570
867.960224	0.963879
868.272110	0.962401
868.583954	0.965694
868.895755	0.964600
869.207515	0.962679
869.519233	0.961703
869.830909	0.962503
870.142542	0.963418
870.454134	0.962830
870.765684	0.962130
871.077191	0.959214
871.388657	0.960924
871.700081	0.959112
872.011463	0.960032
872.322803	0.959791
872.634101	0.958401
872.945357	0.955173
873.256571	0.955301
873.567744	0.954434
873.878874	0.955589
874.189963	0.953300
874.501010	0.952768
874.812015	0.951240
875.122979	0.952373
875.433900	0.955712
875.744780	0.956207
876.055618	0.952549
876.366415	0.951466
876.677169	0.951676
876.987882	0.953239
877.298554	0.953121
877.609183	0.949148
877.919771	0.946660
878.230317	0.944344
878.540822	0.943024
878.851285	0.937048
879.161707	0.929179
879.472087	0.918072
879.782425	0.902680
880.092722	0.869067
880.402977	0.818715
880.713191	0.760616
881.023363	0.702559
881.333494	0.670506
881.643583	0.642009
881.953631	0.642043
882.263637	0.670088
882.573602	0.709063
882.883526	0.733927
883.193408	0.756672
883.503248	0.777954
883.813048	0.804984
884.122806	0.833915
884.432522	0.856024
884.742197	0.875092
885.051831	0.885495
885.361424	0.893388
885.670975	0.906967
885.980485	0.917308
886.289954	0.922746
886.599382	0.927251
886.908768	0.931415
887.218113	0.937200
887.527417	0.941443
887.836680	0.945517
888.145901	0.946749
888.455082	0.947515
888.764221	0.951277
889.073319	0.954352
889.382376	0.955087
889.691392	0.955935
890.000366	0.954245
890.309300	0.955560
890.618193	0.954165
890.927044	0.953477
891.235855	0.953710
891.544625	0.953062
891.853353	0.953470
892.162041	0.952246
892.470687	0.945498
892.779293	0.940248
893.087858	0.936533
893.396381	0.929985
893.704864	0.916819
894.013306	0.893712
894.321707	0.868140
894.630068	0.854101
894.938387	0.849851
895.246665	0.850588
895.554903	0.862087
895.863100	0.874851
896.171256	0.892095
896.479371	0.910467
896.787446	0.922978
897.095480	0.929310
897.403473	0.931458
897.711425	0.935027
898.019336	0.942565
898.327207	0.944229
898.635038	0.946934
898.942827	0.947590
899.250576	0.950389
899.558284	0.955023
899.865952	0.955860
900.173579	0.957245
900.481165	0.957601
900.788711	0.960949
901.096216	0.963357
901.403681	0.962606
901.711105	0.965721
902.018489	0.965134
902.325832	0.964036
902.633135	0.964428
902.940397	0.957907
903.247619	0.944885
903.554800	0.922005
903.861941	0.883696
904.169041	0.850524
904.476101	0.833528
904.783121	0.834756
905.090100	0.850088
905.397039	0.870696
905.703938	0.890858
906.010796	0.910237
906.317614	0.926149
906.624391	0.937014
906.931129	0.946237
907.237826	0.953817
907.544483	0.961267
907.851099	0.964605
908.157675	0.969542
908.464211	0.971263
908.770707	0.972975
909.077163	0.975672
909.383578	0.976830
909.689954	0.976249
909.996289	0.976953
910.302584	0.978858
910.608839	0.980407
910.915054	0.978308
911.221229	0.979057
911.527363	0.977685
911.833458	0.978441
912.139513	0.978595
912.445527	0.976365
912.751502	0.975933
913.057436	0.973545
913.363331	0.970743
913.669186	0.967772
913.975000	0.963464
914.280775	0.958254
914.586510	0.951818
914.892205	0.939440
915.197859	0.919221
915.503475	0.892466
915.809050	0.874296
916.114585	0.869193
916.420081	0.867307
916.725536	0.863762
917.030952	0.870630
917.336328	0.884121
917.641665	0.897550
917.946961	0.912128
918.252218	0.923082
918.557435	0.931939
918.862612	0.939436
919.167750	0.945616
919.472848	0.949399
919.777906	0.954877
920.082925	0.960235
920.387904	0.963678
920.692843	0.964703
920.997743	0.966022
921.302603	0.969494
921.607423	0.971437
921.912204	0.973518
922.216946	0.974851
922.521647	0.974185
922.826310	0.974895
923.130932	0.976921
923.435516	0.980450
923.740059	0.980286
924.044564	0.979638
924.349028	0.981329
924.653454	0.983762
924.957840	0.986943
925.262186	0.984749
925.566493	0.984925
925.870761	0.985472
926.174989	0.988006
926.479178	0.988659
926.783328	0.988015
927.087438	0.988851
927.391509	0.988567
927.695541	0.990382
927.999533	0.990246
928.303486	0.989805
928.607400	0.992878
928.911275	0.990361
929.215110	0.990582
929.518906	0.990329
929.822663	0.990430
930.126381	0.990524
930.430060	0.991433
930.733699	0.990839
931.037299	0.990924
931.340861	0.990268
931.644383	0.990364
931.947866	0.989830
932.251309	0.991126
932.554714	0.991958
932.858080	0.990531
933.161407	0.991207
933.464694	0.990898
933.767943	0.990795
934.071153	0.991924
934.374323	0.991742
934.677455	0.991722
934.980548	0.992055
935.283602	0.991406
935.586617	0.992098
935.889593	0.990513
936.192530	0.990931
936.495428	0.990247
936.798287	0.990938
937.101108	0.992139
937.403890	0.990246
937.706632	0.990777
938.009336	0.986088
938.312002	0.987618
938.614628	0.986563
938.917216	0.985245
939.219765	0.982905
939.522275	0.984385
939.824747	0.984585
940.127179	0.983389
940.429573	0.985688
940.731929	0.984102
941.034246	0.985337
941.336524	0.986910
941.638763	0.986754
941.940964	0.987138
942.243126	0.986551
942.545250	0.988154
942.847335	0.988691
943.149381	0.989414
943.451389	0.989432
943.753359	0.989180
944.055290	0.991442
944.357182	0.989769
944.659036	0.988366
944.960851	0.989499
945.262628	0.991344
945.564367	0.991012
945.866067	0.990475
946.167729	0.991156
946.469352	0.991145
946.770937	0.988441
947.072484	0.991624
947.373992	0.990267
947.675462	0.990288
947.976893	0.990304
948.278286	0.990453
948.579641	0.992570
948.880958	0.991711
949.182236	0.991218
949.483476	0.991200
949.784678	0.991104
950.085841	0.991181
950.386967	0.991327
950.688054	0.990779
950.989103	0.990783
951.290114	0.989911
951.591087	0.990894
951.892021	0.989811
952.192917	0.990572
952.493776	0.988619
952.794596	0.989337
953.095378	0.989208
953.396122	0.988269
953.696828	0.987270
953.997496	0.991288
954.298126	0.990651
954.598718	0.992566
954.899272	0.991245
955.199788	0.991555
955.500266	0.992939
955.800706	0.992490
956.101108	0.993727
956.401472	0.993586
956.701798	0.993591
957.002087	0.993653
957.302337	0.993687
957.602550	0.995551
957.902724	0.995414
958.202861	0.995825
958.502960	0.995660
958.803022	0.994773
959.103045	0.995987
959.403031	0.995727
959.702979	0.994614
960.002889	0.994950
960.302762	0.995129
960.602596	0.995999
960.902393	0.994542
961.202153	0.997116
961.501875	0.995508
961.801559	0.995504
962.101205	0.995411
962.400814	0.996267
962.700385	0.996874
962.999918	0.996180
963.299414	0.996349
963.598873	0.995006
963.898293	0.996008
964.197677	0.995012
964.497022	0.996191
964.796331	0.996506
965.095601	0.997891
965.394835	0.996360
965.694030	0.996818
965.993189	0.997705
966.292309	0.997151
966.591393	0.997038
966.890439	0.997243
967.189447	0.996390
967.488419	0.997057
967.787353	0.996964
968.086249	0.996138
968.385108	0.996581
968.683930	0.997626
968.982714	0.997529
969.281462	0.998596
969.580172	0.996763
969.878844	0.996663
970.177480	0.996351
970.476078	0.998130
970.774639	0.997462
971.073162	0.996866
971.371649	0.995792
971.670098	0.996254
971.968510	0.998038
972.266885	0.995671
972.565223	0.996539
972.863524	0.995976
973.161788	0.996681
973.460014	0.997936
973.758204	0.996195
974.056356	0.996226
974.354471	0.994838
974.652550	0.995158
974.950591	0.995987
975.248595	0.997417
975.546563	0.996562
975.844493	0.998244
976.142386	0.995690
976.440243	0.997337
976.738062	0.997617
977.035845	0.998277
977.333590	0.997738
977.631299	0.997525
977.928971	0.995774
978.226606	0.996887
978.524204	0.996428
978.821765	0.998041
979.119290	0.997583
979.416777	0.996528
979.714228	0.997760
980.011642	0.996973
980.309020	0.997237
980.606360	0.997472
980.903664	0.998379
981.200931	0.996273
981.498162	0.994709
981.795356	0.995484
982.092513	0.995128
982.389633	0.994945
982.686717	0.991905
982.983764	0.992612
983.280775	0.990540
983.577749	0.991748
983.874686	0.991707
984.171587	0.990841
984.468451	0.993645
984.765279	0.995843
985.062070	0.994121
985.358824	0.995242
985.655543	0.994295
985.952224	0.997168
986.248869	0.996533
986.545478	0.997120
986.842050	0.997451
987.138586	0.996677
987.435086	0.997662
987.731549	0.998537
988.027975	0.998105
988.324366	0.997423
988.620719	0.997743
988.917037	0.997094
989.213318	0.998292
989.509563	0.998624
989.805772	0.998874
990.101944	0.998633
990.398080	0.998341
990.694180	0.997713
990.990244	0.996809
991.286271	0.998323
991.582262	0.998407
991.878217	0.998685
992.174136	0.999130
992.470019	0.998462
992.765865	0.998207
993.061676	0.998661
993.357450	0.997510
993.653188	0.996930
993.948890	0.997238
994.244556	0.997732
994.540186	0.997792
994.835780	0.996415
995.131337	0.997120
995.426859	0.996056
995.722345	0.997498
996.017795	0.996400
996.313208	0.995494
996.608586	0.995819
996.903928	0.996059
997.199234	0.995248
997.494504	0.997549
997.789738	0.996568
998.084936	0.996196
998.380099	0.997383
998.675225	0.997485
998.970316	0.998173
999.265371	0.997967
999.560390	0.996647
999.855373	0.997670
1000.150320	0.997185
1000.445232	0.998634
1000.740108	0.998899
1001.034948	0.998163
1001.329752	0.998297
1001.624521	0.999348
1001.919254	0.998518
1002.213951	0.999172
1002.508613	0.998760
1002.803239	0.998391
1003.097829	0.998565
1003.392384	0.999499
1003.686903	0.998310
1003.981386	0.997058
1004.275834	1.000785
1004.570246	0.998654
1004.864623	0.998992
1005.158964	0.999120
1005.453270	0.998031
1005.747540	0.997456
1006.041775	0.999107
1006.335974	0.999631
1006.630138	0.998800
1006.924266	0.998591
1007.218359	1.000131
1007.512416	0.999843
1007.806438	0.998006
1008.100425	0.998598
1008.394376	0.999024
1008.688292	0.998793
1008.982172	1.000534
1009.276017	0.999589
1009.569827	0.998391
1009.863602	0.999486
1010.157341	0.998094
1010.451045	0.999783
1010.744714	0.997906
1011.038347	0.999349
1011.331945	0.999440
1011.625508	0.997021
1011.919036	0.999419
1012.212528	0.997659
1012.505986	0.998084
1012.799408	0.998214
1013.092795	0.999075
1013.386147	0.998392
1013.679464	0.999470
1013.972745	0.997647
1014.265992	0.997727
1014.559204	0.998795
1014.852380	0.998893
1015.145521	1.000282
1015.438628	0.998194
1015.731699	0.999122
1016.024736	0.999504
1016.317737	0.998518
1016.610703	0.998243
1016.903635	1.000294
1017.196531	0.999351
1017.489393	0.999067
1017.782219	0.998087
1018.075011	0.997767
1018.367768	0.999266
1018.660490	0.999347
1018.953177	0.999347
1019.245829	0.999347
