Dividing Wavelength (nm)	Counts (n)	Blue Motor Position (mm): 0.000000	Red Motor Position (mm): 28.300000	
326.493990	1.000442
326.888308	1.000442
327.282561	1.000442
327.676750	0.998953
328.070874	0.999971
328.464933	0.999828
328.858929	1.000831
329.252859	0.999814
329.646726	0.999265
330.040528	1.000714
330.434265	0.998874
330.827938	1.000077
331.221547	1.001250
331.615091	0.999452
332.008571	0.999315
332.401986	1.000194
332.795338	1.001163
333.188625	0.998463
333.581847	1.000862
333.975006	0.999555
334.368100	0.999838
334.761129	1.000894
335.154095	1.000946
335.546996	0.998540
335.939833	0.994780
336.332606	0.994487
336.725315	0.995370
337.117960	0.996365
337.510540	0.995248
337.903056	0.996083
338.295508	0.995130
338.687896	0.995455
339.080220	0.995078
339.472480	0.995181
339.864676	0.994340
340.256807	0.995592
340.648875	0.996030
341.040879	0.995457
341.432818	0.994668
341.824694	0.994737
342.216506	0.996461
342.608253	0.995054
342.999937	0.994518
343.391557	0.995460
343.783113	0.994596
344.174605	0.995367
344.566033	0.995829
344.957397	0.995163
345.348697	0.995439
345.739934	0.995172
346.131106	0.995956
346.522215	0.994567
346.913260	0.995003
347.304241	0.994957
347.695159	0.995644
348.086012	0.994989
348.476802	0.995541
348.867528	0.995388
349.258191	0.994336
349.648789	0.995662
350.039324	0.994983
350.429796	0.996017
350.820203	0.995283
351.210548	0.994997
351.600828	0.995139
351.991045	0.995210
352.381198	0.994146
352.771288	0.995381
353.161314	0.994663
353.551276	0.997514
353.941175	0.994876
354.331010	0.995889
354.720782	0.994993
355.110490	0.993814
355.500135	0.995591
355.889717	0.994207
356.279235	0.995380
356.668689	0.994368
357.058080	0.994619
357.447408	0.997072
357.836672	0.995692
358.225873	0.995218
358.615010	0.995716
359.004084	0.997533
359.393095	0.995594
359.782043	0.994779
360.170927	0.996041
360.559748	0.995415
360.948505	0.994251
361.337199	0.994955
361.725830	0.995562
362.114398	0.994535
362.502903	0.995740
362.891344	0.996119
363.279722	0.994785
363.668037	0.996246
364.056289	0.995615
364.444478	0.995619
364.832603	0.995040
365.220665	0.995499
365.608665	0.994623
365.996601	0.996038
366.384474	0.995277
366.772284	0.996081
367.160031	0.994900
367.547715	0.993821
367.935336	0.993897
368.322893	0.994656
368.710388	0.995423
369.097820	0.995071
369.485189	0.995228
369.872495	0.994223
370.259738	0.994439
370.646918	0.996170
371.034035	0.995929
371.421090	0.994884
371.808081	0.995018
372.195010	0.995379
372.581875	0.995579
372.968678	0.995570
373.355418	0.995934
373.742096	0.994446
374.128710	0.996284
374.515262	0.994855
374.901751	0.996176
375.288177	0.995924
375.674540	0.996060
376.060841	0.995770
376.447079	0.996153
376.833254	0.995677
377.219367	0.996125
377.605417	0.997191
377.991404	0.996725
378.377329	0.995122
378.763191	0.996315
379.148991	0.996296
379.534727	0.996109
379.920402	0.996112
380.306013	0.996819
380.691563	0.996346
381.077049	0.996351
381.462474	0.995947
381.847835	0.997362
382.233134	0.996084
382.618371	0.996660
383.003545	0.996243
383.388657	0.996500
383.773706	0.996959
384.158693	0.997035
384.543618	0.995913
384.928480	0.997199
385.313280	0.996552
385.698017	0.997582
386.082692	0.998237
386.467305	0.996432
386.851856	0.995840
387.236344	0.996103
387.620770	0.996552
388.005133	0.997555
388.389435	0.997466
388.773674	0.996752
389.157851	0.997431
389.541965	0.997249
389.926018	0.995812
390.310008	0.997650
390.693936	0.996115
391.077802	0.997513
391.461606	0.996568
391.845348	0.997363
392.229027	0.997497
392.612645	0.996594
392.996200	0.998096
393.379694	0.997646
393.763125	0.998393
394.146494	0.997403
394.529801	0.996452
394.913047	0.998266
395.296230	0.997534
395.679351	0.997021
396.062410	0.997140
396.445408	0.997775
396.828343	0.997629
397.211217	0.997643
397.594028	0.997085
397.976778	0.997824
398.359466	0.997467
398.742092	0.997415
399.124656	0.996772
399.507158	0.997057
399.889598	0.997087
400.271977	0.997325
400.654294	0.997309
401.036549	0.997861
401.418742	0.997754
401.800874	0.996996
402.182944	0.996821
402.564952	0.997191
402.946898	0.998983
403.328783	0.997395
403.710606	0.998077
404.092367	0.997589
404.474067	0.998327
404.855705	0.997441
405.237282	0.997680
405.618797	0.997765
406.000250	0.997302
406.381642	0.997927
406.762972	0.997906
407.144240	0.997695
407.525447	0.997473
407.906593	0.997207
408.287677	0.997759
408.668700	0.998922
409.049661	0.996885
409.430560	0.997002
409.811399	0.997510
410.192176	0.997485
410.572891	0.997387
410.953545	0.997807
411.334138	0.996101
411.714669	0.998199
412.095139	0.997510
412.475547	0.997855
412.855894	0.998271
413.236180	0.997554
413.616405	0.997946
413.996568	0.998039
414.376670	0.997283
414.756711	0.997736
415.136691	0.997954
415.516609	0.997779
415.896466	0.997879
416.276262	0.996142
416.655997	0.997761
417.035670	0.997203
417.415283	0.998569
417.794834	0.997614
418.174324	0.997395
418.553753	0.998087
418.933121	0.997685
419.312428	0.998080
419.691674	0.997788
420.070859	0.998388
420.449983	0.997561
420.829045	0.998343
421.208047	0.998325
421.586988	0.998279
421.965867	0.998122
422.344686	0.997820
422.723444	0.997873
423.102141	0.997752
423.480777	0.998290
423.859352	0.996789
424.237866	0.997334
424.616319	0.997719
424.994712	0.997341
425.373044	0.997913
425.751314	0.997874
426.129524	0.997964
426.507673	0.998034
426.885762	0.999480
427.263789	0.997794
427.641756	0.998143
428.019662	0.998859
428.397508	0.997567
428.775292	0.997553
429.153016	0.997297
429.530679	0.997733
429.908282	0.998680
430.285824	0.997435
430.663305	0.996855
431.040726	0.997708
431.418086	0.998667
431.795385	0.998500
432.172624	0.997392
432.549802	0.997328
432.926920	0.997830
433.303977	0.997036
433.680974	0.997763
434.057910	0.997653
434.434786	0.998190
434.811601	0.998252
435.188355	0.997319
435.565050	0.997012
435.941683	0.996700
436.318257	0.998638
436.694770	0.997291
437.071222	0.997565
437.447614	0.997556
437.823946	0.997342
438.200218	0.997964
438.576429	0.997110
438.952580	0.997891
439.328670	0.997361
439.704700	0.997996
440.080670	0.997899
440.456580	0.997995
440.832429	0.996625
441.208218	0.997350
441.583947	0.997405
441.959616	0.998171
442.335224	0.997099
442.710773	0.997965
443.086261	0.997587
443.461689	0.996558
443.837057	0.996966
444.212365	0.997411
444.587612	0.996544
444.962800	0.996933
445.337927	0.997769
445.712995	0.997987
446.088002	0.997929
446.462949	0.997791
446.837837	0.996971
447.212664	0.997355
447.587431	0.997431
447.962139	0.996809
448.336786	0.997050
448.711374	0.996891
449.085901	0.995961
449.460369	0.996620
449.834776	0.996042
450.209124	0.995618
450.583412	0.995450
450.957640	0.994623
451.331808	0.994395
451.705917	0.994518
452.079965	0.993454
452.453954	0.993528
452.827883	0.992801
453.201752	0.993048
453.575562	0.991939
453.949311	0.992021
454.323001	0.991023
454.696632	0.990224
455.070202	0.988794
455.443713	0.987530
455.817164	0.987054
456.190556	0.986362
456.563888	0.984571
456.937160	0.984599
457.310373	0.982334
457.683526	0.981627
458.056619	0.980442
458.429653	0.979246
458.802628	0.976845
459.175542	0.975711
459.548398	0.973416
459.921194	0.970744
460.293930	0.969501
460.666607	0.964770
461.039224	0.962053
461.411782	0.960848
461.784280	0.958555
462.156719	0.958096
462.529099	0.955620
462.901419	0.953647
463.273680	0.951135
463.645882	0.949652
464.018024	0.946661
464.390106	0.943078
464.762130	0.939229
465.134094	0.932680
465.505999	0.922963
465.877845	0.914048
466.249631	0.910848
466.621358	0.909344
466.993026	0.908643
467.364634	0.905984
467.736184	0.903047
468.107674	0.899440
468.479105	0.893282
468.850477	0.891080
469.221790	0.887493
469.593043	0.884261
469.964238	0.878982
470.335373	0.873002
470.706449	0.867279
471.077467	0.862355
471.448425	0.847445
471.819324	0.836199
472.190164	0.831677
472.560945	0.833018
472.931667	0.830463
473.302330	0.825541
473.672934	0.822361
474.043479	0.812430
474.413965	0.806501
474.784393	0.799507
475.154761	0.792102
475.525070	0.784011
475.895321	0.780057
476.265513	0.770538
476.635645	0.762413
477.005719	0.754457
477.375734	0.745635
477.745691	0.736290
478.115588	0.727159
478.485427	0.717218
478.855207	0.703720
479.224928	0.687968
479.594591	0.676677
479.964194	0.670010
480.333739	0.663047
480.703226	0.653552
481.072653	0.645794
481.442022	0.634680
481.811333	0.625400
482.180584	0.618912
482.549777	0.612212
482.918912	0.606621
483.287988	0.597652
483.657005	0.590174
484.025964	0.585727
484.394864	0.575743
484.763706	0.567504
485.132489	0.563738
485.501213	0.555193
485.869879	0.547381
486.238487	0.540192
486.607036	0.532577
486.975527	0.526510
487.343959	0.517037
487.712333	0.508284
488.080648	0.502661
488.448905	0.493411
488.817104	0.488162
489.185244	0.476717
489.553326	0.467569
489.921350	0.453782
490.289315	0.434593
490.657222	0.425308
491.025070	0.418812
491.392861	0.413884
491.760593	0.411235
492.128267	0.407948
492.495883	0.404774
492.863440	0.403240
493.230939	0.401966
493.598380	0.396387
493.965763	0.391868
494.333088	0.389276
494.700354	0.383735
495.067563	0.378516
495.434713	0.375388
495.801805	0.368507
496.168839	0.364727
496.535815	0.360612
496.902733	0.356493
497.269593	0.352263
497.636395	0.346381
498.003139	0.341663
498.369825	0.340704
498.736453	0.332792
499.103023	0.330496
499.469535	0.325799
499.835989	0.322478
500.202385	0.319407
500.568723	0.318779
500.935003	0.311368
501.301226	0.311286
501.667390	0.303641
502.033497	0.298433
502.399546	0.298526
502.765537	0.296787
503.131470	0.292675
503.497345	0.286381
503.863163	0.292610
504.228923	0.283068
504.594625	0.279453
504.960269	0.282182
505.325856	0.275445
505.691385	0.277489
506.056856	0.272361
506.422270	0.269370
506.787625	0.270632
507.152924	0.266276
507.518164	0.265024
507.883347	0.264975
508.248472	0.265310
508.613540	0.258916
508.978550	0.260035
509.343503	0.259082
509.708398	0.255725
510.073236	0.252307
510.438016	0.250903
510.802738	0.250763
511.167403	0.249060
511.532010	0.250207
511.896561	0.244696
512.261053	0.242869
512.625488	0.244139
512.989866	0.243797
513.354186	0.243548
513.718449	0.244666
514.082655	0.240545
514.446803	0.241813
514.810894	0.239248
515.174927	0.241299
515.538904	0.240392
515.902822	0.236885
516.266684	0.238958
516.630488	0.239667
516.994235	0.238229
517.357925	0.236691
517.721558	0.234586
518.085133	0.233733
518.448651	0.233800
518.812112	0.235870
519.175516	0.235236
519.538863	0.232414
519.902152	0.234182
520.265385	0.230609
520.628560	0.232305
520.991678	0.232620
521.354739	0.231471
521.717743	0.231952
522.080690	0.232771
522.443580	0.229814
522.806413	0.230836
523.169189	0.229896
523.531908	0.228705
523.894569	0.232071
524.257174	0.231687
524.619722	0.229672
524.982213	0.230629
525.344647	0.229508
525.707025	0.230316
526.069345	0.227988
526.431608	0.229711
526.793815	0.227627
527.155964	0.231757
527.518057	0.230647
527.880093	0.231542
528.242072	0.230186
528.603995	0.232057
528.965860	0.233526
529.327669	0.232397
529.689421	0.233354
530.051117	0.233945
530.412755	0.231921
530.774337	0.234295
531.135862	0.234244
531.497331	0.233530
531.858743	0.236215
532.220098	0.233372
532.581396	0.235538
532.942638	0.236060
533.303824	0.237038
533.664953	0.236871
534.026025	0.238509
534.387040	0.236047
534.747999	0.236377
535.108902	0.235021
535.469748	0.239811
535.830537	0.237992
536.191270	0.238225
536.551947	0.237816
536.912567	0.237880
537.273131	0.239585
537.633638	0.239465
537.994089	0.240120
538.354483	0.241260
538.714821	0.238111
539.075103	0.237773
539.435328	0.238538
539.795497	0.242196
540.155609	0.238714
540.515665	0.237107
540.875665	0.242593
541.235609	0.240992
541.595496	0.241308
541.955328	0.237837
542.315102	0.240406
542.674821	0.241582
543.034483	0.241587
543.394090	0.241186
543.753640	0.243112
544.113134	0.237946
544.472571	0.241136
544.831953	0.238250
545.191278	0.242485
545.550548	0.241546
545.909761	0.238593
546.268918	0.239284
546.628019	0.237401
546.987064	0.240453
547.346053	0.242232
547.704986	0.239456
548.063863	0.240272
548.422684	0.240176
548.781449	0.242314
549.140158	0.239852
549.498811	0.242921
549.857408	0.245780
550.215949	0.240676
550.574434	0.243712
550.932864	0.241659
551.291237	0.240432
551.649555	0.241900
552.007817	0.241567
552.366022	0.242270
552.724173	0.242655
553.082267	0.242862
553.440305	0.239757
553.798288	0.244047
554.156215	0.240684
554.514086	0.241609
554.871902	0.244692
555.229661	0.243625
555.587365	0.244086
555.945014	0.246509
556.302606	0.243775
556.660143	0.246417
557.017625	0.242781
557.375050	0.244958
557.732421	0.242189
558.089735	0.244058
558.446994	0.244198
558.804197	0.243168
559.161345	0.243301
559.518437	0.246858
559.875474	0.244183
560.232455	0.243987
560.589381	0.244950
560.946251	0.245087
561.303065	0.242618
561.659825	0.244081
562.016528	0.245619
562.373177	0.248285
562.729770	0.245786
563.086307	0.247568
563.442789	0.245530
563.799216	0.248460
564.155587	0.247355
564.511904	0.248289
564.868164	0.248295
565.224370	0.248016
565.580520	0.250178
565.936615	0.249824
566.292654	0.252853
566.648638	0.249719
567.004567	0.250998
567.360441	0.251443
567.716260	0.253078
568.072023	0.251262
568.427732	0.251977
568.783385	0.254164
569.138982	0.252505
569.494525	0.252124
569.850013	0.255046
570.205445	0.253230
570.560823	0.256018
570.916145	0.257865
571.271412	0.255995
571.626625	0.257419
571.981782	0.258001
572.336884	0.258979
572.691931	0.258662
573.046923	0.260087
573.401860	0.261098
573.756743	0.262748
574.111570	0.261503
574.466342	0.262117
574.821059	0.260999
575.175722	0.264132
575.530330	0.263760
575.884882	0.263998
576.239380	0.266176
576.593823	0.266676
576.948211	0.266155
577.302544	0.269420
577.656823	0.268918
578.011047	0.268973
578.365216	0.269698
578.719330	0.271920
579.073389	0.271785
579.427394	0.272800
579.781344	0.273721
580.135239	0.275108
580.489080	0.274674
580.842866	0.277930
581.196597	0.277461
581.550273	0.276126
581.903895	0.277444
582.257463	0.275404
582.610975	0.278923
582.964434	0.277972
583.317837	0.280681
583.671186	0.281148
584.024481	0.280889
584.377721	0.283559
584.730906	0.284048
585.084037	0.283212
585.437113	0.285392
585.790135	0.284442
586.143103	0.287433
586.496016	0.288582
586.848874	0.286275
587.201679	0.286587
587.554428	0.290284
587.907124	0.288876
588.259765	0.289894
588.612352	0.290167
588.964884	0.294410
589.317362	0.293443
589.669786	0.293590
590.022155	0.291906
590.374470	0.291473
590.726731	0.293550
591.078937	0.297695
591.431090	0.294379
591.783188	0.298738
592.135232	0.299527
592.487222	0.299042
592.839157	0.297255
593.191038	0.299458
593.542866	0.301245
593.894639	0.305100
594.246358	0.303190
594.598022	0.302508
594.949633	0.306031
595.301190	0.306422
595.652692	0.306163
596.004141	0.302028
596.355535	0.310183
596.706876	0.310699
597.058162	0.312907
597.409395	0.310495
597.760573	0.308057
598.111698	0.311410
598.462768	0.312056
598.813785	0.313433
599.164748	0.314353
599.515657	0.314526
599.866511	0.317987
600.217312	0.313394
600.568060	0.318998
600.918753	0.315032
601.269392	0.315886
601.619978	0.319174
601.970510	0.316948
602.320988	0.317380
602.671412	0.314519
603.021783	0.317183
603.372100	0.318418
603.722363	0.318440
604.072572	0.319277
604.422728	0.318705
604.772830	0.320821
605.122878	0.320455
605.472872	0.321038
605.822813	0.319676
606.172701	0.321922
606.522534	0.319437
606.872314	0.319623
607.222041	0.320530
607.571714	0.318904
607.921333	0.319969
608.270899	0.319722
608.620411	0.316552
608.969870	0.320318
609.319276	0.320281
609.668627	0.320365
610.017926	0.319000
610.367171	0.317405
610.716362	0.318126
611.065500	0.318123
611.414585	0.317156
611.763616	0.317614
612.112594	0.318311
612.461518	0.317358
612.810389	0.315550
613.159207	0.317659
613.507971	0.319283
613.856682	0.314983
614.205340	0.316751
614.553945	0.313527
614.902496	0.317249
615.250994	0.315217
615.599439	0.316266
615.947830	0.316034
616.296169	0.316850
616.644454	0.316000
616.992686	0.316209
617.340864	0.313909
617.688990	0.317702
618.037063	0.314233
618.385082	0.316050
618.733048	0.313256
619.080961	0.315390
619.428821	0.314354
619.776628	0.314193
620.124382	0.316484
620.472083	0.316415
620.819731	0.316000
621.167326	0.319946
621.514868	0.319511
621.862357	0.323972
622.209793	0.323194
622.557176	0.325207
622.904506	0.326510
623.251783	0.328969
623.599007	0.331166
623.946179	0.330964
624.293297	0.332871
624.640363	0.336420
624.987376	0.337155
625.334336	0.339750
625.681243	0.342024
626.028097	0.342437
626.374899	0.343505
626.721647	0.344065
627.068343	0.347205
627.414987	0.348245
627.761577	0.349986
628.108115	0.348612
628.454600	0.353683
628.801032	0.350940
629.147412	0.352788
629.493739	0.353346
629.840014	0.356765
630.186236	0.354304
630.532405	0.359468
630.878521	0.356913
631.224585	0.359248
631.570597	0.362862
631.916556	0.361080
632.262462	0.361423
632.608316	0.363715
632.954117	0.364494
633.299866	0.365200
633.645562	0.365605
633.991206	0.369848
634.336797	0.373105
634.682336	0.374615
635.027823	0.377039
635.373257	0.377304
635.718639	0.380815
636.063968	0.379895
636.409245	0.385478
636.754470	0.386411
637.099642	0.388913
637.444762	0.391562
637.789829	0.390830
638.134845	0.394399
638.479808	0.395560
638.824719	0.394977
639.169577	0.399222
639.514383	0.398195
639.859137	0.402049
640.203839	0.401694
640.548489	0.402849
640.893086	0.403579
641.237632	0.405767
641.582125	0.404105
641.926566	0.405329
642.270955	0.405667
642.615292	0.406173
642.959576	0.405390
643.303809	0.406212
643.647990	0.405052
643.992118	0.406032
644.336195	0.409322
644.680219	0.407279
645.024192	0.408299
645.368112	0.402277
645.711981	0.401070
646.055797	0.396816
646.399562	0.398856
646.743274	0.390853
647.086935	0.388435
647.430544	0.388304
647.774101	0.387243
648.117606	0.387477
648.461059	0.387853
648.804460	0.389737
649.147810	0.394643
649.491108	0.397021
649.834354	0.398729
650.177548	0.403460
650.520690	0.409333
650.863781	0.410416
651.206820	0.409832
651.549807	0.414641
651.892742	0.417954
652.235626	0.417371
652.578458	0.418394
652.921238	0.424862
653.263967	0.422500
653.606644	0.426683
653.949269	0.426308
654.291843	0.430416
654.634365	0.426706
654.976836	0.430199
655.319255	0.430278
655.661622	0.432128
656.003938	0.431796
656.346203	0.434808
656.688416	0.432504
657.030577	0.435892
657.372687	0.438117
657.714746	0.438957
658.056753	0.435723
658.398708	0.438902
658.740612	0.441121
659.082465	0.436938
659.424266	0.437453
659.766016	0.436575
660.107715	0.439370
660.449362	0.438012
660.790958	0.439037
661.132503	0.439547
661.473996	0.437109
661.815438	0.438085
662.156829	0.438501
662.498168	0.439226
662.839456	0.440445
663.180693	0.438587
663.521879	0.438612
663.863013	0.439240
664.204097	0.437761
664.545129	0.434406
664.886110	0.434338
665.227040	0.432025
665.567918	0.434932
665.908746	0.432938
666.249522	0.432650
666.590248	0.433792
666.930922	0.431466
667.271545	0.430786
667.612118	0.430456
667.952639	0.432388
668.293109	0.431029
668.633528	0.433705
668.973896	0.433911
669.314213	0.434355
669.654480	0.435828
669.994695	0.435868
670.334859	0.436752
670.674973	0.436735
671.015035	0.437334
671.355047	0.436585
671.695008	0.437867
672.034918	0.439522
672.374777	0.439896
672.714585	0.440541
673.054342	0.440353
673.394049	0.440681
673.733705	0.438462
674.073310	0.439373
674.412864	0.442171
674.752368	0.443540
675.091820	0.443188
675.431223	0.447536
675.770574	0.447466
676.109875	0.450529
676.449125	0.450273
676.788324	0.452975
677.127473	0.458449
677.466571	0.457791
677.805619	0.459439
678.144616	0.461066
678.483562	0.462297
678.822458	0.464612
679.161303	0.466361
679.500098	0.465982
679.838842	0.467699
680.177535	0.467820
680.516179	0.466117
680.854771	0.464822
681.193314	0.458604
681.531805	0.449820
681.870247	0.438269
682.208638	0.430894
682.546978	0.430012
682.885268	0.431539
683.223508	0.437954
683.561697	0.441783
683.899836	0.444226
684.237925	0.447520
684.575963	0.450789
684.913951	0.453306
685.251889	0.448576
685.589776	0.450831
685.927614	0.453586
686.265401	0.448125
686.603137	0.449322
686.940824	0.443466
687.278460	0.441474
687.616046	0.440716
687.953582	0.435942
688.291068	0.437002
688.628504	0.432766
688.965889	0.435011
689.303224	0.438628
689.640510	0.442680
689.977745	0.448785
690.314930	0.456918
690.652065	0.461050
690.989150	0.468636
691.326185	0.475177
691.663170	0.479917
692.000105	0.486769
692.336990	0.493857
692.673825	0.495994
693.010610	0.503492
693.347345	0.508629
693.684030	0.509965
694.020665	0.514729
694.357251	0.523869
694.693786	0.523454
695.030272	0.527247
695.366707	0.530027
695.703093	0.534100
696.039429	0.532510
696.375716	0.533656
696.711952	0.536657
697.048139	0.538212
697.384276	0.540359
697.720363	0.538841
698.056400	0.537443
698.392388	0.543282
698.728326	0.546996
699.064214	0.548817
699.400053	0.549950
699.735842	0.553492
700.071581	0.556618
700.407270	0.559007
700.742910	0.561546
701.078501	0.567998
701.414042	0.568387
701.749533	0.570832
702.084974	0.579929
702.420366	0.572241
702.755709	0.580025
703.091002	0.587788
703.426246	0.580839
703.761440	0.587372
704.096584	0.591844
704.431679	0.589359
704.766725	0.590849
705.101721	0.592756
705.436668	0.588763
705.771565	0.595968
706.106413	0.592610
706.441212	0.587727
706.775961	0.586413
707.110661	0.589002
707.445311	0.585518
707.779913	0.582763
708.114465	0.581280
708.448967	0.578209
708.783421	0.569831
709.117825	0.565034
709.452180	0.564820
709.786485	0.557511
710.120742	0.548723
710.454949	0.550214
710.789107	0.542928
711.123216	0.534079
711.457275	0.535992
711.791286	0.526493
712.125247	0.525066
712.459159	0.536359
712.793023	0.528759
713.126837	0.533121
713.460602	0.533829
713.794318	0.542517
714.127985	0.541518
714.461602	0.551824
714.795171	0.554945
715.128691	0.562907
715.462162	0.570334
715.795584	0.575482
716.128957	0.577961
716.462281	0.585437
716.795556	0.588812
717.128782	0.592911
717.461960	0.602975
717.795088	0.601270
718.128167	0.607585
718.461198	0.616740
718.794180	0.617089
719.127113	0.619638
719.459997	0.622649
719.792833	0.629233
720.125619	0.630930
720.458357	0.636244
720.791046	0.636279
721.123686	0.639058
721.456278	0.646957
721.788821	0.643218
722.121315	0.647949
722.453761	0.652158
722.786158	0.649748
723.118506	0.646596
723.450805	0.654410
723.783056	0.650712
724.115259	0.647397
724.447412	0.648041
724.779518	0.648008
725.111574	0.646801
725.443582	0.643356
725.775542	0.644870
726.107453	0.637543
726.439315	0.637101
726.771129	0.635882
727.102895	0.629492
727.434612	0.622631
727.766281	0.619950
728.097901	0.619622
728.429473	0.619219
728.760996	0.617779
729.092471	0.617602
729.423897	0.621628
729.755276	0.620047
730.086606	0.620346
730.417887	0.614564
730.749120	0.606101
731.080305	0.597558
731.411442	0.592106
731.742530	0.597408
732.073570	0.596559
732.404562	0.589680
732.735506	0.589954
733.066401	0.595170
733.397249	0.604211
733.728048	0.616459
734.058798	0.628655
734.389501	0.638858
734.720156	0.648616
735.050762	0.657058
735.381320	0.657672
735.711831	0.666272
736.042293	0.672038
736.372707	0.667572
736.703073	0.671964
737.033391	0.674667
737.363661	0.671006
737.693883	0.666780
738.024056	0.665136
738.354182	0.665140
738.684260	0.654767
739.014290	0.650879
739.344272	0.651820
739.674207	0.644538
740.004093	0.645441
740.333931	0.645092
740.663722	0.645501
740.993464	0.645963
741.323159	0.649529
741.652806	0.654273
741.982405	0.659256
742.311956	0.663742
742.641460	0.666327
742.970915	0.670002
743.300323	0.677475
743.629683	0.683546
743.958996	0.686091
744.288260	0.689778
744.617477	0.695173
744.946647	0.697385
745.275768	0.702716
745.604842	0.702761
745.933869	0.712749
746.262847	0.713223
746.591778	0.707283
746.920662	0.712264
747.249498	0.719714
747.578286	0.710292
747.907027	0.706447
748.235720	0.707165
748.564365	0.701692
748.892963	0.702508
749.221514	0.704789
749.550017	0.709777
749.878473	0.709985
750.206881	0.715922
750.535242	0.717787
750.863555	0.717139
751.191821	0.718016
751.520039	0.722137
751.848210	0.726951
752.176334	0.719907
752.504411	0.718181
752.832440	0.726178
753.160421	0.730174
753.488356	0.728019
753.816243	0.726041
754.144082	0.734262
754.471875	0.737295
754.799620	0.732835
755.127318	0.734569
755.454969	0.734056
755.782572	0.733591
756.110129	0.738499
756.437638	0.740489
756.765100	0.737124
757.092515	0.736089
757.419882	0.735076
757.747203	0.740128
758.074477	0.740007
758.401703	0.736764
758.728882	0.732042
759.056014	0.730909
759.383099	0.729346
759.710138	0.731250
760.037129	0.726993
760.364073	0.722695
760.690970	0.723435
761.017820	0.729584
761.344623	0.725019
761.671379	0.715334
761.998088	0.704815
762.324751	0.682004
762.651366	0.640528
762.977935	0.573524
763.304456	0.522163
763.630931	0.512221
763.957359	0.551148
764.283740	0.595704
764.610074	0.622722
764.936362	0.653595
765.262602	0.680214
765.588796	0.701065
765.914943	0.719102
766.241044	0.736457
766.567097	0.743371
766.893104	0.753077
767.219064	0.759939
767.544978	0.765357
767.870845	0.779092
768.196665	0.783759
768.522438	0.780639
768.848165	0.782679
769.173846	0.791260
769.499479	0.795730
769.825066	0.799250
770.150607	0.804064
770.476101	0.798862
770.801548	0.800820
771.126949	0.811142
771.452303	0.815883
771.777611	0.815047
772.102872	0.813915
772.428087	0.818906
772.753256	0.821988
773.078378	0.824360
773.403453	0.834202
773.728482	0.837770
774.053465	0.831431
774.378401	0.834595
774.703291	0.843346
775.028135	0.842288
775.352932	0.844072
775.677683	0.847610
776.002388	0.847667
776.327046	0.847729
776.651658	0.849852
776.976224	0.853799
777.300743	0.853632
777.625216	0.856080
777.949643	0.858307
778.274024	0.858286
778.598359	0.859371
778.922647	0.858433
779.246889	0.858803
779.571086	0.862123
779.895236	0.864944
780.219339	0.861943
780.543397	0.858776
780.867409	0.858401
781.191374	0.860167
781.515294	0.861160
781.839167	0.859928
782.162995	0.863494
782.486776	0.860331
782.810511	0.861602
783.134201	0.865345
783.457844	0.862958
783.781441	0.864296
784.104993	0.872302
784.428498	0.872475
784.751958	0.866922
785.075372	0.870066
785.398739	0.873538
785.722061	0.869802
786.045337	0.865577
786.368568	0.870761
786.691752	0.873719
787.014891	0.857655
787.337983	0.850223
787.661030	0.842752
787.984031	0.826520
788.306987	0.812209
788.629897	0.815059
788.952760	0.817992
789.275579	0.822996
789.598351	0.838161
789.921078	0.850605
790.243759	0.852362
790.566395	0.858301
790.888984	0.864347
791.211529	0.869549
791.534027	0.873052
791.856480	0.875772
792.178888	0.880264
792.501249	0.882279
792.823566	0.884539
793.145836	0.883425
793.468062	0.885436
793.790241	0.885354
794.112375	0.884359
794.434464	0.878735
794.756507	0.878938
795.078505	0.878459
795.400457	0.873306
795.722364	0.861026
796.044226	0.854188
796.366042	0.853403
796.687812	0.857574
797.009538	0.853416
797.331218	0.856214
797.652852	0.860926
797.974442	0.865643
798.295986	0.865566
798.617484	0.867583
798.938938	0.872296
799.260346	0.877026
799.581709	0.878876
799.903026	0.881096
800.224299	0.881559
800.545526	0.885975
800.866708	0.889894
801.187845	0.893343
801.508936	0.892811
801.829983	0.890488
802.150984	0.894337
802.471940	0.898733
802.792851	0.898202
803.113717	0.897807
803.434538	0.897144
803.755314	0.899510
804.076045	0.900645
804.396731	0.900902
804.717372	0.901138
805.037967	0.902654
805.358518	0.900858
805.679024	0.897503
805.999485	0.897728
806.319901	0.898257
806.640272	0.899283
806.960598	0.896959
807.280879	0.894918
807.601115	0.893364
807.921306	0.897480
808.241453	0.898081
808.561554	0.894847
808.881611	0.895858
809.201623	0.897432
809.521590	0.897268
809.841513	0.897629
810.161390	0.897713
810.481223	0.899121
810.801011	0.901684
811.120755	0.904408
811.440453	0.902660
811.760107	0.901171
812.079716	0.901089
812.399281	0.904671
812.718801	0.906981
813.038276	0.909086
813.357707	0.907701
813.677093	0.905125
813.996434	0.908504
814.315731	0.909601
814.634983	0.910437
814.954191	0.908635
815.273354	0.906045
815.592473	0.901838
815.911547	0.902798
816.230577	0.899679
816.549562	0.897229
816.868502	0.898634
817.187399	0.893936
817.506250	0.889434
817.825058	0.890102
818.143821	0.887728
818.462539	0.882197
818.781213	0.875303
819.099843	0.863839
819.418429	0.847863
819.736970	0.831928
820.055466	0.812482
820.373919	0.786368
820.692327	0.753660
821.010691	0.719840
821.329011	0.643756
821.647286	0.530233
821.965517	0.416719
822.283704	0.374155
822.601847	0.375806
822.919945	0.411622
823.237999	0.444500
823.556010	0.490613
823.873976	0.545992
824.191897	0.596016
824.509775	0.638193
824.827609	0.683209
825.145398	0.705146
825.463144	0.708035
825.780845	0.691557
826.098502	0.672584
826.416116	0.627620
826.733685	0.583955
827.051210	0.576045
827.368692	0.591075
827.686129	0.626895
828.003522	0.678979
828.320872	0.725877
828.638177	0.769511
828.955439	0.802159
829.272656	0.824070
829.589830	0.840249
829.906960	0.856120
830.224046	0.868995
830.541088	0.879156
830.858086	0.883161
831.175041	0.889581
831.491952	0.888620
831.808819	0.885477
832.125642	0.879204
832.442421	0.864158
832.759157	0.841662
833.075849	0.797412
833.392497	0.734365
833.709101	0.692926
834.025662	0.702898
834.342179	0.733423
834.658653	0.773177
834.975083	0.809319
835.291469	0.834216
835.607811	0.856024
835.924110	0.872060
836.240366	0.889293
836.556578	0.902574
836.872746	0.910317
837.188871	0.915359
837.504952	0.920994
837.820990	0.924275
838.136984	0.929146
838.452935	0.930082
838.768842	0.933080
839.084706	0.926183
839.400526	0.901751
839.716303	0.861251
840.032037	0.837940
840.347727	0.841864
840.663373	0.860050
840.978977	0.881043
841.294537	0.903309
841.610054	0.918883
841.925527	0.926786
842.240957	0.933864
842.556344	0.939513
842.871687	0.946802
843.186987	0.951662
843.502244	0.951127
843.817458	0.952339
844.132629	0.955599
844.447756	0.960934
844.762840	0.961233
845.077881	0.960303
845.392879	0.961296
845.707833	0.963749
846.022745	0.964583
846.337613	0.964801
846.652438	0.967317
846.967221	0.965220
847.281960	0.965806
847.596656	0.968684
847.911309	0.967465
848.225919	0.968727
848.540485	0.968392
848.855009	0.969776
849.169490	0.970003
849.483928	0.970314
849.798323	0.969726
850.112675	0.970301
850.426984	0.969979
850.741251	0.969980
851.055474	0.970483
851.369654	0.969077
851.683792	0.970683
851.997887	0.970247
852.311938	0.971045
852.625947	0.970344
852.939914	0.969255
853.253837	0.969187
853.567718	0.971871
853.881555	0.970987
854.195350	0.968506
854.509103	0.970107
854.822812	0.971478
855.136479	0.970679
855.450103	0.969632
855.763685	0.969367
856.077224	0.969148
856.390720	0.971277
856.704173	0.969987
857.017584	0.968885
857.330953	0.967957
857.644278	0.968104
857.957561	0.969332
858.270802	0.969396
858.584000	0.968535
858.897155	0.967138
859.210268	0.967985
859.523339	0.968749
859.836367	0.970318
860.149352	0.970834
860.462295	0.969143
860.775195	0.969898
861.088054	0.969515
861.400869	0.969853
861.713642	0.971235
862.026373	0.971043
862.339062	0.970736
862.651708	0.969005
862.964312	0.968607
863.276873	0.969722
863.589392	0.969751
863.901869	0.967584
864.214303	0.965223
864.526696	0.964162
864.839045	0.962818
865.151353	0.962845
865.463619	0.962822
865.775842	0.963659
866.088023	0.961633
866.400162	0.962922
866.712258	0.962508
867.024313	0.964226
867.336325	0.964755
867.648296	0.963131
867.960224	0.962974
868.272110	0.962156
868.583954	0.964454
868.895755	0.965084
869.207515	0.962716
869.519233	0.959164
869.830909	0.962352
870.142542	0.962457
870.454134	0.962798
870.765684	0.961147
871.077191	0.958713
871.388657	0.960095
871.700081	0.959457
872.011463	0.959669
872.322803	0.958317
872.634101	0.957547
872.945357	0.955276
873.256571	0.953380
873.567744	0.954299
873.878874	0.955098
874.189963	0.952467
874.501010	0.952907
874.812015	0.951583
875.122979	0.952308
875.433900	0.953828
875.744780	0.954803
876.055618	0.951917
876.366415	0.950754
876.677169	0.951391
876.987882	0.952598
877.298554	0.952523
877.609183	0.948019
877.919771	0.945779
878.230317	0.944486
878.540822	0.942065
878.851285	0.935706
879.161707	0.927983
879.472087	0.917158
879.782425	0.902088
880.092722	0.868353
880.402977	0.817314
880.713191	0.756948
881.023363	0.700084
881.333494	0.666926
881.643583	0.638759
881.953631	0.637950
882.263637	0.666477
882.573602	0.705655
882.883526	0.731529
883.193408	0.753640
883.503248	0.775616
883.813048	0.802131
884.122806	0.831190
884.432522	0.854213
884.742197	0.874052
885.051831	0.884166
885.361424	0.893744
885.670975	0.905945
885.980485	0.914978
886.289954	0.921581
886.599382	0.926643
886.908768	0.929968
887.218113	0.935702
887.527417	0.939816
887.836680	0.943354
888.145901	0.945394
888.455082	0.947488
888.764221	0.952057
889.073319	0.953089
889.382376	0.955563
889.691392	0.954518
890.000366	0.953634
890.309300	0.954964
890.618193	0.954448
890.927044	0.952036
891.235855	0.951838
891.544625	0.954143
891.853353	0.954008
892.162041	0.950182
892.470687	0.944361
892.779293	0.940164
893.087858	0.935240
893.396381	0.928219
893.704864	0.915818
894.013306	0.891649
894.321707	0.866333
894.630068	0.852874
894.938387	0.848173
895.246665	0.848821
895.554903	0.860332
895.863100	0.873676
896.171256	0.889663
896.479371	0.909218
896.787446	0.922295
897.095480	0.927131
897.403473	0.930384
897.711425	0.934108
898.019336	0.942172
898.327207	0.943430
898.635038	0.946622
898.942827	0.946156
899.250576	0.949643
899.558284	0.953286
899.865952	0.955988
900.173579	0.956548
900.481165	0.956077
900.788711	0.960971
901.096216	0.962222
901.403681	0.962680
901.711105	0.963410
902.018489	0.966317
902.325832	0.963280
902.633135	0.964057
902.940397	0.957611
903.247619	0.946348
903.554800	0.919612
903.861941	0.882867
904.169041	0.847569
904.476101	0.830677
904.783121	0.831372
905.090100	0.848800
905.397039	0.867766
905.703938	0.889834
906.010796	0.909005
906.317614	0.925328
906.624391	0.935175
906.931129	0.946364
907.237826	0.953545
907.544483	0.960582
907.851099	0.963726
908.157675	0.969419
908.464211	0.971081
908.770707	0.973301
909.077163	0.974963
909.383578	0.975857
909.689954	0.976878
909.996289	0.976587
910.302584	0.977954
910.608839	0.980165
910.915054	0.979922
911.221229	0.978492
911.527363	0.977133
911.833458	0.978206
912.139513	0.978378
912.445527	0.975628
912.751502	0.974969
913.057436	0.972288
913.363331	0.971060
913.669186	0.967730
913.975000	0.962597
914.280775	0.957122
914.586510	0.950400
914.892205	0.937654
915.197859	0.917692
915.503475	0.890237
915.809050	0.872404
916.114585	0.867077
916.420081	0.864262
916.725536	0.860388
917.030952	0.868912
917.336328	0.880856
917.641665	0.896059
917.946961	0.911612
918.252218	0.922701
918.557435	0.931025
918.862612	0.938471
919.167750	0.944782
919.472848	0.949368
919.777906	0.954977
920.082925	0.959537
920.387904	0.963412
920.692843	0.964345
920.997743	0.965143
921.302603	0.968296
921.607423	0.970151
921.912204	0.973226
922.216946	0.972194
922.521647	0.973913
922.826310	0.976085
923.130932	0.978660
923.435516	0.980142
923.740059	0.980404
924.044564	0.979049
924.349028	0.981193
924.653454	0.983808
924.957840	0.985421
925.262186	0.985287
925.566493	0.984954
925.870761	0.986250
926.174989	0.987600
926.479178	0.988440
926.783328	0.989385
927.087438	0.988868
927.391509	0.988200
927.695541	0.990594
927.999533	0.989869
928.303486	0.989714
928.607400	0.992042
928.911275	0.990816
929.215110	0.991368
929.518906	0.991530
929.822663	0.990199
930.126381	0.991754
930.430060	0.990250
930.733699	0.991076
931.037299	0.989407
931.340861	0.991969
931.644383	0.990998
931.947866	0.990497
932.251309	0.989917
932.554714	0.991246
932.858080	0.991348
933.161407	0.990131
933.464694	0.990966
933.767943	0.989239
934.071153	0.992002
934.374323	0.992792
934.677455	0.991866
934.980548	0.991548
935.283602	0.991966
935.586617	0.991543
935.889593	0.990545
936.192530	0.990937
936.495428	0.991677
936.798287	0.990547
937.101108	0.991210
937.403890	0.989158
937.706632	0.989730
938.009336	0.987755
938.312002	0.985973
938.614628	0.984823
938.917216	0.984108
939.219765	0.983541
939.522275	0.983680
939.824747	0.983262
940.127179	0.984417
940.429573	0.985375
940.731929	0.984111
941.034246	0.985438
941.336524	0.986200
941.638763	0.987021
941.940964	0.986791
942.243126	0.986599
942.545250	0.988365
942.847335	0.987343
943.149381	0.988033
943.451389	0.989102
943.753359	0.987562
944.055290	0.991305
944.357182	0.990000
944.659036	0.988723
944.960851	0.989598
945.262628	0.990827
945.564367	0.990591
945.866067	0.990037
946.167729	0.991436
946.469352	0.990029
946.770937	0.989061
947.072484	0.991155
947.373992	0.989562
947.675462	0.990745
947.976893	0.990041
948.278286	0.990912
948.579641	0.992204
948.880958	0.990585
949.182236	0.992620
949.483476	0.991439
949.784678	0.990673
950.085841	0.991540
950.386967	0.990601
950.688054	0.991042
950.989103	0.991882
951.290114	0.989070
951.591087	0.990720
951.892021	0.989073
952.192917	0.989742
952.493776	0.988677
952.794596	0.989028
953.095378	0.988711
953.396122	0.988362
953.696828	0.988418
953.997496	0.989933
954.298126	0.990589
954.598718	0.991252
954.899272	0.991660
955.199788	0.990705
955.500266	0.992162
955.800706	0.993460
956.101108	0.993783
956.401472	0.995318
956.701798	0.994088
957.002087	0.993697
957.302337	0.994556
957.602550	0.996019
957.902724	0.995010
958.202861	0.995314
958.502960	0.995463
958.803022	0.994798
959.103045	0.996737
959.403031	0.995181
959.702979	0.995735
960.002889	0.996003
960.302762	0.994575
960.602596	0.995933
960.902393	0.995473
961.202153	0.996412
961.501875	0.996598
961.801559	0.996265
962.101205	0.995616
962.400814	0.996452
962.700385	0.997126
962.999918	0.996942
963.299414	0.996037
963.598873	0.996327
963.898293	0.994921
964.197677	0.996666
964.497022	0.996900
964.796331	0.997059
965.095601	0.997218
965.394835	0.997115
965.694030	0.995828
965.993189	0.997108
966.292309	0.995657
966.591393	0.998342
966.890439	0.996273
967.189447	0.997433
967.488419	0.996420
967.787353	0.996736
968.086249	0.997570
968.385108	0.998136
968.683930	0.996384
968.982714	0.997226
969.281462	0.998036
969.580172	0.995376
969.878844	0.995931
970.177480	0.996219
970.476078	0.996862
970.774639	0.997628
971.073162	0.997343
971.371649	0.996585
971.670098	0.996640
971.968510	0.998007
972.266885	0.995836
972.565223	0.997066
972.863524	0.996072
973.161788	0.996258
973.460014	0.997552
973.758204	0.997395
974.056356	0.996764
974.354471	0.994890
974.652550	0.996433
974.950591	0.997003
975.248595	0.995798
975.546563	0.997364
975.844493	0.998432
976.142386	0.998263
976.440243	0.998259
976.738062	0.996480
977.035845	0.998708
977.333590	0.997504
977.631299	0.997959
977.928971	0.996314
978.226606	0.997636
978.524204	0.996198
978.821765	0.998795
979.119290	0.996428
979.416777	0.996693
979.714228	0.997231
980.011642	0.996643
980.309020	0.998247
980.606360	0.996932
980.903664	0.998538
981.200931	0.996486
981.498162	0.996529
981.795356	0.994686
982.092513	0.993704
982.389633	0.995646
982.686717	0.992103
982.983764	0.991612
983.280775	0.990961
983.577749	0.990721
983.874686	0.991966
984.171587	0.992695
984.468451	0.995340
984.765279	0.994152
985.062070	0.995257
985.358824	0.994665
985.655543	0.994935
985.952224	0.995284
986.248869	0.995650
986.545478	0.998058
986.842050	0.997610
987.138586	0.996318
987.435086	0.997499
987.731549	0.998371
988.027975	0.999577
988.324366	0.997586
988.620719	0.997547
988.917037	0.997462
989.213318	0.998287
989.509563	0.998435
989.805772	0.998484
990.101944	0.999262
990.398080	0.996963
990.694180	0.997815
990.990244	0.996873
991.286271	0.998150
991.582262	0.997861
991.878217	0.997551
992.174136	0.998972
992.470019	0.998337
992.765865	0.998290
993.061676	0.998931
993.357450	0.998135
993.653188	0.998137
993.948890	0.996408
994.244556	0.998626
994.540186	0.997440
994.835780	0.997121
995.131337	0.998550
995.426859	0.997586
995.722345	0.997804
996.017795	0.996505
996.313208	0.995487
996.608586	0.995631
996.903928	0.997380
997.199234	0.996363
997.494504	0.997942
997.789738	0.996219
998.084936	0.996094
998.380099	0.998615
998.675225	0.996933
998.970316	0.997217
999.265371	0.998443
999.560390	0.997241
999.855373	0.998582
1000.150320	0.998005
1000.445232	0.997914
1000.740108	0.997831
1001.034948	0.998270
1001.329752	0.999185
1001.624521	0.999405
1001.919254	0.998180
1002.213951	0.997968
1002.508613	0.998052
1002.803239	0.998968
1003.097829	0.999081
1003.392384	0.998685
1003.686903	0.998405
1003.981386	0.999273
1004.275834	0.999465
1004.570246	0.998612
1004.864623	0.999497
1005.158964	1.000118
1005.453270	0.998885
1005.747540	0.998303
1006.041775	0.998138
1006.335974	1.000120
1006.630138	0.999955
1006.924266	0.999946
1007.218359	1.000221
1007.512416	1.000195
1007.806438	0.999052
1008.100425	0.999959
1008.394376	0.999152
1008.688292	0.998406
1008.982172	1.001418
1009.276017	1.000202
1009.569827	0.997710
1009.863602	0.998060
1010.157341	0.999300
1010.451045	0.998726
1010.744714	0.998118
1011.038347	0.999485
1011.331945	0.999064
1011.625508	0.997642
1011.919036	0.998893
1012.212528	0.999284
1012.505986	0.997073
1012.799408	0.998731
1013.092795	0.999186
1013.386147	0.999187
1013.679464	0.998523
1013.972745	0.998565
1014.265992	0.997657
1014.559204	1.000432
1014.852380	0.999259
1015.145521	0.998432
1015.438628	0.998188
1015.731699	0.998784
1016.024736	0.998674
1016.317737	0.998876
1016.610703	0.998604
1016.903635	1.000609
1017.196531	0.998032
1017.489393	0.999887
1017.782219	0.998679
1018.075011	0.999496
1018.367768	0.997872
1018.660490	0.999636
1018.953177	0.999636
1019.245829	0.999636
