Dividing Wavelength (nm)	Counts (n)	Blue Motor Position (mm): 0.000000	Red Motor Position (mm): 19.800000	
326.493990	1.000946
326.888308	1.000946
327.282561	1.000946
327.676750	0.999465
328.070874	0.998096
328.464933	1.000017
328.858929	0.999525
329.252859	0.999543
329.646726	1.000714
330.040528	0.999334
330.434265	0.998378
330.827938	1.001067
331.221547	1.000890
331.615091	0.999912
332.008571	1.000438
332.401986	0.999587
332.795338	1.000463
333.188625	0.999007
333.581847	1.000857
333.975006	0.999688
334.368100	0.999296
334.761129	1.000341
335.154095	1.001293
335.546996	0.997936
335.939833	0.992630
336.332606	0.993968
336.725315	0.994175
337.117960	0.995735
337.510540	0.994598
337.903056	0.994716
338.295508	0.993275
338.687896	0.993959
339.080220	0.994243
339.472480	0.994003
339.864676	0.994154
340.256807	0.995274
340.648875	0.994254
341.040879	0.995155
341.432818	0.995056
341.824694	0.994033
342.216506	0.995758
342.608253	0.994836
342.999937	0.993658
343.391557	0.994265
343.783113	0.993855
344.174605	0.995823
344.566033	0.994578
344.957397	0.992912
345.348697	0.993854
345.739934	0.993986
346.131106	0.993290
346.522215	0.994381
346.913260	0.994204
347.304241	0.994577
347.695159	0.994284
348.086012	0.993968
348.476802	0.993811
348.867528	0.994913
349.258191	0.992108
349.648789	0.995617
350.039324	0.993619
350.429796	0.995147
350.820203	0.995377
351.210548	0.993878
351.600828	0.993680
351.991045	0.995132
352.381198	0.992916
352.771288	0.993789
353.161314	0.993064
353.551276	0.995570
353.941175	0.994206
354.331010	0.994088
354.720782	0.995748
355.110490	0.993557
355.500135	0.994913
355.889717	0.995282
356.279235	0.993529
356.668689	0.993609
357.058080	0.994738
357.447408	0.995409
357.836672	0.995173
358.225873	0.995402
358.615010	0.994336
359.004084	0.996179
359.393095	0.995042
359.782043	0.994438
360.170927	0.995060
360.559748	0.994635
360.948505	0.994422
361.337199	0.994045
361.725830	0.994882
362.114398	0.994294
362.502903	0.994160
362.891344	0.996309
363.279722	0.993584
363.668037	0.994869
364.056289	0.993903
364.444478	0.995511
364.832603	0.995777
365.220665	0.994786
365.608665	0.994229
365.996601	0.995106
366.384474	0.994560
366.772284	0.995002
367.160031	0.993916
367.547715	0.993400
367.935336	0.993685
368.322893	0.993480
368.710388	0.993141
369.097820	0.994132
369.485189	0.994212
369.872495	0.993427
370.259738	0.993929
370.646918	0.994266
371.034035	0.993904
371.421090	0.993639
371.808081	0.993751
372.195010	0.994638
372.581875	0.994498
372.968678	0.993380
373.355418	0.994130
373.742096	0.994799
374.128710	0.994376
374.515262	0.993323
374.901751	0.995114
375.288177	0.995358
375.674540	0.995103
376.060841	0.993869
376.447079	0.994845
376.833254	0.994877
377.219367	0.994781
377.605417	0.995096
377.991404	0.994759
378.377329	0.994353
378.763191	0.995400
379.148991	0.995940
379.534727	0.994996
379.920402	0.994874
380.306013	0.994935
380.691563	0.995878
381.077049	0.995012
381.462474	0.995956
381.847835	0.995568
382.233134	0.994498
382.618371	0.995123
383.003545	0.994172
383.388657	0.995372
383.773706	0.995891
384.158693	0.995627
384.543618	0.996234
384.928480	0.996997
385.313280	0.995196
385.698017	0.996285
386.082692	0.995443
386.467305	0.996505
386.851856	0.995498
387.236344	0.995335
387.620770	0.994577
388.005133	0.995704
388.389435	0.996480
388.773674	0.995694
389.157851	0.996804
389.541965	0.996157
389.926018	0.995532
390.310008	0.996132
390.693936	0.995250
391.077802	0.995711
391.461606	0.996092
391.845348	0.995525
392.229027	0.997691
392.612645	0.995612
392.996200	0.996962
393.379694	0.995541
393.763125	0.996647
394.146494	0.996226
394.529801	0.995354
394.913047	0.996826
395.296230	0.996673
395.679351	0.995707
396.062410	0.995306
396.445408	0.996582
396.828343	0.995088
397.211217	0.995488
397.594028	0.996311
397.976778	0.995132
398.359466	0.994973
398.742092	0.995023
399.124656	0.995046
399.507158	0.995469
399.889598	0.995666
400.271977	0.996463
400.654294	0.996256
401.036549	0.996600
401.418742	0.996563
401.800874	0.995246
402.182944	0.995074
402.564952	0.994560
402.946898	0.996172
403.328783	0.995081
403.710606	0.994990
404.092367	0.994722
404.474067	0.994210
404.855705	0.995344
405.237282	0.994984
405.618797	0.994667
406.000250	0.994118
406.381642	0.994912
406.762972	0.994525
407.144240	0.995734
407.525447	0.994843
407.906593	0.994748
408.287677	0.993508
408.668700	0.993992
409.049661	0.992836
409.430560	0.992490
409.811399	0.991720
410.192176	0.990649
410.572891	0.989014
410.953545	0.988574
411.334138	0.987576
411.714669	0.986936
412.095139	0.985474
412.475547	0.983768
412.855894	0.981738
413.236180	0.980053
413.616405	0.977979
413.996568	0.976069
414.376670	0.972618
414.756711	0.970896
415.136691	0.967904
415.516609	0.964253
415.896466	0.961350
416.276262	0.956407
416.655997	0.954275
417.035670	0.949105
417.415283	0.944423
417.794834	0.940290
418.174324	0.936045
418.553753	0.933576
418.933121	0.927197
419.312428	0.920846
419.691674	0.915678
420.070859	0.908933
420.449983	0.904306
420.829045	0.896666
421.208047	0.893175
421.586988	0.885249
421.965867	0.877301
422.344686	0.868100
422.723444	0.864925
423.102141	0.861779
423.480777	0.847489
423.859352	0.844975
424.237866	0.830197
424.616319	0.823020
424.994712	0.812518
425.373044	0.807749
425.751314	0.794773
426.129524	0.791396
426.507673	0.777582
426.885762	0.767441
427.263789	0.758315
427.641756	0.756006
428.019662	0.741782
428.397508	0.732818
428.775292	0.724339
429.153016	0.711911
429.530679	0.707307
429.908282	0.694209
430.285824	0.691891
430.663305	0.670093
431.040726	0.673395
431.418086	0.665771
431.795385	0.652098
432.172624	0.642645
432.549802	0.634986
432.926920	0.626501
433.303977	0.617702
433.680974	0.607857
434.057910	0.599054
434.434786	0.591146
434.811601	0.585515
435.188355	0.565801
435.565050	0.565439
435.941683	0.560435
436.318257	0.541599
436.694770	0.534729
437.071222	0.526970
437.447614	0.524406
437.823946	0.524021
438.200218	0.509170
438.576429	0.512381
438.952580	0.500804
439.328670	0.492872
439.704700	0.494111
440.080670	0.490500
440.456580	0.469166
440.832429	0.471264
441.208218	0.477866
441.583947	0.464048
441.959616	0.460460
442.335224	0.461419
442.710773	0.450049
443.086261	0.444625
443.461689	0.455502
443.837057	0.442890
444.212365	0.431063
444.587612	0.435716
444.962800	0.423762
445.337927	0.423077
445.712995	0.446841
446.088002	0.408634
446.462949	0.417430
446.837837	0.420106
447.212664	0.408073
447.587431	0.398870
447.962139	0.368821
448.336786	0.327924
448.711374	0.337064
449.085901	0.379800
449.460369	0.382823
449.834776	0.386144
450.209124	0.364719
450.583412	0.356733
450.957640	0.349915
451.331808	0.360192
451.705917	0.383404
452.079965	0.387193
452.453954	0.375387
452.827883	0.381681
453.201752	0.376654
453.575562	0.387340
453.949311	0.376283
454.323001	0.381229
454.696632	0.377497
455.070202	0.370231
455.443713	0.361436
455.817164	0.356615
456.190556	0.352155
456.563888	0.348792
456.937160	0.346598
457.310373	0.363733
457.683526	0.362078
458.056619	0.367297
458.429653	0.368385
458.802628	0.371915
459.175542	0.365726
459.548398	0.348352
459.921194	0.340937
460.293930	0.341091
460.666607	0.318545
461.039224	0.306764
461.411782	0.302589
461.784280	0.301729
462.156719	0.306021
462.529099	0.310283
462.901419	0.326307
463.273680	0.330254
463.645882	0.330237
464.018024	0.336061
464.390106	0.328960
464.762130	0.313611
465.134094	0.296955
465.505999	0.266219
465.877845	0.236654
466.249631	0.223575
466.621358	0.230979
466.993026	0.244764
467.364634	0.250965
467.736184	0.259444
468.107674	0.268489
468.479105	0.267444
468.850477	0.274150
469.221790	0.281181
469.593043	0.291282
469.964238	0.296013
470.335373	0.295549
470.706449	0.294106
471.077467	0.293994
471.448425	0.256344
471.819324	0.232275
472.190164	0.231674
472.560945	0.260357
472.931667	0.282529
473.302330	0.286561
473.672934	0.298614
474.043479	0.286590
474.413965	0.288457
474.784393	0.292012
475.154761	0.286744
475.525070	0.284151
475.895321	0.289903
476.265513	0.284154
476.635645	0.279409
477.005719	0.279296
477.375734	0.275927
477.745691	0.269398
478.115588	0.265866
478.485427	0.259429
478.855207	0.246250
479.224928	0.228953
479.594591	0.217052
479.964194	0.220494
480.333739	0.221624
480.703226	0.223226
481.072653	0.221760
481.442022	0.217417
481.811333	0.213787
482.180584	0.217493
482.549777	0.222338
482.918912	0.225901
483.287988	0.225525
483.657005	0.225341
484.025964	0.231690
484.394864	0.228978
484.763706	0.229568
485.132489	0.234416
485.501213	0.235211
485.869879	0.233744
486.238487	0.236955
486.607036	0.234834
486.975527	0.239451
487.343959	0.235122
487.712333	0.234351
488.080648	0.235675
488.448905	0.234887
488.817104	0.236114
489.185244	0.230619
489.553326	0.227559
489.921350	0.217462
490.289315	0.199867
490.657222	0.195056
491.025070	0.196241
491.392861	0.198047
491.760593	0.203815
492.128267	0.209465
492.495883	0.214941
492.863440	0.220882
493.230939	0.227329
493.598380	0.228486
493.965763	0.230730
494.333088	0.233334
494.700354	0.234659
495.067563	0.233670
495.434713	0.236829
495.801805	0.234509
496.168839	0.236423
496.535815	0.237494
496.902733	0.237453
497.269593	0.239178
497.636395	0.236811
498.003139	0.236962
498.369825	0.240009
498.736453	0.236440
499.103023	0.238052
499.469535	0.237490
499.835989	0.237626
500.202385	0.238586
500.568723	0.241854
500.935003	0.236983
501.301226	0.241189
501.667390	0.235417
502.033497	0.233485
502.399546	0.236304
502.765537	0.238456
503.131470	0.237168
503.497345	0.233149
503.863163	0.241657
504.228923	0.234995
504.594625	0.233530
504.960269	0.239036
505.325856	0.234186
505.691385	0.238389
506.056856	0.235549
506.422270	0.234864
506.787625	0.237449
507.152924	0.234716
507.518164	0.234971
507.883347	0.236732
508.248472	0.238481
508.613540	0.233453
508.978550	0.236094
509.343503	0.236512
509.708398	0.234112
510.073236	0.231756
510.438016	0.231828
510.802738	0.232913
511.167403	0.231856
511.532010	0.233922
511.896561	0.229071
512.261053	0.228194
512.625488	0.230215
512.989866	0.230205
513.354186	0.230796
513.718449	0.232529
514.082655	0.228952
514.446803	0.231022
514.810894	0.228741
515.174927	0.231196
515.538904	0.230980
515.902822	0.227773
516.266684	0.230226
516.630488	0.231663
516.994235	0.230140
517.357925	0.228935
517.721558	0.227132
518.085133	0.226683
518.448651	0.226515
518.812112	0.229013
519.175516	0.228510
519.538863	0.226148
519.902152	0.227970
520.265385	0.224579
520.628560	0.226686
520.991678	0.227008
521.354739	0.225757
521.717743	0.227046
522.080690	0.227428
522.443580	0.224918
522.806413	0.225881
523.169189	0.225055
523.531908	0.223939
523.894569	0.227561
524.257174	0.227646
524.619722	0.225268
524.982213	0.226271
525.344647	0.225125
525.707025	0.226127
526.069345	0.224312
526.431608	0.225797
526.793815	0.223873
527.155964	0.228047
527.518057	0.227076
527.880093	0.228077
528.242072	0.226583
528.603995	0.228562
528.965860	0.230193
529.327669	0.228841
529.689421	0.229991
530.051117	0.230518
530.412755	0.228383
530.774337	0.230925
531.135862	0.231013
531.497331	0.230386
531.858743	0.233353
532.220098	0.230251
532.581396	0.232702
532.942638	0.233182
533.303824	0.233971
533.664953	0.233667
534.026025	0.235738
534.387040	0.233514
534.747999	0.233370
535.108902	0.232042
535.469748	0.237430
535.830537	0.234907
536.191270	0.235409
536.551947	0.234840
536.912567	0.235235
537.273131	0.236767
537.633638	0.237046
537.994089	0.237417
538.354483	0.238297
538.714821	0.235270
539.075103	0.235466
539.435328	0.235954
539.795497	0.239747
540.155609	0.236395
540.515665	0.234317
540.875665	0.239951
541.235609	0.238370
541.595496	0.238673
541.955328	0.235205
542.315102	0.238019
542.674821	0.238961
543.034483	0.238997
543.394090	0.238757
543.753640	0.240241
544.113134	0.235708
544.472571	0.238757
544.831953	0.235795
545.191278	0.239717
545.550548	0.239332
545.909761	0.236121
546.268918	0.236770
546.628019	0.235184
546.987064	0.237697
547.346053	0.239672
547.704986	0.237506
548.063863	0.237910
548.422684	0.238062
548.781449	0.240022
549.140158	0.237471
549.498811	0.240438
549.857408	0.243222
550.215949	0.238315
550.574434	0.241331
550.932864	0.239142
551.291237	0.237733
551.649555	0.239429
552.007817	0.238976
552.366022	0.239666
552.724173	0.240102
553.082267	0.240528
553.440305	0.237135
553.798288	0.241832
554.156215	0.238337
554.514086	0.238985
554.871902	0.241874
555.229661	0.241193
555.587365	0.241898
555.945014	0.244452
556.302606	0.240885
556.660143	0.243974
557.017625	0.240367
557.375050	0.242572
557.732421	0.239533
558.089735	0.241483
558.446994	0.241838
558.804197	0.240966
559.161345	0.240877
559.518437	0.244339
559.875474	0.242263
560.232455	0.241381
560.589381	0.242517
560.946251	0.242541
561.303065	0.240187
561.659825	0.241663
562.016528	0.243106
562.373177	0.245856
562.729770	0.243363
563.086307	0.245515
563.442789	0.243032
563.799216	0.246086
564.155587	0.244883
564.511904	0.245927
564.868164	0.246113
565.224370	0.245784
565.580520	0.247744
565.936615	0.247442
566.292654	0.250760
566.648638	0.247197
567.004567	0.248212
567.360441	0.248686
567.716260	0.251046
568.072023	0.248665
568.427732	0.249482
568.783385	0.251864
569.138982	0.249965
569.494525	0.249692
569.850013	0.252581
570.205445	0.251125
570.560823	0.253415
570.916145	0.255562
571.271412	0.253577
571.626625	0.255284
571.981782	0.255543
572.336884	0.256486
572.691931	0.256089
573.046923	0.257454
573.401860	0.258790
573.756743	0.260704
574.111570	0.259308
574.466342	0.259724
574.821059	0.258846
575.175722	0.261451
575.530330	0.261536
575.884882	0.261645
576.239380	0.263725
576.593823	0.264240
576.948211	0.263720
577.302544	0.267066
577.656823	0.266588
578.011047	0.266537
578.365216	0.267042
578.719330	0.269175
579.073389	0.269082
579.427394	0.270736
579.781344	0.271248
580.135239	0.272344
580.489080	0.272102
580.842866	0.275349
581.196597	0.275385
581.550273	0.273577
581.903895	0.274939
582.257463	0.272689
582.610975	0.276022
582.964434	0.275349
583.317837	0.278006
583.671186	0.278457
584.024481	0.278482
584.377721	0.281076
584.730906	0.281746
585.084037	0.280594
585.437113	0.282711
585.790135	0.282003
586.143103	0.284897
586.496016	0.286386
586.848874	0.283610
587.201679	0.284396
587.554428	0.287620
587.907124	0.286288
588.259765	0.287174
588.612352	0.287760
588.964884	0.291268
589.317362	0.290855
589.669786	0.290844
590.022155	0.289559
590.374470	0.288599
590.726731	0.291045
591.078937	0.295246
591.431090	0.291660
591.783188	0.296062
592.135232	0.296338
592.487222	0.296340
592.839157	0.294505
593.191038	0.296792
593.542866	0.298605
593.894639	0.302172
594.246358	0.300438
594.598022	0.299688
594.949633	0.303470
595.301190	0.304424
595.652692	0.303336
596.004141	0.299660
596.355535	0.307804
596.706876	0.308393
597.058162	0.310552
597.409395	0.307906
597.760573	0.305570
598.111698	0.308508
598.462768	0.309480
598.813785	0.310679
599.164748	0.311661
599.515657	0.311954
599.866511	0.315231
600.217312	0.310586
600.568060	0.316103
600.918753	0.312202
601.269392	0.313203
601.619978	0.316355
601.970510	0.314085
602.320988	0.314347
602.671412	0.312066
603.021783	0.314468
603.372100	0.316041
603.722363	0.315761
604.072572	0.316429
604.422728	0.316090
604.772830	0.318560
605.122878	0.317783
605.472872	0.318519
605.822813	0.316850
606.172701	0.319136
606.522534	0.316671
606.872314	0.316633
607.222041	0.317804
607.571714	0.315752
607.921333	0.317149
608.270899	0.317051
608.620411	0.313924
608.969870	0.317513
609.319276	0.318078
609.668627	0.317504
610.017926	0.315961
610.367171	0.314815
610.716362	0.315230
611.065500	0.315645
611.414585	0.314568
611.763616	0.314852
612.112594	0.315642
612.461518	0.315158
612.810389	0.312617
613.159207	0.315361
613.507971	0.316775
613.856682	0.311906
614.205340	0.313972
614.553945	0.310559
614.902496	0.314837
615.250994	0.312843
615.599439	0.313416
615.947830	0.312958
616.296169	0.313668
616.644454	0.312999
616.992686	0.313364
617.340864	0.311138
617.688990	0.314849
618.037063	0.311255
618.385082	0.313487
618.733048	0.310259
619.080961	0.312583
619.428821	0.311789
619.776628	0.311438
620.124382	0.313260
620.472083	0.313583
620.819731	0.313069
621.167326	0.317000
621.514868	0.316601
621.862357	0.320776
622.209793	0.320476
622.557176	0.322835
622.904506	0.324058
623.251783	0.326286
623.599007	0.328215
623.946179	0.328396
624.293297	0.329819
624.640363	0.333682
624.987376	0.334221
625.334336	0.336760
625.681243	0.339420
626.028097	0.339747
626.374899	0.341021
626.721647	0.340767
627.068343	0.344149
627.414987	0.345162
627.761577	0.347347
628.108115	0.345723
628.454600	0.351015
628.801032	0.348310
629.147412	0.350339
629.493739	0.350336
629.840014	0.354075
630.186236	0.351162
630.532405	0.356558
630.878521	0.353996
631.224585	0.356638
631.570597	0.360622
631.916556	0.358389
632.262462	0.358233
632.608316	0.360567
632.954117	0.361296
633.299866	0.362585
633.645562	0.362928
633.991206	0.367250
634.336797	0.370191
634.682336	0.371959
635.027823	0.374065
635.373257	0.374898
635.718639	0.377858
636.063968	0.377070
636.409245	0.382826
636.754470	0.383818
637.099642	0.385704
637.444762	0.388806
637.789829	0.388013
638.134845	0.391908
638.479808	0.392882
638.824719	0.392682
639.169577	0.396383
639.514383	0.395213
639.859137	0.399549
640.203839	0.399898
640.548489	0.400222
640.893086	0.401256
641.237632	0.403111
641.582125	0.400920
641.926566	0.403030
642.270955	0.403407
642.615292	0.403732
642.959576	0.402587
643.303809	0.403402
643.647990	0.402633
643.992118	0.403231
644.336195	0.407039
644.680219	0.405518
645.024192	0.405920
645.368112	0.399763
645.711981	0.398566
646.055797	0.393395
646.399562	0.396517
646.743274	0.388546
647.086935	0.385525
647.430544	0.385758
647.774101	0.384637
648.117606	0.384904
648.461059	0.384664
648.804460	0.387248
649.147810	0.392282
649.491108	0.394105
649.834354	0.395835
650.177548	0.401064
650.520690	0.406371
650.863781	0.407648
651.206820	0.406865
651.549807	0.411579
651.892742	0.415657
652.235626	0.414875
652.578458	0.416254
652.921238	0.422317
653.263967	0.419609
653.606644	0.423850
653.949269	0.423672
654.291843	0.427627
654.634365	0.423844
654.976836	0.427525
655.319255	0.427688
655.661622	0.429464
656.003938	0.429568
656.346203	0.432423
656.688416	0.429771
657.030577	0.433817
657.372687	0.435496
657.714746	0.436039
658.056753	0.433164
658.398708	0.437163
658.740612	0.437757
659.082465	0.434220
659.424266	0.434892
659.766016	0.434172
660.107715	0.436854
660.449362	0.436098
660.790958	0.436427
661.132503	0.437319
661.473996	0.434754
661.815438	0.435385
662.156829	0.435327
662.498168	0.436219
662.839456	0.438025
663.180693	0.435326
663.521879	0.435651
663.863013	0.436376
664.204097	0.434428
664.545129	0.431930
664.886110	0.431898
665.227040	0.429733
665.567918	0.432199
665.908746	0.430071
666.249522	0.429394
666.590248	0.431035
666.930922	0.428886
667.271545	0.427518
667.612118	0.428040
667.952639	0.429158
668.293109	0.428335
668.633528	0.431334
668.973896	0.430991
669.314213	0.431854
669.654480	0.432990
669.994695	0.433355
670.334859	0.434068
670.674973	0.434240
671.015035	0.434299
671.355047	0.434632
671.695008	0.435807
672.034918	0.437068
672.374777	0.436933
672.714585	0.437756
673.054342	0.437642
673.394049	0.437878
673.733705	0.435640
674.073310	0.437062
674.412864	0.439776
674.752368	0.439868
675.091820	0.440643
675.431223	0.444763
675.770574	0.444487
676.109875	0.447951
676.449125	0.447606
676.788324	0.450213
677.127473	0.455199
677.466571	0.455181
677.805619	0.456590
678.144616	0.457969
678.483562	0.459518
678.822458	0.462135
679.161303	0.462874
679.500098	0.463295
679.838842	0.465560
680.177535	0.465209
680.516179	0.463464
680.854771	0.462713
681.193314	0.455373
681.531805	0.447175
681.870247	0.435362
682.208638	0.428082
682.546978	0.427270
682.885268	0.429252
683.223508	0.434948
683.561697	0.438412
683.899836	0.441749
684.237925	0.444650
684.575963	0.447564
684.913951	0.450691
685.251889	0.446231
685.589776	0.448091
685.927614	0.450688
686.265401	0.445153
686.603137	0.446011
686.940824	0.440257
687.278460	0.439260
687.616046	0.437924
687.953582	0.432890
688.291068	0.434677
688.628504	0.429978
688.965889	0.432070
689.303224	0.436535
689.640510	0.440189
689.977745	0.446275
690.314930	0.453779
690.652065	0.458393
690.989150	0.465870
691.326185	0.472483
691.663170	0.477174
692.000105	0.483972
692.336990	0.491335
692.673825	0.493788
693.010610	0.500396
693.347345	0.506381
693.684030	0.507357
694.020665	0.512664
694.357251	0.520758
694.693786	0.520865
695.030272	0.525262
695.366707	0.528072
695.703093	0.531585
696.039429	0.529791
696.375716	0.531058
696.711952	0.533312
697.048139	0.535921
697.384276	0.538339
697.720363	0.536047
698.056400	0.535502
698.392388	0.540381
698.728326	0.543850
699.064214	0.546814
699.400053	0.547089
699.735842	0.551294
700.071581	0.553656
700.407270	0.556595
700.742910	0.559219
701.078501	0.565631
701.414042	0.565953
701.749533	0.569253
702.084974	0.578265
702.420366	0.570338
702.755709	0.578407
703.091002	0.585364
703.426246	0.578887
703.761440	0.585032
704.096584	0.589787
704.431679	0.586593
704.766725	0.589006
705.101721	0.590773
705.436668	0.586771
705.771565	0.593141
706.106413	0.590684
706.441212	0.585360
706.775961	0.584439
707.110661	0.587165
707.445311	0.583669
707.779913	0.580278
708.114465	0.579319
708.448967	0.575084
708.783421	0.567793
709.117825	0.562226
709.452180	0.562459
709.786485	0.555886
710.120742	0.546433
710.454949	0.548725
710.789107	0.540320
711.123216	0.531987
711.457275	0.533158
711.791286	0.523852
712.125247	0.522464
712.459159	0.533567
712.793023	0.526649
713.126837	0.529942
713.460602	0.530991
713.794318	0.540416
714.127985	0.539348
714.461602	0.549194
714.795171	0.552168
715.128691	0.559719
715.462162	0.567438
715.795584	0.572654
716.128957	0.575735
716.462281	0.582586
716.795556	0.586212
717.128782	0.591472
717.461960	0.601191
717.795088	0.599364
718.128167	0.605284
718.461198	0.614074
718.794180	0.615086
719.127113	0.617315
719.459997	0.621185
719.792833	0.626614
720.125619	0.628532
720.458357	0.634233
720.791046	0.633441
721.123686	0.638207
721.456278	0.644218
721.788821	0.641740
722.121315	0.645734
722.453761	0.649954
722.786158	0.648014
723.118506	0.644544
723.450805	0.651664
723.783056	0.647928
724.115259	0.645092
724.447412	0.646044
724.779518	0.646030
725.111574	0.645141
725.443582	0.640895
725.775542	0.642352
726.107453	0.634962
726.439315	0.635229
726.771129	0.633817
727.102895	0.627034
727.434612	0.619729
727.766281	0.617236
728.097901	0.617075
728.429473	0.616289
728.760996	0.615317
729.092471	0.615327
729.423897	0.619487
729.755276	0.617970
730.086606	0.619069
730.417887	0.612562
730.749120	0.604107
731.080305	0.593698
731.411442	0.590647
731.742530	0.595328
732.073570	0.594464
732.404562	0.586319
732.735506	0.587950
733.066401	0.593652
733.397249	0.601206
733.728048	0.613575
734.058798	0.625728
734.389501	0.636473
734.720156	0.645961
735.050762	0.654045
735.381320	0.655134
735.711831	0.664363
736.042293	0.668723
736.372707	0.665113
736.703073	0.669975
737.033391	0.672257
737.363661	0.668827
737.693883	0.664231
738.024056	0.663419
738.354182	0.663398
738.684260	0.653205
739.014290	0.648156
739.344272	0.649765
739.674207	0.643149
740.004093	0.642187
740.333931	0.643074
740.663722	0.643135
740.993464	0.644294
741.323159	0.647280
741.652806	0.652374
741.982405	0.656481
742.311956	0.661564
742.641460	0.663414
742.970915	0.666877
743.300323	0.675225
743.629683	0.681473
743.958996	0.684224
744.288260	0.687607
744.617477	0.693262
744.946647	0.694144
745.275768	0.700724
745.604842	0.700393
745.933869	0.710227
746.262847	0.711567
746.591778	0.704507
746.920662	0.710642
747.249498	0.717371
747.578286	0.708705
747.907027	0.704224
748.235720	0.705406
748.564365	0.699790
748.892963	0.700214
749.221514	0.703256
749.550017	0.708144
749.878473	0.707891
750.206881	0.713721
750.535242	0.715347
750.863555	0.715096
751.191821	0.716935
751.520039	0.719878
751.848210	0.724734
752.176334	0.716543
752.504411	0.715748
752.832440	0.724753
753.160421	0.727806
753.488356	0.726578
753.816243	0.724114
754.144082	0.732100
754.471875	0.735677
754.799620	0.731073
755.127318	0.733015
755.454969	0.732156
755.782572	0.731933
756.110129	0.736053
756.437638	0.740053
756.765100	0.735384
757.092515	0.733683
757.419882	0.732787
757.747203	0.737565
758.074477	0.737620
758.401703	0.734384
758.728882	0.729883
759.056014	0.727798
759.383099	0.727397
759.710138	0.728609
760.037129	0.725180
760.364073	0.719497
760.690970	0.720853
761.017820	0.727352
761.344623	0.722546
761.671379	0.713398
761.998088	0.701830
762.324751	0.679289
762.651366	0.637556
762.977935	0.570905
763.304456	0.519304
763.630931	0.509575
763.957359	0.548471
764.283740	0.593020
764.610074	0.620157
764.936362	0.650349
765.262602	0.677554
765.588796	0.698976
765.914943	0.717235
766.241044	0.734652
766.567097	0.741252
766.893104	0.750894
767.219064	0.757395
767.544978	0.763842
767.870845	0.778231
768.196665	0.781735
768.522438	0.778715
768.848165	0.780391
769.173846	0.789307
769.499479	0.793976
769.825066	0.797671
770.150607	0.803041
770.476101	0.798367
770.801548	0.799119
771.126949	0.810990
771.452303	0.814995
771.777611	0.813380
772.102872	0.812296
772.428087	0.818199
772.753256	0.820770
773.078378	0.823653
773.403453	0.831688
773.728482	0.836014
774.053465	0.829672
774.378401	0.833575
774.703291	0.842112
775.028135	0.842557
775.352932	0.843407
775.677683	0.845947
776.002388	0.846461
776.327046	0.845249
776.651658	0.849014
776.976224	0.851956
777.300743	0.852404
777.625216	0.855224
777.949643	0.856284
778.274024	0.856733
778.598359	0.858965
778.922647	0.856934
779.246889	0.857805
779.571086	0.861163
779.895236	0.864797
780.219339	0.861854
780.543397	0.857560
780.867409	0.856803
781.191374	0.859042
781.515294	0.860109
781.839167	0.859475
782.162995	0.863199
782.486776	0.858704
782.810511	0.859742
783.134201	0.863575
783.457844	0.860862
783.781441	0.863854
784.104993	0.870481
784.428498	0.870670
784.751958	0.866877
785.075372	0.869285
785.398739	0.872188
785.722061	0.868612
786.045337	0.864630
786.368568	0.869584
786.691752	0.871162
787.014891	0.857153
787.337983	0.848509
787.661030	0.841118
787.984031	0.823779
788.306987	0.810002
788.629897	0.812725
788.952760	0.816636
789.275579	0.821326
789.598351	0.835753
789.921078	0.849318
790.243759	0.851645
790.566395	0.856136
790.888984	0.863754
791.211529	0.868868
791.534027	0.871412
791.856480	0.874740
792.178888	0.879562
792.501249	0.881173
792.823566	0.882916
793.145836	0.883753
793.468062	0.884678
793.790241	0.884699
794.112375	0.883482
794.434464	0.877487
794.756507	0.877742
795.078505	0.877240
795.400457	0.872004
795.722364	0.859432
796.044226	0.853814
796.366042	0.852331
796.687812	0.856065
797.009538	0.851371
797.331218	0.854449
797.652852	0.859343
797.974442	0.864510
798.295986	0.864505
798.617484	0.866639
798.938938	0.870533
799.260346	0.876358
799.581709	0.878278
799.903026	0.880501
800.224299	0.880265
800.545526	0.885102
800.866708	0.889539
801.187845	0.893217
801.508936	0.892175
801.829983	0.889784
802.150984	0.892369
802.471940	0.898393
802.792851	0.896547
803.113717	0.898258
803.434538	0.895977
803.755314	0.898006
804.076045	0.899857
804.396731	0.899727
804.717372	0.900000
805.037967	0.901081
805.358518	0.899823
805.679024	0.895812
805.999485	0.897862
806.319901	0.897387
806.640272	0.898568
806.960598	0.896421
807.280879	0.892862
807.601115	0.892505
807.921306	0.895420
808.241453	0.895626
808.561554	0.893191
808.881611	0.893118
809.201623	0.896321
809.521590	0.896702
809.841513	0.897146
810.161390	0.896689
810.481223	0.898310
810.801011	0.901432
811.120755	0.902744
811.440453	0.902221
811.760107	0.900996
812.079716	0.900608
812.399281	0.904047
812.718801	0.905701
813.038276	0.906953
813.357707	0.905837
813.677093	0.903719
813.996434	0.906811
814.315731	0.908358
814.634983	0.909529
814.954191	0.907009
815.273354	0.904499
815.592473	0.900567
815.911547	0.901614
816.230577	0.899190
816.549562	0.896889
816.868502	0.897673
817.187399	0.892358
817.506250	0.888222
817.825058	0.890513
818.143821	0.886860
818.462539	0.881270
818.781213	0.873316
819.099843	0.860364
819.418429	0.846605
819.736970	0.829671
820.055466	0.809716
820.373919	0.784218
820.692327	0.750833
821.010691	0.717222
821.329011	0.639282
821.647286	0.523979
821.965517	0.410337
822.283704	0.367205
822.601847	0.368703
822.919945	0.404253
823.237999	0.437624
823.556010	0.484571
823.873976	0.540447
824.191897	0.590843
824.509775	0.633275
824.827609	0.679062
825.145398	0.701452
825.463144	0.704897
825.780845	0.687537
826.098502	0.668476
826.416116	0.623260
826.733685	0.579240
827.051210	0.570044
827.368692	0.585480
827.686129	0.622490
828.003522	0.675673
828.320872	0.723307
828.638177	0.767587
828.955439	0.799234
829.272656	0.821989
829.589830	0.838531
829.906960	0.853734
830.224046	0.866801
830.541088	0.877728
830.858086	0.881172
831.175041	0.887435
831.491952	0.887354
831.808819	0.883114
832.125642	0.876760
832.442421	0.861512
832.759157	0.840136
833.075849	0.793233
833.392497	0.729938
833.709101	0.689748
834.025662	0.699306
834.342179	0.730778
834.658653	0.769558
834.975083	0.805749
835.291469	0.831844
835.607811	0.855405
835.924110	0.871262
836.240366	0.887203
836.556578	0.902042
836.872746	0.908855
837.188871	0.915201
837.504952	0.920180
837.820990	0.924115
838.136984	0.926970
838.452935	0.930084
838.768842	0.931158
839.084706	0.925191
839.400526	0.898673
839.716303	0.859416
840.032037	0.836416
840.347727	0.840247
840.663373	0.858364
840.978977	0.880145
841.294537	0.901729
841.610054	0.918106
841.925527	0.926146
842.240957	0.933221
842.556344	0.939763
842.871687	0.945981
843.186987	0.949898
843.502244	0.950568
843.817458	0.952188
844.132629	0.956543
844.447756	0.960525
844.762840	0.961115
845.077881	0.960383
845.392879	0.959446
845.707833	0.962609
846.022745	0.964568
846.337613	0.965675
846.652438	0.965265
846.967221	0.965436
847.281960	0.964512
847.596656	0.966791
847.911309	0.965827
848.225919	0.968040
848.540485	0.968318
848.855009	0.968495
849.169490	0.968429
849.483928	0.969225
849.798323	0.969199
850.112675	0.970113
850.426984	0.970039
850.741251	0.970526
851.055474	0.970448
851.369654	0.967795
851.683792	0.969321
851.997887	0.969827
852.311938	0.970967
852.625947	0.970310
852.939914	0.967907
853.253837	0.969543
853.567718	0.971360
853.881555	0.971250
854.195350	0.967297
854.509103	0.969973
854.822812	0.969787
855.136479	0.970947
855.450103	0.970223
855.763685	0.968096
856.077224	0.968753
856.390720	0.971261
856.704173	0.970881
857.017584	0.969369
857.330953	0.967164
857.644278	0.968301
857.957561	0.968786
858.270802	0.969136
858.584000	0.968855
858.897155	0.966892
859.210268	0.967343
859.523339	0.968302
859.836367	0.970650
860.149352	0.971234
860.462295	0.968126
860.775195	0.970741
861.088054	0.968734
861.400869	0.969887
861.713642	0.969413
862.026373	0.970607
862.339062	0.971545
862.651708	0.967536
862.964312	0.968538
863.276873	0.969840
863.589392	0.968260
863.901869	0.966820
864.214303	0.965550
864.526696	0.964592
864.839045	0.964053
865.151353	0.961999
865.463619	0.961982
865.775842	0.962992
866.088023	0.962575
866.400162	0.961142
866.712258	0.962163
867.024313	0.963405
867.336325	0.963685
867.648296	0.963233
867.960224	0.963416
868.272110	0.962390
868.583954	0.964858
868.895755	0.964340
869.207515	0.962415
869.519233	0.958571
869.830909	0.960830
870.142542	0.962424
870.454134	0.962205
870.765684	0.960656
871.077191	0.958187
871.388657	0.959686
871.700081	0.957427
872.011463	0.958901
872.322803	0.958592
872.634101	0.957402
872.945357	0.954653
873.256571	0.952838
873.567744	0.953627
873.878874	0.953421
874.189963	0.952209
874.501010	0.951778
874.812015	0.949772
875.122979	0.951604
875.433900	0.954094
875.744780	0.955161
876.055618	0.951458
876.366415	0.949918
876.677169	0.950742
876.987882	0.951268
877.298554	0.951054
877.609183	0.947713
877.919771	0.945280
878.230317	0.942686
878.540822	0.940940
878.851285	0.935148
879.161707	0.926559
879.472087	0.915354
879.782425	0.898816
880.092722	0.864967
880.402977	0.813390
880.713191	0.751907
881.023363	0.693385
881.333494	0.659488
881.643583	0.631298
881.953631	0.630829
882.263637	0.659428
882.573602	0.700183
882.883526	0.725493
883.193408	0.748902
883.503248	0.770089
883.813048	0.798328
884.122806	0.827924
884.432522	0.852252
884.742197	0.870378
885.051831	0.882426
885.361424	0.891115
885.670975	0.903834
885.980485	0.913324
886.289954	0.919664
886.599382	0.925679
886.908768	0.928514
887.218113	0.935184
887.527417	0.939741
887.836680	0.942177
888.145901	0.942829
888.455082	0.946783
888.764221	0.950820
889.073319	0.952546
889.382376	0.953296
889.691392	0.953157
890.000366	0.952693
890.309300	0.953665
890.618193	0.953810
890.927044	0.951930
891.235855	0.952418
891.544625	0.951600
891.853353	0.952573
892.162041	0.949101
892.470687	0.942964
892.779293	0.937415
893.087858	0.933885
893.396381	0.925982
893.704864	0.912811
894.013306	0.890402
894.321707	0.863729
894.630068	0.849291
894.938387	0.843686
895.246665	0.844968
895.554903	0.857352
895.863100	0.870412
896.171256	0.888036
896.479371	0.907055
896.787446	0.919712
897.095480	0.925409
897.403473	0.928973
897.711425	0.932939
898.019336	0.939400
898.327207	0.943296
898.635038	0.945630
898.942827	0.945627
899.250576	0.949079
899.558284	0.953027
899.865952	0.954369
900.173579	0.955514
900.481165	0.955935
900.788711	0.959602
901.096216	0.961926
901.403681	0.962168
901.711105	0.964613
902.018489	0.964247
902.325832	0.962042
902.633135	0.962821
902.940397	0.956346
903.247619	0.944375
903.554800	0.918045
903.861941	0.878538
904.169041	0.843765
904.476101	0.825739
904.783121	0.827662
905.090100	0.843111
905.397039	0.864341
905.703938	0.886295
906.010796	0.905500
906.317614	0.922941
906.624391	0.934830
906.931129	0.944278
907.237826	0.951675
907.544483	0.959821
907.851099	0.962945
908.157675	0.968094
908.464211	0.970397
908.770707	0.973539
909.077163	0.975366
909.383578	0.975113
909.689954	0.976078
909.996289	0.974433
910.302584	0.978172
910.608839	0.980215
910.915054	0.979334
911.221229	0.978265
911.527363	0.977455
911.833458	0.977286
912.139513	0.976757
912.445527	0.974523
912.751502	0.974374
913.057436	0.972966
913.363331	0.970682
913.669186	0.967494
913.975000	0.961718
914.280775	0.955160
914.586510	0.948428
914.892205	0.936496
915.197859	0.915179
915.503475	0.885869
915.809050	0.868011
916.114585	0.862467
916.420081	0.859343
916.725536	0.856280
917.030952	0.864028
917.336328	0.877221
917.641665	0.892452
917.946961	0.908148
918.252218	0.919182
918.557435	0.928068
918.862612	0.937491
919.167750	0.942802
919.472848	0.947248
919.777906	0.953247
920.082925	0.957676
920.387904	0.961774
920.692843	0.963522
920.997743	0.963668
921.302603	0.968963
921.607423	0.968634
921.912204	0.971938
922.216946	0.971060
922.521647	0.974047
922.826310	0.975041
923.130932	0.976200
923.435516	0.979178
923.740059	0.979409
924.044564	0.978082
924.349028	0.979700
924.653454	0.983499
924.957840	0.984754
925.262186	0.985163
925.566493	0.984441
925.870761	0.985756
926.174989	0.986148
926.479178	0.987723
926.783328	0.989002
927.087438	0.988693
927.391509	0.987788
927.695541	0.990066
927.999533	0.989520
928.303486	0.989789
928.607400	0.991692
928.911275	0.989802
929.215110	0.991024
929.518906	0.991170
929.822663	0.990995
930.126381	0.991615
930.430060	0.990569
930.733699	0.990168
931.037299	0.989814
931.340861	0.990230
931.644383	0.989469
931.947866	0.989164
932.251309	0.990444
932.554714	0.990343
932.858080	0.991511
933.161407	0.990443
933.464694	0.992325
933.767943	0.989415
934.071153	0.991012
934.374323	0.991076
934.677455	0.990974
934.980548	0.991202
935.283602	0.991422
935.586617	0.990673
935.889593	0.990339
936.192530	0.991388
936.495428	0.990816
936.798287	0.991249
937.101108	0.989523
937.403890	0.989167
937.706632	0.988861
938.009336	0.985845
938.312002	0.987340
938.614628	0.985197
938.917216	0.983525
939.219765	0.982470
939.522275	0.983136
939.824747	0.983552
940.127179	0.982979
940.429573	0.984190
940.731929	0.984711
941.034246	0.984994
941.336524	0.986003
941.638763	0.987810
941.940964	0.986751
942.243126	0.987454
942.545250	0.987412
942.847335	0.989606
943.149381	0.988227
943.451389	0.988465
943.753359	0.988330
944.055290	0.990932
944.357182	0.989994
944.659036	0.989139
944.960851	0.988759
945.262628	0.990006
945.564367	0.990040
945.866067	0.989750
946.167729	0.990220
946.469352	0.989215
946.770937	0.989115
947.072484	0.991454
947.373992	0.990716
947.675462	0.989860
947.976893	0.992137
948.278286	0.990823
948.579641	0.992618
948.880958	0.990851
949.182236	0.991619
949.483476	0.989636
949.784678	0.990554
950.085841	0.991450
950.386967	0.991098
950.688054	0.989982
950.989103	0.990944
951.290114	0.988971
951.591087	0.990886
951.892021	0.990298
952.192917	0.988544
952.493776	0.988671
952.794596	0.987557
953.095378	0.988797
953.396122	0.988635
953.696828	0.987427
953.997496	0.990386
954.298126	0.990746
954.598718	0.991736
954.899272	0.991656
955.199788	0.990658
955.500266	0.993174
955.800706	0.993074
956.101108	0.993078
956.401472	0.994237
956.701798	0.994613
957.002087	0.993658
957.302337	0.995223
957.602550	0.995286
957.902724	0.994843
958.202861	0.995451
958.502960	0.995564
958.803022	0.994326
959.103045	0.996593
959.403031	0.996205
959.702979	0.994851
960.002889	0.995519
960.302762	0.995264
960.602596	0.996933
960.902393	0.994233
961.202153	0.996933
961.501875	0.997029
961.801559	0.995821
962.101205	0.995932
962.400814	0.996664
962.700385	0.996311
962.999918	0.996512
963.299414	0.996556
963.598873	0.996097
963.898293	0.996870
964.197677	0.995581
964.497022	0.996605
964.796331	0.997549
965.095601	0.996684
965.394835	0.995909
965.694030	0.996627
965.993189	0.997342
966.292309	0.997157
966.591393	0.996879
966.890439	0.997639
967.189447	0.997702
967.488419	0.996031
967.787353	0.997047
968.086249	0.996709
968.385108	0.997763
968.683930	0.997007
968.982714	0.997437
969.281462	0.997287
969.580172	0.996040
969.878844	0.997723
970.177480	0.997558
970.476078	0.997757
970.774639	0.996999
971.073162	0.997319
971.371649	0.996722
971.670098	0.997082
971.968510	0.997654
972.266885	0.996467
972.565223	0.996178
972.863524	0.996908
973.161788	0.995965
973.460014	0.998502
973.758204	0.996489
974.056356	0.995885
974.354471	0.995844
974.652550	0.995911
974.950591	0.996185
975.248595	0.996065
975.546563	0.996646
975.844493	0.998765
976.142386	0.996716
976.440243	0.997324
976.738062	0.996542
977.035845	0.998115
977.333590	0.997004
977.631299	0.997341
977.928971	0.996645
978.226606	0.996856
978.524204	0.995992
978.821765	0.998808
979.119290	0.995963
979.416777	0.996725
979.714228	0.997413
980.011642	0.996551
980.309020	0.997486
980.606360	0.997692
980.903664	0.997813
981.200931	0.996373
981.498162	0.994722
981.795356	0.994665
982.092513	0.994043
982.389633	0.994880
982.686717	0.992217
982.983764	0.991480
983.280775	0.989834
983.577749	0.991225
983.874686	0.991578
984.171587	0.991532
984.468451	0.993957
984.765279	0.994350
985.062070	0.994464
985.358824	0.995777
985.655543	0.995249
985.952224	0.996917
986.248869	0.997559
986.545478	0.996931
986.842050	0.998467
987.138586	0.995555
987.435086	0.997490
987.731549	0.997925
988.027975	0.998139
988.324366	0.997727
988.620719	0.997894
988.917037	0.995918
989.213318	0.998243
989.509563	0.998505
989.805772	0.998705
990.101944	0.998035
990.398080	0.997611
990.694180	0.998083
990.990244	0.997043
991.286271	0.998088
991.582262	0.998211
991.878217	0.997550
992.174136	0.999357
992.470019	0.999073
992.765865	0.998365
993.061676	0.998143
993.357450	0.997445
993.653188	0.997179
993.948890	0.997744
994.244556	0.997623
994.540186	0.997639
994.835780	0.996211
995.131337	0.997860
995.426859	0.996600
995.722345	0.997569
996.017795	0.997396
996.313208	0.996197
996.608586	0.995004
996.903928	0.996391
997.199234	0.996249
997.494504	0.996444
997.789738	0.996514
998.084936	0.996780
998.380099	0.997289
998.675225	0.997716
998.970316	0.997878
999.265371	0.997623
999.560390	0.998425
999.855373	0.998690
1000.150320	0.998215
1000.445232	0.998227
1000.740108	0.997552
1001.034948	0.998311
1001.329752	0.999777
1001.624521	0.999962
1001.919254	0.997957
1002.213951	0.998522
1002.508613	0.998013
1002.803239	0.999565
1003.097829	0.999402
1003.392384	0.999231
1003.686903	0.997237
1003.981386	0.998760
1004.275834	0.998725
1004.570246	0.998310
1004.864623	0.999036
1005.158964	1.000377
1005.453270	0.998000
1005.747540	0.998065
1006.041775	0.998070
1006.335974	0.999749
1006.630138	1.000049
1006.924266	0.999675
1007.218359	0.999997
1007.512416	0.999065
1007.806438	0.999621
1008.100425	0.999651
1008.394376	0.999619
1008.688292	0.998152
1008.982172	1.000533
1009.276017	0.999912
1009.569827	0.998539
1009.863602	0.999557
1010.157341	1.000284
1010.451045	0.999268
1010.744714	0.999015
1011.038347	0.999352
1011.331945	0.999366
1011.625508	0.997130
1011.919036	0.999123
1012.212528	0.999692
1012.505986	0.997782
1012.799408	0.998422
1013.092795	0.998585
1013.386147	0.998284
1013.679464	0.999329
1013.972745	0.999013
1014.265992	0.997702
1014.559204	0.998783
1014.852380	0.998937
1015.145521	0.999788
1015.438628	0.998803
1015.731699	0.999703
1016.024736	0.999128
1016.317737	0.997621
1016.610703	0.998875
1016.903635	1.000817
1017.196531	0.998204
1017.489393	1.000388
1017.782219	0.998806
1018.075011	0.998906
1018.367768	0.999501
1018.660490	0.999744
1018.953177	0.999744
1019.245829	0.999744
