Dividing Wavelength (nm)	Counts (n)	Blue Motor Position (mm): 0.000000	Red Motor Position (mm): 25.400000	
326.493990	1.000857
326.888308	1.000857
327.282561	1.000857
327.676750	0.998522
328.070874	0.999039
328.464933	0.998681
328.858929	0.999493
329.252859	0.998714
329.646726	0.999708
330.040528	0.999830
330.434265	0.998769
330.827938	1.000683
331.221547	0.999914
331.615091	1.000458
332.008571	0.999620
332.401986	0.999108
332.795338	0.999723
333.188625	0.997558
333.581847	1.000427
333.975006	0.999449
334.368100	0.999266
334.761129	1.000171
335.154095	1.000173
335.546996	0.997987
335.939833	0.993241
336.332606	0.993684
336.725315	0.994682
337.117960	0.996474
337.510540	0.994174
337.903056	0.994845
338.295508	0.993428
338.687896	0.995010
339.080220	0.995797
339.472480	0.994241
339.864676	0.994179
340.256807	0.994550
340.648875	0.995987
341.040879	0.995686
341.432818	0.994004
341.824694	0.993763
342.216506	0.995380
342.608253	0.995890
342.999937	0.993719
343.391557	0.995011
343.783113	0.994853
344.174605	0.994580
344.566033	0.996579
344.957397	0.993308
345.348697	0.994638
345.739934	0.994064
346.131106	0.994872
346.522215	0.993594
346.913260	0.994971
347.304241	0.994508
347.695159	0.993868
348.086012	0.992680
348.476802	0.994567
348.867528	0.993879
349.258191	0.992594
349.648789	0.994603
350.039324	0.995105
350.429796	0.995636
350.820203	0.994658
351.210548	0.994290
351.600828	0.993003
351.991045	0.994956
352.381198	0.994373
352.771288	0.995177
353.161314	0.994076
353.551276	0.996096
353.941175	0.995819
354.331010	0.994025
354.720782	0.995133
355.110490	0.994364
355.500135	0.994560
355.889717	0.993586
356.279235	0.993803
356.668689	0.994566
357.058080	0.994388
357.447408	0.994933
357.836672	0.995341
358.225873	0.994728
358.615010	0.995195
359.004084	0.994944
359.393095	0.994453
359.782043	0.994542
360.170927	0.995048
360.559748	0.996159
360.948505	0.992959
361.337199	0.992610
361.725830	0.994197
362.114398	0.993742
362.502903	0.995532
362.891344	0.995208
363.279722	0.994512
363.668037	0.994698
364.056289	0.994189
364.444478	0.995375
364.832603	0.995059
365.220665	0.994234
365.608665	0.995063
365.996601	0.994668
366.384474	0.995001
366.772284	0.994242
367.160031	0.993527
367.547715	0.993997
367.935336	0.994832
368.322893	0.993707
368.710388	0.993887
369.097820	0.994922
369.485189	0.994652
369.872495	0.994033
370.259738	0.992890
370.646918	0.995171
371.034035	0.995035
371.421090	0.994399
371.808081	0.994403
372.195010	0.994575
372.581875	0.994600
372.968678	0.994376
373.355418	0.994355
373.742096	0.995309
374.128710	0.996237
374.515262	0.994470
374.901751	0.995081
375.288177	0.994982
375.674540	0.995986
376.060841	0.993453
376.447079	0.994445
376.833254	0.995556
377.219367	0.994955
377.605417	0.995285
377.991404	0.995441
378.377329	0.993317
378.763191	0.994951
379.148991	0.995258
379.534727	0.995334
379.920402	0.995074
380.306013	0.996015
380.691563	0.996013
381.077049	0.994314
381.462474	0.995471
381.847835	0.996104
382.233134	0.995424
382.618371	0.995235
383.003545	0.996164
383.388657	0.995657
383.773706	0.996369
384.158693	0.995921
384.543618	0.995855
384.928480	0.996751
385.313280	0.995153
385.698017	0.996011
386.082692	0.996427
386.467305	0.996933
386.851856	0.995630
387.236344	0.994942
387.620770	0.994354
388.005133	0.995673
388.389435	0.996711
388.773674	0.996289
389.157851	0.996894
389.541965	0.995938
389.926018	0.995084
390.310008	0.997548
390.693936	0.995945
391.077802	0.995498
391.461606	0.996113
391.845348	0.996633
392.229027	0.997192
392.612645	0.996751
392.996200	0.997296
393.379694	0.995492
393.763125	0.996998
394.146494	0.996576
394.529801	0.995471
394.913047	0.996836
395.296230	0.996569
395.679351	0.995353
396.062410	0.996045
396.445408	0.997026
396.828343	0.995972
397.211217	0.996447
397.594028	0.996797
397.976778	0.996191
398.359466	0.995349
398.742092	0.995996
399.124656	0.995851
399.507158	0.996129
399.889598	0.996418
400.271977	0.996959
400.654294	0.996899
401.036549	0.996686
401.418742	0.997192
401.800874	0.995551
402.182944	0.997229
402.564952	0.996873
402.946898	0.996725
403.328783	0.996053
403.710606	0.996498
404.092367	0.996381
404.474067	0.996951
404.855705	0.995709
405.237282	0.996600
405.618797	0.996319
406.000250	0.996236
406.381642	0.997132
406.762972	0.996757
407.144240	0.997602
407.525447	0.997011
407.906593	0.996313
408.287677	0.997049
408.668700	0.996706
409.049661	0.995926
409.430560	0.997380
409.811399	0.996443
410.192176	0.996353
410.572891	0.996417
410.953545	0.996454
411.334138	0.996036
411.714669	0.997097
412.095139	0.996209
412.475547	0.997135
412.855894	0.996395
413.236180	0.996957
413.616405	0.998038
413.996568	0.996456
414.376670	0.996473
414.756711	0.995751
415.136691	0.996995
415.516609	0.996981
415.896466	0.996224
416.276262	0.995935
416.655997	0.997690
417.035670	0.995751
417.415283	0.996657
417.794834	0.996174
418.174324	0.996941
418.553753	0.997165
418.933121	0.996730
419.312428	0.996025
419.691674	0.996491
420.070859	0.997466
420.449983	0.997178
420.829045	0.996773
421.208047	0.996704
421.586988	0.997752
421.965867	0.996370
422.344686	0.997439
422.723444	0.996958
423.102141	0.996691
423.480777	0.996237
423.859352	0.995817
424.237866	0.996733
424.616319	0.997416
424.994712	0.996015
425.373044	0.996804
425.751314	0.996875
426.129524	0.995963
426.507673	0.996636
426.885762	0.997624
427.263789	0.996633
427.641756	0.996813
428.019662	0.997462
428.397508	0.995888
428.775292	0.995978
429.153016	0.996133
429.530679	0.996436
429.908282	0.997181
430.285824	0.996065
430.663305	0.995471
431.040726	0.996389
431.418086	0.997252
431.795385	0.996222
432.172624	0.995508
432.549802	0.995867
432.926920	0.995932
433.303977	0.994933
433.680974	0.995370
434.057910	0.994305
434.434786	0.994598
434.811601	0.993629
435.188355	0.993071
435.565050	0.992191
435.941683	0.992149
436.318257	0.991968
436.694770	0.990723
437.071222	0.990319
437.447614	0.990083
437.823946	0.988782
438.200218	0.987733
438.576429	0.986610
438.952580	0.985493
439.328670	0.984069
439.704700	0.982853
440.080670	0.981577
440.456580	0.979034
440.832429	0.976669
441.208218	0.976568
441.583947	0.974344
441.959616	0.972169
442.335224	0.969802
442.710773	0.968990
443.086261	0.965346
443.461689	0.963199
443.837057	0.960216
444.212365	0.957460
444.587612	0.954740
444.962800	0.951202
445.337927	0.949146
445.712995	0.947394
446.088002	0.941141
446.462949	0.938376
446.837837	0.934530
447.212664	0.931009
447.587431	0.924268
447.962139	0.915480
448.336786	0.904911
448.711374	0.902317
449.085901	0.904057
449.460369	0.901398
449.834776	0.895389
450.209124	0.886567
450.583412	0.877987
450.957640	0.873396
451.331808	0.869132
451.705917	0.867458
452.079965	0.862154
452.453954	0.853088
452.827883	0.848787
453.201752	0.841858
453.575562	0.837866
453.949311	0.827117
454.323001	0.822912
454.696632	0.814115
455.070202	0.803617
455.443713	0.794897
455.817164	0.786261
456.190556	0.776795
456.563888	0.767459
456.937160	0.759757
457.310373	0.758257
457.683526	0.749814
458.056619	0.743835
458.429653	0.736118
458.802628	0.729751
459.175542	0.719311
459.548398	0.703314
459.921194	0.692492
460.293930	0.684839
460.666607	0.663702
461.039224	0.649790
461.411782	0.640500
461.784280	0.631026
462.156719	0.625109
462.529099	0.618736
462.901419	0.618340
463.273680	0.612666
463.645882	0.604199
464.018024	0.598454
464.390106	0.586635
464.762130	0.569901
465.134094	0.552085
465.505999	0.526890
465.877845	0.501717
466.249631	0.485355
466.621358	0.480320
466.993026	0.478935
467.364634	0.474337
467.736184	0.471933
468.107674	0.470184
468.479105	0.461339
468.850477	0.460027
469.221790	0.457191
469.593043	0.457565
469.964238	0.453605
470.335373	0.446331
470.706449	0.438488
471.077467	0.433793
471.448425	0.397781
471.819324	0.373164
472.190164	0.366730
472.560945	0.384358
472.931667	0.396046
473.302330	0.394351
473.672934	0.399381
474.043479	0.384418
474.413965	0.381303
474.784393	0.379828
475.154761	0.370650
475.525070	0.363822
475.895321	0.365112
476.265513	0.355874
476.635645	0.348338
477.005719	0.344178
477.375734	0.337669
477.745691	0.328035
478.115588	0.321271
478.485427	0.312087
478.855207	0.297714
479.224928	0.278964
479.594591	0.265312
479.964194	0.265001
480.333739	0.262835
480.703226	0.261008
481.072653	0.257501
481.442022	0.251458
481.811333	0.246203
482.180584	0.247424
482.549777	0.250049
482.918912	0.251783
483.287988	0.249711
483.657005	0.247907
484.025964	0.252381
484.394864	0.248094
484.763706	0.247702
485.132489	0.251066
485.501213	0.250722
485.869879	0.248240
486.238487	0.250677
486.607036	0.247305
486.975527	0.250994
487.343959	0.246435
487.712333	0.244705
488.080648	0.245745
488.448905	0.243943
488.817104	0.244648
489.185244	0.239045
489.553326	0.235337
489.921350	0.224827
490.289315	0.207234
490.657222	0.201947
491.025070	0.202912
491.392861	0.204358
491.760593	0.209777
492.128267	0.215470
492.495883	0.220627
492.863440	0.226270
493.230939	0.232507
493.598380	0.233511
493.965763	0.235597
494.333088	0.237669
494.700354	0.238959
495.067563	0.237799
495.434713	0.240856
495.801805	0.238767
496.168839	0.239967
496.535815	0.241223
496.902733	0.240937
497.269593	0.242700
497.636395	0.240433
498.003139	0.240546
498.369825	0.243371
498.736453	0.239722
499.103023	0.241122
499.469535	0.240367
499.835989	0.240788
500.202385	0.241500
500.568723	0.244747
500.935003	0.239997
501.301226	0.243906
501.667390	0.238348
502.033497	0.236567
502.399546	0.239353
502.765537	0.240980
503.131470	0.239266
503.497345	0.235633
503.863163	0.244303
504.228923	0.237074
504.594625	0.235779
504.960269	0.241382
505.325856	0.236629
505.691385	0.240877
506.056856	0.237286
506.422270	0.236952
506.787625	0.239409
507.152924	0.236676
507.518164	0.237309
507.883347	0.238569
508.248472	0.240323
508.613540	0.235246
508.978550	0.237962
509.343503	0.238220
509.708398	0.235914
510.073236	0.233490
510.438016	0.233566
510.802738	0.234500
511.167403	0.233462
511.532010	0.235222
511.896561	0.230684
512.261053	0.229714
512.625488	0.231818
512.989866	0.232058
513.354186	0.232244
513.718449	0.234139
514.082655	0.230248
514.446803	0.232645
514.810894	0.230089
515.174927	0.232865
515.538904	0.232208
515.902822	0.229325
516.266684	0.231565
516.630488	0.232702
516.994235	0.231810
517.357925	0.230305
517.721558	0.228861
518.085133	0.228116
518.448651	0.228219
518.812112	0.230484
519.175516	0.230054
519.538863	0.227732
519.902152	0.229258
520.265385	0.226163
520.628560	0.227772
520.991678	0.228495
521.354739	0.227207
521.717743	0.228742
522.080690	0.229044
522.443580	0.226175
522.806413	0.227163
523.169189	0.226507
523.531908	0.225062
523.894569	0.229015
524.257174	0.228914
524.619722	0.226527
524.982213	0.227753
525.344647	0.226629
525.707025	0.227286
526.069345	0.225486
526.431608	0.227105
526.793815	0.225019
527.155964	0.229301
527.518057	0.228163
527.880093	0.229418
528.242072	0.227725
528.603995	0.229874
528.965860	0.231404
529.327669	0.230630
529.689421	0.231219
530.051117	0.232032
530.412755	0.229670
530.774337	0.232128
531.135862	0.232255
531.497331	0.231830
531.858743	0.234790
532.220098	0.231286
532.581396	0.233808
532.942638	0.234678
533.303824	0.235589
533.664953	0.235104
534.026025	0.236931
534.387040	0.234902
534.747999	0.234858
535.108902	0.233450
535.469748	0.238610
535.830537	0.236464
536.191270	0.236737
536.551947	0.236275
536.912567	0.236563
537.273131	0.238227
537.633638	0.238464
537.994089	0.238751
538.354483	0.239866
538.714821	0.236827
539.075103	0.236561
539.435328	0.237543
539.795497	0.240945
540.155609	0.237580
540.515665	0.235755
540.875665	0.241425
541.235609	0.240092
541.595496	0.240177
541.955328	0.236456
542.315102	0.239254
542.674821	0.240223
543.034483	0.240353
543.394090	0.239803
543.753640	0.242098
544.113134	0.236850
544.472571	0.240248
544.831953	0.237205
545.191278	0.241107
545.550548	0.240596
545.909761	0.237514
546.268918	0.238241
546.628019	0.236602
546.987064	0.239276
547.346053	0.241101
547.704986	0.238829
548.063863	0.239274
548.422684	0.239207
548.781449	0.241177
549.140158	0.238739
549.498811	0.241639
549.857408	0.245128
550.215949	0.239849
550.574434	0.242728
550.932864	0.240730
551.291237	0.239427
551.649555	0.240844
552.007817	0.240589
552.366022	0.241112
552.724173	0.241634
553.082267	0.241987
553.440305	0.238811
553.798288	0.243079
554.156215	0.239816
554.514086	0.240412
554.871902	0.243509
555.229661	0.242674
555.587365	0.243383
555.945014	0.245726
556.302606	0.242769
556.660143	0.245229
557.017625	0.241784
557.375050	0.244080
557.732421	0.241238
558.089735	0.243110
558.446994	0.243128
558.804197	0.242425
559.161345	0.242357
559.518437	0.245747
559.875474	0.243415
560.232455	0.242857
560.589381	0.243847
560.946251	0.244060
561.303065	0.241862
561.659825	0.243264
562.016528	0.244824
562.373177	0.247528
562.729770	0.244710
563.086307	0.246878
563.442789	0.244770
563.799216	0.247710
564.155587	0.246316
564.511904	0.247454
564.868164	0.247713
565.224370	0.247393
565.580520	0.249261
565.936615	0.249000
566.292654	0.252002
566.648638	0.248898
567.004567	0.249905
567.360441	0.250345
567.716260	0.252515
568.072023	0.250273
568.427732	0.250887
568.783385	0.253589
569.138982	0.251558
569.494525	0.251030
569.850013	0.254152
570.205445	0.252623
570.560823	0.255105
570.916145	0.257016
571.271412	0.255318
571.626625	0.256732
571.981782	0.257383
572.336884	0.258067
572.691931	0.258055
573.046923	0.259182
573.401860	0.260250
573.756743	0.262036
574.111570	0.260704
574.466342	0.261527
574.821059	0.260502
575.175722	0.263358
575.530330	0.263083
575.884882	0.263324
576.239380	0.265231
576.593823	0.265708
576.948211	0.265385
577.302544	0.268607
577.656823	0.268376
578.011047	0.268349
578.365216	0.268875
578.719330	0.270778
579.073389	0.270542
579.427394	0.272224
579.781344	0.272591
580.135239	0.274351
580.489080	0.273864
580.842866	0.276899
581.196597	0.277260
581.550273	0.275458
581.903895	0.276411
582.257463	0.274382
582.610975	0.278114
582.964434	0.277149
583.317837	0.279725
583.671186	0.280070
584.024481	0.280073
584.377721	0.282634
584.730906	0.283696
585.084037	0.282444
585.437113	0.284160
585.790135	0.283825
586.143103	0.286600
586.496016	0.287891
586.848874	0.285308
587.201679	0.286146
587.554428	0.289504
587.907124	0.287927
588.259765	0.288947
588.612352	0.289344
588.964884	0.292948
589.317362	0.292742
589.669786	0.292790
590.022155	0.291480
590.374470	0.290689
590.726731	0.292642
591.078937	0.297310
591.431090	0.293722
591.783188	0.297741
592.135232	0.298231
592.487222	0.298282
592.839157	0.296548
593.191038	0.298654
593.542866	0.300528
593.894639	0.304082
594.246358	0.302205
594.598022	0.301736
594.949633	0.305190
595.301190	0.305892
595.652692	0.305107
596.004141	0.301462
596.355535	0.309677
596.706876	0.310054
597.058162	0.312481
597.409395	0.309833
597.760573	0.307622
598.111698	0.309984
598.462768	0.310708
598.813785	0.312368
599.164748	0.313358
599.515657	0.314096
599.866511	0.317400
600.217312	0.312677
600.568060	0.317626
600.918753	0.314181
601.269392	0.314843
601.619978	0.318758
601.970510	0.316480
602.320988	0.315968
602.671412	0.313898
603.021783	0.316387
603.372100	0.318112
603.722363	0.317524
604.072572	0.318368
604.422728	0.317987
604.772830	0.319866
605.122878	0.319451
605.472872	0.320354
605.822813	0.318862
606.172701	0.321661
606.522534	0.318568
606.872314	0.318590
607.222041	0.319539
607.571714	0.317787
607.921333	0.319036
608.270899	0.318677
608.620411	0.315754
608.969870	0.319702
609.319276	0.320101
609.668627	0.319445
610.017926	0.318104
610.367171	0.316378
610.716362	0.317225
611.065500	0.317584
611.414585	0.316431
611.763616	0.316977
612.112594	0.317243
612.461518	0.316844
612.810389	0.314332
613.159207	0.316764
613.507971	0.318308
613.856682	0.314333
614.205340	0.316042
614.553945	0.312574
614.902496	0.316570
615.250994	0.314287
615.599439	0.315393
615.947830	0.314920
616.296169	0.315781
616.644454	0.315375
616.992686	0.315370
617.340864	0.312804
617.688990	0.316931
618.037063	0.313137
618.385082	0.315480
618.733048	0.312129
619.080961	0.314446
619.428821	0.313723
619.776628	0.313476
620.124382	0.315502
620.472083	0.315790
620.819731	0.314908
621.167326	0.318985
621.514868	0.318904
621.862357	0.322993
622.209793	0.322424
622.557176	0.324532
622.904506	0.325912
623.251783	0.328170
623.599007	0.330581
623.946179	0.330078
624.293297	0.331829
624.640363	0.335791
624.987376	0.336068
625.334336	0.338789
625.681243	0.341076
626.028097	0.341405
626.374899	0.342943
626.721647	0.342764
627.068343	0.346025
627.414987	0.347533
627.761577	0.349212
628.108115	0.347934
628.454600	0.352799
628.801032	0.350029
629.147412	0.352338
629.493739	0.352825
629.840014	0.355371
630.186236	0.353334
630.532405	0.358392
630.878521	0.356026
631.224585	0.358081
631.570597	0.361836
631.916556	0.360417
632.262462	0.360171
632.608316	0.362682
632.954117	0.363516
633.299866	0.364424
633.645562	0.365041
633.991206	0.369329
634.336797	0.372054
634.682336	0.374279
635.027823	0.375536
635.373257	0.376367
635.718639	0.379895
636.063968	0.378790
636.409245	0.385024
636.754470	0.385147
637.099642	0.387851
637.444762	0.391012
637.789829	0.390156
638.134845	0.393681
638.479808	0.394300
638.824719	0.394177
639.169577	0.398569
639.514383	0.397148
639.859137	0.401284
640.203839	0.401513
640.548489	0.401702
640.893086	0.403115
641.237632	0.405122
641.582125	0.402922
641.926566	0.404201
642.270955	0.405317
642.615292	0.405147
642.959576	0.404246
643.303809	0.404637
643.647990	0.404610
643.992118	0.404809
644.336195	0.408553
644.680219	0.406714
645.024192	0.408063
645.368112	0.400901
645.711981	0.399733
646.055797	0.395412
646.399562	0.397899
646.743274	0.389743
647.086935	0.387448
647.430544	0.387777
647.774101	0.386529
648.117606	0.385914
648.461059	0.386046
648.804460	0.389124
649.147810	0.394225
649.491108	0.395956
649.834354	0.397772
650.177548	0.402961
650.520690	0.408141
650.863781	0.409358
651.206820	0.408516
651.549807	0.413517
651.892742	0.416924
652.235626	0.416885
652.578458	0.417632
652.921238	0.423890
653.263967	0.421796
653.606644	0.425755
653.949269	0.425057
654.291843	0.429027
654.634365	0.425517
654.976836	0.428375
655.319255	0.429636
655.661622	0.430872
656.003938	0.430835
656.346203	0.433567
656.688416	0.431332
657.030577	0.434765
657.372687	0.436702
657.714746	0.437473
658.056753	0.434826
658.398708	0.438705
658.740612	0.439702
659.082465	0.436183
659.424266	0.436534
659.766016	0.435770
660.107715	0.438515
660.449362	0.437057
660.790958	0.437955
661.132503	0.438718
661.473996	0.436247
661.815438	0.437313
662.156829	0.437295
662.498168	0.437640
662.839456	0.439560
663.180693	0.437147
663.521879	0.437111
663.863013	0.438077
664.204097	0.436766
664.545129	0.433571
664.886110	0.433738
665.227040	0.431677
665.567918	0.433970
665.908746	0.432087
666.249522	0.431148
666.590248	0.432612
666.930922	0.431034
667.271545	0.429433
667.612118	0.430010
667.952639	0.431490
668.293109	0.429814
668.633528	0.432833
668.973896	0.432728
669.314213	0.432841
669.654480	0.434890
669.994695	0.435263
670.334859	0.435904
670.674973	0.436116
671.015035	0.436234
671.355047	0.435919
671.695008	0.437114
672.034918	0.438944
672.374777	0.438518
672.714585	0.439118
673.054342	0.439116
673.394049	0.439861
673.733705	0.437102
674.073310	0.438723
674.412864	0.441450
674.752368	0.442086
675.091820	0.441896
675.431223	0.446274
675.770574	0.446442
676.109875	0.449217
676.449125	0.449399
676.788324	0.451673
677.127473	0.457022
677.466571	0.456621
677.805619	0.458259
678.144616	0.459513
678.483562	0.461226
678.822458	0.464334
679.161303	0.464591
679.500098	0.465066
679.838842	0.466535
680.177535	0.466403
680.516179	0.465048
680.854771	0.463941
681.193314	0.457195
681.531805	0.448776
681.870247	0.437108
682.208638	0.429581
682.546978	0.428762
682.885268	0.430640
683.223508	0.437041
683.561697	0.440691
683.899836	0.443498
684.237925	0.446592
684.575963	0.448597
684.913951	0.452116
685.251889	0.447614
685.589776	0.450506
685.927614	0.452147
686.265401	0.446440
686.603137	0.448117
686.940824	0.441642
687.278460	0.440510
687.616046	0.439383
687.953582	0.434495
688.291068	0.436204
688.628504	0.431415
688.965889	0.433822
689.303224	0.437849
689.640510	0.441411
689.977745	0.447517
690.314930	0.455359
690.652065	0.459751
690.989150	0.467710
691.326185	0.474354
691.663170	0.478144
692.000105	0.485356
692.336990	0.491992
692.673825	0.495156
693.010610	0.502002
693.347345	0.507509
693.684030	0.508520
694.020665	0.514309
694.357251	0.522101
694.693786	0.522117
695.030272	0.525991
695.366707	0.529588
695.703093	0.533289
696.039429	0.531033
696.375716	0.532516
696.711952	0.535738
697.048139	0.536863
697.384276	0.538708
697.720363	0.537180
698.056400	0.536957
698.392388	0.542535
698.728326	0.545305
699.064214	0.548224
699.400053	0.549207
699.735842	0.552908
700.071581	0.555465
700.407270	0.557853
700.742910	0.560150
701.078501	0.567005
701.414042	0.567046
701.749533	0.570066
702.084974	0.578903
702.420366	0.570926
702.755709	0.579052
703.091002	0.586706
703.426246	0.580646
703.761440	0.585841
704.096584	0.590754
704.431679	0.587470
704.766725	0.590354
705.101721	0.590822
705.436668	0.587748
705.771565	0.595031
706.106413	0.591249
706.441212	0.586719
706.775961	0.585403
707.110661	0.588742
707.445311	0.584845
707.779913	0.581745
708.114465	0.580674
708.448967	0.576900
708.783421	0.569188
709.117825	0.563470
709.452180	0.563509
709.786485	0.557730
710.120742	0.547339
710.454949	0.550142
710.789107	0.541332
711.123216	0.533066
711.457275	0.534309
711.791286	0.524796
712.125247	0.524225
712.459159	0.535550
712.793023	0.528060
713.126837	0.531314
713.460602	0.532606
713.794318	0.541462
714.127985	0.540203
714.461602	0.550396
714.795171	0.553663
715.128691	0.561355
715.462162	0.568622
715.795584	0.573718
716.128957	0.577417
716.462281	0.583398
716.795556	0.587380
717.128782	0.592368
717.461960	0.601751
717.795088	0.600381
718.128167	0.605983
718.461198	0.614973
718.794180	0.615741
719.127113	0.618849
719.459997	0.622274
719.792833	0.627598
720.125619	0.629650
720.458357	0.635143
720.791046	0.634612
721.123686	0.638385
721.456278	0.645306
721.788821	0.642973
722.121315	0.646316
722.453761	0.650639
722.786158	0.649193
723.118506	0.645623
723.450805	0.653037
723.783056	0.649345
724.115259	0.646541
724.447412	0.645530
724.779518	0.647693
725.111574	0.646145
725.443582	0.642002
725.775542	0.644041
726.107453	0.635917
726.439315	0.635986
726.771129	0.633990
727.102895	0.628442
727.434612	0.620523
727.766281	0.618539
728.097901	0.618214
728.429473	0.617824
728.760996	0.616756
729.092471	0.616282
729.423897	0.620105
729.755276	0.618649
730.086606	0.619572
730.417887	0.613606
730.749120	0.604790
731.080305	0.595543
731.411442	0.592246
731.742530	0.596512
732.073570	0.595831
732.404562	0.588193
732.735506	0.589378
733.066401	0.594372
733.397249	0.603161
733.728048	0.614449
734.058798	0.626763
734.389501	0.638000
734.720156	0.647250
735.050762	0.655419
735.381320	0.656247
735.711831	0.665562
736.042293	0.670312
736.372707	0.666149
736.703073	0.671022
737.033391	0.673409
737.363661	0.670107
737.693883	0.665608
738.024056	0.664340
738.354182	0.664036
738.684260	0.653942
739.014290	0.649738
739.344272	0.650851
739.674207	0.643901
740.004093	0.643297
740.333931	0.643878
740.663722	0.644027
740.993464	0.644350
741.323159	0.647906
741.652806	0.653384
741.982405	0.658435
742.311956	0.661785
742.641460	0.664347
742.970915	0.668284
743.300323	0.676203
743.629683	0.682082
743.958996	0.685128
744.288260	0.688904
744.617477	0.694448
744.946647	0.696259
745.275768	0.701399
745.604842	0.701375
745.933869	0.711800
746.262847	0.711833
746.591778	0.705960
746.920662	0.711534
747.249498	0.718306
747.578286	0.708996
747.907027	0.704932
748.235720	0.706778
748.564365	0.701361
748.892963	0.700746
749.221514	0.703780
749.550017	0.709229
749.878473	0.708768
750.206881	0.714681
750.535242	0.716079
750.863555	0.715395
751.191821	0.717312
751.520039	0.720198
751.848210	0.725810
752.176334	0.717754
752.504411	0.716935
752.832440	0.724814
753.160421	0.728761
753.488356	0.727281
753.816243	0.724784
754.144082	0.734048
754.471875	0.736450
754.799620	0.731792
755.127318	0.733142
755.454969	0.732717
755.782572	0.732728
756.110129	0.737538
756.437638	0.740753
756.765100	0.737053
757.092515	0.735088
757.419882	0.733445
757.747203	0.738348
758.074477	0.737541
758.401703	0.735145
758.728882	0.731087
759.056014	0.729281
759.383099	0.728929
759.710138	0.729716
760.037129	0.726503
760.364073	0.720141
760.690970	0.722651
761.017820	0.727165
761.344623	0.723721
761.671379	0.714835
761.998088	0.703007
762.324751	0.680070
762.651366	0.639201
762.977935	0.572456
763.304456	0.520651
763.630931	0.511011
763.957359	0.549589
764.283740	0.594632
764.610074	0.621288
764.936362	0.652209
765.262602	0.679729
765.588796	0.700144
765.914943	0.718698
766.241044	0.735743
766.567097	0.742443
766.893104	0.751620
767.219064	0.758718
767.544978	0.764837
767.870845	0.777591
768.196665	0.782263
768.522438	0.779907
768.848165	0.781477
769.173846	0.790343
769.499479	0.794351
769.825066	0.798087
770.150607	0.803440
770.476101	0.797716
770.801548	0.799657
771.126949	0.811481
771.452303	0.814894
771.777611	0.813434
772.102872	0.812155
772.428087	0.818160
772.753256	0.821097
773.078378	0.823548
773.403453	0.832131
773.728482	0.836244
774.053465	0.830388
774.378401	0.833747
774.703291	0.841479
775.028135	0.841866
775.352932	0.844168
775.677683	0.846633
776.002388	0.847223
776.327046	0.846236
776.651658	0.849558
776.976224	0.852297
777.300743	0.852854
777.625216	0.855174
777.949643	0.856737
778.274024	0.856820
778.598359	0.858150
778.922647	0.857186
779.246889	0.857146
779.571086	0.862009
779.895236	0.864225
780.219339	0.861460
780.543397	0.859180
780.867409	0.856621
781.191374	0.858576
781.515294	0.861038
781.839167	0.858989
782.162995	0.863109
782.486776	0.858987
782.810511	0.860765
783.134201	0.865232
783.457844	0.861763
783.781441	0.864659
784.104993	0.869860
784.428498	0.871600
784.751958	0.866385
785.075372	0.868380
785.398739	0.871412
785.722061	0.868328
786.045337	0.864933
786.368568	0.869367
786.691752	0.871646
787.014891	0.857458
787.337983	0.849032
787.661030	0.841752
787.984031	0.823493
788.306987	0.811314
788.629897	0.813280
788.952760	0.818473
789.275579	0.821859
789.598351	0.837350
789.921078	0.849155
790.243759	0.851288
790.566395	0.856847
790.888984	0.863574
791.211529	0.868733
791.534027	0.872379
791.856480	0.874455
792.178888	0.878973
792.501249	0.881983
792.823566	0.883074
793.145836	0.883113
793.468062	0.885716
793.790241	0.885297
794.112375	0.883392
794.434464	0.879034
794.756507	0.878042
795.078505	0.877819
795.400457	0.872530
795.722364	0.859964
796.044226	0.853202
796.366042	0.852114
796.687812	0.856581
797.009538	0.852168
797.331218	0.854440
797.652852	0.860243
797.974442	0.864152
798.295986	0.864581
798.617484	0.866092
798.938938	0.871208
799.260346	0.876086
799.581709	0.877389
799.903026	0.880480
800.224299	0.880963
800.545526	0.884605
800.866708	0.889555
801.187845	0.892663
801.508936	0.892728
801.829983	0.890663
802.150984	0.892892
802.471940	0.897087
802.792851	0.898375
803.113717	0.897860
803.434538	0.896372
803.755314	0.898608
804.076045	0.900732
804.396731	0.899806
804.717372	0.900014
805.037967	0.901821
805.358518	0.899478
805.679024	0.897260
805.999485	0.897251
806.319901	0.897218
806.640272	0.898868
806.960598	0.896048
807.280879	0.893256
807.601115	0.892466
807.921306	0.895592
808.241453	0.895573
808.561554	0.894259
808.881611	0.894913
809.201623	0.896504
809.521590	0.896686
809.841513	0.897572
810.161390	0.897012
810.481223	0.898780
810.801011	0.901275
811.120755	0.903133
811.440453	0.901264
811.760107	0.900594
812.079716	0.900027
812.399281	0.905230
812.718801	0.907074
813.038276	0.907710
813.357707	0.907372
813.677093	0.903251
813.996434	0.907179
814.315731	0.908390
814.634983	0.910135
814.954191	0.908159
815.273354	0.905511
815.592473	0.900970
815.911547	0.902066
816.230577	0.899257
816.549562	0.897202
816.868502	0.897184
817.187399	0.892747
817.506250	0.888719
817.825058	0.890145
818.143821	0.886671
818.462539	0.880659
818.781213	0.873774
819.099843	0.863148
819.418429	0.846611
819.736970	0.830463
820.055466	0.810126
820.373919	0.785338
820.692327	0.752316
821.010691	0.717838
821.329011	0.641748
821.647286	0.527373
821.965517	0.413795
822.283704	0.371083
822.601847	0.372620
822.919945	0.408756
823.237999	0.441857
823.556010	0.488016
823.873976	0.543986
824.191897	0.593602
824.509775	0.636406
824.827609	0.681577
825.145398	0.703498
825.463144	0.706207
825.780845	0.689522
826.098502	0.670475
826.416116	0.625140
826.733685	0.581708
827.051210	0.573481
827.368692	0.588014
827.686129	0.624770
828.003522	0.677628
828.320872	0.724402
828.638177	0.766936
828.955439	0.801207
829.272656	0.823318
829.589830	0.839395
829.906960	0.855164
830.224046	0.867660
830.541088	0.876710
830.858086	0.882035
831.175041	0.888016
831.491952	0.886476
831.808819	0.884492
832.125642	0.877387
832.442421	0.862774
832.759157	0.841607
833.075849	0.794953
833.392497	0.731599
833.709101	0.691054
834.025662	0.700407
834.342179	0.733110
834.658653	0.771419
834.975083	0.807168
835.291469	0.832614
835.607811	0.854329
835.924110	0.871325
836.240366	0.887886
836.556578	0.901676
836.872746	0.909709
837.188871	0.915176
837.504952	0.920550
837.820990	0.924653
838.136984	0.926827
838.452935	0.930157
838.768842	0.932438
839.084706	0.925261
839.400526	0.899849
839.716303	0.858985
840.032037	0.836494
840.347727	0.841069
840.663373	0.859178
840.978977	0.881331
841.294537	0.902445
841.610054	0.918244
841.925527	0.926587
842.240957	0.932633
842.556344	0.940798
842.871687	0.946394
843.186987	0.950677
843.502244	0.951209
843.817458	0.950592
844.132629	0.955134
844.447756	0.960707
844.762840	0.961133
845.077881	0.961016
845.392879	0.959756
845.707833	0.961332
846.022745	0.965526
846.337613	0.964841
846.652438	0.965734
846.967221	0.965047
847.281960	0.965816
847.596656	0.967339
847.911309	0.965745
848.225919	0.967589
848.540485	0.968044
848.855009	0.969848
849.169490	0.968295
849.483928	0.969097
849.798323	0.969102
850.112675	0.969926
850.426984	0.969621
850.741251	0.971109
851.055474	0.970545
851.369654	0.967643
851.683792	0.969975
851.997887	0.969872
852.311938	0.970189
852.625947	0.969578
852.939914	0.968390
853.253837	0.969849
853.567718	0.970557
853.881555	0.970505
854.195350	0.968578
854.509103	0.968896
854.822812	0.970098
855.136479	0.970187
855.450103	0.970077
855.763685	0.968760
856.077224	0.968623
856.390720	0.970688
856.704173	0.969589
857.017584	0.969122
857.330953	0.966648
857.644278	0.967464
857.957561	0.969222
858.270802	0.968049
858.584000	0.967082
858.897155	0.965947
859.210268	0.967617
859.523339	0.968553
859.836367	0.969032
860.149352	0.971091
860.462295	0.968483
860.775195	0.970575
861.088054	0.968359
861.400869	0.969041
861.713642	0.970335
862.026373	0.971247
862.339062	0.971154
862.651708	0.967073
862.964312	0.967735
863.276873	0.969291
863.589392	0.968213
863.901869	0.966602
864.214303	0.964328
864.526696	0.964275
864.839045	0.963763
865.151353	0.962807
865.463619	0.962904
865.775842	0.963454
866.088023	0.962622
866.400162	0.962087
866.712258	0.962202
867.024313	0.962801
867.336325	0.963103
867.648296	0.963528
867.960224	0.963060
868.272110	0.962289
868.583954	0.963748
868.895755	0.964340
869.207515	0.961904
869.519233	0.959975
869.830909	0.961887
870.142542	0.962392
870.454134	0.962561
870.765684	0.961189
871.077191	0.956920
871.388657	0.958514
871.700081	0.958111
872.011463	0.958076
872.322803	0.958380
872.634101	0.956850
872.945357	0.954576
873.256571	0.953602
873.567744	0.953043
873.878874	0.953948
874.189963	0.952966
874.501010	0.951506
874.812015	0.950248
875.122979	0.952128
875.433900	0.954073
875.744780	0.954087
876.055618	0.951771
876.366415	0.949897
876.677169	0.950314
876.987882	0.952190
877.298554	0.951761
877.609183	0.947479
877.919771	0.945328
878.230317	0.942478
878.540822	0.940971
878.851285	0.935527
879.161707	0.927940
879.472087	0.916650
879.782425	0.899153
880.092722	0.865641
880.402977	0.814513
880.713191	0.755168
881.023363	0.697123
881.333494	0.663118
881.643583	0.635461
881.953631	0.635339
882.263637	0.663527
882.573602	0.702923
882.883526	0.728939
883.193408	0.751346
883.503248	0.773669
883.813048	0.800279
884.122806	0.830035
884.432522	0.852354
884.742197	0.871990
885.051831	0.882138
885.361424	0.892250
885.670975	0.903528
885.980485	0.914889
886.289954	0.919967
886.599382	0.925549
886.908768	0.929433
887.218113	0.934769
887.527417	0.939749
887.836680	0.942615
888.145901	0.944195
888.455082	0.945759
888.764221	0.951260
889.073319	0.953419
889.382376	0.953491
889.691392	0.953973
890.000366	0.952996
890.309300	0.953646
890.618193	0.953349
890.927044	0.952673
891.235855	0.951942
891.544625	0.951961
891.853353	0.952040
892.162041	0.950031
892.470687	0.943322
892.779293	0.939707
893.087858	0.934047
893.396381	0.927687
893.704864	0.914758
894.013306	0.890983
894.321707	0.864768
894.630068	0.849557
894.938387	0.846615
895.246665	0.846894
895.554903	0.859539
895.863100	0.872148
896.171256	0.888461
896.479371	0.908110
896.787446	0.920700
897.095480	0.926529
897.403473	0.928601
897.711425	0.933779
898.019336	0.941458
898.327207	0.943522
898.635038	0.946181
898.942827	0.945692
899.250576	0.949117
899.558284	0.952805
899.865952	0.955465
900.173579	0.954728
900.481165	0.955302
900.788711	0.960820
901.096216	0.962329
901.403681	0.962682
901.711105	0.963508
902.018489	0.965325
902.325832	0.963207
902.633135	0.962500
902.940397	0.955576
903.247619	0.944271
903.554800	0.919268
903.861941	0.880261
904.169041	0.845799
904.476101	0.829048
904.783121	0.829339
905.090100	0.845322
905.397039	0.866163
905.703938	0.888261
906.010796	0.907418
906.317614	0.924057
906.624391	0.935535
906.931129	0.945422
907.237826	0.951159
907.544483	0.959665
907.851099	0.963135
908.157675	0.967576
908.464211	0.969951
908.770707	0.972524
909.077163	0.973899
909.383578	0.974471
909.689954	0.974183
909.996289	0.975750
910.302584	0.977862
910.608839	0.980133
910.915054	0.979340
911.221229	0.978225
911.527363	0.977339
911.833458	0.976885
912.139513	0.978023
912.445527	0.974850
912.751502	0.974975
913.057436	0.972775
913.363331	0.970789
913.669186	0.966512
913.975000	0.961651
914.280775	0.956473
914.586510	0.949569
914.892205	0.936135
915.197859	0.914769
915.503475	0.888035
915.809050	0.869025
916.114585	0.863922
916.420081	0.861582
916.725536	0.858780
917.030952	0.866262
917.336328	0.878819
917.641665	0.894741
917.946961	0.909085
918.252218	0.921692
918.557435	0.928748
918.862612	0.937439
919.167750	0.943593
919.472848	0.948493
919.777906	0.953870
920.082925	0.959354
920.387904	0.962596
920.692843	0.963229
920.997743	0.964224
921.302603	0.968306
921.607423	0.969647
921.912204	0.972282
922.216946	0.972217
922.521647	0.973840
922.826310	0.976517
923.130932	0.976398
923.435516	0.978752
923.740059	0.978812
924.044564	0.977391
924.349028	0.980591
924.653454	0.983208
924.957840	0.985228
925.262186	0.984027
925.566493	0.983898
925.870761	0.983683
926.174989	0.986685
926.479178	0.987327
926.783328	0.989319
927.087438	0.987690
927.391509	0.988499
927.695541	0.990264
927.999533	0.989636
928.303486	0.989642
928.607400	0.990918
928.911275	0.988783
929.215110	0.989420
929.518906	0.990860
929.822663	0.989302
930.126381	0.991762
930.430060	0.990849
930.733699	0.990621
931.037299	0.988651
931.340861	0.990815
931.644383	0.989631
931.947866	0.989399
932.251309	0.989996
932.554714	0.990596
932.858080	0.989698
933.161407	0.990295
933.464694	0.991052
933.767943	0.989576
934.071153	0.992432
934.374323	0.991138
934.677455	0.991536
934.980548	0.991120
935.283602	0.990524
935.586617	0.991932
935.889593	0.989581
936.192530	0.990590
936.495428	0.991214
936.798287	0.989617
937.101108	0.989222
937.403890	0.987537
937.706632	0.989275
938.009336	0.986895
938.312002	0.986282
938.614628	0.984176
938.917216	0.983592
939.219765	0.981727
939.522275	0.983164
939.824747	0.983099
940.127179	0.982177
940.429573	0.984759
940.731929	0.984308
941.034246	0.983852
941.336524	0.985428
941.638763	0.986193
941.940964	0.985806
942.243126	0.986768
942.545250	0.986852
942.847335	0.988675
943.149381	0.988537
943.451389	0.988587
943.753359	0.989105
944.055290	0.990823
944.357182	0.988994
944.659036	0.988527
944.960851	0.988790
945.262628	0.989026
945.564367	0.990348
945.866067	0.989319
946.167729	0.988905
946.469352	0.989620
946.770937	0.989393
947.072484	0.991467
947.373992	0.988619
947.675462	0.989845
947.976893	0.989979
948.278286	0.990107
948.579641	0.991337
948.880958	0.990165
949.182236	0.990801
949.483476	0.990990
949.784678	0.989741
950.085841	0.991436
950.386967	0.990759
950.688054	0.990531
950.989103	0.990868
951.290114	0.989561
951.591087	0.989293
951.892021	0.990188
952.192917	0.988405
952.493776	0.988082
952.794596	0.988007
953.095378	0.987678
953.396122	0.987196
953.696828	0.987213
953.997496	0.989402
954.298126	0.990847
954.598718	0.990745
954.899272	0.990478
955.199788	0.990053
955.500266	0.991839
955.800706	0.993271
956.101108	0.993206
956.401472	0.993530
956.701798	0.994846
957.002087	0.994192
957.302337	0.992855
957.602550	0.995624
957.902724	0.995351
958.202861	0.994602
958.502960	0.994914
958.803022	0.994417
959.103045	0.995403
959.403031	0.995593
959.702979	0.994815
960.002889	0.994987
960.302762	0.994339
960.602596	0.995133
960.902393	0.994485
961.202153	0.997392
961.501875	0.996947
961.801559	0.995008
962.101205	0.995304
962.400814	0.995502
962.700385	0.996410
962.999918	0.995824
963.299414	0.997728
963.598873	0.994399
963.898293	0.996202
964.197677	0.995457
964.497022	0.995898
964.796331	0.997237
965.095601	0.996306
965.394835	0.996842
965.694030	0.996726
965.993189	0.997802
966.292309	0.996237
966.591393	0.997430
966.890439	0.997358
967.189447	0.996629
967.488419	0.996990
967.787353	0.994946
968.086249	0.996720
968.385108	0.996048
968.683930	0.997090
968.982714	0.996352
969.281462	0.996829
969.580172	0.996365
969.878844	0.996526
970.177480	0.995834
970.476078	0.997433
970.774639	0.996166
971.073162	0.996289
971.371649	0.995770
971.670098	0.996029
971.968510	0.996768
972.266885	0.995013
972.565223	0.995353
972.863524	0.995833
973.161788	0.996251
973.460014	0.997036
973.758204	0.995748
974.056356	0.996787
974.354471	0.994774
974.652550	0.995340
974.950591	0.996096
975.248595	0.995837
975.546563	0.996274
975.844493	0.997130
976.142386	0.997075
976.440243	0.997380
976.738062	0.997426
977.035845	0.996372
977.333590	0.996843
977.631299	0.996836
977.928971	0.996698
978.226606	0.996839
978.524204	0.995860
978.821765	0.997368
979.119290	0.996186
979.416777	0.995637
979.714228	0.997240
980.011642	0.996005
980.309020	0.998048
980.606360	0.997413
980.903664	0.998337
981.200931	0.996513
981.498162	0.994614
981.795356	0.995241
982.092513	0.993430
982.389633	0.994863
982.686717	0.992079
982.983764	0.992122
983.280775	0.990171
983.577749	0.990288
983.874686	0.991755
984.171587	0.992547
984.468451	0.992547
984.765279	0.994523
985.062070	0.993790
985.358824	0.995552
985.655543	0.994570
985.952224	0.995117
986.248869	0.996027
986.545478	0.995878
986.842050	0.998377
987.138586	0.995629
987.435086	0.997804
987.731549	0.998045
988.027975	0.998397
988.324366	0.996311
988.620719	0.996878
988.917037	0.995924
989.213318	0.997793
989.509563	0.998079
989.805772	0.997271
990.101944	0.998617
990.398080	0.996596
990.694180	0.997857
990.990244	0.997940
991.286271	0.997973
991.582262	0.997681
991.878217	0.997560
992.174136	0.998944
992.470019	0.999240
992.765865	0.998904
993.061676	0.996990
993.357450	0.996924
993.653188	0.996754
993.948890	0.995906
994.244556	0.998071
994.540186	0.998115
994.835780	0.996827
995.131337	0.997098
995.426859	0.996559
995.722345	0.995877
996.017795	0.996956
996.313208	0.996396
996.608586	0.995302
996.903928	0.996587
997.199234	0.996083
997.494504	0.996371
997.789738	0.995715
998.084936	0.996029
998.380099	0.996823
998.675225	0.997773
998.970316	0.998538
999.265371	0.998469
999.560390	0.997178
999.855373	0.998429
1000.150320	0.996586
1000.445232	0.996998
1000.740108	0.996888
1001.034948	0.997638
1001.329752	0.998511
1001.624521	0.998412
1001.919254	0.997885
1002.213951	0.998088
1002.508613	0.997350
1002.803239	0.998804
1003.097829	0.998740
1003.392384	0.998976
1003.686903	0.999307
1003.981386	0.997144
1004.275834	1.000195
1004.570246	0.999069
1004.864623	0.998334
1005.158964	0.998840
1005.453270	0.998731
1005.747540	0.996852
1006.041775	0.998946
1006.335974	0.998713
1006.630138	0.998247
1006.924266	0.997933
1007.218359	0.999575
1007.512416	0.998373
1007.806438	0.999165
1008.100425	0.998176
1008.394376	0.998182
1008.688292	0.998071
1008.982172	1.000077
1009.276017	0.998665
1009.569827	0.998491
1009.863602	0.998765
1010.157341	0.999019
1010.451045	0.997995
1010.744714	0.998051
1011.038347	0.997888
1011.331945	0.997232
1011.625508	0.996503
1011.919036	0.998327
1012.212528	0.997592
1012.505986	0.996557
1012.799408	0.998244
1013.092795	0.999089
1013.386147	0.998512
1013.679464	0.998770
1013.972745	0.998289
1014.265992	0.996621
1014.559204	0.997964
1014.852380	0.999296
1015.145521	0.998805
1015.438628	0.999386
1015.731699	0.998608
1016.024736	0.998602
1016.317737	0.997940
1016.610703	0.998049
1016.903635	0.998751
1017.196531	0.997877
1017.489393	1.000182
1017.782219	0.998186
1018.075011	0.998189
1018.367768	0.999066
1018.660490	0.999160
1018.953177	0.999160
1019.245829	0.999160
