Dividing Wavelength (nm)	Counts (n)	Blue Motor Position (mm): 0.000000	Red Motor Position (mm): 23.600000	
326.493990	1.000505
326.888308	1.000505
327.282561	1.000505
327.676750	0.998589
328.070874	0.997978
328.464933	1.000144
328.858929	0.999101
329.252859	1.000937
329.646726	0.998982
330.040528	0.999318
330.434265	0.998824
330.827938	1.000267
331.221547	1.000766
331.615091	0.999383
332.008571	0.999114
332.401986	0.998960
332.795338	1.000779
333.188625	0.997891
333.581847	0.999766
333.975006	1.000095
334.368100	0.998388
334.761129	0.999426
335.154095	1.000257
335.546996	0.997825
335.939833	0.993842
336.332606	0.993947
336.725315	0.993923
337.117960	0.995245
337.510540	0.993820
337.903056	0.995531
338.295508	0.992187
338.687896	0.994075
339.080220	0.994715
339.472480	0.994258
339.864676	0.993620
340.256807	0.994623
340.648875	0.995267
341.040879	0.994298
341.432818	0.994655
341.824694	0.994344
342.216506	0.995159
342.608253	0.994535
342.999937	0.994289
343.391557	0.994866
343.783113	0.992630
344.174605	0.994918
344.566033	0.994672
344.957397	0.993146
345.348697	0.994001
345.739934	0.994278
346.131106	0.993554
346.522215	0.993335
346.913260	0.993503
347.304241	0.993555
347.695159	0.993568
348.086012	0.994288
348.476802	0.993375
348.867528	0.994198
349.258191	0.993125
349.648789	0.994508
350.039324	0.994962
350.429796	0.995755
350.820203	0.994333
351.210548	0.994382
351.600828	0.994570
351.991045	0.993847
352.381198	0.994292
352.771288	0.993626
353.161314	0.994496
353.551276	0.994592
353.941175	0.993165
354.331010	0.994637
354.720782	0.994851
355.110490	0.993261
355.500135	0.994734
355.889717	0.994209
356.279235	0.994105
356.668689	0.994403
357.058080	0.994951
357.447408	0.996287
357.836672	0.993396
358.225873	0.995306
358.615010	0.994352
359.004084	0.994149
359.393095	0.993577
359.782043	0.993830
360.170927	0.995005
360.559748	0.994805
360.948505	0.994219
361.337199	0.994268
361.725830	0.994647
362.114398	0.994148
362.502903	0.993849
362.891344	0.995106
363.279722	0.993740
363.668037	0.994950
364.056289	0.994103
364.444478	0.995413
364.832603	0.994308
365.220665	0.993879
365.608665	0.993546
365.996601	0.994812
366.384474	0.994108
366.772284	0.993901
367.160031	0.993264
367.547715	0.993376
367.935336	0.994952
368.322893	0.993495
368.710388	0.994149
369.097820	0.994340
369.485189	0.994294
369.872495	0.992978
370.259738	0.992930
370.646918	0.995202
371.034035	0.994165
371.421090	0.993929
371.808081	0.993491
372.195010	0.994678
372.581875	0.994910
372.968678	0.993741
373.355418	0.994276
373.742096	0.994261
374.128710	0.994987
374.515262	0.994553
374.901751	0.995048
375.288177	0.994646
375.674540	0.995311
376.060841	0.993907
376.447079	0.994804
376.833254	0.995336
377.219367	0.995517
377.605417	0.994947
377.991404	0.995220
378.377329	0.995093
378.763191	0.994124
379.148991	0.995991
379.534727	0.995684
379.920402	0.995533
380.306013	0.996201
380.691563	0.996101
381.077049	0.995872
381.462474	0.996677
381.847835	0.996069
382.233134	0.995890
382.618371	0.995661
383.003545	0.996337
383.388657	0.996024
383.773706	0.996688
384.158693	0.995896
384.543618	0.996899
384.928480	0.996150
385.313280	0.995765
385.698017	0.996250
386.082692	0.996983
386.467305	0.995986
386.851856	0.995968
387.236344	0.995311
387.620770	0.995289
388.005133	0.995484
388.389435	0.997416
388.773674	0.995551
389.157851	0.996056
389.541965	0.996555
389.926018	0.995616
390.310008	0.997883
390.693936	0.996441
391.077802	0.996267
391.461606	0.995989
391.845348	0.996529
392.229027	0.997052
392.612645	0.996725
392.996200	0.997688
393.379694	0.996212
393.763125	0.997390
394.146494	0.997271
394.529801	0.997438
394.913047	0.997538
395.296230	0.996365
395.679351	0.996965
396.062410	0.996872
396.445408	0.996934
396.828343	0.996758
397.211217	0.995520
397.594028	0.997416
397.976778	0.996764
398.359466	0.996329
398.742092	0.996269
399.124656	0.996219
399.507158	0.996212
399.889598	0.997308
400.271977	0.996796
400.654294	0.997469
401.036549	0.997260
401.418742	0.997687
401.800874	0.997214
402.182944	0.996172
402.564952	0.995863
402.946898	0.996945
403.328783	0.996726
403.710606	0.996460
404.092367	0.996187
404.474067	0.997211
404.855705	0.996756
405.237282	0.997055
405.618797	0.997034
406.000250	0.996373
406.381642	0.997090
406.762972	0.997449
407.144240	0.997689
407.525447	0.996965
407.906593	0.996625
408.287677	0.996781
408.668700	0.998020
409.049661	0.995417
409.430560	0.996479
409.811399	0.995782
410.192176	0.996912
410.572891	0.996472
410.953545	0.996308
411.334138	0.996011
411.714669	0.997468
412.095139	0.995701
412.475547	0.997312
412.855894	0.996616
413.236180	0.997121
413.616405	0.996877
413.996568	0.997389
414.376670	0.996501
414.756711	0.997054
415.136691	0.996851
415.516609	0.996986
415.896466	0.995795
416.276262	0.995078
416.655997	0.996306
417.035670	0.996768
417.415283	0.996531
417.794834	0.996451
418.174324	0.996971
418.553753	0.996605
418.933121	0.996881
419.312428	0.996396
419.691674	0.996524
420.070859	0.996710
420.449983	0.996188
420.829045	0.996954
421.208047	0.996553
421.586988	0.997072
421.965867	0.996137
422.344686	0.996914
422.723444	0.995718
423.102141	0.995970
423.480777	0.995256
423.859352	0.995719
424.237866	0.994555
424.616319	0.995225
424.994712	0.995383
425.373044	0.995430
425.751314	0.993884
426.129524	0.993030
426.507673	0.993744
426.885762	0.993192
427.263789	0.991344
427.641756	0.991760
428.019662	0.991205
428.397508	0.988132
428.775292	0.987315
429.153016	0.986695
429.530679	0.985828
429.908282	0.984094
430.285824	0.982254
430.663305	0.979927
431.040726	0.978886
431.418086	0.978461
431.795385	0.975111
432.172624	0.972076
432.549802	0.970855
432.926920	0.967731
433.303977	0.964884
433.680974	0.962804
434.057910	0.958793
434.434786	0.956129
434.811601	0.952159
435.188355	0.948814
435.565050	0.946235
435.941683	0.942705
436.318257	0.938812
436.694770	0.932406
437.071222	0.928790
437.447614	0.925490
437.823946	0.921421
438.200218	0.916106
438.576429	0.912695
438.952580	0.906245
439.328670	0.900059
439.704700	0.895974
440.080670	0.891304
440.456580	0.880752
440.832429	0.876063
441.208218	0.873251
441.583947	0.864053
441.959616	0.858696
442.335224	0.852811
442.710773	0.844362
443.086261	0.836178
443.461689	0.833140
443.837057	0.822931
444.212365	0.813336
444.587612	0.807509
444.962800	0.795858
445.337927	0.789468
445.712995	0.790934
446.088002	0.769222
446.462949	0.764695
446.837837	0.757865
447.212664	0.747469
447.587431	0.733438
447.962139	0.711755
448.336786	0.684366
448.711374	0.682804
449.085901	0.693817
449.460369	0.686924
449.834776	0.679061
450.209124	0.660278
450.583412	0.646645
450.957640	0.636791
451.331808	0.633032
451.705917	0.637863
452.079965	0.632337
452.453954	0.616397
452.827883	0.612602
453.201752	0.602078
453.575562	0.601045
453.949311	0.584672
454.323001	0.582368
454.696632	0.571997
455.070202	0.559098
455.443713	0.546140
455.817164	0.535428
456.190556	0.525106
456.563888	0.515231
456.937160	0.507232
457.310373	0.512935
457.683526	0.504528
458.056619	0.502095
458.429653	0.496534
458.802628	0.493522
459.175542	0.483862
459.548398	0.463436
459.921194	0.452399
460.293930	0.448213
460.666607	0.424236
461.039224	0.410063
461.411782	0.401841
461.784280	0.395017
462.156719	0.392870
462.529099	0.390886
462.901419	0.399437
463.273680	0.399282
463.645882	0.394417
464.018024	0.395223
464.390106	0.384993
464.762130	0.368271
465.134094	0.349858
465.505999	0.321177
465.877845	0.291312
466.249631	0.275499
466.621358	0.277232
466.993026	0.285726
467.364634	0.288053
467.736184	0.293696
468.107674	0.299771
468.479105	0.296338
468.850477	0.300839
469.221790	0.305048
469.593043	0.313405
469.964238	0.316175
470.335373	0.313913
470.706449	0.310570
471.077467	0.310064
471.448425	0.271944
471.819324	0.247009
472.190164	0.245562
472.560945	0.272748
472.931667	0.293508
473.302330	0.296605
473.672934	0.307873
474.043479	0.295305
474.413965	0.296497
474.784393	0.299722
475.154761	0.294125
475.525070	0.290513
475.895321	0.296056
476.265513	0.289859
476.635645	0.284954
477.005719	0.284731
477.375734	0.280907
477.745691	0.273947
478.115588	0.270302
478.485427	0.263717
478.855207	0.250287
479.224928	0.232993
479.594591	0.221125
479.964194	0.224159
480.333739	0.225227
480.703226	0.226584
481.072653	0.224783
481.442022	0.220284
481.811333	0.216938
482.180584	0.220428
482.549777	0.225162
482.918912	0.228217
483.287988	0.228402
483.657005	0.227870
484.025964	0.234229
484.394864	0.231355
484.763706	0.231900
485.132489	0.236467
485.501213	0.237381
485.869879	0.235476
486.238487	0.238800
486.607036	0.237009
486.975527	0.241174
487.343959	0.237114
487.712333	0.236121
488.080648	0.237221
488.448905	0.236437
488.817104	0.238026
489.185244	0.232290
489.553326	0.229366
489.921350	0.218949
490.289315	0.201509
490.657222	0.196602
491.025070	0.197769
491.392861	0.199927
491.760593	0.205316
492.128267	0.210826
492.495883	0.216473
492.863440	0.222630
493.230939	0.228989
493.598380	0.230225
493.965763	0.232468
494.333088	0.234813
494.700354	0.236187
495.067563	0.235177
495.434713	0.238539
495.801805	0.236197
496.168839	0.237717
496.535815	0.238749
496.902733	0.239028
497.269593	0.240575
497.636395	0.238354
498.003139	0.238509
498.369825	0.241563
498.736453	0.238121
499.103023	0.239525
499.469535	0.239021
499.835989	0.239129
500.202385	0.240167
500.568723	0.243106
500.935003	0.238256
501.301226	0.242446
501.667390	0.236769
502.033497	0.234823
502.399546	0.238119
502.765537	0.239449
503.131470	0.238025
503.497345	0.234319
503.863163	0.243136
504.228923	0.235940
504.594625	0.234687
504.960269	0.240202
505.325856	0.235399
505.691385	0.239127
506.056856	0.236402
506.422270	0.235859
506.787625	0.238353
507.152924	0.235773
507.518164	0.236071
507.883347	0.237590
508.248472	0.239450
508.613540	0.234381
508.978550	0.236797
509.343503	0.237155
509.708398	0.235116
510.073236	0.232726
510.438016	0.232789
510.802738	0.233970
511.167403	0.232619
511.532010	0.234688
511.896561	0.230124
512.261053	0.228849
512.625488	0.230879
512.989866	0.231121
513.354186	0.231262
513.718449	0.233555
514.082655	0.229658
514.446803	0.231806
514.810894	0.229696
515.174927	0.232200
515.538904	0.231788
515.902822	0.228795
516.266684	0.230893
516.630488	0.232324
516.994235	0.231055
517.357925	0.229461
517.721558	0.227967
518.085133	0.227490
518.448651	0.227510
518.812112	0.229826
519.175516	0.229339
519.538863	0.227169
519.902152	0.228776
520.265385	0.225566
520.628560	0.227526
520.991678	0.227833
521.354739	0.226942
521.717743	0.228088
522.080690	0.228331
522.443580	0.225791
522.806413	0.226676
523.169189	0.225985
523.531908	0.224954
523.894569	0.228511
524.257174	0.228464
524.619722	0.225926
524.982213	0.227209
525.344647	0.226154
525.707025	0.227119
526.069345	0.225102
526.431608	0.226806
526.793815	0.224953
527.155964	0.228762
527.518057	0.227902
527.880093	0.228802
528.242072	0.227416
528.603995	0.229246
528.965860	0.230951
529.327669	0.229990
529.689421	0.230623
530.051117	0.231582
530.412755	0.229397
530.774337	0.231678
531.135862	0.231990
531.497331	0.231420
531.858743	0.234332
532.220098	0.230956
532.581396	0.233472
532.942638	0.233976
533.303824	0.234732
533.664953	0.234803
534.026025	0.236272
534.387040	0.234494
534.747999	0.234203
535.108902	0.233305
535.469748	0.238221
535.830537	0.236056
536.191270	0.236380
536.551947	0.236009
536.912567	0.236215
537.273131	0.238027
537.633638	0.237625
537.994089	0.238499
538.354483	0.239303
538.714821	0.236355
539.075103	0.235973
539.435328	0.237006
539.795497	0.240740
540.155609	0.237222
540.515665	0.235402
540.875665	0.240984
541.235609	0.239437
541.595496	0.239653
541.955328	0.236042
542.315102	0.238909
542.674821	0.240039
543.034483	0.240070
543.394090	0.239397
543.753640	0.241498
544.113134	0.236511
544.472571	0.239749
544.831953	0.236458
545.191278	0.240570
545.550548	0.240536
545.909761	0.237280
546.268918	0.237920
546.628019	0.236042
546.987064	0.238764
547.346053	0.240599
547.704986	0.238530
548.063863	0.238794
548.422684	0.238976
548.781449	0.240564
549.140158	0.238533
549.498811	0.241405
549.857408	0.244547
550.215949	0.239367
550.574434	0.242165
550.932864	0.240454
551.291237	0.239143
551.649555	0.240400
552.007817	0.240027
552.366022	0.240988
552.724173	0.241250
553.082267	0.241659
553.440305	0.238483
553.798288	0.242818
554.156215	0.239235
554.514086	0.240173
554.871902	0.243017
555.229661	0.242392
555.587365	0.242968
555.945014	0.245352
556.302606	0.242465
556.660143	0.244921
557.017625	0.241528
557.375050	0.243659
557.732421	0.240582
558.089735	0.242765
558.446994	0.242760
558.804197	0.241620
559.161345	0.241737
559.518437	0.245388
559.875474	0.243244
560.232455	0.242548
560.589381	0.243527
560.946251	0.243805
561.303065	0.241205
561.659825	0.243067
562.016528	0.244208
562.373177	0.247079
562.729770	0.244143
563.086307	0.246655
563.442789	0.244275
563.799216	0.246970
564.155587	0.245948
564.511904	0.247051
564.868164	0.247086
565.224370	0.246952
565.580520	0.248824
565.936615	0.248702
566.292654	0.251651
566.648638	0.248641
567.004567	0.249543
567.360441	0.250092
567.716260	0.252238
568.072023	0.249932
568.427732	0.250580
568.783385	0.252806
569.138982	0.251681
569.494525	0.250653
569.850013	0.253624
570.205445	0.252098
570.560823	0.254781
570.916145	0.256337
571.271412	0.254956
571.626625	0.256360
571.981782	0.256832
572.336884	0.257838
572.691931	0.257533
573.046923	0.258554
573.401860	0.259599
573.756743	0.261425
574.111570	0.260444
574.466342	0.261132
574.821059	0.259851
575.175722	0.263075
575.530330	0.262500
575.884882	0.262858
576.239380	0.264870
576.593823	0.265339
576.948211	0.264473
577.302544	0.268219
577.656823	0.267739
578.011047	0.267859
578.365216	0.268549
578.719330	0.270401
579.073389	0.270307
579.427394	0.271743
579.781344	0.272165
580.135239	0.274029
580.489080	0.273346
580.842866	0.276437
581.196597	0.276389
581.550273	0.274834
581.903895	0.276002
582.257463	0.274017
582.610975	0.277652
582.964434	0.276964
583.317837	0.279311
583.671186	0.279617
584.024481	0.279496
584.377721	0.282042
584.730906	0.282826
585.084037	0.282130
585.437113	0.283865
585.790135	0.283112
586.143103	0.286441
586.496016	0.287228
586.848874	0.285336
587.201679	0.285677
587.554428	0.288869
587.907124	0.287814
588.259765	0.288292
588.612352	0.288754
588.964884	0.292781
589.317362	0.292201
589.669786	0.292138
590.022155	0.290711
590.374470	0.290135
590.726731	0.291848
591.078937	0.296681
591.431090	0.292750
591.783188	0.297337
592.135232	0.297771
592.487222	0.297706
592.839157	0.295789
593.191038	0.298444
593.542866	0.300106
593.894639	0.303793
594.246358	0.301583
594.598022	0.301139
594.949633	0.304863
595.301190	0.305597
595.652692	0.304521
596.004141	0.300694
596.355535	0.308625
596.706876	0.309186
597.058162	0.311820
597.409395	0.308895
597.760573	0.306671
598.111698	0.310045
598.462768	0.310516
598.813785	0.311731
599.164748	0.312951
599.515657	0.313037
599.866511	0.316664
600.217312	0.311532
600.568060	0.317155
600.918753	0.313514
601.269392	0.314463
601.619978	0.317977
601.970510	0.315494
602.320988	0.315654
602.671412	0.313035
603.021783	0.315947
603.372100	0.316939
603.722363	0.316696
604.072572	0.317728
604.422728	0.317463
604.772830	0.319576
605.122878	0.318913
605.472872	0.319731
605.822813	0.317961
606.172701	0.320604
606.522534	0.317773
606.872314	0.318107
607.222041	0.319140
607.571714	0.317224
607.921333	0.318611
608.270899	0.318356
608.620411	0.315025
608.969870	0.318929
609.319276	0.318908
609.668627	0.318954
610.017926	0.317808
610.367171	0.315922
610.716362	0.316614
611.065500	0.317024
611.414585	0.315481
611.763616	0.316465
612.112594	0.316746
612.461518	0.316419
612.810389	0.313943
613.159207	0.315819
613.507971	0.317878
613.856682	0.313715
614.205340	0.315421
614.553945	0.311924
614.902496	0.315771
615.250994	0.314027
615.599439	0.314810
615.947830	0.314349
616.296169	0.315281
616.644454	0.314479
616.992686	0.315040
617.340864	0.312677
617.688990	0.316114
618.037063	0.313115
618.385082	0.314799
618.733048	0.311427
619.080961	0.313799
619.428821	0.312931
619.776628	0.312864
620.124382	0.314597
620.472083	0.315328
620.819731	0.314548
621.167326	0.318395
621.514868	0.317981
621.862357	0.322213
622.209793	0.321708
622.557176	0.324070
622.904506	0.325183
623.251783	0.327356
623.599007	0.329712
623.946179	0.329437
624.293297	0.331172
624.640363	0.335081
624.987376	0.335621
625.334336	0.338054
625.681243	0.340628
626.028097	0.340731
626.374899	0.341901
626.721647	0.342109
627.068343	0.345201
627.414987	0.346799
627.761577	0.348882
628.108115	0.346673
628.454600	0.352121
628.801032	0.349348
629.147412	0.351485
629.493739	0.352101
629.840014	0.354779
630.186236	0.352256
630.532405	0.357926
630.878521	0.355525
631.224585	0.357619
631.570597	0.361483
631.916556	0.359446
632.262462	0.359911
632.608316	0.361809
632.954117	0.362728
633.299866	0.363512
633.645562	0.364029
633.991206	0.368159
634.336797	0.371427
634.682336	0.373680
635.027823	0.375070
635.373257	0.376023
635.718639	0.379173
636.063968	0.378145
636.409245	0.384424
636.754470	0.384707
637.099642	0.387281
637.444762	0.390135
637.789829	0.389455
638.134845	0.393220
638.479808	0.394103
638.824719	0.393627
639.169577	0.397577
639.514383	0.396093
639.859137	0.401133
640.203839	0.400398
640.548489	0.400980
640.893086	0.402428
641.237632	0.404284
641.582125	0.402142
641.926566	0.404051
642.270955	0.404416
642.615292	0.404497
642.959576	0.404050
643.303809	0.404503
643.647990	0.403434
643.992118	0.404427
644.336195	0.408088
644.680219	0.406092
645.024192	0.406926
645.368112	0.400289
645.711981	0.399206
646.055797	0.394936
646.399562	0.397058
646.743274	0.389465
647.086935	0.386803
647.430544	0.387118
647.774101	0.385579
648.117606	0.385658
648.461059	0.385789
648.804460	0.388504
649.147810	0.393546
649.491108	0.395276
649.834354	0.396783
650.177548	0.402163
650.520690	0.407981
650.863781	0.408547
651.206820	0.408176
651.549807	0.412568
651.892742	0.416397
652.235626	0.416214
652.578458	0.416923
652.921238	0.422813
653.263967	0.421038
653.606644	0.424912
653.949269	0.424789
654.291843	0.428795
654.634365	0.424920
654.976836	0.428039
655.319255	0.428411
655.661622	0.430206
656.003938	0.430263
656.346203	0.432624
656.688416	0.431128
657.030577	0.433989
657.372687	0.436160
657.714746	0.437893
658.056753	0.434369
658.398708	0.437916
658.740612	0.439049
659.082465	0.434658
659.424266	0.436026
659.766016	0.435063
660.107715	0.437885
660.449362	0.436619
660.790958	0.437437
661.132503	0.437717
661.473996	0.435520
661.815438	0.436913
662.156829	0.436957
662.498168	0.437411
662.839456	0.438992
663.180693	0.436864
663.521879	0.436381
663.863013	0.436924
664.204097	0.435911
664.545129	0.432412
664.886110	0.433329
665.227040	0.430118
665.567918	0.433514
665.908746	0.431157
666.249522	0.430775
666.590248	0.431617
666.930922	0.430065
667.271545	0.428817
667.612118	0.428769
667.952639	0.430923
668.293109	0.429137
668.633528	0.432585
668.973896	0.432150
669.314213	0.432188
669.654480	0.433906
669.994695	0.434770
670.334859	0.435000
670.674973	0.435296
671.015035	0.435505
671.355047	0.435163
671.695008	0.436736
672.034918	0.438242
672.374777	0.437815
672.714585	0.438522
673.054342	0.439219
673.394049	0.439007
673.733705	0.436267
674.073310	0.437766
674.412864	0.440913
674.752368	0.441379
675.091820	0.441282
675.431223	0.446192
675.770574	0.445567
676.109875	0.448604
676.449125	0.448231
676.788324	0.451069
677.127473	0.456562
677.466571	0.456214
677.805619	0.457570
678.144616	0.458359
678.483562	0.460006
678.822458	0.463173
679.161303	0.464249
679.500098	0.464766
679.838842	0.465537
680.177535	0.465332
680.516179	0.464041
680.854771	0.463213
681.193314	0.457345
681.531805	0.448024
681.870247	0.436596
682.208638	0.429421
682.546978	0.428022
682.885268	0.429673
683.223508	0.435851
683.561697	0.439573
683.899836	0.442345
684.237925	0.445703
684.575963	0.447990
684.913951	0.451024
685.251889	0.447046
685.589776	0.449479
685.927614	0.451526
686.265401	0.446236
686.603137	0.447239
686.940824	0.441405
687.278460	0.439848
687.616046	0.438619
687.953582	0.433927
688.291068	0.435246
688.628504	0.430721
688.965889	0.433257
689.303224	0.437267
689.640510	0.441460
689.977745	0.446679
690.314930	0.455107
690.652065	0.459181
690.989150	0.466380
691.326185	0.473407
691.663170	0.477886
692.000105	0.485173
692.336990	0.491871
692.673825	0.494441
693.010610	0.501042
693.347345	0.506372
693.684030	0.507983
694.020665	0.513355
694.357251	0.521334
694.693786	0.521513
695.030272	0.525941
695.366707	0.528565
695.703093	0.532242
696.039429	0.530254
696.375716	0.532008
696.711952	0.534389
697.048139	0.537129
697.384276	0.538668
697.720363	0.536629
698.056400	0.536056
698.392388	0.541951
698.728326	0.544171
699.064214	0.547065
699.400053	0.547489
699.735842	0.551670
700.071581	0.554423
700.407270	0.557362
700.742910	0.559747
701.078501	0.567027
701.414042	0.566697
701.749533	0.569336
702.084974	0.578681
702.420366	0.571093
702.755709	0.578790
703.091002	0.585212
703.426246	0.580265
703.761440	0.585529
704.096584	0.590225
704.431679	0.587078
704.766725	0.589140
705.101721	0.590600
705.436668	0.587005
705.771565	0.593793
706.106413	0.591444
706.441212	0.585134
706.775961	0.585223
707.110661	0.588206
707.445311	0.584133
707.779913	0.581167
708.114465	0.580306
708.448967	0.576205
708.783421	0.568420
709.117825	0.563040
709.452180	0.563402
709.786485	0.556897
710.120742	0.546654
710.454949	0.549017
710.789107	0.541075
711.123216	0.532498
711.457275	0.534002
711.791286	0.524761
712.125247	0.523556
712.459159	0.534447
712.793023	0.527181
713.126837	0.531407
713.460602	0.531612
713.794318	0.541043
714.127985	0.539337
714.461602	0.549936
714.795171	0.553108
715.128691	0.560853
715.462162	0.568125
715.795584	0.574321
716.128957	0.576378
716.462281	0.583250
716.795556	0.586678
717.128782	0.592122
717.461960	0.601375
717.795088	0.599397
718.128167	0.606383
718.461198	0.614640
718.794180	0.615533
719.127113	0.617981
719.459997	0.621294
719.792833	0.627644
720.125619	0.628899
720.458357	0.635341
720.791046	0.634852
721.123686	0.638340
721.456278	0.645307
721.788821	0.641945
722.121315	0.645569
722.453761	0.650521
722.786158	0.648352
723.118506	0.644768
723.450805	0.653199
723.783056	0.648748
724.115259	0.646307
724.447412	0.645491
724.779518	0.646766
725.111574	0.646317
725.443582	0.640570
725.775542	0.643631
726.107453	0.636149
726.439315	0.636444
726.771129	0.634281
727.102895	0.627633
727.434612	0.619810
727.766281	0.617897
728.097901	0.617549
728.429473	0.617420
728.760996	0.615677
729.092471	0.615460
729.423897	0.620324
729.755276	0.618983
730.086606	0.618642
730.417887	0.613585
730.749120	0.604762
731.080305	0.594764
731.411442	0.591384
731.742530	0.595902
732.073570	0.594715
732.404562	0.587032
732.735506	0.589045
733.066401	0.593535
733.397249	0.602325
733.728048	0.613856
734.058798	0.626585
734.389501	0.637698
734.720156	0.646994
735.050762	0.655433
735.381320	0.656157
735.711831	0.665745
736.042293	0.669994
736.372707	0.666315
736.703073	0.670239
737.033391	0.672975
737.363661	0.669094
737.693883	0.664770
738.024056	0.663869
738.354182	0.663882
738.684260	0.653529
739.014290	0.649445
739.344272	0.650420
739.674207	0.643859
740.004093	0.643201
740.333931	0.643310
740.663722	0.643880
740.993464	0.644296
741.323159	0.647622
741.652806	0.652660
741.982405	0.657838
742.311956	0.662503
742.641460	0.664626
742.970915	0.668091
743.300323	0.675587
743.629683	0.681886
743.958996	0.683645
744.288260	0.688413
744.617477	0.694213
744.946647	0.696246
745.275768	0.700928
745.604842	0.701086
745.933869	0.710626
746.262847	0.711427
746.591778	0.704502
746.920662	0.710584
747.249498	0.718159
747.578286	0.708964
747.907027	0.705049
748.235720	0.706036
748.564365	0.700544
748.892963	0.700682
749.221514	0.704086
749.550017	0.708245
749.878473	0.709050
750.206881	0.714441
750.535242	0.715814
750.863555	0.715964
751.191821	0.717441
751.520039	0.719432
751.848210	0.725134
752.176334	0.716962
752.504411	0.716080
752.832440	0.723596
753.160421	0.728531
753.488356	0.727117
753.816243	0.724556
754.144082	0.732853
754.471875	0.735262
754.799620	0.730561
755.127318	0.733471
755.454969	0.732205
755.782572	0.731735
756.110129	0.736961
756.437638	0.740431
756.765100	0.735857
757.092515	0.734287
757.419882	0.733305
757.747203	0.738269
758.074477	0.737791
758.401703	0.734892
758.728882	0.729936
759.056014	0.729204
759.383099	0.727201
759.710138	0.729583
760.037129	0.725590
760.364073	0.720065
760.690970	0.721716
761.017820	0.727528
761.344623	0.722521
761.671379	0.714100
761.998088	0.702663
762.324751	0.679955
762.651366	0.638951
762.977935	0.572168
763.304456	0.520140
763.630931	0.510041
763.957359	0.548891
764.283740	0.594123
764.610074	0.620318
764.936362	0.652076
765.262602	0.677382
765.588796	0.699541
765.914943	0.718126
766.241044	0.735626
766.567097	0.742188
766.893104	0.751658
767.219064	0.758122
767.544978	0.764557
767.870845	0.777685
768.196665	0.781529
768.522438	0.779991
768.848165	0.780531
769.173846	0.789332
769.499479	0.794403
769.825066	0.797011
770.150607	0.802909
770.476101	0.798073
770.801548	0.798797
771.126949	0.811677
771.452303	0.813577
771.777611	0.813181
772.102872	0.811800
772.428087	0.818659
772.753256	0.821018
773.078378	0.823353
773.403453	0.832029
773.728482	0.837154
774.053465	0.830030
774.378401	0.833657
774.703291	0.842654
775.028135	0.841853
775.352932	0.843213
775.677683	0.845733
776.002388	0.846339
776.327046	0.845414
776.651658	0.848898
776.976224	0.852467
777.300743	0.852893
777.625216	0.855012
777.949643	0.856937
778.274024	0.856907
778.598359	0.858017
778.922647	0.856276
779.246889	0.857426
779.571086	0.861709
779.895236	0.863891
780.219339	0.860841
780.543397	0.857232
780.867409	0.855466
781.191374	0.858766
781.515294	0.860211
781.839167	0.858848
782.162995	0.861420
782.486776	0.859493
782.810511	0.860701
783.134201	0.864342
783.457844	0.860956
783.781441	0.864546
784.104993	0.870104
784.428498	0.870415
784.751958	0.865894
785.075372	0.869033
785.398739	0.872542
785.722061	0.870267
786.045337	0.864422
786.368568	0.868981
786.691752	0.872154
787.014891	0.857257
787.337983	0.848012
787.661030	0.841236
787.984031	0.824442
788.306987	0.810094
788.629897	0.813209
788.952760	0.817044
789.275579	0.822079
789.598351	0.836173
789.921078	0.850142
790.243759	0.852381
790.566395	0.856903
790.888984	0.862876
791.211529	0.868958
791.534027	0.872267
791.856480	0.873814
792.178888	0.879340
792.501249	0.881052
792.823566	0.882813
793.145836	0.882525
793.468062	0.884436
793.790241	0.884569
794.112375	0.883777
794.434464	0.877923
794.756507	0.878942
795.078505	0.877867
795.400457	0.872516
795.722364	0.859820
796.044226	0.854328
796.366042	0.852152
796.687812	0.855098
797.009538	0.851426
797.331218	0.854822
797.652852	0.859170
797.974442	0.863978
798.295986	0.864301
798.617484	0.867304
798.938938	0.870678
799.260346	0.875155
799.581709	0.877887
799.903026	0.879444
800.224299	0.880819
800.545526	0.884732
800.866708	0.888998
801.187845	0.892737
801.508936	0.892474
801.829983	0.891386
802.150984	0.892303
802.471940	0.898087
802.792851	0.896997
803.113717	0.897513
803.434538	0.896357
803.755314	0.898438
804.076045	0.898912
804.396731	0.899181
804.717372	0.899811
805.037967	0.901994
805.358518	0.899940
805.679024	0.896073
805.999485	0.896507
806.319901	0.897550
806.640272	0.897637
806.960598	0.896765
807.280879	0.893731
807.601115	0.891736
807.921306	0.895909
808.241453	0.896246
808.561554	0.893466
808.881611	0.894124
809.201623	0.896044
809.521590	0.896365
809.841513	0.897116
810.161390	0.896320
810.481223	0.897913
810.801011	0.900451
811.120755	0.902205
811.440453	0.902866
811.760107	0.900345
812.079716	0.899742
812.399281	0.903310
812.718801	0.906230
813.038276	0.907242
813.357707	0.906364
813.677093	0.904003
813.996434	0.906817
814.315731	0.908059
814.634983	0.910204
814.954191	0.908108
815.273354	0.904847
815.592473	0.901526
815.911547	0.901843
816.230577	0.899061
816.549562	0.895867
816.868502	0.897337
817.187399	0.893292
817.506250	0.887925
817.825058	0.891194
818.143821	0.886755
818.462539	0.880829
818.781213	0.873393
819.099843	0.862860
819.418429	0.845825
819.736970	0.830197
820.055466	0.809391
820.373919	0.784884
820.692327	0.751761
821.010691	0.717155
821.329011	0.640763
821.647286	0.525805
821.965517	0.412284
822.283704	0.369406
822.601847	0.371585
822.919945	0.407460
823.237999	0.440777
823.556010	0.486446
823.873976	0.542825
824.191897	0.592848
824.509775	0.635781
824.827609	0.680011
825.145398	0.702830
825.463144	0.705194
825.780845	0.688494
826.098502	0.670072
826.416116	0.623957
826.733685	0.580415
827.051210	0.572884
827.368692	0.587236
827.686129	0.624835
828.003522	0.676386
828.320872	0.723599
828.638177	0.767858
828.955439	0.799890
829.272656	0.822014
829.589830	0.838303
829.906960	0.853962
830.224046	0.866779
830.541088	0.877346
830.858086	0.881499
831.175041	0.887346
831.491952	0.887432
831.808819	0.884195
832.125642	0.876813
832.442421	0.863167
832.759157	0.841824
833.075849	0.795218
833.392497	0.730883
833.709101	0.690375
834.025662	0.700053
834.342179	0.731763
834.658653	0.770405
834.975083	0.805967
835.291469	0.833184
835.607811	0.855359
835.924110	0.869737
836.240366	0.887141
836.556578	0.901425
836.872746	0.908554
837.188871	0.914402
837.504952	0.919197
837.820990	0.924371
838.136984	0.927108
838.452935	0.929965
838.768842	0.930759
839.084706	0.925589
839.400526	0.900072
839.716303	0.859767
840.032037	0.837297
840.347727	0.840948
840.663373	0.858026
840.978977	0.880289
841.294537	0.902911
841.610054	0.917672
841.925527	0.926264
842.240957	0.932496
842.556344	0.939799
842.871687	0.945150
843.186987	0.950096
843.502244	0.949993
843.817458	0.950554
844.132629	0.955112
844.447756	0.959838
844.762840	0.961068
845.077881	0.959932
845.392879	0.959400
845.707833	0.962576
846.022745	0.963011
846.337613	0.964682
846.652438	0.966205
846.967221	0.964300
847.281960	0.965725
847.596656	0.967092
847.911309	0.965302
848.225919	0.967617
848.540485	0.968437
848.855009	0.969535
849.169490	0.968338
849.483928	0.969635
849.798323	0.968640
850.112675	0.970252
850.426984	0.969453
850.741251	0.968989
851.055474	0.969646
851.369654	0.967430
851.683792	0.970311
851.997887	0.969178
852.311938	0.971189
852.625947	0.969408
852.939914	0.968464
853.253837	0.968951
853.567718	0.970656
853.881555	0.970650
854.195350	0.968084
854.509103	0.969509
854.822812	0.970335
855.136479	0.971212
855.450103	0.969757
855.763685	0.968286
856.077224	0.968298
856.390720	0.971144
856.704173	0.971416
857.017584	0.967719
857.330953	0.966510
857.644278	0.968265
857.957561	0.968959
858.270802	0.968225
858.584000	0.967828
858.897155	0.967137
859.210268	0.967484
859.523339	0.966751
859.836367	0.970555
860.149352	0.970385
860.462295	0.969440
860.775195	0.969623
861.088054	0.968874
861.400869	0.970023
861.713642	0.970815
862.026373	0.970900
862.339062	0.971607
862.651708	0.968233
862.964312	0.967197
863.276873	0.969699
863.589392	0.968338
863.901869	0.966977
864.214303	0.965248
864.526696	0.963873
864.839045	0.964310
865.151353	0.961187
865.463619	0.962652
865.775842	0.961975
866.088023	0.961139
866.400162	0.961868
866.712258	0.961734
867.024313	0.963096
867.336325	0.962810
867.648296	0.962910
867.960224	0.962445
868.272110	0.962043
868.583954	0.963701
868.895755	0.963425
869.207515	0.961405
869.519233	0.959297
869.830909	0.960939
870.142542	0.962655
870.454134	0.962981
870.765684	0.960991
871.077191	0.957609
871.388657	0.958429
871.700081	0.956890
872.011463	0.959196
872.322803	0.957893
872.634101	0.956608
872.945357	0.954736
873.256571	0.953605
873.567744	0.952764
873.878874	0.953886
874.189963	0.952395
874.501010	0.950649
874.812015	0.951350
875.122979	0.950919
875.433900	0.953423
875.744780	0.955098
876.055618	0.951571
876.366415	0.949612
876.677169	0.950077
876.987882	0.951428
877.298554	0.951257
877.609183	0.947956
877.919771	0.945366
878.230317	0.942967
878.540822	0.940883
878.851285	0.935033
879.161707	0.927720
879.472087	0.916001
879.782425	0.899679
880.092722	0.865580
880.402977	0.813784
880.713191	0.754117
881.023363	0.695627
881.333494	0.662100
881.643583	0.634422
881.953631	0.633688
882.263637	0.661919
882.573602	0.701975
882.883526	0.727440
883.193408	0.750177
883.503248	0.771741
883.813048	0.800360
884.122806	0.828440
884.432522	0.852040
884.742197	0.870938
885.051831	0.881679
885.361424	0.892518
885.670975	0.903680
885.980485	0.914595
886.289954	0.920484
886.599382	0.925401
886.908768	0.928779
887.218113	0.935400
887.527417	0.939206
887.836680	0.942638
888.145901	0.943863
888.455082	0.947016
888.764221	0.951089
889.073319	0.952521
889.382376	0.953708
889.691392	0.952272
890.000366	0.952448
890.309300	0.953353
890.618193	0.952896
890.927044	0.950553
891.235855	0.951142
891.544625	0.952043
891.853353	0.951841
892.162041	0.949386
892.470687	0.942851
892.779293	0.938736
893.087858	0.935013
893.396381	0.926334
893.704864	0.913164
894.013306	0.890231
894.321707	0.863691
894.630068	0.849332
894.938387	0.845024
895.246665	0.846024
895.554903	0.858267
895.863100	0.871680
896.171256	0.887388
896.479371	0.907863
896.787446	0.919568
897.095480	0.926534
897.403473	0.928669
897.711425	0.933351
898.019336	0.940880
898.327207	0.943332
898.635038	0.945520
898.942827	0.945000
899.250576	0.948833
899.558284	0.951676
899.865952	0.954069
900.173579	0.955546
900.481165	0.955911
900.788711	0.959820
901.096216	0.961935
901.403681	0.961576
901.711105	0.963098
902.018489	0.964385
902.325832	0.962327
902.633135	0.962065
902.940397	0.956395
903.247619	0.944373
903.554800	0.917402
903.861941	0.879899
904.169041	0.844816
904.476101	0.828498
904.783121	0.829307
905.090100	0.844581
905.397039	0.865344
905.703938	0.886536
906.010796	0.906399
906.317614	0.923894
906.624391	0.934859
906.931129	0.944256
907.237826	0.952176
907.544483	0.959017
907.851099	0.963437
908.157675	0.967671
908.464211	0.970232
908.770707	0.972503
909.077163	0.974203
909.383578	0.974163
909.689954	0.975416
909.996289	0.975718
910.302584	0.977642
910.608839	0.979504
910.915054	0.977762
911.221229	0.977622
911.527363	0.976849
911.833458	0.977268
912.139513	0.976151
912.445527	0.974684
912.751502	0.974340
913.057436	0.972483
913.363331	0.969093
913.669186	0.966401
913.975000	0.961318
914.280775	0.956178
914.586510	0.948710
914.892205	0.935749
915.197859	0.914287
915.503475	0.887775
915.809050	0.869130
916.114585	0.863753
916.420081	0.861645
916.725536	0.857856
917.030952	0.865237
917.336328	0.878172
917.641665	0.894011
917.946961	0.907528
918.252218	0.920788
918.557435	0.928951
918.862612	0.936605
919.167750	0.942963
919.472848	0.947318
919.777906	0.952950
920.082925	0.958184
920.387904	0.961515
920.692843	0.963669
920.997743	0.962970
921.302603	0.967396
921.607423	0.969726
921.912204	0.971671
922.216946	0.972313
922.521647	0.974412
922.826310	0.974628
923.130932	0.976342
923.435516	0.978808
923.740059	0.979646
924.044564	0.979200
924.349028	0.980571
924.653454	0.983102
924.957840	0.984773
925.262186	0.985387
925.566493	0.982701
925.870761	0.984723
926.174989	0.986552
926.479178	0.988274
926.783328	0.988397
927.087438	0.988689
927.391509	0.987346
927.695541	0.989625
927.999533	0.990080
928.303486	0.989193
928.607400	0.991092
928.911275	0.988918
929.215110	0.990762
929.518906	0.990809
929.822663	0.989681
930.126381	0.991304
930.430060	0.990133
930.733699	0.990453
931.037299	0.989498
931.340861	0.990481
931.644383	0.989729
931.947866	0.988311
932.251309	0.990647
932.554714	0.989861
932.858080	0.988890
933.161407	0.989518
933.464694	0.989910
933.767943	0.989612
934.071153	0.990242
934.374323	0.992170
934.677455	0.990970
934.980548	0.991419
935.283602	0.989732
935.586617	0.991603
935.889593	0.990944
936.192530	0.990345
936.495428	0.989739
936.798287	0.990667
937.101108	0.990312
937.403890	0.989284
937.706632	0.987900
938.009336	0.986625
938.312002	0.985931
938.614628	0.984596
938.917216	0.983310
939.219765	0.982286
939.522275	0.984124
939.824747	0.981881
940.127179	0.983571
940.429573	0.984142
940.731929	0.983443
941.034246	0.983842
941.336524	0.986081
941.638763	0.986717
941.940964	0.986150
942.243126	0.986426
942.545250	0.987433
942.847335	0.988282
943.149381	0.988034
943.451389	0.988242
943.753359	0.987428
944.055290	0.989662
944.357182	0.990072
944.659036	0.988456
944.960851	0.988829
945.262628	0.989797
945.564367	0.990421
945.866067	0.989229
946.167729	0.990033
946.469352	0.989841
946.770937	0.987234
947.072484	0.990747
947.373992	0.989906
947.675462	0.990740
947.976893	0.989258
948.278286	0.990391
948.579641	0.991968
948.880958	0.990881
949.182236	0.989880
949.483476	0.990760
949.784678	0.990528
950.085841	0.991150
950.386967	0.990399
950.688054	0.991043
950.989103	0.990746
951.290114	0.989881
951.591087	0.988897
951.892021	0.989441
952.192917	0.989038
952.493776	0.987966
952.794596	0.988676
953.095378	0.987404
953.396122	0.987621
953.696828	0.986831
953.997496	0.990096
954.298126	0.990373
954.598718	0.990939
954.899272	0.991040
955.199788	0.991355
955.500266	0.991441
955.800706	0.992923
956.101108	0.992737
956.401472	0.994559
956.701798	0.993308
957.002087	0.992984
957.302337	0.992933
957.602550	0.994443
957.902724	0.993940
958.202861	0.995369
958.502960	0.995065
958.803022	0.993310
959.103045	0.994897
959.403031	0.995714
959.702979	0.994339
960.002889	0.995783
960.302762	0.994496
960.602596	0.994817
960.902393	0.994798
961.202153	0.995806
961.501875	0.996364
961.801559	0.995797
962.101205	0.994387
962.400814	0.995816
962.700385	0.995285
962.999918	0.996806
963.299414	0.996629
963.598873	0.995692
963.898293	0.995547
964.197677	0.996159
964.497022	0.995988
964.796331	0.997105
965.095601	0.996070
965.394835	0.996792
965.694030	0.997582
965.993189	0.996742
966.292309	0.996551
966.591393	0.996450
966.890439	0.997608
967.189447	0.996335
967.488419	0.996452
967.787353	0.995841
968.086249	0.996628
968.385108	0.996884
968.683930	0.995008
968.982714	0.997797
969.281462	0.997188
969.580172	0.995989
969.878844	0.997411
970.177480	0.995886
970.476078	0.996560
970.774639	0.997109
971.073162	0.996980
971.371649	0.996869
971.670098	0.996087
971.968510	0.997564
972.266885	0.994445
972.565223	0.996367
972.863524	0.994920
973.161788	0.995998
973.460014	0.996880
973.758204	0.994454
974.056356	0.995743
974.354471	0.994450
974.652550	0.995572
974.950591	0.996128
975.248595	0.995556
975.546563	0.996258
975.844493	0.997594
976.142386	0.996411
976.440243	0.997481
976.738062	0.997019
977.035845	0.998081
977.333590	0.996450
977.631299	0.997316
977.928971	0.996133
978.226606	0.995895
978.524204	0.995677
978.821765	0.996993
979.119290	0.995603
979.416777	0.996841
979.714228	0.996005
980.011642	0.996036
980.309020	0.997126
980.606360	0.996005
980.903664	0.997630
981.200931	0.995932
981.498162	0.995080
981.795356	0.994863
982.092513	0.993786
982.389633	0.995119
982.686717	0.991419
982.983764	0.991128
983.280775	0.990863
983.577749	0.990803
983.874686	0.990847
984.171587	0.993256
984.468451	0.993792
984.765279	0.994973
985.062070	0.993758
985.358824	0.995670
985.655543	0.994339
985.952224	0.996758
986.248869	0.996469
986.545478	0.996866
986.842050	0.997635
987.138586	0.994745
987.435086	0.997515
987.731549	0.999442
988.027975	0.997035
988.324366	0.998399
988.620719	0.996672
988.917037	0.996924
989.213318	0.997012
989.509563	0.998506
989.805772	0.998322
990.101944	0.997836
990.398080	0.997136
990.694180	0.998540
990.990244	0.997107
991.286271	0.997844
991.582262	0.997628
991.878217	0.997322
992.174136	0.998258
992.470019	0.998198
992.765865	0.998067
993.061676	0.997451
993.357450	0.997637
993.653188	0.996406
993.948890	0.995808
994.244556	0.998775
994.540186	0.997100
994.835780	0.995823
995.131337	0.997162
995.426859	0.996678
995.722345	0.997174
996.017795	0.995281
996.313208	0.995389
996.608586	0.995578
996.903928	0.996263
997.199234	0.996268
997.494504	0.996983
997.789738	0.995595
998.084936	0.995320
998.380099	0.997160
998.675225	0.996631
998.970316	0.997823
999.265371	0.997100
999.560390	0.997765
999.855373	0.997816
1000.150320	0.997794
1000.445232	0.996865
1000.740108	0.997622
1001.034948	0.997866
1001.329752	0.998387
1001.624521	0.998252
1001.919254	0.997541
1002.213951	0.998804
1002.508613	0.997895
1002.803239	0.998831
1003.097829	0.998185
1003.392384	0.998450
1003.686903	0.997669
1003.981386	0.998132
1004.275834	0.998200
1004.570246	0.997728
1004.864623	0.997667
1005.158964	0.999374
1005.453270	0.997981
1005.747540	0.996602
1006.041775	0.996734
1006.335974	0.998979
1006.630138	0.998039
1006.924266	0.998158
1007.218359	0.999114
1007.512416	0.997832
1007.806438	0.997761
1008.100425	0.998720
1008.394376	0.998305
1008.688292	0.999121
1008.982172	1.000067
1009.276017	0.999267
1009.569827	0.998505
1009.863602	0.998484
1010.157341	0.998705
1010.451045	0.998328
1010.744714	0.997877
1011.038347	0.998410
1011.331945	0.998141
1011.625508	0.997405
1011.919036	0.997469
1012.212528	0.998429
1012.505986	0.997197
1012.799408	0.998019
1013.092795	0.998371
1013.386147	0.998510
1013.679464	0.998480
1013.972745	0.998060
1014.265992	0.996789
1014.559204	0.998896
1014.852380	0.998542
1015.145521	0.998850
1015.438628	0.997622
1015.731699	0.999435
1016.024736	0.998301
1016.317737	0.998789
1016.610703	0.998975
1016.903635	0.999298
1017.196531	0.997377
1017.489393	0.999895
1017.782219	0.998688
1018.075011	0.997869
1018.367768	0.997856
1018.660490	0.999987
1018.953177	0.999987
1019.245829	0.999987
