Dividing Wavelength (nm)	Counts (n)	Blue Motor Position (mm): 0.000000	Red Motor Position (mm): 36.700000	
326.493990	1.000978
326.888308	1.000978
327.282561	1.000978
327.676750	0.999518
328.070874	0.999694
328.464933	1.000611
328.858929	1.000980
329.252859	0.999498
329.646726	0.999589
330.040528	1.001276
330.434265	0.998818
330.827938	1.001278
331.221547	1.000576
331.615091	1.000197
332.008571	1.001083
332.401986	1.000719
332.795338	1.000040
333.188625	0.998331
333.581847	1.000721
333.975006	1.000223
334.368100	0.999415
334.761129	1.000277
335.154095	1.000952
335.546996	0.998501
335.939833	0.996611
336.332606	0.997055
336.725315	0.998042
337.117960	0.998753
337.510540	0.997128
337.903056	0.997983
338.295508	0.996140
338.687896	0.997456
339.080220	0.997334
339.472480	0.996806
339.864676	0.996138
340.256807	0.997538
340.648875	0.997204
341.040879	0.996821
341.432818	0.997990
341.824694	0.997289
342.216506	0.997943
342.608253	0.997681
342.999937	0.997453
343.391557	0.997216
343.783113	0.996616
344.174605	0.997461
344.566033	0.997989
344.957397	0.997146
345.348697	0.996835
345.739934	0.998154
346.131106	0.996717
346.522215	0.996990
346.913260	0.996575
347.304241	0.996519
347.695159	0.996856
348.086012	0.997446
348.476802	0.997120
348.867528	0.996754
349.258191	0.996755
349.648789	0.998253
350.039324	0.997062
350.429796	0.997797
350.820203	0.997698
351.210548	0.997061
351.600828	0.996718
351.991045	0.997080
352.381198	0.996302
352.771288	0.997883
353.161314	0.997484
353.551276	0.998070
353.941175	0.997479
354.331010	0.996132
354.720782	0.998699
355.110490	0.996826
355.500135	0.997811
355.889717	0.997600
356.279235	0.997472
356.668689	0.997248
357.058080	0.996761
357.447408	0.998996
357.836672	0.997451
358.225873	0.998268
358.615010	0.997873
359.004084	0.998038
359.393095	0.996589
359.782043	0.998001
360.170927	0.997647
360.559748	0.998530
360.948505	0.997987
361.337199	0.996853
361.725830	0.997349
362.114398	0.996964
362.502903	0.997881
362.891344	0.998458
363.279722	0.996202
363.668037	0.998339
364.056289	0.996639
364.444478	0.998251
364.832603	0.997928
365.220665	0.996541
365.608665	0.996676
365.996601	0.996145
366.384474	0.998604
366.772284	0.997490
367.160031	0.996464
367.547715	0.997539
367.935336	0.998062
368.322893	0.996868
368.710388	0.996895
369.097820	0.997631
369.485189	0.997052
369.872495	0.996419
370.259738	0.996053
370.646918	0.997688
371.034035	0.997675
371.421090	0.997781
371.808081	0.997785
372.195010	0.998318
372.581875	0.998622
372.968678	0.997324
373.355418	0.996978
373.742096	0.996790
374.128710	0.997999
374.515262	0.997250
374.901751	0.996831
375.288177	0.998146
375.674540	0.998401
376.060841	0.996287
376.447079	0.997842
376.833254	0.999335
377.219367	0.997609
377.605417	0.997980
377.991404	0.998081
378.377329	0.997520
378.763191	0.997500
379.148991	0.998328
379.534727	0.998155
379.920402	0.998223
380.306013	0.997986
380.691563	0.999189
381.077049	0.997687
381.462474	0.998183
381.847835	0.998602
382.233134	0.998768
382.618371	0.998072
383.003545	0.998542
383.388657	0.998444
383.773706	0.998718
384.158693	0.998077
384.543618	0.998120
384.928480	0.999095
385.313280	0.999061
385.698017	0.999134
386.082692	0.999296
386.467305	0.999369
386.851856	0.998198
387.236344	0.997787
387.620770	0.998292
388.005133	0.998804
388.389435	0.999953
388.773674	0.998875
389.157851	0.999202
389.541965	0.998898
389.926018	0.998673
390.310008	1.000071
390.693936	0.998148
391.077802	0.999458
391.461606	0.997533
391.845348	0.998442
392.229027	0.999528
392.612645	0.999444
392.996200	0.999847
393.379694	0.998142
393.763125	0.998851
394.146494	0.999052
394.529801	0.998916
394.913047	0.999366
395.296230	0.999827
395.679351	0.998983
396.062410	0.998608
396.445408	0.999840
396.828343	0.997912
397.211217	0.999098
397.594028	0.999035
397.976778	0.998994
398.359466	0.998688
398.742092	0.998416
399.124656	0.998759
399.507158	0.999440
399.889598	0.998723
400.271977	0.999152
400.654294	0.999519
401.036549	0.998769
401.418742	1.000159
401.800874	0.998641
402.182944	0.998782
402.564952	0.998326
402.946898	1.000032
403.328783	0.999238
403.710606	0.998479
404.092367	0.999749
404.474067	1.000251
404.855705	0.999520
405.237282	1.000707
405.618797	0.998730
406.000250	0.998687
406.381642	1.000958
406.762972	0.999819
407.144240	1.000506
407.525447	0.999581
407.906593	0.999374
408.287677	0.999981
408.668700	0.999596
409.049661	0.998770
409.430560	0.999663
409.811399	0.999449
410.192176	1.000175
410.572891	0.999095
410.953545	0.999168
411.334138	0.998123
411.714669	0.999471
412.095139	0.998617
412.475547	1.000278
412.855894	0.999331
413.236180	0.999934
413.616405	1.000980
413.996568	1.000845
414.376670	0.999214
414.756711	0.999572
415.136691	0.999589
415.516609	1.000200
415.896466	0.998597
416.276262	0.999155
416.655997	1.000313
417.035670	0.998907
417.415283	1.000338
417.794834	1.000123
418.174324	0.999872
418.553753	0.998899
418.933121	1.000575
419.312428	0.999581
419.691674	0.999816
420.070859	0.999811
420.449983	0.999801
420.829045	0.999231
421.208047	1.000908
421.586988	1.000407
421.965867	0.999850
422.344686	1.000167
422.723444	1.000007
423.102141	0.999600
423.480777	1.000217
423.859352	1.000263
424.237866	0.999447
424.616319	0.999227
424.994712	0.999741
425.373044	0.999915
425.751314	1.000232
426.129524	0.999027
426.507673	1.000394
426.885762	1.000332
427.263789	1.000438
427.641756	0.999658
428.019662	1.000552
428.397508	0.999123
428.775292	0.998381
429.153016	1.000318
429.530679	0.999808
429.908282	1.000805
430.285824	0.999464
430.663305	0.999778
431.040726	0.999930
431.418086	1.001728
431.795385	1.000203
432.172624	0.999241
432.549802	1.000664
432.926920	1.001385
433.303977	0.998763
433.680974	1.000532
434.057910	0.998462
434.434786	1.000520
434.811601	0.999647
435.188355	1.000114
435.565050	1.000158
435.941683	0.999937
436.318257	1.001192
436.694770	0.999552
437.071222	1.000901
437.447614	0.999456
437.823946	1.000294
438.200218	0.999959
438.576429	1.000638
438.952580	1.001202
439.328670	0.999291
439.704700	1.000418
440.080670	1.000817
440.456580	1.000624
440.832429	0.999931
441.208218	1.000100
441.583947	1.000348
441.959616	1.000159
442.335224	1.000308
442.710773	1.001032
443.086261	1.000004
443.461689	1.000275
443.837057	0.999998
444.212365	1.000957
444.587612	0.999570
444.962800	1.000185
445.337927	1.000283
445.712995	1.000284
446.088002	1.001189
446.462949	1.000304
446.837837	1.000498
447.212664	1.000599
447.587431	1.000559
447.962139	1.000333
448.336786	1.001011
448.711374	1.000208
449.085901	0.999660
449.460369	1.001256
449.834776	0.999293
450.209124	1.001030
450.583412	0.999812
450.957640	1.000585
451.331808	0.999674
451.705917	1.000047
452.079965	0.999436
452.453954	1.000535
452.827883	0.999955
453.201752	1.000098
453.575562	1.000319
453.949311	1.000734
454.323001	1.000653
454.696632	1.000183
455.070202	0.999883
455.443713	0.999921
455.817164	1.000320
456.190556	1.000144
456.563888	1.000885
456.937160	1.000806
457.310373	1.000273
457.683526	1.000643
458.056619	1.000071
458.429653	1.000425
458.802628	0.999185
459.175542	1.000365
459.548398	1.000533
459.921194	1.000247
460.293930	1.000354
460.666607	0.999877
461.039224	0.999556
461.411782	1.000050
461.784280	0.999959
462.156719	1.001172
462.529099	1.000715
462.901419	1.000790
463.273680	1.001174
463.645882	1.000243
464.018024	1.000479
464.390106	1.000545
464.762130	1.001535
465.134094	1.000614
465.505999	1.001180
465.877845	1.000306
466.249631	1.001091
466.621358	1.000875
466.993026	1.000334
467.364634	1.000700
467.736184	1.001217
468.107674	1.000182
468.479105	1.000527
468.850477	1.001151
469.221790	1.000384
469.593043	1.000918
469.964238	1.001557
470.335373	1.000159
470.706449	1.000870
471.077467	1.000856
471.448425	1.000860
471.819324	1.001568
472.190164	1.000636
472.560945	1.000867
472.931667	1.000235
473.302330	1.000627
473.672934	1.000894
474.043479	1.000797
474.413965	1.000214
474.784393	1.000669
475.154761	1.000920
475.525070	0.999980
475.895321	1.000675
476.265513	1.000155
476.635645	1.000369
477.005719	1.000180
477.375734	1.000615
477.745691	1.001118
478.115588	1.000792
478.485427	1.001055
478.855207	1.001227
479.224928	1.000919
479.594591	1.000977
479.964194	1.000584
480.333739	1.000462
480.703226	1.000722
481.072653	1.001246
481.442022	1.001528
481.811333	0.999807
482.180584	1.001041
482.549777	1.000570
482.918912	1.000643
483.287988	0.999991
483.657005	1.000276
484.025964	1.001277
484.394864	1.000904
484.763706	1.001239
485.132489	1.000655
485.501213	1.000981
485.869879	1.000713
486.238487	1.000862
486.607036	1.001333
486.975527	1.000091
487.343959	1.000345
487.712333	1.000226
488.080648	1.000620
488.448905	1.000523
488.817104	1.000904
489.185244	1.000661
489.553326	1.000988
489.921350	1.000651
490.289315	1.000293
490.657222	1.000471
491.025070	1.000966
491.392861	1.001281
491.760593	1.001107
492.128267	1.000072
492.495883	1.000448
492.863440	1.000792
493.230939	1.000601
493.598380	1.000247
493.965763	1.000337
494.333088	1.000675
494.700354	0.999536
495.067563	1.000815
495.434713	0.999980
495.801805	1.000500
496.168839	1.001107
496.535815	0.999956
496.902733	1.000453
497.269593	1.000162
497.636395	1.000457
498.003139	1.000165
498.369825	1.000700
498.736453	1.000239
499.103023	0.999673
499.469535	1.000006
499.835989	0.999815
500.202385	1.000347
500.568723	0.999895
500.935003	1.000552
501.301226	1.000186
501.667390	0.999878
502.033497	1.000111
502.399546	1.000065
502.765537	0.999639
503.131470	1.000158
503.497345	1.000092
503.863163	1.000895
504.228923	1.000440
504.594625	1.000002
504.960269	1.000585
505.325856	0.999869
505.691385	0.999571
506.056856	0.998976
506.422270	0.999665
506.787625	1.000159
507.152924	0.999688
507.518164	0.999752
507.883347	0.999657
508.248472	0.999501
508.613540	0.999317
508.978550	1.000117
509.343503	0.999147
509.708398	0.999865
510.073236	0.999570
510.438016	1.000050
510.802738	0.999421
511.167403	0.998917
511.532010	0.999432
511.896561	0.999110
512.261053	1.000154
512.625488	0.999570
512.989866	0.999223
513.354186	0.999203
513.718449	0.999139
514.082655	0.998740
514.446803	0.998897
514.810894	0.999009
515.174927	0.998802
515.538904	0.998697
515.902822	0.998918
516.266684	0.998140
516.630488	0.999387
516.994235	0.998380
517.357925	0.998259
517.721558	0.998522
518.085133	0.997625
518.448651	0.998648
518.812112	0.998162
519.175516	0.997234
519.538863	0.997991
519.902152	0.997082
520.265385	0.997176
520.628560	0.997691
520.991678	0.997273
521.354739	0.997220
521.717743	0.997247
522.080690	0.996479
522.443580	0.995809
522.806413	0.996026
523.169189	0.995339
523.531908	0.994544
523.894569	0.995257
524.257174	0.995376
524.619722	0.994695
524.982213	0.994537
525.344647	0.994499
525.707025	0.993682
526.069345	0.992932
526.431608	0.992899
526.793815	0.993008
527.155964	0.992539
527.518057	0.991724
527.880093	0.991346
528.242072	0.989905
528.603995	0.990271
528.965860	0.990434
529.327669	0.989466
529.689421	0.988473
530.051117	0.989265
530.412755	0.987180
530.774337	0.987388
531.135862	0.986127
531.497331	0.985667
531.858743	0.985081
532.220098	0.984546
532.581396	0.983701
532.942638	0.983122
533.303824	0.982300
533.664953	0.981384
534.026025	0.979941
534.387040	0.978747
534.747999	0.978491
535.108902	0.978103
535.469748	0.976315
535.830537	0.975626
536.191270	0.974507
536.551947	0.973253
536.912567	0.972306
537.273131	0.972149
537.633638	0.970026
537.994089	0.968934
538.354483	0.967759
538.714821	0.967358
539.075103	0.965201
539.435328	0.963973
539.795497	0.963166
540.155609	0.960526
540.515665	0.959141
540.875665	0.958184
541.235609	0.956504
541.595496	0.954530
541.955328	0.952803
542.315102	0.951961
542.674821	0.950191
543.034483	0.948460
543.394090	0.946036
543.753640	0.945600
544.113134	0.942896
544.472571	0.941631
544.831953	0.939226
545.191278	0.937195
545.550548	0.935542
545.909761	0.932219
546.268918	0.930854
546.628019	0.928731
546.987064	0.926592
547.346053	0.925296
547.704986	0.922005
548.063863	0.920827
548.422684	0.918053
548.781449	0.916314
549.140158	0.912446
549.498811	0.910627
549.857408	0.908817
550.215949	0.905582
550.574434	0.903003
550.932864	0.899954
551.291237	0.898123
551.649555	0.894509
552.007817	0.891871
552.366022	0.889197
552.724173	0.886766
553.082267	0.884103
553.440305	0.878638
553.798288	0.877967
554.156215	0.873476
554.514086	0.870897
554.871902	0.868526
555.229661	0.864405
555.587365	0.862009
555.945014	0.860262
556.302606	0.854745
556.660143	0.852595
557.017625	0.847541
557.375050	0.845026
557.732421	0.841206
558.089735	0.837626
558.446994	0.835115
558.804197	0.831250
559.161345	0.827120
559.518437	0.826200
559.875474	0.820541
560.232455	0.816471
560.589381	0.814494
560.946251	0.808529
561.303065	0.805842
561.659825	0.801975
562.016528	0.798659
562.373177	0.796958
562.729770	0.790504
563.086307	0.788640
563.442789	0.784461
563.799216	0.779962
564.155587	0.776215
564.511904	0.772456
564.868164	0.768728
565.224370	0.766172
565.580520	0.761310
565.936615	0.759468
566.292654	0.754695
566.648638	0.751037
567.004567	0.746177
567.360441	0.743888
567.716260	0.739393
568.072023	0.735319
568.427732	0.730527
568.783385	0.729553
569.138982	0.723036
569.494525	0.718629
569.850013	0.716233
570.205445	0.711045
570.560823	0.709323
570.916145	0.704790
571.271412	0.700349
571.626625	0.696855
571.981782	0.693508
572.336884	0.689756
572.691931	0.686667
573.046923	0.680732
573.401860	0.678407
573.756743	0.674955
574.111570	0.670654
574.466342	0.667521
574.821059	0.662868
575.175722	0.660194
575.530330	0.655241
575.884882	0.652264
576.239380	0.648860
576.593823	0.645596
576.948211	0.640467
577.302544	0.638995
577.656823	0.633929
578.011047	0.630363
578.365216	0.626747
578.719330	0.624416
579.073389	0.619849
579.427394	0.617872
579.781344	0.614541
580.135239	0.610831
580.489080	0.607405
580.842866	0.604160
581.196597	0.600795
581.550273	0.596604
581.903895	0.592796
582.257463	0.588623
582.610975	0.585834
582.964434	0.582382
583.317837	0.579397
583.671186	0.577054
584.024481	0.573369
584.377721	0.571644
584.730906	0.568489
585.084037	0.563829
585.437113	0.563000
585.790135	0.557940
586.143103	0.556391
586.496016	0.554187
586.848874	0.548439
587.201679	0.546057
587.554428	0.544004
587.907124	0.539959
588.259765	0.537616
588.612352	0.534013
588.964884	0.533337
589.317362	0.529452
589.669786	0.525951
590.022155	0.522883
590.374470	0.518110
590.726731	0.517432
591.078937	0.516457
591.431090	0.510066
591.783188	0.510728
592.135232	0.507084
592.487222	0.505554
592.839157	0.500247
593.191038	0.498871
593.542866	0.497083
593.894639	0.497041
594.246358	0.492584
594.598022	0.489003
594.949633	0.489081
595.301190	0.486409
595.652692	0.483393
596.004141	0.476973
596.355535	0.480442
596.706876	0.478249
597.058162	0.476982
597.409395	0.472955
597.760573	0.467598
598.111698	0.467909
598.462768	0.464723
598.813785	0.464095
599.164748	0.461538
599.515657	0.460102
599.866511	0.459105
600.217312	0.453689
600.568060	0.455186
600.918753	0.450212
601.269392	0.448088
601.619978	0.448294
601.970510	0.444369
602.320988	0.442450
602.671412	0.437446
603.021783	0.437629
603.372100	0.436490
603.722363	0.433537
604.072572	0.432548
604.422728	0.430303
604.772830	0.429951
605.122878	0.427591
605.472872	0.426121
605.822813	0.422712
606.172701	0.423129
606.522534	0.418640
606.872314	0.416895
607.222041	0.415379
607.571714	0.412096
607.921333	0.411672
608.270899	0.409490
608.620411	0.404841
608.969870	0.406784
609.319276	0.404964
609.668627	0.402963
610.017926	0.400257
610.367171	0.397402
610.716362	0.396516
611.065500	0.395324
611.414585	0.392488
611.763616	0.391883
612.112594	0.390854
612.461518	0.388945
612.810389	0.385303
613.159207	0.386246
613.507971	0.386603
613.856682	0.380932
614.205340	0.381703
614.553945	0.377015
614.902496	0.379775
615.250994	0.376326
615.599439	0.376264
615.947830	0.373940
616.296169	0.374481
616.644454	0.372729
616.992686	0.371559
617.340864	0.368492
617.688990	0.371038
618.037063	0.366910
618.385082	0.367742
618.733048	0.363514
619.080961	0.364891
619.428821	0.363632
619.776628	0.361777
620.124382	0.362799
620.472083	0.362163
620.819731	0.360287
621.167326	0.362654
621.514868	0.361798
621.862357	0.364232
622.209793	0.363208
622.557176	0.363899
622.904506	0.363927
623.251783	0.365237
623.599007	0.366793
623.946179	0.365251
624.293297	0.366445
624.640363	0.368845
624.987376	0.368749
625.334336	0.370885
625.681243	0.372071
626.028097	0.371560
626.374899	0.372161
626.721647	0.371494
627.068343	0.374448
627.414987	0.374344
627.761577	0.376145
628.108115	0.373629
628.454600	0.378264
628.801032	0.375105
629.147412	0.376778
629.493739	0.376319
629.840014	0.379208
630.186236	0.376241
630.532405	0.380878
630.878521	0.378151
631.224585	0.379829
631.570597	0.383393
631.916556	0.381120
632.262462	0.381061
632.608316	0.382754
632.954117	0.382978
633.299866	0.383676
633.645562	0.383495
633.991206	0.387237
634.336797	0.389402
634.682336	0.391227
635.027823	0.392978
635.373257	0.392461
635.718639	0.395462
636.063968	0.394359
636.409245	0.399870
636.754470	0.399398
637.099642	0.401905
637.444762	0.405041
637.789829	0.403894
638.134845	0.406856
638.479808	0.407473
638.824719	0.406560
639.169577	0.410916
639.514383	0.408939
639.859137	0.413243
640.203839	0.412835
640.548489	0.412626
640.893086	0.414441
641.237632	0.415817
641.582125	0.414323
641.926566	0.414995
642.270955	0.415526
642.615292	0.415236
642.959576	0.414060
643.303809	0.414565
643.647990	0.413982
643.992118	0.414516
644.336195	0.418244
644.680219	0.415866
645.024192	0.416319
645.368112	0.410289
645.711981	0.408698
646.055797	0.403994
646.399562	0.406713
646.743274	0.398124
647.086935	0.395973
647.430544	0.396020
647.774101	0.394753
648.117606	0.394028
648.461059	0.394423
648.804460	0.396712
649.147810	0.401961
649.491108	0.403884
649.834354	0.404904
650.177548	0.410081
650.520690	0.415270
650.863781	0.416387
651.206820	0.415120
651.549807	0.420086
651.892742	0.423575
652.235626	0.423699
652.578458	0.424170
652.921238	0.430432
653.263967	0.427801
653.606644	0.432079
653.949269	0.431670
654.291843	0.435644
654.634365	0.432120
654.976836	0.435176
655.319255	0.435286
655.661622	0.436436
656.003938	0.436323
656.346203	0.439324
656.688416	0.437129
657.030577	0.440451
657.372687	0.441939
657.714746	0.443112
658.056753	0.440486
658.398708	0.443644
658.740612	0.444528
659.082465	0.441302
659.424266	0.441683
659.766016	0.440486
660.107715	0.443526
660.449362	0.442462
660.790958	0.443207
661.132503	0.443434
661.473996	0.441386
661.815438	0.441950
662.156829	0.442313
662.498168	0.442974
662.839456	0.444473
663.180693	0.442145
663.521879	0.441791
663.863013	0.442955
664.204097	0.441840
664.545129	0.438511
664.886110	0.438222
665.227040	0.435976
665.567918	0.438490
665.908746	0.436366
666.249522	0.435939
666.590248	0.436963
666.930922	0.435229
667.271545	0.434208
667.612118	0.433816
667.952639	0.435518
668.293109	0.434705
668.633528	0.437148
668.973896	0.436476
669.314213	0.437743
669.654480	0.439381
669.994695	0.439138
670.334859	0.439688
670.674973	0.440369
671.015035	0.440389
671.355047	0.440550
671.695008	0.441480
672.034918	0.442839
672.374777	0.442639
672.714585	0.443708
673.054342	0.443639
673.394049	0.443625
673.733705	0.441103
674.073310	0.442469
674.412864	0.445635
674.752368	0.445702
675.091820	0.446222
675.431223	0.450840
675.770574	0.449989
676.109875	0.453651
676.449125	0.452895
676.788324	0.455430
677.127473	0.460561
677.466571	0.460292
677.805619	0.462351
678.144616	0.463138
678.483562	0.465146
678.822458	0.467224
679.161303	0.468610
679.500098	0.468436
679.838842	0.470658
680.177535	0.470571
680.516179	0.469231
680.854771	0.467405
681.193314	0.461514
681.531805	0.452593
681.870247	0.440975
682.208638	0.433465
682.546978	0.432388
682.885268	0.434374
683.223508	0.440107
683.561697	0.444091
683.899836	0.446939
684.237925	0.450266
684.575963	0.453137
684.913951	0.455644
685.251889	0.451682
685.589776	0.453169
685.927614	0.456382
686.265401	0.450137
686.603137	0.452122
686.940824	0.445167
687.278460	0.444199
687.616046	0.443544
687.953582	0.437761
688.291068	0.439563
688.628504	0.435229
688.965889	0.437207
689.303224	0.441774
689.640510	0.445481
689.977745	0.451384
690.314930	0.459120
690.652065	0.463197
690.989150	0.470696
691.326185	0.477547
691.663170	0.481905
692.000105	0.489093
692.336990	0.495852
692.673825	0.498666
693.010610	0.505416
693.347345	0.510736
693.684030	0.512276
694.020665	0.517594
694.357251	0.526078
694.693786	0.525588
695.030272	0.529411
695.366707	0.533012
695.703093	0.537113
696.039429	0.534559
696.375716	0.535627
696.711952	0.538882
697.048139	0.540324
697.384276	0.542000
697.720363	0.540794
698.056400	0.540140
698.392388	0.545320
698.728326	0.548032
699.064214	0.551407
699.400053	0.551766
699.735842	0.555558
700.071581	0.558700
700.407270	0.561373
700.742910	0.563646
701.078501	0.570003
701.414042	0.570749
701.749533	0.573538
702.084974	0.582536
702.420366	0.574255
702.755709	0.582081
703.091002	0.589427
703.426246	0.583427
703.761440	0.590064
704.096584	0.594380
704.431679	0.591132
704.766725	0.592676
705.101721	0.594985
705.436668	0.590992
705.771565	0.597941
706.106413	0.594026
706.441212	0.590235
706.775961	0.588693
707.110661	0.591916
707.445311	0.587670
707.779913	0.585038
708.114465	0.583924
708.448967	0.579904
708.783421	0.572535
709.117825	0.566886
709.452180	0.567435
709.786485	0.561181
710.120742	0.550601
710.454949	0.552812
710.789107	0.544912
711.123216	0.535854
711.457275	0.537996
711.791286	0.528547
712.125247	0.527811
712.459159	0.538623
712.793023	0.531242
713.126837	0.534816
713.460602	0.534943
713.794318	0.545122
714.127985	0.544080
714.461602	0.553413
714.795171	0.556573
715.128691	0.564341
715.462162	0.572161
715.795584	0.577850
716.128957	0.580670
716.462281	0.587102
716.795556	0.590341
717.128782	0.595858
717.461960	0.605473
717.795088	0.603005
718.128167	0.609559
718.461198	0.618430
718.794180	0.619260
719.127113	0.621272
719.459997	0.625365
719.792833	0.631444
720.125619	0.632826
720.458357	0.638693
720.791046	0.638089
721.123686	0.642096
721.456278	0.648587
721.788821	0.645614
722.121315	0.649844
722.453761	0.654036
722.786158	0.651811
723.118506	0.648211
723.450805	0.655967
723.783056	0.652563
724.115259	0.649338
724.447412	0.648891
724.779518	0.650700
725.111574	0.648954
725.443582	0.645202
725.775542	0.646756
726.107453	0.639328
726.439315	0.639019
726.771129	0.637583
727.102895	0.630773
727.434612	0.624298
727.766281	0.621657
728.097901	0.621561
728.429473	0.621288
728.760996	0.619551
729.092471	0.619364
729.423897	0.623833
729.755276	0.622151
730.086606	0.622971
730.417887	0.617240
730.749120	0.608227
731.080305	0.599114
731.411442	0.594931
731.742530	0.599834
732.073570	0.599091
732.404562	0.591317
732.735506	0.593087
733.066401	0.597665
733.397249	0.606758
733.728048	0.617739
734.058798	0.630551
734.389501	0.641131
734.720156	0.650457
735.050762	0.658641
735.381320	0.659383
735.711831	0.668921
736.042293	0.673587
736.372707	0.669400
736.703073	0.674540
737.033391	0.675796
737.363661	0.673318
737.693883	0.667977
738.024056	0.667345
738.354182	0.667937
738.684260	0.657351
739.014290	0.652896
739.344272	0.653416
739.674207	0.647447
740.004093	0.646806
740.333931	0.647626
740.663722	0.647374
740.993464	0.648449
741.323159	0.651609
741.652806	0.657131
741.982405	0.661772
742.311956	0.665552
742.641460	0.668185
742.970915	0.671614
743.300323	0.679542
743.629683	0.685657
743.958996	0.688664
744.288260	0.691724
744.617477	0.697795
744.946647	0.699312
745.275768	0.705135
745.604842	0.704301
745.933869	0.714580
746.262847	0.714714
746.591778	0.708743
746.920662	0.715410
747.249498	0.721354
747.578286	0.712142
747.907027	0.708682
748.235720	0.708750
748.564365	0.703663
748.892963	0.703806
749.221514	0.706467
749.550017	0.712289
749.878473	0.711624
750.206881	0.717835
750.535242	0.719030
750.863555	0.719741
751.191821	0.720276
751.520039	0.723746
751.848210	0.728812
752.176334	0.720588
752.504411	0.720014
752.832440	0.728269
753.160421	0.731781
753.488356	0.730101
753.816243	0.727729
754.144082	0.736196
754.471875	0.740773
754.799620	0.734453
755.127318	0.737447
755.454969	0.736613
755.782572	0.735593
756.110129	0.740051
756.437638	0.743074
756.765100	0.739877
757.092515	0.737672
757.419882	0.736439
757.747203	0.741592
758.074477	0.741516
758.401703	0.738426
758.728882	0.733599
759.056014	0.732485
759.383099	0.731358
759.710138	0.732656
760.037129	0.729716
760.364073	0.722859
760.690970	0.725649
761.017820	0.731586
761.344623	0.726839
761.671379	0.717486
761.998088	0.706608
762.324751	0.684862
762.651366	0.642421
762.977935	0.576742
763.304456	0.525137
763.630931	0.514774
763.957359	0.554296
764.283740	0.598499
764.610074	0.625180
764.936362	0.656169
765.262602	0.682221
765.588796	0.703213
765.914943	0.721624
766.241044	0.738268
766.567097	0.745138
766.893104	0.755073
767.219064	0.761051
767.544978	0.767717
767.870845	0.782008
768.196665	0.785530
768.522438	0.783860
768.848165	0.784872
769.173846	0.793286
769.499479	0.797732
769.825066	0.801208
770.150607	0.806990
770.476101	0.800786
770.801548	0.802401
771.126949	0.814108
771.452303	0.818967
771.777611	0.816547
772.102872	0.815871
772.428087	0.821400
772.753256	0.824129
773.078378	0.825683
773.403453	0.834898
773.728482	0.839315
774.053465	0.833018
774.378401	0.837157
774.703291	0.844838
775.028135	0.844856
775.352932	0.846015
775.677683	0.849466
776.002388	0.849411
776.327046	0.848518
776.651658	0.852779
776.976224	0.855990
777.300743	0.854948
777.625216	0.857211
777.949643	0.859771
778.274024	0.859731
778.598359	0.861725
778.922647	0.859889
779.246889	0.860648
779.571086	0.864343
779.895236	0.866602
780.219339	0.864263
780.543397	0.860599
780.867409	0.859076
781.191374	0.861327
781.515294	0.863058
781.839167	0.861773
782.162995	0.865420
782.486776	0.863209
782.810511	0.862372
783.134201	0.865497
783.457844	0.864900
783.781441	0.866244
784.104993	0.873339
784.428498	0.872645
784.751958	0.868767
785.075372	0.871355
785.398739	0.875179
785.722061	0.872091
786.045337	0.868421
786.368568	0.871572
786.691752	0.874165
787.014891	0.859823
787.337983	0.851688
787.661030	0.844742
787.984031	0.827193
788.306987	0.814000
788.629897	0.816352
788.952760	0.820268
789.275579	0.824695
789.598351	0.839533
789.921078	0.851993
790.243759	0.854411
790.566395	0.860339
790.888984	0.866795
791.211529	0.871515
791.534027	0.874577
791.856480	0.877507
792.178888	0.881249
792.501249	0.884284
792.823566	0.884993
793.145836	0.885975
793.468062	0.887582
793.790241	0.887393
794.112375	0.885627
794.434464	0.880761
794.756507	0.880529
795.078505	0.880784
795.400457	0.874957
795.722364	0.863062
796.044226	0.855357
796.366042	0.855441
796.687812	0.858821
797.009538	0.855362
797.331218	0.856571
797.652852	0.863307
797.974442	0.867456
798.295986	0.867196
798.617484	0.869746
798.938938	0.873377
799.260346	0.878980
799.581709	0.880474
799.903026	0.882878
800.224299	0.883363
800.545526	0.887161
800.866708	0.892228
801.187845	0.895654
801.508936	0.894432
801.829983	0.893097
802.150984	0.894920
802.471940	0.899599
802.792851	0.900153
803.113717	0.900548
803.434538	0.898886
803.755314	0.900824
804.076045	0.903541
804.396731	0.902945
804.717372	0.902716
805.037967	0.904079
805.358518	0.901936
805.679024	0.899990
805.999485	0.898130
806.319901	0.900011
806.640272	0.900441
806.960598	0.899803
807.280879	0.896659
807.601115	0.895838
807.921306	0.899502
808.241453	0.899538
808.561554	0.897188
808.881611	0.895781
809.201623	0.898709
809.521590	0.897737
809.841513	0.898447
810.161390	0.899032
810.481223	0.900267
810.801011	0.903842
811.120755	0.905019
811.440453	0.904464
811.760107	0.902900
812.079716	0.903116
812.399281	0.907567
812.718801	0.909518
813.038276	0.909862
813.357707	0.909744
813.677093	0.906451
813.996434	0.909938
814.315731	0.911837
814.634983	0.912551
814.954191	0.911202
815.273354	0.908117
815.592473	0.903618
815.911547	0.904614
816.230577	0.901329
816.549562	0.899259
816.868502	0.900186
817.187399	0.895827
817.506250	0.890612
817.825058	0.893333
818.143821	0.888839
818.462539	0.884079
818.781213	0.876378
819.099843	0.865801
819.418429	0.849690
819.736970	0.834670
820.055466	0.813766
820.373919	0.789694
820.692327	0.756811
821.010691	0.722716
821.329011	0.647399
821.647286	0.534236
821.965517	0.422464
822.283704	0.379934
822.601847	0.381925
822.919945	0.417753
823.237999	0.450247
823.556010	0.496106
823.873976	0.550659
824.191897	0.601208
824.509775	0.642033
824.827609	0.687112
825.145398	0.709075
825.463144	0.711040
825.780845	0.695688
826.098502	0.676351
826.416116	0.632262
826.733685	0.588730
827.051210	0.580603
827.368692	0.595067
827.686129	0.631314
828.003522	0.683223
828.320872	0.730728
828.638177	0.773517
828.955439	0.805053
829.272656	0.827215
829.589830	0.842963
829.906960	0.858407
830.224046	0.870852
830.541088	0.880390
830.858086	0.884785
831.175041	0.892433
831.491952	0.890393
831.808819	0.887170
832.125642	0.880530
832.442421	0.866233
832.759157	0.845074
833.075849	0.800033
833.392497	0.736825
833.709101	0.696721
834.025662	0.706488
834.342179	0.737459
834.658653	0.775904
834.975083	0.811232
835.291469	0.837445
835.607811	0.859236
835.924110	0.875178
836.240366	0.890736
836.556578	0.904609
836.872746	0.912873
837.188871	0.918643
837.504952	0.923446
837.820990	0.925912
838.136984	0.930356
838.452935	0.932112
838.768842	0.933370
839.084706	0.927849
839.400526	0.902241
839.716303	0.863548
840.032037	0.840822
840.347727	0.845052
840.663373	0.862402
840.978977	0.883329
841.294537	0.905006
841.610054	0.920652
841.925527	0.928886
842.240957	0.935672
842.556344	0.941750
842.871687	0.948254
843.186987	0.952372
843.502244	0.952348
843.817458	0.955188
844.132629	0.957495
844.447756	0.963102
844.762840	0.962119
845.077881	0.962080
845.392879	0.961802
845.707833	0.965323
846.022745	0.966254
846.337613	0.967359
846.652438	0.967920
846.967221	0.966626
847.281960	0.967403
847.596656	0.968679
847.911309	0.967225
848.225919	0.970123
848.540485	0.970403
848.855009	0.971177
849.169490	0.970055
849.483928	0.971830
849.798323	0.970847
850.112675	0.971847
850.426984	0.972606
850.741251	0.971350
851.055474	0.972406
851.369654	0.970072
851.683792	0.970398
851.997887	0.971721
852.311938	0.972647
852.625947	0.970629
852.939914	0.970505
853.253837	0.971471
853.567718	0.972244
853.881555	0.972882
854.195350	0.970042
854.509103	0.971637
854.822812	0.972006
855.136479	0.971979
855.450103	0.971029
855.763685	0.970261
856.077224	0.970687
856.390720	0.973013
856.704173	0.971440
857.017584	0.970045
857.330953	0.969236
857.644278	0.970105
857.957561	0.969657
858.270802	0.970527
858.584000	0.969703
858.897155	0.968783
859.210268	0.969554
859.523339	0.970541
859.836367	0.972179
860.149352	0.972597
860.462295	0.971181
860.775195	0.972123
861.088054	0.971032
861.400869	0.971038
861.713642	0.972832
862.026373	0.972527
862.339062	0.972630
862.651708	0.970196
862.964312	0.968737
863.276873	0.971432
863.589392	0.970280
863.901869	0.970208
864.214303	0.967493
864.526696	0.966445
864.839045	0.965532
865.151353	0.963481
865.463619	0.964619
865.775842	0.964475
866.088023	0.964413
866.400162	0.964713
866.712258	0.964586
867.024313	0.964979
867.336325	0.965715
867.648296	0.965236
867.960224	0.964487
868.272110	0.964300
868.583954	0.966924
868.895755	0.966047
869.207515	0.964613
869.519233	0.961569
869.830909	0.963805
870.142542	0.964773
870.454134	0.964867
870.765684	0.963996
871.077191	0.960192
871.388657	0.961701
871.700081	0.959547
872.011463	0.960918
872.322803	0.961052
872.634101	0.960106
872.945357	0.956915
873.256571	0.955680
873.567744	0.955789
873.878874	0.957145
874.189963	0.955371
874.501010	0.954092
874.812015	0.952700
875.122979	0.953959
875.433900	0.956950
875.744780	0.957252
876.055618	0.953066
876.366415	0.952518
876.677169	0.952814
876.987882	0.954244
877.298554	0.953664
877.609183	0.951479
877.919771	0.947715
878.230317	0.946315
878.540822	0.944224
878.851285	0.938767
879.161707	0.931530
879.472087	0.919521
879.782425	0.904427
880.092722	0.870761
880.402977	0.821850
880.713191	0.762615
881.023363	0.706585
881.333494	0.673201
881.643583	0.646039
881.953631	0.645136
882.263637	0.674735
882.573602	0.713575
882.883526	0.737589
883.193408	0.759856
883.503248	0.780714
883.813048	0.807154
884.122806	0.836717
884.432522	0.858786
884.742197	0.877769
885.051831	0.888129
885.361424	0.897242
885.670975	0.908488
885.980485	0.918170
886.289954	0.924848
886.599382	0.929342
886.908768	0.932229
887.218113	0.938135
887.527417	0.942908
887.836680	0.946075
888.145901	0.947787
888.455082	0.949203
888.764221	0.953519
889.073319	0.956598
889.382376	0.956781
889.691392	0.956319
890.000366	0.956853
890.309300	0.956653
890.618193	0.956740
890.927044	0.954725
891.235855	0.954811
891.544625	0.954149
891.853353	0.955148
892.162041	0.952911
892.470687	0.945794
892.779293	0.942606
893.087858	0.938703
893.396381	0.930697
893.704864	0.918670
894.013306	0.895485
894.321707	0.869787
894.630068	0.855910
894.938387	0.852368
895.246665	0.853349
895.554903	0.863763
895.863100	0.876868
896.171256	0.894573
896.479371	0.911903
896.787446	0.923928
897.095480	0.928027
897.403473	0.933288
897.711425	0.937117
898.019336	0.943805
898.327207	0.946438
898.635038	0.949331
898.942827	0.948970
899.250576	0.952918
899.558284	0.956433
899.865952	0.957500
900.173579	0.959024
900.481165	0.958542
900.788711	0.963876
901.096216	0.964994
901.403681	0.964909
901.711105	0.965069
902.018489	0.966376
902.325832	0.965757
902.633135	0.964770
902.940397	0.959199
903.247619	0.947866
903.554800	0.924371
903.861941	0.886339
904.169041	0.853209
904.476101	0.836532
904.783121	0.837521
905.090100	0.852449
905.397039	0.871953
905.703938	0.893433
906.010796	0.911901
906.317614	0.928684
906.624391	0.939875
906.931129	0.947736
907.237826	0.956179
907.544483	0.963130
907.851099	0.966633
908.157675	0.971429
908.464211	0.972459
908.770707	0.975259
909.077163	0.975747
909.383578	0.977245
909.689954	0.977054
909.996289	0.978432
910.302584	0.980547
910.608839	0.981914
910.915054	0.980409
911.221229	0.981241
911.527363	0.980052
911.833458	0.979554
912.139513	0.979352
912.445527	0.977617
912.751502	0.976046
913.057436	0.974913
913.363331	0.971912
913.669186	0.968836
913.975000	0.965224
914.280775	0.959207
914.586510	0.953202
914.892205	0.940886
915.197859	0.920248
915.503475	0.894242
915.809050	0.876642
916.114585	0.871519
916.420081	0.869492
916.725536	0.865664
917.030952	0.873882
917.336328	0.885546
917.641665	0.899447
917.946961	0.914670
918.252218	0.925543
918.557435	0.933918
918.862612	0.941428
919.167750	0.947402
919.472848	0.950704
919.777906	0.956815
920.082925	0.962442
920.387904	0.965028
920.692843	0.965854
920.997743	0.967310
921.302603	0.970118
921.607423	0.971141
921.912204	0.974328
922.216946	0.974397
922.521647	0.975725
922.826310	0.977401
923.130932	0.979167
923.435516	0.980175
923.740059	0.981696
924.044564	0.981127
924.349028	0.983109
924.653454	0.985434
924.957840	0.987030
925.262186	0.985865
925.566493	0.986604
925.870761	0.986589
926.174989	0.988458
926.479178	0.990448
926.783328	0.990886
927.087438	0.990286
927.391509	0.989126
927.695541	0.991161
927.999533	0.991188
928.303486	0.991407
928.607400	0.992366
928.911275	0.990397
929.215110	0.991733
929.518906	0.991720
929.822663	0.990562
930.126381	0.993600
930.430060	0.991964
930.733699	0.992674
931.037299	0.991375
931.340861	0.992166
931.644383	0.992131
931.947866	0.989736
932.251309	0.992074
932.554714	0.992730
932.858080	0.992373
933.161407	0.990922
933.464694	0.992757
933.767943	0.991301
934.071153	0.991977
934.374323	0.993464
934.677455	0.993068
934.980548	0.993501
935.283602	0.992638
935.586617	0.991927
935.889593	0.991903
936.192530	0.991291
936.495428	0.993263
936.798287	0.992828
937.101108	0.991695
937.403890	0.990323
937.706632	0.990844
938.009336	0.988789
938.312002	0.988818
938.614628	0.985972
938.917216	0.986343
939.219765	0.984210
939.522275	0.985837
939.824747	0.985999
940.127179	0.986881
940.429573	0.987247
940.731929	0.986695
941.034246	0.986697
941.336524	0.988380
941.638763	0.988489
941.940964	0.988186
942.243126	0.989113
942.545250	0.988822
942.847335	0.989841
943.149381	0.989364
943.451389	0.990380
943.753359	0.989087
944.055290	0.992288
944.357182	0.991001
944.659036	0.990473
944.960851	0.990902
945.262628	0.992129
945.564367	0.992819
945.866067	0.991376
946.167729	0.991432
946.469352	0.991188
946.770937	0.989750
947.072484	0.992029
947.373992	0.991157
947.675462	0.991771
947.976893	0.991114
948.278286	0.991162
948.579641	0.993005
948.880958	0.992677
949.182236	0.992485
949.483476	0.991030
949.784678	0.992111
950.085841	0.992792
950.386967	0.992160
950.688054	0.992637
950.989103	0.992796
951.290114	0.991548
951.591087	0.991594
951.892021	0.991289
952.192917	0.991298
952.493776	0.989851
952.794596	0.990748
953.095378	0.988818
953.396122	0.990073
953.696828	0.988858
953.997496	0.991689
954.298126	0.992523
954.598718	0.992071
954.899272	0.993764
955.199788	0.992597
955.500266	0.993805
955.800706	0.994221
956.101108	0.994638
956.401472	0.995920
956.701798	0.994872
957.002087	0.993219
957.302337	0.995878
957.602550	0.995767
957.902724	0.995840
958.202861	0.996055
958.502960	0.996321
958.803022	0.995462
959.103045	0.997961
959.403031	0.996935
959.702979	0.997173
960.002889	0.996154
960.302762	0.994819
960.602596	0.997493
960.902393	0.995580
961.202153	0.997486
961.501875	0.996332
961.801559	0.997238
962.101205	0.996710
962.400814	0.997329
962.700385	0.997423
962.999918	0.996389
963.299414	0.996808
963.598873	0.996278
963.898293	0.996285
964.197677	0.996304
964.497022	0.997054
964.796331	0.999300
965.095601	0.996923
965.394835	0.996739
965.694030	0.997965
965.993189	0.997567
966.292309	0.996865
966.591393	0.998300
966.890439	0.998128
967.189447	0.997714
967.488419	0.998789
967.787353	0.996469
968.086249	0.998028
968.385108	0.997424
968.683930	0.997762
968.982714	0.998399
969.281462	0.998037
969.580172	0.997193
969.878844	0.997545
970.177480	0.997344
970.476078	0.997766
970.774639	0.998180
971.073162	0.996851
971.371649	0.996550
971.670098	0.997568
971.968510	0.997721
972.266885	0.996161
972.565223	0.996514
972.863524	0.997306
973.161788	0.996928
973.460014	0.998924
973.758204	0.996294
974.056356	0.997348
974.354471	0.995977
974.652550	0.997164
974.950591	0.996061
975.248595	0.996727
975.546563	0.998135
975.844493	0.997850
976.142386	0.996415
976.440243	0.998253
976.738062	0.998416
977.035845	0.998312
977.333590	0.997157
977.631299	0.997915
977.928971	0.998832
978.226606	0.997649
978.524204	0.997112
978.821765	0.998889
979.119290	0.996901
979.416777	0.998461
979.714228	0.997473
980.011642	0.996486
980.309020	0.998327
980.606360	0.998500
980.903664	0.999483
981.200931	0.996677
981.498162	0.995304
981.795356	0.995552
982.092513	0.994153
982.389633	0.995506
982.686717	0.991293
982.983764	0.993254
983.280775	0.991514
983.577749	0.991710
983.874686	0.993389
984.171587	0.993813
984.468451	0.996555
984.765279	0.995383
985.062070	0.996118
985.358824	0.995923
985.655543	0.996254
985.952224	0.997271
986.248869	0.997621
986.545478	0.998845
986.842050	0.998789
987.138586	0.995248
987.435086	0.997321
987.731549	0.999396
988.027975	0.999484
988.324366	0.998534
988.620719	0.998060
988.917037	0.996833
989.213318	0.999464
989.509563	0.999105
989.805772	0.998876
990.101944	0.998846
990.398080	0.997860
990.694180	0.998926
990.990244	0.997551
991.286271	0.998593
991.582262	0.998768
991.878217	0.999074
992.174136	1.000097
992.470019	0.999491
992.765865	0.997601
993.061676	0.999225
993.357450	0.997373
993.653188	0.996775
993.948890	0.998694
994.244556	0.997818
994.540186	0.998181
994.835780	0.996072
995.131337	0.998059
995.426859	0.997469
995.722345	0.998661
996.017795	0.997523
996.313208	0.997021
996.608586	0.997282
996.903928	0.998366
997.199234	0.996579
997.494504	0.997676
997.789738	0.995696
998.084936	0.997905
998.380099	0.997516
998.675225	0.997960
998.970316	0.999030
999.265371	0.998935
999.560390	0.998085
999.855373	0.998729
1000.150320	0.997877
1000.445232	0.998750
1000.740108	0.998629
1001.034948	0.998246
1001.329752	0.999374
1001.624521	0.999885
1001.919254	0.998020
1002.213951	0.997982
1002.508613	0.998717
1002.803239	0.999809
1003.097829	1.000484
1003.392384	0.999513
1003.686903	0.999003
1003.981386	0.998579
1004.275834	0.998992
1004.570246	0.998970
1004.864623	0.999681
1005.158964	1.000042
1005.453270	0.999316
1005.747540	0.998132
1006.041775	0.997667
1006.335974	1.000483
1006.630138	0.999340
1006.924266	0.999729
1007.218359	1.001113
1007.512416	0.999584
1007.806438	1.000344
1008.100425	0.999715
1008.394376	0.999137
1008.688292	0.999605
1008.982172	0.999902
1009.276017	1.000511
1009.569827	0.999062
1009.863602	0.999717
1010.157341	0.999208
1010.451045	1.000110
1010.744714	1.000058
1011.038347	0.999164
1011.331945	0.999030
1011.625508	0.998388
1011.919036	0.998822
1012.212528	0.999479
1012.505986	0.998081
1012.799408	0.999514
1013.092795	0.999776
1013.386147	1.000073
1013.679464	0.999042
1013.972745	0.999381
1014.265992	0.997853
1014.559204	0.999377
1014.852380	1.000025
1015.145521	0.999150
1015.438628	0.999545
1015.731699	0.999677
1016.024736	1.000105
1016.317737	0.999211
1016.610703	0.999241
1016.903635	0.998958
1017.196531	0.999120
1017.489393	1.000317
1017.782219	0.999560
1018.075011	0.998475
1018.367768	0.999383
1018.660490	1.000423
1018.953177	1.000423
1019.245829	1.000423
