Dividing Wavelength (nm)	Counts (n)	Blue Motor Position (mm): 0.000000	Red Motor Position (mm): 12.300000	
326.493990	1.001823
326.888308	1.001823
327.282561	1.001823
327.676750	0.999022
328.070874	0.999625
328.464933	0.999074
328.858929	0.999364
329.252859	1.000001
329.646726	0.998989
330.040528	1.000745
330.434265	0.999186
330.827938	1.000345
331.221547	0.999658
331.615091	0.999556
332.008571	0.999382
332.401986	0.999666
332.795338	1.000969
333.188625	0.998527
333.581847	0.999802
333.975006	0.999162
334.368100	0.999603
334.761129	0.999819
335.154095	0.999616
335.546996	0.997944
335.939833	0.993023
336.332606	0.992976
336.725315	0.993058
337.117960	0.995615
337.510540	0.992895
337.903056	0.994766
338.295508	0.992247
338.687896	0.994008
339.080220	0.993540
339.472480	0.993919
339.864676	0.993514
340.256807	0.993886
340.648875	0.994939
341.040879	0.994823
341.432818	0.993930
341.824694	0.993265
342.216506	0.994663
342.608253	0.994174
342.999937	0.993138
343.391557	0.994034
343.783113	0.993441
344.174605	0.993754
344.566033	0.995100
344.957397	0.993134
345.348697	0.993756
345.739934	0.994245
346.131106	0.992642
346.522215	0.993422
346.913260	0.992895
347.304241	0.993862
347.695159	0.993417
348.086012	0.992842
348.476802	0.994782
348.867528	0.994111
349.258191	0.992637
349.648789	0.994073
350.039324	0.993865
350.429796	0.994532
350.820203	0.994108
351.210548	0.992905
351.600828	0.992701
351.991045	0.993591
352.381198	0.992893
352.771288	0.993803
353.161314	0.992950
353.551276	0.994860
353.941175	0.992066
354.331010	0.992281
354.720782	0.993677
355.110490	0.992383
355.500135	0.993999
355.889717	0.992340
356.279235	0.993262
356.668689	0.992532
357.058080	0.992802
357.447408	0.993910
357.836672	0.994607
358.225873	0.993726
358.615010	0.994637
359.004084	0.994849
359.393095	0.993425
359.782043	0.993999
360.170927	0.993796
360.559748	0.993803
360.948505	0.993289
361.337199	0.993373
361.725830	0.994580
362.114398	0.992947
362.502903	0.994343
362.891344	0.994375
363.279722	0.993307
363.668037	0.992972
364.056289	0.994412
364.444478	0.995252
364.832603	0.993265
365.220665	0.992532
365.608665	0.994522
365.996601	0.991974
366.384474	0.993370
366.772284	0.992606
367.160031	0.992062
367.547715	0.991370
367.935336	0.992998
368.322893	0.991635
368.710388	0.992610
369.097820	0.992242
369.485189	0.993127
369.872495	0.991534
370.259738	0.991930
370.646918	0.993505
371.034035	0.992829
371.421090	0.992212
371.808081	0.992692
372.195010	0.993034
372.581875	0.992639
372.968678	0.992244
373.355418	0.992444
373.742096	0.992156
374.128710	0.993717
374.515262	0.991861
374.901751	0.992350
375.288177	0.992767
375.674540	0.993495
376.060841	0.992100
376.447079	0.992520
376.833254	0.992468
377.219367	0.992330
377.605417	0.992906
377.991404	0.992774
378.377329	0.992730
378.763191	0.991248
379.148991	0.993010
379.534727	0.992419
379.920402	0.992609
380.306013	0.992529
380.691563	0.993460
381.077049	0.992340
381.462474	0.991943
381.847835	0.992698
382.233134	0.991878
382.618371	0.992587
383.003545	0.991603
383.388657	0.992418
383.773706	0.992637
384.158693	0.991777
384.543618	0.991978
384.928480	0.992083
385.313280	0.990249
385.698017	0.989994
386.082692	0.988057
386.467305	0.987366
386.851856	0.985621
387.236344	0.984568
387.620770	0.981324
388.005133	0.980100
388.389435	0.976325
388.773674	0.973253
389.157851	0.969510
389.541965	0.965337
389.926018	0.962130
390.310008	0.957945
390.693936	0.952334
391.077802	0.946756
391.461606	0.942407
391.845348	0.934816
392.229027	0.930315
392.612645	0.923337
392.996200	0.915927
393.379694	0.906576
393.763125	0.897971
394.146494	0.891615
394.529801	0.881784
394.913047	0.871826
395.296230	0.865960
395.679351	0.855442
396.062410	0.845285
396.445408	0.839509
396.828343	0.828737
397.211217	0.818181
397.594028	0.815563
397.976778	0.801776
398.359466	0.791753
398.742092	0.780646
399.124656	0.779121
399.507158	0.764582
399.889598	0.755218
400.271977	0.740707
400.654294	0.735873
401.036549	0.726437
401.418742	0.722436
401.800874	0.703755
402.182944	0.694508
402.564952	0.680413
402.946898	0.675794
403.328783	0.668727
403.710606	0.670135
404.092367	0.643734
404.474067	0.641620
404.855705	0.635616
405.237282	0.637068
405.618797	0.620162
406.000250	0.611062
406.381642	0.599339
406.762972	0.598670
407.144240	0.592689
407.525447	0.589807
407.906593	0.578582
408.287677	0.569781
408.668700	0.574949
409.049661	0.566108
409.430560	0.559378
409.811399	0.564623
410.192176	0.544100
410.572891	0.548544
410.953545	0.535674
411.334138	0.545935
411.714669	0.537873
412.095139	0.547475
412.475547	0.530674
412.855894	0.531821
413.236180	0.529823
413.616405	0.534437
413.996568	0.524190
414.376670	0.529349
414.756711	0.533479
415.136691	0.529644
415.516609	0.520846
415.896466	0.516691
416.276262	0.512561
416.655997	0.514545
417.035670	0.494915
417.415283	0.487078
417.794834	0.491860
418.174324	0.496594
418.553753	0.506054
418.933121	0.488246
419.312428	0.481496
419.691674	0.487567
420.070859	0.476463
420.449983	0.483905
420.829045	0.473357
421.208047	0.482045
421.586988	0.475585
421.965867	0.474304
422.344686	0.462823
422.723444	0.475554
423.102141	0.491882
423.480777	0.465070
423.859352	0.485712
424.237866	0.462220
424.616319	0.462913
424.994712	0.454210
425.373044	0.464714
425.751314	0.452375
426.129524	0.468987
426.507673	0.452776
426.885762	0.446434
427.263789	0.451963
427.641756	0.461576
428.019662	0.451801
428.397508	0.450691
428.775292	0.454734
429.153016	0.447682
429.530679	0.454013
429.908282	0.446619
430.285824	0.456539
430.663305	0.434880
431.040726	0.456149
431.418086	0.456723
431.795385	0.447825
432.172624	0.446477
432.549802	0.447102
432.926920	0.446018
433.303977	0.445714
433.680974	0.442598
434.057910	0.441449
434.434786	0.440951
434.811601	0.443172
435.188355	0.425599
435.565050	0.435114
435.941683	0.436112
436.318257	0.420760
436.694770	0.421414
437.071222	0.419629
437.447614	0.423902
437.823946	0.430344
438.200218	0.419951
438.576429	0.429615
438.952580	0.423201
439.328670	0.419324
439.704700	0.425677
440.080670	0.427265
440.456580	0.408028
440.832429	0.416411
441.208218	0.426585
441.583947	0.416338
441.959616	0.416020
442.335224	0.420806
442.710773	0.411766
443.086261	0.409158
443.461689	0.423765
443.837057	0.413385
444.212365	0.403088
444.587612	0.410550
444.962800	0.400432
445.337927	0.402263
445.712995	0.428133
446.088002	0.390421
446.462949	0.400918
446.837837	0.405089
447.212664	0.394306
447.587431	0.386041
447.962139	0.356622
448.336786	0.315867
448.711374	0.326382
449.085901	0.370014
449.460369	0.374312
449.834776	0.378083
450.209124	0.356820
450.583412	0.350004
450.957640	0.343053
451.331808	0.354303
451.705917	0.377048
452.079965	0.382027
452.453954	0.370182
452.827883	0.376973
453.201752	0.371890
453.575562	0.383456
453.949311	0.371923
454.323001	0.377932
454.696632	0.373514
455.070202	0.366821
455.443713	0.358134
455.817164	0.353376
456.190556	0.348999
456.563888	0.345246
456.937160	0.343169
457.310373	0.360546
457.683526	0.359398
458.056619	0.364959
458.429653	0.365609
458.802628	0.369089
459.175542	0.363205
459.548398	0.345955
459.921194	0.338545
460.293930	0.338570
460.666607	0.316034
461.039224	0.304475
461.411782	0.300067
461.784280	0.299396
462.156719	0.303548
462.529099	0.308409
462.901419	0.324063
463.273680	0.328501
463.645882	0.328142
464.018024	0.333754
464.390106	0.326452
464.762130	0.311304
465.134094	0.294582
465.505999	0.263655
465.877845	0.234175
466.249631	0.221145
466.621358	0.228886
466.993026	0.242533
467.364634	0.248811
467.736184	0.257573
468.107674	0.265928
468.479105	0.265138
468.850477	0.271664
469.221790	0.278663
469.593043	0.289057
469.964238	0.293897
470.335373	0.292909
470.706449	0.291553
471.077467	0.291807
471.448425	0.254191
471.819324	0.229896
472.190164	0.229120
472.560945	0.257778
472.931667	0.280006
473.302330	0.284165
473.672934	0.295874
474.043479	0.284180
474.413965	0.286048
474.784393	0.289787
475.154761	0.284684
475.525070	0.281727
475.895321	0.287575
476.265513	0.281134
476.635645	0.276894
477.005719	0.276708
477.375734	0.273519
477.745691	0.266982
478.115588	0.263244
478.485427	0.256882
478.855207	0.243614
479.224928	0.226313
479.594591	0.214658
479.964194	0.217663
480.333739	0.219057
480.703226	0.220560
481.072653	0.218627
481.442022	0.214493
481.811333	0.211108
482.180584	0.214318
482.549777	0.219924
482.918912	0.223262
483.287988	0.222570
483.657005	0.222581
484.025964	0.229137
484.394864	0.226084
484.763706	0.226986
485.132489	0.231976
485.501213	0.232240
485.869879	0.230998
486.238487	0.234366
486.607036	0.232350
486.975527	0.236416
487.343959	0.232562
487.712333	0.231391
488.080648	0.232982
488.448905	0.232345
488.817104	0.233346
489.185244	0.228251
489.553326	0.224894
489.921350	0.214749
490.289315	0.197390
490.657222	0.192329
491.025070	0.193402
491.392861	0.195568
491.760593	0.201353
492.128267	0.206980
492.495883	0.212374
492.863440	0.218440
493.230939	0.225010
493.598380	0.226110
493.965763	0.228478
494.333088	0.231010
494.700354	0.232104
495.067563	0.231132
495.434713	0.234419
495.801805	0.232487
496.168839	0.233698
496.535815	0.235255
496.902733	0.235091
497.269593	0.236907
497.636395	0.234724
498.003139	0.235004
498.369825	0.237896
498.736453	0.234291
499.103023	0.235759
499.469535	0.234994
499.835989	0.235326
500.202385	0.236443
500.568723	0.239641
500.935003	0.234995
501.301226	0.239052
501.667390	0.233163
502.033497	0.231417
502.399546	0.234375
502.765537	0.236191
503.131470	0.234882
503.497345	0.230962
503.863163	0.239727
504.228923	0.232601
504.594625	0.231196
504.960269	0.237060
505.325856	0.232134
505.691385	0.236325
506.056856	0.233113
506.422270	0.232546
506.787625	0.234863
507.152924	0.232231
507.518164	0.232735
507.883347	0.234643
508.248472	0.236311
508.613540	0.231172
508.978550	0.233944
509.343503	0.234331
509.708398	0.231779
510.073236	0.229672
510.438016	0.229385
510.802738	0.230589
511.167403	0.229450
511.532010	0.231444
511.896561	0.226645
512.261053	0.225584
512.625488	0.227683
512.989866	0.227740
513.354186	0.228358
513.718449	0.230320
514.082655	0.226302
514.446803	0.228934
514.810894	0.226571
515.174927	0.229111
515.538904	0.228346
515.902822	0.225332
516.266684	0.227730
516.630488	0.229081
516.994235	0.227530
517.357925	0.226550
517.721558	0.224740
518.085133	0.224307
518.448651	0.224169
518.812112	0.226286
519.175516	0.226287
519.538863	0.223821
519.902152	0.225599
520.265385	0.222315
520.628560	0.224089
520.991678	0.224650
521.354739	0.223541
521.717743	0.224649
522.080690	0.225136
522.443580	0.222343
522.806413	0.223433
523.169189	0.222877
523.531908	0.221619
523.894569	0.225375
524.257174	0.225184
524.619722	0.222678
524.982213	0.223922
525.344647	0.222815
525.707025	0.223537
526.069345	0.221945
526.431608	0.223568
526.793815	0.221423
527.155964	0.225453
527.518057	0.224593
527.880093	0.225476
528.242072	0.224004
528.603995	0.225941
528.965860	0.227548
529.327669	0.226319
529.689421	0.227602
530.051117	0.228124
530.412755	0.225843
530.774337	0.228262
531.135862	0.228834
531.497331	0.228049
531.858743	0.230790
532.220098	0.227529
532.581396	0.230188
532.942638	0.230494
533.303824	0.231600
533.664953	0.231398
534.026025	0.232735
534.387040	0.231207
534.747999	0.230873
535.108902	0.229770
535.469748	0.234786
535.830537	0.232759
536.191270	0.233292
536.551947	0.232812
536.912567	0.232773
537.273131	0.234404
537.633638	0.234460
537.994089	0.234742
538.354483	0.235879
538.714821	0.233179
539.075103	0.232678
539.435328	0.233703
539.795497	0.237312
540.155609	0.233637
540.515665	0.231864
540.875665	0.237848
541.235609	0.236082
541.595496	0.236284
541.955328	0.232727
542.315102	0.235629
542.674821	0.236657
543.034483	0.236450
543.394090	0.236314
543.753640	0.237937
544.113134	0.233187
544.472571	0.236368
544.831953	0.233264
545.191278	0.237738
545.550548	0.236861
545.909761	0.233539
546.268918	0.234413
546.628019	0.232510
546.987064	0.235451
547.346053	0.237238
547.704986	0.235181
548.063863	0.235461
548.422684	0.235447
548.781449	0.237311
549.140158	0.234745
549.498811	0.238011
549.857408	0.240987
550.215949	0.235850
550.574434	0.238969
550.932864	0.236807
551.291237	0.235384
551.649555	0.236818
552.007817	0.236715
552.366022	0.237428
552.724173	0.237632
553.082267	0.238025
553.440305	0.235026
553.798288	0.239429
554.156215	0.235627
554.514086	0.236676
554.871902	0.239550
555.229661	0.238914
555.587365	0.239550
555.945014	0.241819
556.302606	0.238679
556.660143	0.241515
557.017625	0.237939
557.375050	0.240035
557.732421	0.237245
558.089735	0.239141
558.446994	0.239177
558.804197	0.238506
559.161345	0.238285
559.518437	0.241667
559.875474	0.239741
560.232455	0.239256
560.589381	0.240100
560.946251	0.240246
561.303065	0.237809
561.659825	0.239291
562.016528	0.240726
562.373177	0.243364
562.729770	0.240799
563.086307	0.243130
563.442789	0.240900
563.799216	0.243623
564.155587	0.242213
564.511904	0.243413
564.868164	0.243786
565.224370	0.243487
565.580520	0.245545
565.936615	0.245144
566.292654	0.247991
566.648638	0.245177
567.004567	0.246057
567.360441	0.246678
567.716260	0.248731
568.072023	0.246512
568.427732	0.247086
568.783385	0.249529
569.138982	0.247638
569.494525	0.247132
569.850013	0.250148
570.205445	0.248592
570.560823	0.251107
570.916145	0.253256
571.271412	0.251329
571.626625	0.252772
571.981782	0.253262
572.336884	0.254053
572.691931	0.253874
573.046923	0.255110
573.401860	0.256472
573.756743	0.258242
574.111570	0.256745
574.466342	0.257358
574.821059	0.256263
575.175722	0.259526
575.530330	0.259277
575.884882	0.259486
576.239380	0.261358
576.593823	0.262183
576.948211	0.261311
577.302544	0.264499
577.656823	0.264244
578.011047	0.264438
578.365216	0.264645
578.719330	0.267176
579.073389	0.266848
579.427394	0.268275
579.781344	0.268744
580.135239	0.270259
580.489080	0.270065
580.842866	0.272840
581.196597	0.272854
581.550273	0.271393
581.903895	0.272454
582.257463	0.270731
582.610975	0.274152
582.964434	0.273211
583.317837	0.275931
583.671186	0.276169
584.024481	0.276375
584.377721	0.279035
584.730906	0.279387
585.084037	0.278271
585.437113	0.280318
585.790135	0.280072
586.143103	0.282844
586.496016	0.283988
586.848874	0.281639
587.201679	0.282411
587.554428	0.285540
587.907124	0.284161
588.259765	0.284647
588.612352	0.285503
588.964884	0.289286
589.317362	0.288780
589.669786	0.288856
590.022155	0.287218
590.374470	0.286632
590.726731	0.288916
591.078937	0.293592
591.431090	0.289888
591.783188	0.294111
592.135232	0.294205
592.487222	0.294171
592.839157	0.292414
593.191038	0.294729
593.542866	0.296623
593.894639	0.300273
594.246358	0.297906
594.598022	0.297740
594.949633	0.301501
595.301190	0.302173
595.652692	0.301301
596.004141	0.297656
596.355535	0.305460
596.706876	0.306189
597.058162	0.308600
597.409395	0.305837
597.760573	0.303340
598.111698	0.306880
598.462768	0.307000
598.813785	0.308271
599.164748	0.309621
599.515657	0.309602
599.866511	0.313286
600.217312	0.308427
600.568060	0.314131
600.918753	0.310337
601.269392	0.310998
601.619978	0.314785
601.970510	0.312610
602.320988	0.312358
602.671412	0.309914
603.021783	0.312699
603.372100	0.313774
603.722363	0.313696
604.072572	0.314339
604.422728	0.314242
604.772830	0.316280
605.122878	0.315945
605.472872	0.316669
605.822813	0.315197
606.172701	0.317080
606.522534	0.314824
606.872314	0.314745
607.222041	0.315514
607.571714	0.313959
607.921333	0.315230
608.270899	0.315013
608.620411	0.311798
608.969870	0.315737
609.319276	0.315871
609.668627	0.315505
610.017926	0.314197
610.367171	0.312527
610.716362	0.313411
611.065500	0.313643
611.414585	0.312426
611.763616	0.312775
612.112594	0.313538
612.461518	0.312861
612.810389	0.310591
613.159207	0.312867
613.507971	0.314945
613.856682	0.310159
614.205340	0.311771
614.553945	0.308824
614.902496	0.312593
615.250994	0.310687
615.599439	0.311245
615.947830	0.311122
616.296169	0.311735
616.644454	0.311438
616.992686	0.311362
617.340864	0.309318
617.688990	0.312804
618.037063	0.309431
618.385082	0.311463
618.733048	0.308620
619.080961	0.310770
619.428821	0.309895
619.776628	0.309113
620.124382	0.311579
620.472083	0.311532
620.819731	0.310930
621.167326	0.314657
621.514868	0.314636
621.862357	0.319221
622.209793	0.318517
622.557176	0.321108
622.904506	0.321931
623.251783	0.324248
623.599007	0.326534
623.946179	0.325991
624.293297	0.328086
624.640363	0.332047
624.987376	0.332248
625.334336	0.335007
625.681243	0.337317
626.028097	0.338060
626.374899	0.339214
626.721647	0.339356
627.068343	0.342559
627.414987	0.343492
627.761577	0.345825
628.108115	0.343782
628.454600	0.349144
628.801032	0.346260
629.147412	0.348632
629.493739	0.348824
629.840014	0.352085
630.186236	0.349206
630.532405	0.355120
630.878521	0.352504
631.224585	0.354670
631.570597	0.358429
631.916556	0.356769
632.262462	0.356758
632.608316	0.359047
632.954117	0.359829
633.299866	0.360597
633.645562	0.360739
633.991206	0.365312
634.336797	0.368011
634.682336	0.370017
635.027823	0.372456
635.373257	0.372558
635.718639	0.376324
636.063968	0.375145
636.409245	0.380761
636.754470	0.381496
637.099642	0.383798
637.444762	0.387426
637.789829	0.386450
638.134845	0.390074
638.479808	0.390992
638.824719	0.390635
639.169577	0.394604
639.514383	0.393758
639.859137	0.398008
640.203839	0.397816
640.548489	0.398287
640.893086	0.399930
641.237632	0.400759
641.582125	0.399701
641.926566	0.401052
642.270955	0.401524
642.615292	0.401551
642.959576	0.400720
643.303809	0.401139
643.647990	0.401042
643.992118	0.401547
644.336195	0.405429
644.680219	0.403505
645.024192	0.403919
645.368112	0.398154
645.711981	0.396609
646.055797	0.392130
646.399562	0.394463
646.743274	0.387156
647.086935	0.383805
647.430544	0.383732
647.774101	0.382777
648.117606	0.382280
648.461059	0.382841
648.804460	0.384867
649.147810	0.390872
649.491108	0.392813
649.834354	0.393721
650.177548	0.399401
650.520690	0.404658
650.863781	0.405840
651.206820	0.404753
651.549807	0.409997
651.892742	0.413668
652.235626	0.412880
652.578458	0.414321
652.921238	0.420253
653.263967	0.417892
653.606644	0.422175
653.949269	0.421733
654.291843	0.425904
654.634365	0.422243
654.976836	0.425626
655.319255	0.425845
655.661622	0.427369
656.003938	0.427730
656.346203	0.430442
656.688416	0.428264
657.030577	0.431571
657.372687	0.433109
657.714746	0.434265
658.056753	0.430954
658.398708	0.435279
658.740612	0.436222
659.082465	0.432271
659.424266	0.432959
659.766016	0.432640
660.107715	0.435179
660.449362	0.434567
660.790958	0.434682
661.132503	0.435177
661.473996	0.432921
661.815438	0.434377
662.156829	0.433761
662.498168	0.434478
662.839456	0.436325
663.180693	0.434152
663.521879	0.433866
663.863013	0.434809
664.204097	0.433637
664.545129	0.430083
664.886110	0.430330
665.227040	0.427828
665.567918	0.430655
665.908746	0.428506
666.249522	0.428162
666.590248	0.429433
666.930922	0.427399
667.271545	0.426409
667.612118	0.426398
667.952639	0.428021
668.293109	0.426544
668.633528	0.429951
668.973896	0.429278
669.314213	0.429703
669.654480	0.430920
669.994695	0.431858
670.334859	0.432529
670.674973	0.432820
671.015035	0.432751
671.355047	0.432786
671.695008	0.433677
672.034918	0.435643
672.374777	0.435489
672.714585	0.436056
673.054342	0.436247
673.394049	0.436668
673.733705	0.433553
674.073310	0.434860
674.412864	0.438114
674.752368	0.437938
675.091820	0.439315
675.431223	0.442823
675.770574	0.443528
676.109875	0.446548
676.449125	0.446364
676.788324	0.448176
677.127473	0.453760
677.466571	0.453309
677.805619	0.455088
678.144616	0.455838
678.483562	0.457488
678.822458	0.460758
679.161303	0.461591
679.500098	0.461358
679.838842	0.464049
680.177535	0.463275
680.516179	0.462063
680.854771	0.460639
681.193314	0.454115
681.531805	0.445164
681.870247	0.433982
682.208638	0.426214
682.546978	0.425807
682.885268	0.427226
683.223508	0.433651
683.561697	0.437744
683.899836	0.439656
684.237925	0.443355
684.575963	0.445455
684.913951	0.448704
685.251889	0.444232
685.589776	0.446402
685.927614	0.448827
686.265401	0.443543
686.603137	0.444056
686.940824	0.438986
687.278460	0.437053
687.616046	0.436108
687.953582	0.430866
688.291068	0.432567
688.628504	0.428626
688.965889	0.430342
689.303224	0.434524
689.640510	0.438336
689.977745	0.444467
690.314930	0.451819
690.652065	0.456648
690.989150	0.464850
691.326185	0.470710
691.663170	0.474980
692.000105	0.482658
692.336990	0.489081
692.673825	0.492431
693.010610	0.499337
693.347345	0.504643
693.684030	0.505934
694.020665	0.511712
694.357251	0.519916
694.693786	0.519286
695.030272	0.523595
695.366707	0.526919
695.703093	0.530324
696.039429	0.527844
696.375716	0.529558
696.711952	0.532588
697.048139	0.534002
697.384276	0.536427
697.720363	0.534912
698.056400	0.533776
698.392388	0.538667
698.728326	0.542665
699.064214	0.545002
699.400053	0.545351
699.735842	0.549055
700.071581	0.552111
700.407270	0.554548
700.742910	0.558123
701.078501	0.564041
701.414042	0.564229
701.749533	0.568337
702.084974	0.576036
702.420366	0.568557
702.755709	0.576758
703.091002	0.584401
703.426246	0.577187
703.761440	0.583542
704.096584	0.587300
704.431679	0.585238
704.766725	0.587445
705.101721	0.588482
705.436668	0.585515
705.771565	0.592063
706.106413	0.588940
706.441212	0.584354
706.775961	0.582775
707.110661	0.586253
707.445311	0.581542
707.779913	0.578617
708.114465	0.577840
708.448967	0.574203
708.783421	0.566498
709.117825	0.561190
709.452180	0.561344
709.786485	0.554315
710.120742	0.544779
710.454949	0.546574
710.789107	0.539358
711.123216	0.529928
711.457275	0.531527
711.791286	0.522083
712.125247	0.520936
712.459159	0.531803
712.793023	0.524593
713.126837	0.528402
713.460602	0.529209
713.794318	0.538125
714.127985	0.537093
714.461602	0.547162
714.795171	0.550712
715.128691	0.559030
715.462162	0.566107
715.795584	0.571267
716.128957	0.574408
716.462281	0.581209
716.795556	0.584532
717.128782	0.590222
717.461960	0.598869
717.795088	0.597894
718.128167	0.603589
718.461198	0.612519
718.794180	0.612762
719.127113	0.615889
719.459997	0.618927
719.792833	0.625796
720.125619	0.627120
720.458357	0.632702
720.791046	0.633240
721.123686	0.635865
721.456278	0.642848
721.788821	0.640390
722.121315	0.644073
722.453761	0.648410
722.786158	0.646786
723.118506	0.643291
723.450805	0.650573
723.783056	0.646132
724.115259	0.643894
724.447412	0.643835
724.779518	0.645529
725.111574	0.644436
725.443582	0.639486
725.775542	0.640744
726.107453	0.633855
726.439315	0.633620
726.771129	0.631727
727.102895	0.625386
727.434612	0.618063
727.766281	0.615978
728.097901	0.615687
728.429473	0.615202
728.760996	0.613605
729.092471	0.613358
729.423897	0.617166
729.755276	0.616204
730.086606	0.616736
730.417887	0.610478
730.749120	0.602028
731.080305	0.593129
731.411442	0.588858
731.742530	0.593631
732.073570	0.592553
732.404562	0.585021
732.735506	0.586383
733.066401	0.591450
733.397249	0.600202
733.728048	0.611800
734.058798	0.624403
734.389501	0.635531
734.720156	0.645144
735.050762	0.652737
735.381320	0.653819
735.711831	0.663824
736.042293	0.668548
736.372707	0.663922
736.703073	0.668036
737.033391	0.671137
737.363661	0.667192
737.693883	0.663082
738.024056	0.661840
738.354182	0.661993
738.684260	0.651101
739.014290	0.646472
739.344272	0.648501
739.674207	0.641459
740.004093	0.641042
740.333931	0.640848
740.663722	0.641531
740.993464	0.642101
741.323159	0.645762
741.652806	0.650869
741.982405	0.655820
742.311956	0.659760
742.641460	0.661995
742.970915	0.666558
743.300323	0.673654
743.629683	0.679905
743.958996	0.682588
744.288260	0.686287
744.617477	0.693196
744.946647	0.693566
745.275768	0.699468
745.604842	0.699092
745.933869	0.708699
746.262847	0.709653
746.591778	0.703374
746.920662	0.709570
747.249498	0.715330
747.578286	0.706258
747.907027	0.702497
748.235720	0.703647
748.564365	0.698804
748.892963	0.699176
749.221514	0.701841
749.550017	0.706608
749.878473	0.706714
750.206881	0.713157
750.535242	0.713628
750.863555	0.713001
751.191821	0.715220
751.520039	0.718018
751.848210	0.723226
752.176334	0.715615
752.504411	0.714634
752.832440	0.721912
753.160421	0.725902
753.488356	0.724411
753.816243	0.722878
754.144082	0.730263
754.471875	0.734368
754.799620	0.729921
755.127318	0.731678
755.454969	0.731070
755.782572	0.730703
756.110129	0.735708
756.437638	0.737137
756.765100	0.734351
757.092515	0.733186
757.419882	0.730898
757.747203	0.736669
758.074477	0.736438
758.401703	0.732715
758.728882	0.727378
759.056014	0.727596
759.383099	0.726333
759.710138	0.727217
760.037129	0.723242
760.364073	0.717149
760.690970	0.720187
761.017820	0.725610
761.344623	0.720989
761.671379	0.712468
761.998088	0.700673
762.324751	0.677854
762.651366	0.636462
762.977935	0.569152
763.304456	0.516263
763.630931	0.507588
763.957359	0.546137
764.283740	0.591037
764.610074	0.618385
764.936362	0.649664
765.262602	0.676018
765.588796	0.698088
765.914943	0.716316
766.241044	0.733591
766.567097	0.740030
766.893104	0.750106
767.219064	0.756085
767.544978	0.763085
767.870845	0.775794
768.196665	0.780042
768.522438	0.778432
768.848165	0.778784
769.173846	0.788392
769.499479	0.793013
769.825066	0.795606
770.150607	0.800904
770.476101	0.797023
770.801548	0.797580
771.126949	0.809395
771.452303	0.812827
771.777611	0.812374
772.102872	0.811202
772.428087	0.816286
772.753256	0.819893
773.078378	0.821205
773.403453	0.831331
773.728482	0.834781
774.053465	0.829490
774.378401	0.831653
774.703291	0.841699
775.028135	0.840121
775.352932	0.842279
775.677683	0.845399
776.002388	0.845329
776.327046	0.844483
776.651658	0.847959
776.976224	0.851290
777.300743	0.852447
777.625216	0.854107
777.949643	0.855421
778.274024	0.856326
778.598359	0.857574
778.922647	0.855604
779.246889	0.857164
779.571086	0.860885
779.895236	0.863265
780.219339	0.860089
780.543397	0.857131
780.867409	0.854090
781.191374	0.857493
781.515294	0.859012
781.839167	0.858301
782.162995	0.861195
782.486776	0.858071
782.810511	0.858955
783.134201	0.862981
783.457844	0.860615
783.781441	0.863759
784.104993	0.869453
784.428498	0.869128
784.751958	0.865486
785.075372	0.867648
785.398739	0.871752
785.722061	0.868377
786.045337	0.863611
786.368568	0.868433
786.691752	0.871224
787.014891	0.856001
787.337983	0.846900
787.661030	0.839772
787.984031	0.821861
788.306987	0.809795
788.629897	0.811408
788.952760	0.815667
789.275579	0.819650
789.598351	0.834064
789.921078	0.847635
790.243759	0.850723
790.566395	0.854984
790.888984	0.862224
791.211529	0.867779
791.534027	0.870951
791.856480	0.873264
792.178888	0.877796
792.501249	0.881723
792.823566	0.881149
793.145836	0.882783
793.468062	0.883935
793.790241	0.884891
794.112375	0.881557
794.434464	0.877940
794.756507	0.877091
795.078505	0.875870
795.400457	0.871524
795.722364	0.858197
796.044226	0.852476
796.366042	0.850959
796.687812	0.854848
797.009538	0.850822
797.331218	0.853497
797.652852	0.858147
797.974442	0.863411
798.295986	0.863063
798.617484	0.865616
798.938938	0.870269
799.260346	0.874815
799.581709	0.876686
799.903026	0.877967
800.224299	0.879658
800.545526	0.883946
800.866708	0.887158
801.187845	0.890266
801.508936	0.891238
801.829983	0.889491
802.150984	0.891920
802.471940	0.896173
802.792851	0.895219
803.113717	0.896745
803.434538	0.894704
803.755314	0.897558
804.076045	0.898400
804.396731	0.898773
804.717372	0.899226
805.037967	0.899979
805.358518	0.898810
805.679024	0.895956
805.999485	0.896371
806.319901	0.895535
806.640272	0.897309
806.960598	0.895838
807.280879	0.892640
807.601115	0.891309
807.921306	0.894786
808.241453	0.895161
808.561554	0.893362
808.881611	0.893581
809.201623	0.894251
809.521590	0.895084
809.841513	0.896416
810.161390	0.894960
810.481223	0.896194
810.801011	0.900212
811.120755	0.901314
811.440453	0.901319
811.760107	0.899330
812.079716	0.899183
812.399281	0.903285
812.718801	0.905384
813.038276	0.906840
813.357707	0.905804
813.677093	0.902414
813.996434	0.905754
814.315731	0.907634
814.634983	0.907949
814.954191	0.906672
815.273354	0.904175
815.592473	0.899715
815.911547	0.900594
816.230577	0.897154
816.549562	0.895196
816.868502	0.895437
817.187399	0.891922
817.506250	0.886787
817.825058	0.888740
818.143821	0.885567
818.462539	0.880144
818.781213	0.872050
819.099843	0.859786
819.418429	0.845197
819.736970	0.827793
820.055466	0.808087
820.373919	0.782103
820.692327	0.748502
821.010691	0.712874
821.329011	0.635732
821.647286	0.519369
821.965517	0.405180
822.283704	0.361739
822.601847	0.363011
822.919945	0.398436
823.237999	0.432760
823.556010	0.479844
823.873976	0.536431
824.191897	0.587171
824.509775	0.630531
824.827609	0.676053
825.145398	0.698347
825.463144	0.700697
825.780845	0.684378
826.098502	0.665663
826.416116	0.619083
826.733685	0.575087
827.051210	0.566419
827.368692	0.581186
827.686129	0.619091
828.003522	0.671978
828.320872	0.719937
828.638177	0.764138
828.955439	0.797828
829.272656	0.818945
829.589830	0.836630
829.906960	0.852560
830.224046	0.865374
830.541088	0.875045
830.858086	0.879604
831.175041	0.886144
831.491952	0.885117
831.808819	0.882186
832.125642	0.875417
832.442421	0.860031
832.759157	0.837086
833.075849	0.791690
833.392497	0.727347
833.709101	0.686834
834.025662	0.696086
834.342179	0.728066
834.658653	0.766620
834.975083	0.803580
835.291469	0.829786
835.607811	0.853199
835.924110	0.868856
836.240366	0.886508
836.556578	0.900275
836.872746	0.908114
837.188871	0.914018
837.504952	0.919695
837.820990	0.922325
838.136984	0.926363
838.452935	0.929778
838.768842	0.930612
839.084706	0.923228
839.400526	0.898326
839.716303	0.857240
840.032037	0.834840
840.347727	0.836926
840.663373	0.856622
840.978977	0.878158
841.294537	0.901372
841.610054	0.916558
841.925527	0.924789
842.240957	0.931370
842.556344	0.938549
842.871687	0.945875
843.186987	0.950014
843.502244	0.948799
843.817458	0.952331
844.132629	0.955694
844.447756	0.959900
844.762840	0.959139
845.077881	0.959068
845.392879	0.960488
845.707833	0.962321
846.022745	0.963849
846.337613	0.964224
846.652438	0.965157
846.967221	0.963972
847.281960	0.964230
847.596656	0.966572
847.911309	0.965554
848.225919	0.967053
848.540485	0.967688
848.855009	0.968245
849.169490	0.967865
849.483928	0.968979
849.798323	0.968268
850.112675	0.969021
850.426984	0.969011
850.741251	0.969794
851.055474	0.969246
851.369654	0.968206
851.683792	0.967895
851.997887	0.969736
852.311938	0.970302
852.625947	0.969327
852.939914	0.967687
853.253837	0.969534
853.567718	0.970504
853.881555	0.970474
854.195350	0.968249
854.509103	0.968791
854.822812	0.968895
855.136479	0.969941
855.450103	0.968846
855.763685	0.968482
856.077224	0.967757
856.390720	0.969394
856.704173	0.970027
857.017584	0.967932
857.330953	0.965598
857.644278	0.968142
857.957561	0.968192
858.270802	0.967610
858.584000	0.967526
858.897155	0.966725
859.210268	0.967809
859.523339	0.967859
859.836367	0.969629
860.149352	0.970257
860.462295	0.967983
860.775195	0.968752
861.088054	0.968511
861.400869	0.967766
861.713642	0.970207
862.026373	0.969515
862.339062	0.970459
862.651708	0.967773
862.964312	0.967919
863.276873	0.969031
863.589392	0.967627
863.901869	0.965640
864.214303	0.965171
864.526696	0.963247
864.839045	0.962594
865.151353	0.960904
865.463619	0.961382
865.775842	0.962113
866.088023	0.961043
866.400162	0.961376
866.712258	0.960877
867.024313	0.962429
867.336325	0.962641
867.648296	0.962440
867.960224	0.962035
868.272110	0.961724
868.583954	0.963261
868.895755	0.963816
869.207515	0.961508
869.519233	0.958934
869.830909	0.960786
870.142542	0.962367
870.454134	0.960749
870.765684	0.960248
871.077191	0.957325
871.388657	0.957896
871.700081	0.956945
872.011463	0.957338
872.322803	0.957638
872.634101	0.955592
872.945357	0.953596
873.256571	0.952089
873.567744	0.952695
873.878874	0.952355
874.189963	0.951461
874.501010	0.951023
874.812015	0.948602
875.122979	0.951089
875.433900	0.952230
875.744780	0.951744
876.055618	0.950013
876.366415	0.950327
876.677169	0.950241
876.987882	0.950933
877.298554	0.950155
877.609183	0.946302
877.919771	0.944165
878.230317	0.941275
878.540822	0.939149
878.851285	0.932711
879.161707	0.925626
879.472087	0.913609
879.782425	0.896546
880.092722	0.862232
880.402977	0.808940
880.713191	0.747140
881.023363	0.687571
881.333494	0.652791
881.643583	0.624041
881.953631	0.624796
882.263637	0.653986
882.573602	0.691915
882.883526	0.718508
883.193408	0.743119
883.503248	0.767025
883.813048	0.794313
884.122806	0.824835
884.432522	0.847775
884.742197	0.867258
885.051831	0.877800
885.361424	0.888482
885.670975	0.901245
885.980485	0.912078
886.289954	0.918479
886.599382	0.923773
886.908768	0.926356
887.218113	0.932466
887.527417	0.937753
887.836680	0.941096
888.145901	0.941717
888.455082	0.944941
888.764221	0.949463
889.073319	0.952592
889.382376	0.952432
889.691392	0.951445
890.000366	0.950959
890.309300	0.952122
890.618193	0.952460
890.927044	0.950842
891.235855	0.949704
891.544625	0.950314
891.853353	0.951183
892.162041	0.948298
892.470687	0.941803
892.779293	0.936242
893.087858	0.932900
893.396381	0.924340
893.704864	0.910634
894.013306	0.886497
894.321707	0.859841
894.630068	0.844565
894.938387	0.840289
895.246665	0.840209
895.554903	0.854470
895.863100	0.867894
896.171256	0.884902
896.479371	0.902742
896.787446	0.917113
897.095480	0.923536
897.403473	0.927480
897.711425	0.930799
898.019336	0.938749
898.327207	0.940989
898.635038	0.942830
898.942827	0.944474
899.250576	0.947113
899.558284	0.952243
899.865952	0.952692
900.173579	0.954520
900.481165	0.954125
900.788711	0.958556
901.096216	0.961032
901.403681	0.961007
901.711105	0.960972
902.018489	0.962638
902.325832	0.961636
902.633135	0.960975
902.940397	0.953869
903.247619	0.942953
903.554800	0.916569
903.861941	0.876009
904.169041	0.839338
904.476101	0.821450
904.783121	0.822014
905.090100	0.839167
905.397039	0.860358
905.703938	0.882950
906.010796	0.903618
906.317614	0.921216
906.624391	0.933578
906.931129	0.943340
907.237826	0.950148
907.544483	0.956831
907.851099	0.961314
908.157675	0.966471
908.464211	0.969785
908.770707	0.971730
909.077163	0.974016
909.383578	0.974506
909.689954	0.973933
909.996289	0.975927
910.302584	0.977823
910.608839	0.978478
910.915054	0.978360
911.221229	0.977128
911.527363	0.976575
911.833458	0.975875
912.139513	0.976557
912.445527	0.974457
912.751502	0.974265
913.057436	0.972514
913.363331	0.968678
913.669186	0.965574
913.975000	0.959619
914.280775	0.954281
914.586510	0.946873
914.892205	0.933501
915.197859	0.910766
915.503475	0.884071
915.809050	0.863988
916.114585	0.857739
916.420081	0.854523
916.725536	0.850503
917.030952	0.860649
917.336328	0.873219
917.641665	0.889612
917.946961	0.904986
918.252218	0.916453
918.557435	0.925456
918.862612	0.935162
919.167750	0.940743
919.472848	0.945298
919.777906	0.951133
920.082925	0.956375
920.387904	0.959889
920.692843	0.962071
920.997743	0.962702
921.302603	0.965915
921.607423	0.968793
921.912204	0.970112
922.216946	0.971412
922.521647	0.973549
922.826310	0.973910
923.130932	0.976353
923.435516	0.977717
923.740059	0.978740
924.044564	0.977512
924.349028	0.978607
924.653454	0.982227
924.957840	0.985442
925.262186	0.984600
925.566493	0.983099
925.870761	0.984667
926.174989	0.986283
926.479178	0.988358
926.783328	0.987207
927.087438	0.988071
927.391509	0.985943
927.695541	0.989630
927.999533	0.988465
928.303486	0.989533
928.607400	0.990038
928.911275	0.988941
929.215110	0.990500
929.518906	0.989825
929.822663	0.988613
930.126381	0.991393
930.430060	0.989776
930.733699	0.989979
931.037299	0.988885
931.340861	0.989597
931.644383	0.989741
931.947866	0.990120
932.251309	0.990556
932.554714	0.989786
932.858080	0.989365
933.161407	0.989304
933.464694	0.989733
933.767943	0.988963
934.071153	0.989989
934.374323	0.990510
934.677455	0.991211
934.980548	0.991983
935.283602	0.990368
935.586617	0.991156
935.889593	0.990783
936.192530	0.991490
936.495428	0.990006
936.798287	0.989492
937.101108	0.988978
937.403890	0.988672
937.706632	0.988276
938.009336	0.986782
938.312002	0.985019
938.614628	0.984083
938.917216	0.981843
939.219765	0.980546
939.522275	0.981471
939.824747	0.982027
940.127179	0.982288
940.429573	0.985327
940.731929	0.983299
941.034246	0.984288
941.336524	0.984356
941.638763	0.984966
941.940964	0.986187
942.243126	0.986620
942.545250	0.987876
942.847335	0.986202
943.149381	0.987700
943.451389	0.986511
943.753359	0.988368
944.055290	0.989888
944.357182	0.989413
944.659036	0.987759
944.960851	0.989044
945.262628	0.988640
945.564367	0.990496
945.866067	0.989399
946.167729	0.988582
946.469352	0.990139
946.770937	0.988442
947.072484	0.990221
947.373992	0.989106
947.675462	0.989408
947.976893	0.989840
948.278286	0.990241
948.579641	0.991084
948.880958	0.991277
949.182236	0.989679
949.483476	0.991203
949.784678	0.989120
950.085841	0.990659
950.386967	0.989830
950.688054	0.990283
950.989103	0.989483
951.290114	0.989393
951.591087	0.988995
951.892021	0.989673
952.192917	0.987891
952.493776	0.988345
952.794596	0.987442
953.095378	0.987548
953.396122	0.987356
953.696828	0.986734
953.997496	0.989604
954.298126	0.989740
954.598718	0.989643
954.899272	0.991379
955.199788	0.989203
955.500266	0.991870
955.800706	0.992309
956.101108	0.991688
956.401472	0.993860
956.701798	0.993664
957.002087	0.992606
957.302337	0.993426
957.602550	0.994890
957.902724	0.994041
958.202861	0.995026
958.502960	0.994565
958.803022	0.993967
959.103045	0.995943
959.403031	0.995801
959.702979	0.994103
960.002889	0.995927
960.302762	0.995336
960.602596	0.994955
960.902393	0.994056
961.202153	0.997022
961.501875	0.996847
961.801559	0.995921
962.101205	0.995640
962.400814	0.995918
962.700385	0.996546
962.999918	0.996633
963.299414	0.995940
963.598873	0.995475
963.898293	0.996029
964.197677	0.995874
964.497022	0.996054
964.796331	0.996945
965.095601	0.997068
965.394835	0.996680
965.694030	0.995753
965.993189	0.997780
966.292309	0.996570
966.591393	0.997797
966.890439	0.996897
967.189447	0.996147
967.488419	0.996914
967.787353	0.995622
968.086249	0.995770
968.385108	0.996454
968.683930	0.997480
968.982714	0.996457
969.281462	0.996363
969.580172	0.995715
969.878844	0.997162
970.177480	0.996642
970.476078	0.997250
970.774639	0.996670
971.073162	0.997388
971.371649	0.996644
971.670098	0.997199
971.968510	0.995824
972.266885	0.994613
972.565223	0.998088
972.863524	0.995687
973.161788	0.996634
973.460014	0.997194
973.758204	0.995896
974.056356	0.997376
974.354471	0.994567
974.652550	0.996844
974.950591	0.995091
975.248595	0.996327
975.546563	0.996252
975.844493	0.997477
976.142386	0.997081
976.440243	0.997363
976.738062	0.996454
977.035845	0.997393
977.333590	0.996721
977.631299	0.998195
977.928971	0.996870
978.226606	0.995981
978.524204	0.995753
978.821765	0.996861
979.119290	0.995349
979.416777	0.996913
979.714228	0.997524
980.011642	0.995561
980.309020	0.996911
980.606360	0.997645
980.903664	0.998191
981.200931	0.996988
981.498162	0.994809
981.795356	0.994942
982.092513	0.993275
982.389633	0.994889
982.686717	0.991417
982.983764	0.990927
983.280775	0.989231
983.577749	0.989036
983.874686	0.990771
984.171587	0.991204
984.468451	0.994252
984.765279	0.994773
985.062070	0.993586
985.358824	0.995771
985.655543	0.995954
985.952224	0.996106
986.248869	0.996368
986.545478	0.996138
986.842050	0.998424
987.138586	0.996334
987.435086	0.996989
987.731549	0.998360
988.027975	0.997007
988.324366	0.996801
988.620719	0.997617
988.917037	0.996540
989.213318	0.997835
989.509563	0.997524
989.805772	0.997429
990.101944	0.998014
990.398080	0.997202
990.694180	0.997729
990.990244	0.997225
991.286271	0.996964
991.582262	0.997266
991.878217	0.996507
992.174136	0.998315
992.470019	0.998281
992.765865	0.995928
993.061676	0.997538
993.357450	0.998129
993.653188	0.996629
993.948890	0.996937
994.244556	0.998166
994.540186	0.997593
994.835780	0.996400
995.131337	0.997723
995.426859	0.995975
995.722345	0.998725
996.017795	0.996077
996.313208	0.995831
996.608586	0.996936
996.903928	0.995395
997.199234	0.995494
997.494504	0.996458
997.789738	0.995389
998.084936	0.996566
998.380099	0.997894
998.675225	0.997327
998.970316	0.997450
999.265371	0.998363
999.560390	0.998097
999.855373	0.998578
1000.150320	0.997486
1000.445232	0.997528
1000.740108	0.998990
1001.034948	0.998164
1001.329752	0.999303
1001.624521	0.997240
1001.919254	0.998232
1002.213951	0.998056
1002.508613	0.998113
1002.803239	0.998783
1003.097829	0.998040
1003.392384	0.998970
1003.686903	0.998544
1003.981386	0.998920
1004.275834	0.999649
1004.570246	0.998392
1004.864623	0.999173
1005.158964	0.999195
1005.453270	0.998087
1005.747540	0.997222
1006.041775	0.997986
1006.335974	0.999144
1006.630138	0.998876
1006.924266	0.999798
1007.218359	0.999510
1007.512416	0.999627
1007.806438	0.997550
1008.100425	0.999051
1008.394376	0.998733
1008.688292	0.997464
1008.982172	1.000399
1009.276017	0.998782
1009.569827	0.997306
1009.863602	0.998640
1010.157341	0.998376
1010.451045	0.999132
1010.744714	0.998809
1011.038347	0.998697
1011.331945	0.998474
1011.625508	0.998454
1011.919036	0.998197
1012.212528	0.998399
1012.505986	0.998020
1012.799408	0.998565
1013.092795	0.999647
1013.386147	0.997823
1013.679464	0.998352
1013.972745	0.999206
1014.265992	0.997420
1014.559204	0.998686
1014.852380	1.000145
1015.145521	0.999557
1015.438628	1.000058
1015.731699	0.998373
1016.024736	0.999049
1016.317737	0.997880
1016.610703	0.998920
1016.903635	0.998963
1017.196531	0.997441
1017.489393	0.999552
1017.782219	0.998366
1018.075011	0.998554
1018.367768	0.998945
1018.660490	0.999341
1018.953177	0.999341
1019.245829	0.999341
