Dividing Wavelength (nm)	Counts (n)	Blue Motor Position (mm): 0.000000	Red Motor Position (mm): 32.200000	
326.493990	1.000560
326.888308	1.000560
327.282561	1.000560
327.676750	1.000379
328.070874	0.998791
328.464933	0.999130
328.858929	0.998714
329.252859	0.999190
329.646726	0.998698
330.040528	0.999312
330.434265	0.998788
330.827938	0.999353
331.221547	0.999704
331.615091	0.999881
332.008571	1.000332
332.401986	0.999504
332.795338	0.999512
333.188625	0.998355
333.581847	1.000181
333.975006	0.998980
334.368100	0.998774
334.761129	0.998506
335.154095	1.000561
335.546996	0.997248
335.939833	0.994170
336.332606	0.995359
336.725315	0.995219
337.117960	0.997261
337.510540	0.994077
337.903056	0.995155
338.295508	0.994282
338.687896	0.995313
339.080220	0.994795
339.472480	0.995449
339.864676	0.993968
340.256807	0.995187
340.648875	0.996839
341.040879	0.995239
341.432818	0.995755
341.824694	0.994925
342.216506	0.996405
342.608253	0.994701
342.999937	0.994826
343.391557	0.995246
343.783113	0.994708
344.174605	0.996752
344.566033	0.995758
344.957397	0.994374
345.348697	0.995370
345.739934	0.995194
346.131106	0.994972
346.522215	0.994033
346.913260	0.994983
347.304241	0.994529
347.695159	0.994870
348.086012	0.993703
348.476802	0.994726
348.867528	0.995697
349.258191	0.993892
349.648789	0.996205
350.039324	0.994553
350.429796	0.996264
350.820203	0.995315
351.210548	0.995554
351.600828	0.995564
351.991045	0.995673
352.381198	0.994388
352.771288	0.995748
353.161314	0.994090
353.551276	0.995838
353.941175	0.995152
354.331010	0.994856
354.720782	0.995514
355.110490	0.994793
355.500135	0.994868
355.889717	0.995313
356.279235	0.995013
356.668689	0.994773
357.058080	0.995407
357.447408	0.995795
357.836672	0.994979
358.225873	0.996368
358.615010	0.996193
359.004084	0.994948
359.393095	0.996066
359.782043	0.994266
360.170927	0.996656
360.559748	0.996201
360.948505	0.994811
361.337199	0.995022
361.725830	0.996480
362.114398	0.995258
362.502903	0.996390
362.891344	0.995973
363.279722	0.995793
363.668037	0.996888
364.056289	0.995196
364.444478	0.996918
364.832603	0.994908
365.220665	0.995392
365.608665	0.995572
365.996601	0.994467
366.384474	0.995045
366.772284	0.995519
367.160031	0.993719
367.547715	0.995027
367.935336	0.994714
368.322893	0.995193
368.710388	0.994465
369.097820	0.995111
369.485189	0.994744
369.872495	0.994613
370.259738	0.993438
370.646918	0.995621
371.034035	0.995928
371.421090	0.995627
371.808081	0.995206
372.195010	0.996202
372.581875	0.995417
372.968678	0.996300
373.355418	0.996076
373.742096	0.995523
374.128710	0.997530
374.515262	0.995036
374.901751	0.996522
375.288177	0.996197
375.674540	0.997157
376.060841	0.994884
376.447079	0.997595
376.833254	0.997648
377.219367	0.997026
377.605417	0.996569
377.991404	0.997716
378.377329	0.995684
378.763191	0.996488
379.148991	0.997019
379.534727	0.996491
379.920402	0.995957
380.306013	0.996477
380.691563	0.997913
381.077049	0.996608
381.462474	0.997076
381.847835	0.997312
382.233134	0.995988
382.618371	0.997579
383.003545	0.997353
383.388657	0.996722
383.773706	0.996830
384.158693	0.997069
384.543618	0.997464
384.928480	0.997990
385.313280	0.997291
385.698017	0.998100
386.082692	0.997819
386.467305	0.997385
386.851856	0.997955
387.236344	0.996869
387.620770	0.996200
388.005133	0.997819
388.389435	0.998250
388.773674	0.997426
389.157851	0.998359
389.541965	0.997570
389.926018	0.997252
390.310008	0.999235
390.693936	0.997834
391.077802	0.997780
391.461606	0.997983
391.845348	0.997129
392.229027	0.998226
392.612645	0.997486
392.996200	0.999632
393.379694	0.998461
393.763125	0.998796
394.146494	0.998128
394.529801	0.997872
394.913047	0.998334
395.296230	0.997675
395.679351	0.998258
396.062410	0.997504
396.445408	0.998365
396.828343	0.997870
397.211217	0.997770
397.594028	0.998444
397.976778	0.997665
398.359466	0.998485
398.742092	0.997985
399.124656	0.998638
399.507158	0.998473
399.889598	0.999206
400.271977	0.998646
400.654294	0.998856
401.036549	0.998544
401.418742	0.999069
401.800874	0.998508
402.182944	0.997976
402.564952	0.997966
402.946898	0.998907
403.328783	0.998724
403.710606	0.998176
404.092367	0.998299
404.474067	0.998865
404.855705	0.997489
405.237282	0.998906
405.618797	0.998020
406.000250	0.997636
406.381642	0.998422
406.762972	0.998304
407.144240	0.998871
407.525447	0.999406
407.906593	0.999117
408.287677	0.998467
408.668700	0.998716
409.049661	0.997517
409.430560	0.999557
409.811399	0.998996
410.192176	0.997811
410.572891	0.998432
410.953545	0.998046
411.334138	0.997355
411.714669	0.999071
412.095139	0.998211
412.475547	0.999203
412.855894	0.998453
413.236180	0.999543
413.616405	0.998797
413.996568	0.999732
414.376670	0.998288
414.756711	0.999247
415.136691	0.998649
415.516609	0.998167
415.896466	0.997813
416.276262	0.998787
416.655997	0.999024
417.035670	0.998288
417.415283	0.999698
417.794834	0.998793
418.174324	0.998778
418.553753	0.999636
418.933121	0.998411
419.312428	0.998488
419.691674	0.998689
420.070859	0.999541
420.449983	0.998159
420.829045	0.999117
421.208047	0.999770
421.586988	0.999025
421.965867	0.998485
422.344686	1.000523
422.723444	1.000296
423.102141	0.999286
423.480777	0.999377
423.859352	0.999551
424.237866	0.999714
424.616319	0.999277
424.994712	0.999220
425.373044	0.999006
425.751314	0.999225
426.129524	0.998738
426.507673	0.999587
426.885762	0.999941
427.263789	0.999322
427.641756	0.999501
428.019662	1.000215
428.397508	0.999144
428.775292	0.998601
429.153016	0.999112
429.530679	0.999873
429.908282	1.000025
430.285824	0.998360
430.663305	0.998807
431.040726	0.998942
431.418086	1.000281
431.795385	1.000112
432.172624	0.999037
432.549802	0.999436
432.926920	0.999537
433.303977	0.998596
433.680974	0.998940
434.057910	0.999259
434.434786	0.999494
434.811601	0.999011
435.188355	0.998738
435.565050	0.998808
435.941683	0.998845
436.318257	0.999874
436.694770	0.998875
437.071222	0.999591
437.447614	0.999102
437.823946	0.999351
438.200218	0.998870
438.576429	0.998963
438.952580	1.000343
439.328670	0.998969
439.704700	0.999728
440.080670	0.999885
440.456580	0.999045
440.832429	0.998644
441.208218	0.999704
441.583947	0.999118
441.959616	0.999380
442.335224	0.999490
442.710773	1.000030
443.086261	0.998857
443.461689	0.999738
443.837057	0.998879
444.212365	0.999465
444.587612	0.999785
444.962800	0.998691
445.337927	0.999348
445.712995	0.999607
446.088002	0.999867
446.462949	0.999432
446.837837	0.999933
447.212664	0.999560
447.587431	1.000199
447.962139	0.999462
448.336786	0.999959
448.711374	0.999803
449.085901	0.999038
449.460369	0.999613
449.834776	0.999241
450.209124	0.999650
450.583412	0.999195
450.957640	0.999276
451.331808	0.999592
451.705917	0.999708
452.079965	0.998466
452.453954	0.999763
452.827883	0.999457
453.201752	0.999620
453.575562	1.000881
453.949311	0.999760
454.323001	0.998540
454.696632	0.999522
455.070202	0.998787
455.443713	0.999379
455.817164	0.999993
456.190556	0.999260
456.563888	0.999369
456.937160	1.000208
457.310373	0.998537
457.683526	0.999679
458.056619	0.999094
458.429653	0.999812
458.802628	0.998982
459.175542	0.999458
459.548398	0.999444
459.921194	0.998430
460.293930	0.999882
460.666607	0.998836
461.039224	0.998570
461.411782	0.998658
461.784280	0.998602
462.156719	1.000205
462.529099	1.000052
462.901419	0.999774
463.273680	0.999117
463.645882	1.000218
464.018024	0.999819
464.390106	0.999338
464.762130	1.000220
465.134094	0.999459
465.505999	1.000126
465.877845	1.000395
466.249631	0.999969
466.621358	0.999700
466.993026	0.999563
467.364634	0.999766
467.736184	0.999885
468.107674	0.999247
468.479105	0.998949
468.850477	1.000370
469.221790	0.999681
469.593043	0.999592
469.964238	1.000187
470.335373	0.998953
470.706449	0.999675
471.077467	0.999754
471.448425	0.999649
471.819324	1.000483
472.190164	0.999241
472.560945	0.999241
472.931667	0.999257
473.302330	0.998462
473.672934	0.999931
474.043479	0.998932
474.413965	0.998864
474.784393	0.998994
475.154761	0.999224
475.525070	0.998367
475.895321	0.998457
476.265513	0.997407
476.635645	0.997473
477.005719	0.998577
477.375734	0.997986
477.745691	0.998333
478.115588	0.997475
478.485427	0.998071
478.855207	0.996623
479.224928	0.996289
479.594591	0.996405
479.964194	0.996439
480.333739	0.996060
480.703226	0.995688
481.072653	0.995561
481.442022	0.994510
481.811333	0.993211
482.180584	0.993980
482.549777	0.992509
482.918912	0.992257
483.287988	0.991130
483.657005	0.990590
484.025964	0.990548
484.394864	0.990125
484.763706	0.988857
485.132489	0.988653
485.501213	0.987029
485.869879	0.986526
486.238487	0.985656
486.607036	0.985108
486.975527	0.982924
487.343959	0.982036
487.712333	0.980975
488.080648	0.979666
488.448905	0.978977
488.817104	0.977930
489.185244	0.976539
489.553326	0.974324
489.921350	0.971366
490.289315	0.967000
490.657222	0.967545
491.025070	0.964642
491.392861	0.962974
491.760593	0.962292
492.128267	0.961569
492.495883	0.960135
492.863440	0.958165
493.230939	0.956638
493.598380	0.953820
493.965763	0.951815
494.333088	0.950329
494.700354	0.946887
495.067563	0.945210
495.434713	0.942438
495.801805	0.939788
496.168839	0.936734
496.535815	0.933500
496.902733	0.930946
497.269593	0.927618
497.636395	0.925443
498.003139	0.921635
498.369825	0.919323
498.736453	0.914780
499.103023	0.911794
499.469535	0.907236
499.835989	0.904674
500.202385	0.901733
500.568723	0.897401
500.935003	0.894006
501.301226	0.888558
501.667390	0.884385
502.033497	0.880080
502.399546	0.877319
502.765537	0.871872
503.131470	0.867005
503.497345	0.861787
503.863163	0.860395
504.228923	0.853206
504.594625	0.849001
504.960269	0.844803
505.325856	0.839201
505.691385	0.834442
506.056856	0.828583
506.422270	0.823081
506.787625	0.819357
507.152924	0.812659
507.518164	0.808560
507.883347	0.803492
508.248472	0.798352
508.613540	0.791608
508.978550	0.787003
509.343503	0.781264
509.708398	0.775056
510.073236	0.768636
510.438016	0.763043
510.802738	0.757171
511.167403	0.751587
511.532010	0.744861
511.896561	0.738777
512.261053	0.732887
512.625488	0.726052
512.989866	0.720399
513.354186	0.714380
513.718449	0.708375
514.082655	0.702021
514.446803	0.695633
514.810894	0.689199
515.174927	0.682951
515.538904	0.677406
515.902822	0.669448
516.266684	0.664689
516.630488	0.658572
516.994235	0.652094
517.357925	0.644514
517.721558	0.638701
518.085133	0.631344
518.448651	0.626364
518.812112	0.620965
519.175516	0.613225
519.538863	0.606737
519.902152	0.601775
520.265385	0.592821
520.628560	0.589314
520.991678	0.582032
521.354739	0.575825
521.717743	0.570759
522.080690	0.565163
522.443580	0.556134
522.806413	0.551239
523.169189	0.545037
523.531908	0.538417
523.894569	0.534725
524.257174	0.528625
524.619722	0.521241
524.982213	0.517418
525.344647	0.509846
525.707025	0.504967
526.069345	0.498289
526.431608	0.492439
526.793815	0.486052
527.155964	0.483477
527.518057	0.477682
527.880093	0.472513
528.242072	0.466640
528.603995	0.462155
528.965860	0.458299
529.327669	0.452311
529.689421	0.448197
530.051117	0.444012
530.412755	0.436577
530.774337	0.434461
531.135862	0.429172
531.497331	0.424800
531.858743	0.421896
532.220098	0.414944
532.581396	0.412544
532.942638	0.408554
533.303824	0.404894
533.664953	0.399665
534.026025	0.396867
534.387040	0.391374
534.747999	0.387436
535.108902	0.382178
535.469748	0.382500
535.830537	0.376670
536.191270	0.372919
536.551947	0.368555
536.912567	0.365638
537.273131	0.363492
537.633638	0.359984
537.994089	0.356508
538.354483	0.354181
538.714821	0.348129
539.075103	0.345047
539.435328	0.341812
539.795497	0.342400
540.155609	0.335955
540.515665	0.331406
540.875665	0.333520
541.235609	0.329330
541.595496	0.326867
541.955328	0.320306
542.315102	0.320549
542.674821	0.318787
543.034483	0.316049
543.394090	0.313300
543.753640	0.312562
544.113134	0.305762
544.472571	0.306653
544.831953	0.301016
545.191278	0.302734
545.550548	0.300313
545.909761	0.295159
546.268918	0.293895
546.628019	0.290197
546.987064	0.290629
547.346053	0.290895
547.704986	0.286753
548.063863	0.285625
548.422684	0.283999
548.781449	0.284172
549.140158	0.280122
549.498811	0.281412
549.857408	0.282876
550.215949	0.276509
550.574434	0.277799
550.932864	0.274353
551.291237	0.272430
551.649555	0.271850
552.007817	0.270542
552.366022	0.270266
552.724173	0.269465
553.082267	0.268591
553.440305	0.264703
553.798288	0.267918
554.156215	0.263140
554.514086	0.263141
554.871902	0.265335
555.229661	0.263978
555.587365	0.263471
555.945014	0.265452
556.302606	0.261713
556.660143	0.263251
557.017625	0.259340
557.375050	0.260709
557.732421	0.257106
558.089735	0.258325
558.446994	0.257937
558.804197	0.256555
559.161345	0.256103
559.518437	0.258926
559.875474	0.256162
560.232455	0.255084
560.589381	0.255805
560.946251	0.255471
561.303065	0.252367
561.659825	0.253612
562.016528	0.254721
562.373177	0.257378
562.729770	0.254394
563.086307	0.255699
563.442789	0.253357
563.799216	0.256028
564.155587	0.254464
564.511904	0.255258
564.868164	0.255265
565.224370	0.254907
565.580520	0.256575
565.936615	0.256181
566.292654	0.258608
566.648638	0.255470
567.004567	0.256353
567.360441	0.256913
567.716260	0.258865
568.072023	0.256397
568.427732	0.256701
568.783385	0.259055
569.138982	0.257000
569.494525	0.256597
569.850013	0.259374
570.205445	0.257706
570.560823	0.259951
570.916145	0.261866
571.271412	0.259736
571.626625	0.261372
571.981782	0.261921
572.336884	0.262547
572.691931	0.262341
573.046923	0.263277
573.401860	0.264404
573.756743	0.265909
574.111570	0.264768
574.466342	0.265017
574.821059	0.264386
575.175722	0.266946
575.530330	0.266966
575.884882	0.266698
576.239380	0.269007
576.593823	0.269229
576.948211	0.268560
577.302544	0.271657
577.656823	0.271256
578.011047	0.271384
578.365216	0.272010
578.719330	0.274101
579.073389	0.273722
579.427394	0.274930
579.781344	0.275870
580.135239	0.277333
580.489080	0.276887
580.842866	0.279623
581.196597	0.279365
581.550273	0.278290
581.903895	0.279094
582.257463	0.277258
582.610975	0.280950
582.964434	0.279566
583.317837	0.282090
583.671186	0.282733
584.024481	0.282880
584.377721	0.285098
584.730906	0.285497
585.084037	0.284810
585.437113	0.286914
585.790135	0.286076
586.143103	0.289393
586.496016	0.290449
586.848874	0.287625
587.201679	0.288277
587.554428	0.291595
587.907124	0.290109
588.259765	0.290945
588.612352	0.291466
588.964884	0.295252
589.317362	0.294807
589.669786	0.294862
590.022155	0.293610
590.374470	0.292755
590.726731	0.294676
591.078937	0.299435
591.431090	0.295762
591.783188	0.300158
592.135232	0.299941
592.487222	0.300362
592.839157	0.298527
593.191038	0.300763
593.542866	0.302703
593.894639	0.306186
594.246358	0.303971
594.598022	0.303566
594.949633	0.307183
595.301190	0.308247
595.652692	0.307137
596.004141	0.303606
596.355535	0.311176
596.706876	0.311918
597.058162	0.314405
597.409395	0.311460
597.760573	0.309133
598.111698	0.312580
598.462768	0.312753
598.813785	0.313947
599.164748	0.315465
599.515657	0.315451
599.866511	0.318878
600.217312	0.314313
600.568060	0.319399
600.918753	0.315901
601.269392	0.317022
601.619978	0.320166
601.970510	0.317745
602.320988	0.317694
602.671412	0.315844
603.021783	0.318148
603.372100	0.319352
603.722363	0.318986
604.072572	0.320145
604.422728	0.319913
604.772830	0.321615
605.122878	0.321451
605.472872	0.321958
605.822813	0.320328
606.172701	0.322963
606.522534	0.320240
606.872314	0.320256
607.222041	0.321314
607.571714	0.319310
607.921333	0.320808
608.270899	0.320410
608.620411	0.317322
608.969870	0.320613
609.319276	0.321273
609.668627	0.320843
610.017926	0.319876
610.367171	0.318152
610.716362	0.318899
611.065500	0.318996
611.414585	0.317994
611.763616	0.318266
612.112594	0.318896
612.461518	0.318505
612.810389	0.315999
613.159207	0.318361
613.507971	0.320158
613.856682	0.315922
614.205340	0.317533
614.553945	0.314436
614.902496	0.318295
615.250994	0.315914
615.599439	0.317380
615.947830	0.316356
616.296169	0.317214
616.644454	0.317146
616.992686	0.316818
617.340864	0.314835
617.688990	0.318331
618.037063	0.315294
618.385082	0.316979
618.733048	0.314142
619.080961	0.316180
619.428821	0.315148
619.776628	0.314924
620.124382	0.317044
620.472083	0.317242
620.819731	0.316684
621.167326	0.320411
621.514868	0.320008
621.862357	0.324716
622.209793	0.324038
622.557176	0.326000
622.904506	0.327446
623.251783	0.329455
623.599007	0.331678
623.946179	0.331604
624.293297	0.333746
624.640363	0.337261
624.987376	0.337837
625.334336	0.340246
625.681243	0.342422
626.028097	0.343090
626.374899	0.344117
626.721647	0.344429
627.068343	0.347742
627.414987	0.348930
627.761577	0.350922
628.108115	0.349336
628.454600	0.354316
628.801032	0.351862
629.147412	0.354055
629.493739	0.354103
629.840014	0.357318
630.186236	0.355070
630.532405	0.360267
630.878521	0.357501
631.224585	0.359611
631.570597	0.363482
631.916556	0.361590
632.262462	0.362005
632.608316	0.364293
632.954117	0.364764
633.299866	0.365525
633.645562	0.365853
633.991206	0.370097
634.336797	0.373208
634.682336	0.375527
635.027823	0.376968
635.373257	0.377880
635.718639	0.381207
636.063968	0.380169
636.409245	0.386430
636.754470	0.386872
637.099642	0.389108
637.444762	0.392264
637.789829	0.391771
638.134845	0.395139
638.479808	0.395788
638.824719	0.395665
639.169577	0.399665
639.514383	0.398408
639.859137	0.402986
640.203839	0.402529
640.548489	0.403326
640.893086	0.404722
641.237632	0.406299
641.582125	0.404608
641.926566	0.406229
642.270955	0.406154
642.615292	0.406928
642.959576	0.405920
643.303809	0.406603
643.647990	0.406114
643.992118	0.406898
644.336195	0.410024
644.680219	0.407939
645.024192	0.408858
645.368112	0.402905
645.711981	0.401573
646.055797	0.397067
646.399562	0.399473
646.743274	0.391456
647.086935	0.388865
647.430544	0.389172
647.774101	0.387855
648.117606	0.387599
648.461059	0.387978
648.804460	0.390379
649.147810	0.395674
649.491108	0.396881
649.834354	0.398874
650.177548	0.404392
650.520690	0.409497
650.863781	0.411020
651.206820	0.410116
651.549807	0.414706
651.892742	0.418846
652.235626	0.418098
652.578458	0.418865
652.921238	0.425310
653.263967	0.423168
653.606644	0.426978
653.949269	0.426012
654.291843	0.430392
654.634365	0.426908
654.976836	0.430201
655.319255	0.430646
655.661622	0.432400
656.003938	0.431951
656.346203	0.435695
656.688416	0.433493
657.030577	0.436535
657.372687	0.438542
657.714746	0.439170
658.056753	0.436033
658.398708	0.439173
658.740612	0.441457
659.082465	0.437348
659.424266	0.438047
659.766016	0.437317
660.107715	0.439925
660.449362	0.438931
660.790958	0.439969
661.132503	0.440439
661.473996	0.437868
661.815438	0.438718
662.156829	0.438707
662.498168	0.440091
662.839456	0.441165
663.180693	0.439004
663.521879	0.438258
663.863013	0.439837
664.204097	0.438502
664.545129	0.434808
664.886110	0.435423
665.227040	0.432420
665.567918	0.435177
665.908746	0.433583
666.249522	0.433085
666.590248	0.434331
666.930922	0.432330
667.271545	0.431080
667.612118	0.431138
667.952639	0.432945
668.293109	0.431511
668.633528	0.434098
668.973896	0.434293
669.314213	0.435044
669.654480	0.436501
669.994695	0.436385
670.334859	0.437293
670.674973	0.437934
671.015035	0.437689
671.355047	0.437817
671.695008	0.438442
672.034918	0.440641
672.374777	0.440311
672.714585	0.440902
673.054342	0.440965
673.394049	0.441488
673.733705	0.438982
674.073310	0.439431
674.412864	0.443191
674.752368	0.443447
675.091820	0.443577
675.431223	0.447849
675.770574	0.447620
676.109875	0.451371
676.449125	0.451113
676.788324	0.452984
677.127473	0.458537
677.466571	0.458339
677.805619	0.459513
678.144616	0.461156
678.483562	0.462901
678.822458	0.464788
679.161303	0.466517
679.500098	0.466487
679.838842	0.468382
680.177535	0.467898
680.516179	0.466256
680.854771	0.465430
681.193314	0.458950
681.531805	0.450145
681.870247	0.438944
682.208638	0.431439
682.546978	0.430604
682.885268	0.432312
683.223508	0.438660
683.561697	0.441495
683.899836	0.444607
684.237925	0.447912
684.575963	0.450758
684.913951	0.454090
685.251889	0.449444
685.589776	0.451666
685.927614	0.453783
686.265401	0.447903
686.603137	0.449161
686.940824	0.443604
687.278460	0.442304
687.616046	0.441384
687.953582	0.436274
688.291068	0.437721
688.628504	0.433423
688.965889	0.435815
689.303224	0.439619
689.640510	0.443317
689.977745	0.449152
690.314930	0.457464
690.652065	0.461485
690.989150	0.469026
691.326185	0.475699
691.663170	0.480226
692.000105	0.487114
692.336990	0.494302
692.673825	0.497079
693.010610	0.503568
693.347345	0.508911
693.684030	0.510268
694.020665	0.515051
694.357251	0.523921
694.693786	0.523651
695.030272	0.527921
695.366707	0.530825
695.703093	0.534381
696.039429	0.532287
696.375716	0.534633
696.711952	0.537670
697.048139	0.538932
697.384276	0.541218
697.720363	0.539076
698.056400	0.538249
698.392388	0.543914
698.728326	0.546975
699.064214	0.549579
699.400053	0.550316
699.735842	0.553233
700.071581	0.556891
700.407270	0.559592
700.742910	0.561970
701.078501	0.568140
701.414042	0.568171
701.749533	0.572108
702.084974	0.581408
702.420366	0.572997
702.755709	0.580907
703.091002	0.588847
703.426246	0.581593
703.761440	0.587754
704.096584	0.592351
704.431679	0.588883
704.766725	0.590835
705.101721	0.592405
705.436668	0.589074
705.771565	0.596118
706.106413	0.593034
706.441212	0.588120
706.775961	0.586668
707.110661	0.590220
707.445311	0.585800
707.779913	0.584020
708.114465	0.581785
708.448967	0.579529
708.783421	0.571007
709.117825	0.565895
709.452180	0.565445
709.786485	0.559614
710.120742	0.548442
710.454949	0.551224
710.789107	0.542843
711.123216	0.534646
711.457275	0.536527
711.791286	0.526808
712.125247	0.526063
712.459159	0.536442
712.793023	0.529061
713.126837	0.533008
713.460602	0.533762
713.794318	0.542808
714.127985	0.541974
714.461602	0.551805
714.795171	0.555368
715.128691	0.563135
715.462162	0.569845
715.795584	0.575494
716.128957	0.578971
716.462281	0.585033
716.795556	0.588692
717.128782	0.593702
717.461960	0.603957
717.795088	0.601349
718.128167	0.607995
718.461198	0.616762
718.794180	0.617327
719.127113	0.620684
719.459997	0.623471
719.792833	0.629254
720.125619	0.631124
720.458357	0.636514
720.791046	0.636300
721.123686	0.640414
721.456278	0.647091
721.788821	0.644451
722.121315	0.648186
722.453761	0.652044
722.786158	0.650112
723.118506	0.647031
723.450805	0.654379
723.783056	0.650932
724.115259	0.647926
724.447412	0.647429
724.779518	0.649289
725.111574	0.647864
725.443582	0.642827
725.775542	0.644881
726.107453	0.637640
726.439315	0.637337
726.771129	0.636015
727.102895	0.629339
727.434612	0.622246
727.766281	0.619942
728.097901	0.619491
728.429473	0.619585
728.760996	0.617781
729.092471	0.618150
729.423897	0.621558
729.755276	0.620810
730.086606	0.621650
730.417887	0.615679
730.749120	0.606013
731.080305	0.597243
731.411442	0.594007
731.742530	0.598672
732.073570	0.597332
732.404562	0.588965
732.735506	0.591159
733.066401	0.595482
733.397249	0.604371
733.728048	0.616051
734.058798	0.628756
734.389501	0.639097
734.720156	0.648787
735.050762	0.657254
735.381320	0.657047
735.711831	0.666752
736.042293	0.671602
736.372707	0.668001
736.703073	0.672146
737.033391	0.674324
737.363661	0.671429
737.693883	0.666569
738.024056	0.665968
738.354182	0.666244
738.684260	0.655111
739.014290	0.651833
739.344272	0.652219
739.674207	0.646094
740.004093	0.644751
740.333931	0.646129
740.663722	0.645384
740.993464	0.645628
741.323159	0.649740
741.652806	0.655228
741.982405	0.659672
742.311956	0.664439
742.641460	0.666652
742.970915	0.669934
743.300323	0.677581
743.629683	0.684819
743.958996	0.686108
744.288260	0.690389
744.617477	0.696166
744.946647	0.697055
745.275768	0.702965
745.604842	0.702601
745.933869	0.712684
746.262847	0.714315
746.591778	0.706350
746.920662	0.713048
747.249498	0.719733
747.578286	0.710700
747.907027	0.706847
748.235720	0.708219
748.564365	0.702426
748.892963	0.702356
749.221514	0.705727
749.550017	0.709825
749.878473	0.710354
750.206881	0.716815
750.535242	0.717642
750.863555	0.717294
751.191821	0.718771
751.520039	0.722577
751.848210	0.727164
752.176334	0.719513
752.504411	0.718340
752.832440	0.725536
753.160421	0.730170
753.488356	0.728550
753.816243	0.727121
754.144082	0.734883
754.471875	0.737686
754.799620	0.733709
755.127318	0.734550
755.454969	0.734500
755.782572	0.734082
756.110129	0.738625
756.437638	0.741639
756.765100	0.737533
757.092515	0.736464
757.419882	0.734806
757.747203	0.740034
758.074477	0.739878
758.401703	0.737279
758.728882	0.731805
759.056014	0.730735
759.383099	0.730332
759.710138	0.730664
760.037129	0.727075
760.364073	0.721817
760.690970	0.723567
761.017820	0.728775
761.344623	0.725834
761.671379	0.715932
761.998088	0.704629
762.324751	0.682546
762.651366	0.641667
762.977935	0.574748
763.304456	0.523532
763.630931	0.513909
763.957359	0.552765
764.283740	0.596691
764.610074	0.623883
764.936362	0.654341
765.262602	0.680543
765.588796	0.702127
765.914943	0.719362
766.241044	0.736971
766.567097	0.744265
766.893104	0.753325
767.219064	0.759536
767.544978	0.765331
767.870845	0.779196
768.196665	0.783490
768.522438	0.780923
768.848165	0.783836
769.173846	0.791333
769.499479	0.796104
769.825066	0.798954
770.150607	0.804740
770.476101	0.798523
770.801548	0.800343
771.126949	0.812088
771.452303	0.815296
771.777611	0.814075
772.102872	0.813791
772.428087	0.819103
772.753256	0.822659
773.078378	0.824250
773.403453	0.833567
773.728482	0.838021
774.053465	0.831389
774.378401	0.834726
774.703291	0.843475
775.028135	0.842077
775.352932	0.844150
775.677683	0.847626
776.002388	0.848259
776.327046	0.847047
776.651658	0.850481
776.976224	0.854153
777.300743	0.854337
777.625216	0.855615
777.949643	0.857263
778.274024	0.857185
778.598359	0.859752
778.922647	0.857727
779.246889	0.859260
779.571086	0.862238
779.895236	0.865077
780.219339	0.862381
780.543397	0.859399
780.867409	0.857327
781.191374	0.860678
781.515294	0.861161
781.839167	0.859959
782.162995	0.864408
782.486776	0.860910
782.810511	0.861471
783.134201	0.865187
783.457844	0.862359
783.781441	0.864564
784.104993	0.871696
784.428498	0.870733
784.751958	0.867806
785.075372	0.869370
785.398739	0.873481
785.722061	0.870517
786.045337	0.866052
786.368568	0.871212
786.691752	0.872512
787.014891	0.859192
787.337983	0.849117
787.661030	0.843216
787.984031	0.824901
788.306987	0.812956
788.629897	0.814978
788.952760	0.818976
789.275579	0.822916
789.598351	0.837340
789.921078	0.850707
790.243759	0.852659
790.566395	0.858963
790.888984	0.864161
791.211529	0.870657
791.534027	0.872381
791.856480	0.875651
792.178888	0.879463
792.501249	0.883394
792.823566	0.883648
793.145836	0.883550
793.468062	0.885261
793.790241	0.886113
794.112375	0.884034
794.434464	0.879301
794.756507	0.878651
795.078505	0.878922
795.400457	0.874313
795.722364	0.860887
796.044226	0.854297
796.366042	0.853833
796.687812	0.856874
797.009538	0.852868
797.331218	0.855641
797.652852	0.860478
797.974442	0.865367
798.295986	0.865228
798.617484	0.867928
798.938938	0.872292
799.260346	0.876596
799.581709	0.879603
799.903026	0.880991
800.224299	0.882174
800.545526	0.885475
800.866708	0.889568
801.187845	0.892280
801.508936	0.892261
801.829983	0.891007
802.150984	0.893720
802.471940	0.897834
802.792851	0.899130
803.113717	0.898916
803.434538	0.897343
803.755314	0.899458
804.076045	0.900365
804.396731	0.901985
804.717372	0.900596
805.037967	0.902260
805.358518	0.899622
805.679024	0.897929
805.999485	0.897435
806.319901	0.898200
806.640272	0.898659
806.960598	0.897309
807.280879	0.894286
807.601115	0.892778
807.921306	0.897121
808.241453	0.897697
808.561554	0.895603
808.881611	0.894913
809.201623	0.897050
809.521590	0.897047
809.841513	0.897538
810.161390	0.897981
810.481223	0.898586
810.801011	0.902783
811.120755	0.903686
811.440453	0.902427
811.760107	0.901518
812.079716	0.900493
812.399281	0.905297
812.718801	0.906548
813.038276	0.909522
813.357707	0.907465
813.677093	0.904194
813.996434	0.907954
814.315731	0.910047
814.634983	0.910513
814.954191	0.909208
815.273354	0.906296
815.592473	0.902270
815.911547	0.902629
816.230577	0.899843
816.549562	0.897074
816.868502	0.898582
817.187399	0.894724
817.506250	0.888971
817.825058	0.891033
818.143821	0.888244
818.462539	0.882765
818.781213	0.874172
819.099843	0.863654
819.418429	0.848911
819.736970	0.831693
820.055466	0.812315
820.373919	0.787738
820.692327	0.754884
821.010691	0.722225
821.329011	0.645764
821.647286	0.532334
821.965517	0.419772
822.283704	0.377817
822.601847	0.379455
822.919945	0.414973
823.237999	0.447656
823.556010	0.493387
823.873976	0.548331
824.191897	0.598471
824.509775	0.639838
824.827609	0.684637
825.145398	0.706860
825.463144	0.708810
825.780845	0.692947
826.098502	0.674657
826.416116	0.629363
826.733685	0.586028
827.051210	0.577349
827.368692	0.591787
827.686129	0.629177
828.003522	0.680999
828.320872	0.727135
828.638177	0.770722
828.955439	0.803594
829.272656	0.824654
829.589830	0.841073
829.906960	0.856509
830.224046	0.868835
830.541088	0.879656
830.858086	0.882827
831.175041	0.889519
831.491952	0.888976
831.808819	0.884673
832.125642	0.878650
832.442421	0.864212
832.759157	0.842361
833.075849	0.798322
833.392497	0.734842
833.709101	0.695326
834.025662	0.704045
834.342179	0.735882
834.658653	0.773985
834.975083	0.809708
835.291469	0.833919
835.607811	0.856968
835.924110	0.872271
836.240366	0.889493
836.556578	0.903178
836.872746	0.909416
837.188871	0.915605
837.504952	0.921333
837.820990	0.924799
838.136984	0.927841
838.452935	0.931044
838.768842	0.932947
839.084706	0.926388
839.400526	0.900410
839.716303	0.861281
840.032037	0.839275
840.347727	0.843287
840.663373	0.861198
840.978977	0.881671
841.294537	0.903446
841.610054	0.920027
841.925527	0.927367
842.240957	0.933549
842.556344	0.939774
842.871687	0.946946
843.186987	0.951258
843.502244	0.951203
843.817458	0.951645
844.132629	0.956305
844.447756	0.960039
844.762840	0.961227
845.077881	0.960365
845.392879	0.959855
845.707833	0.962625
846.022745	0.964390
846.337613	0.966085
846.652438	0.966695
846.967221	0.965453
847.281960	0.965298
847.596656	0.967871
847.911309	0.966133
848.225919	0.968141
848.540485	0.968715
848.855009	0.969135
849.169490	0.969533
849.483928	0.968971
849.798323	0.969491
850.112675	0.970450
850.426984	0.969983
850.741251	0.971028
851.055474	0.969997
851.369654	0.968025
851.683792	0.970006
851.997887	0.970461
852.311938	0.970758
852.625947	0.970494
852.939914	0.968164
853.253837	0.970012
853.567718	0.971513
853.881555	0.970903
854.195350	0.968303
854.509103	0.969024
854.822812	0.970057
855.136479	0.970568
855.450103	0.970600
855.763685	0.968634
856.077224	0.968735
856.390720	0.971902
856.704173	0.970581
857.017584	0.969458
857.330953	0.967841
857.644278	0.968418
857.957561	0.968870
858.270802	0.968969
858.584000	0.968894
858.897155	0.967518
859.210268	0.967166
859.523339	0.968949
859.836367	0.970537
860.149352	0.970943
860.462295	0.969093
860.775195	0.971106
861.088054	0.970345
861.400869	0.969955
861.713642	0.970519
862.026373	0.970060
862.339062	0.971252
862.651708	0.967164
862.964312	0.967574
863.276873	0.969547
863.589392	0.967889
863.901869	0.965912
864.214303	0.964893
864.526696	0.964806
864.839045	0.963517
865.151353	0.961735
865.463619	0.962732
865.775842	0.963569
866.088023	0.962476
866.400162	0.962471
866.712258	0.963180
867.024313	0.962693
867.336325	0.963933
867.648296	0.963615
867.960224	0.962551
868.272110	0.961666
868.583954	0.963029
868.895755	0.964098
869.207515	0.962301
869.519233	0.959395
869.830909	0.962403
870.142542	0.962780
870.454134	0.963273
870.765684	0.962094
871.077191	0.957913
871.388657	0.959949
871.700081	0.958928
872.011463	0.959389
872.322803	0.958644
872.634101	0.958348
872.945357	0.954679
873.256571	0.953976
873.567744	0.953509
873.878874	0.954969
874.189963	0.953234
874.501010	0.952984
874.812015	0.951190
875.122979	0.952536
875.433900	0.953519
875.744780	0.954473
876.055618	0.952737
876.366415	0.950864
876.677169	0.951351
876.987882	0.952404
877.298554	0.951707
877.609183	0.949741
877.919771	0.945502
878.230317	0.944758
878.540822	0.941921
878.851285	0.935782
879.161707	0.929899
879.472087	0.918296
879.782425	0.902505
880.092722	0.869970
880.402977	0.818900
880.713191	0.760170
881.023363	0.703811
881.333494	0.670395
881.643583	0.642591
881.953631	0.642767
882.263637	0.670328
882.573602	0.709681
882.883526	0.733816
883.193408	0.756103
883.503248	0.778168
883.813048	0.804884
884.122806	0.833327
884.432522	0.856158
884.742197	0.875904
885.051831	0.884934
885.361424	0.895554
885.670975	0.906724
885.980485	0.917295
886.289954	0.921703
886.599382	0.927143
886.908768	0.930527
887.218113	0.935625
887.527417	0.940623
887.836680	0.943503
888.145901	0.944234
888.455082	0.948027
888.764221	0.952910
889.073319	0.954523
889.382376	0.953982
889.691392	0.954416
890.000366	0.954234
890.309300	0.955225
890.618193	0.955077
890.927044	0.951938
891.235855	0.953721
891.544625	0.953196
891.853353	0.953356
892.162041	0.951355
892.470687	0.944908
892.779293	0.939736
893.087858	0.937059
893.396381	0.928836
893.704864	0.916095
894.013306	0.893125
894.321707	0.868264
894.630068	0.853747
894.938387	0.849864
895.246665	0.850568
895.554903	0.862004
895.863100	0.874940
896.171256	0.891697
896.479371	0.909649
896.787446	0.923506
897.095480	0.927288
897.403473	0.931670
897.711425	0.935580
898.019336	0.941697
898.327207	0.944347
898.635038	0.947703
898.942827	0.946990
899.250576	0.950379
899.558284	0.953896
899.865952	0.956482
900.173579	0.955204
900.481165	0.957012
900.788711	0.961511
901.096216	0.963176
901.403681	0.962674
901.711105	0.964838
902.018489	0.964557
902.325832	0.963715
902.633135	0.963098
902.940397	0.956402
903.247619	0.946208
903.554800	0.921321
903.861941	0.883040
904.169041	0.849625
904.476101	0.833337
904.783121	0.833881
905.090100	0.849272
905.397039	0.869475
905.703938	0.891792
906.010796	0.909626
906.317614	0.925725
906.624391	0.937608
906.931129	0.946888
907.237826	0.953929
907.544483	0.960356
907.851099	0.963664
908.157675	0.968415
908.464211	0.970475
908.770707	0.972217
909.077163	0.975193
909.383578	0.974972
909.689954	0.975246
909.996289	0.976186
910.302584	0.978175
910.608839	0.979185
910.915054	0.978924
911.221229	0.977922
911.527363	0.977547
911.833458	0.977710
912.139513	0.978500
912.445527	0.975716
912.751502	0.974305
913.057436	0.972540
913.363331	0.970835
913.669186	0.967005
913.975000	0.962661
914.280775	0.957289
914.586510	0.951371
914.892205	0.938356
915.197859	0.917840
915.503475	0.891865
915.809050	0.874329
916.114585	0.868635
916.420081	0.866406
916.725536	0.862633
917.030952	0.871956
917.336328	0.882731
917.641665	0.896968
917.946961	0.912161
918.252218	0.922928
918.557435	0.931357
918.862612	0.939251
919.167750	0.945056
919.472848	0.949569
919.777906	0.955824
920.082925	0.959846
920.387904	0.963623
920.692843	0.964337
920.997743	0.964408
921.302603	0.967663
921.607423	0.970562
921.912204	0.972243
922.216946	0.972414
922.521647	0.975431
922.826310	0.974844
923.130932	0.977973
923.435516	0.979168
923.740059	0.980042
924.044564	0.979795
924.349028	0.980604
924.653454	0.982296
924.957840	0.984645
925.262186	0.984316
925.566493	0.983976
925.870761	0.984541
926.174989	0.986394
926.479178	0.987722
926.783328	0.988895
927.087438	0.989211
927.391509	0.987885
927.695541	0.990180
927.999533	0.989121
928.303486	0.989385
928.607400	0.991487
928.911275	0.988650
929.215110	0.990267
929.518906	0.990537
929.822663	0.989130
930.126381	0.990332
930.430060	0.990620
930.733699	0.991069
931.037299	0.989694
931.340861	0.991563
931.644383	0.989812
931.947866	0.990097
932.251309	0.990509
932.554714	0.990149
932.858080	0.989746
933.161407	0.990305
933.464694	0.991029
933.767943	0.989938
934.071153	0.991530
934.374323	0.991226
934.677455	0.990929
934.980548	0.992779
935.283602	0.990602
935.586617	0.991335
935.889593	0.990580
936.192530	0.990455
936.495428	0.990870
936.798287	0.990114
937.101108	0.989985
937.403890	0.989161
937.706632	0.988789
938.009336	0.988251
938.312002	0.985824
938.614628	0.985317
938.917216	0.983065
939.219765	0.982172
939.522275	0.983123
939.824747	0.984147
940.127179	0.984319
940.429573	0.985412
940.731929	0.984812
941.034246	0.985062
941.336524	0.985983
941.638763	0.986755
941.940964	0.986619
942.243126	0.985549
942.545250	0.987285
942.847335	0.988149
943.149381	0.988182
943.451389	0.988956
943.753359	0.987472
944.055290	0.991130
944.357182	0.989431
944.659036	0.987995
944.960851	0.989223
945.262628	0.989546
945.564367	0.990478
945.866067	0.990017
946.167729	0.990972
946.469352	0.989821
946.770937	0.988289
947.072484	0.990561
947.373992	0.990010
947.675462	0.990550
947.976893	0.988993
948.278286	0.989363
948.579641	0.991766
948.880958	0.990181
949.182236	0.990885
949.483476	0.991328
949.784678	0.991380
950.085841	0.990704
950.386967	0.990381
950.688054	0.991493
950.989103	0.990204
951.290114	0.988709
951.591087	0.990284
951.892021	0.989241
952.192917	0.989433
952.493776	0.988955
952.794596	0.988200
953.095378	0.988095
953.396122	0.987893
953.696828	0.987486
953.997496	0.988894
954.298126	0.990148
954.598718	0.990721
954.899272	0.990899
955.199788	0.990566
955.500266	0.992006
955.800706	0.992789
956.101108	0.992923
956.401472	0.994182
956.701798	0.992386
957.002087	0.993152
957.302337	0.992939
957.602550	0.994764
957.902724	0.995375
958.202861	0.993464
958.502960	0.995371
958.803022	0.992416
959.103045	0.995346
959.403031	0.995779
959.702979	0.994205
960.002889	0.995147
960.302762	0.993970
960.602596	0.995640
960.902393	0.993994
961.202153	0.996302
961.501875	0.996745
961.801559	0.994572
962.101205	0.995378
962.400814	0.996091
962.700385	0.995158
962.999918	0.996443
963.299414	0.995910
963.598873	0.995359
963.898293	0.996276
964.197677	0.995810
964.497022	0.995348
964.796331	0.995993
965.095601	0.995850
965.394835	0.995895
965.694030	0.995240
965.993189	0.996796
966.292309	0.995711
966.591393	0.996504
966.890439	0.997340
967.189447	0.995603
967.488419	0.996427
967.787353	0.995322
968.086249	0.995798
968.385108	0.997414
968.683930	0.996550
968.982714	0.996909
969.281462	0.996316
969.580172	0.995491
969.878844	0.996408
970.177480	0.995385
970.476078	0.996669
970.774639	0.996088
971.073162	0.996693
971.371649	0.995791
971.670098	0.995400
971.968510	0.996958
972.266885	0.993762
972.565223	0.996477
972.863524	0.995504
973.161788	0.995587
973.460014	0.995949
973.758204	0.994838
974.056356	0.996824
974.354471	0.992981
974.652550	0.995591
974.950591	0.995136
975.248595	0.996441
975.546563	0.996837
975.844493	0.996990
976.142386	0.995914
976.440243	0.995966
976.738062	0.995782
977.035845	0.997599
977.333590	0.997094
977.631299	0.997192
977.928971	0.995319
978.226606	0.997026
978.524204	0.994846
978.821765	0.997352
979.119290	0.995676
979.416777	0.995979
979.714228	0.996276
980.011642	0.996497
980.309020	0.996737
980.606360	0.996859
980.903664	0.997540
981.200931	0.996640
981.498162	0.994634
981.795356	0.995099
982.092513	0.993545
982.389633	0.994568
982.686717	0.992031
982.983764	0.992381
983.280775	0.990392
983.577749	0.990908
983.874686	0.992223
984.171587	0.990958
984.468451	0.993638
984.765279	0.993878
985.062070	0.992972
985.358824	0.995234
985.655543	0.994126
985.952224	0.996080
986.248869	0.995529
986.545478	0.996800
986.842050	0.997687
987.138586	0.995002
987.435086	0.997457
987.731549	0.998553
988.027975	0.996836
988.324366	0.996930
988.620719	0.996870
988.917037	0.997018
989.213318	0.996601
989.509563	0.997810
989.805772	0.997848
990.101944	0.997437
990.398080	0.996978
990.694180	0.997096
990.990244	0.997452
991.286271	0.997094
991.582262	0.996701
991.878217	0.997907
992.174136	0.997767
992.470019	0.998712
992.765865	0.996465
993.061676	0.996091
993.357450	0.997295
993.653188	0.996441
993.948890	0.996578
994.244556	0.996916
994.540186	0.995825
994.835780	0.996287
995.131337	0.997447
995.426859	0.994938
995.722345	0.995914
996.017795	0.995014
996.313208	0.996315
996.608586	0.995673
996.903928	0.996493
997.199234	0.996228
997.494504	0.995007
997.789738	0.994995
998.084936	0.996477
998.380099	0.997183
998.675225	0.995891
998.970316	0.996971
999.265371	0.997358
999.560390	0.997501
999.855373	0.997343
1000.150320	0.997697
1000.445232	0.997074
1000.740108	0.997468
1001.034948	0.996258
1001.329752	0.997919
1001.624521	0.998116
1001.919254	0.997602
1002.213951	0.998695
1002.508613	0.997465
1002.803239	0.998967
1003.097829	0.996940
1003.392384	0.998260
1003.686903	0.997574
1003.981386	0.997586
1004.275834	0.997862
1004.570246	0.997484
1004.864623	0.997770
1005.158964	0.998821
1005.453270	0.997913
1005.747540	0.996168
1006.041775	0.997968
1006.335974	0.998773
1006.630138	0.998387
1006.924266	0.998313
1007.218359	0.999719
1007.512416	0.998500
1007.806438	0.999497
1008.100425	0.998674
1008.394376	0.997106
1008.688292	0.997966
1008.982172	0.999258
1009.276017	0.998153
1009.569827	0.998497
1009.863602	0.998624
1010.157341	0.998463
1010.451045	0.999334
1010.744714	0.998376
1011.038347	0.997798
1011.331945	0.997242
1011.625508	0.997312
1011.919036	0.997624
1012.212528	0.997828
1012.505986	0.998001
1012.799408	0.998737
1013.092795	0.998065
1013.386147	0.998514
1013.679464	0.998511
1013.972745	0.996838
1014.265992	0.996227
1014.559204	0.996873
1014.852380	0.998503
1015.145521	0.997738
1015.438628	0.999155
1015.731699	0.998982
1016.024736	0.998276
1016.317737	0.999657
1016.610703	0.997392
1016.903635	0.999057
1017.196531	0.997149
1017.489393	0.999051
1017.782219	0.997294
1018.075011	0.997339
1018.367768	0.997534
1018.660490	0.998992
1018.953177	0.998992
1019.245829	0.998992
