Dividing Wavelength (nm)	Counts (n)	Blue Motor Position (mm): 0.000000	Red Motor Position (mm): 24.100000	
326.493990	1.001092
326.888308	1.001092
327.282561	1.001092
327.676750	1.000428
328.070874	0.998834
328.464933	1.000138
328.858929	0.999400
329.252859	1.000552
329.646726	0.998348
330.040528	0.999421
330.434265	0.998726
330.827938	0.999765
331.221547	1.000098
331.615091	0.999100
332.008571	1.000358
332.401986	1.001367
332.795338	0.999957
333.188625	0.998306
333.581847	1.000881
333.975006	0.999575
334.368100	0.999501
334.761129	0.999691
335.154095	1.000647
335.546996	0.997968
335.939833	0.994027
336.332606	0.993608
336.725315	0.995080
337.117960	0.996691
337.510540	0.994728
337.903056	0.995137
338.295508	0.994000
338.687896	0.996211
339.080220	0.995511
339.472480	0.993716
339.864676	0.994958
340.256807	0.994319
340.648875	0.995721
341.040879	0.994293
341.432818	0.994864
341.824694	0.995076
342.216506	0.995332
342.608253	0.994251
342.999937	0.993704
343.391557	0.994961
343.783113	0.995583
344.174605	0.995176
344.566033	0.994928
344.957397	0.993784
345.348697	0.993477
345.739934	0.993220
346.131106	0.994626
346.522215	0.993934
346.913260	0.992983
347.304241	0.994281
347.695159	0.994423
348.086012	0.993709
348.476802	0.994822
348.867528	0.995102
349.258191	0.993148
349.648789	0.994947
350.039324	0.994568
350.429796	0.995103
350.820203	0.994937
351.210548	0.994445
351.600828	0.993396
351.991045	0.994911
352.381198	0.994181
352.771288	0.994055
353.161314	0.994690
353.551276	0.994816
353.941175	0.994693
354.331010	0.993602
354.720782	0.995138
355.110490	0.993733
355.500135	0.996139
355.889717	0.993655
356.279235	0.994990
356.668689	0.993847
357.058080	0.994951
357.447408	0.996247
357.836672	0.995387
358.225873	0.995667
358.615010	0.995306
359.004084	0.994688
359.393095	0.995234
359.782043	0.995532
360.170927	0.996582
360.559748	0.995356
360.948505	0.993826
361.337199	0.995696
361.725830	0.994674
362.114398	0.993930
362.502903	0.995169
362.891344	0.995194
363.279722	0.993564
363.668037	0.995508
364.056289	0.995328
364.444478	0.995346
364.832603	0.994857
365.220665	0.994390
365.608665	0.994643
365.996601	0.994180
366.384474	0.995545
366.772284	0.994659
367.160031	0.993479
367.547715	0.992800
367.935336	0.995096
368.322893	0.994319
368.710388	0.995338
369.097820	0.993891
369.485189	0.994565
369.872495	0.992847
370.259738	0.993125
370.646918	0.995725
371.034035	0.995349
371.421090	0.994877
371.808081	0.993725
372.195010	0.994579
372.581875	0.995631
372.968678	0.994429
373.355418	0.994973
373.742096	0.993413
374.128710	0.995503
374.515262	0.994135
374.901751	0.994391
375.288177	0.995249
375.674540	0.995742
376.060841	0.993494
376.447079	0.995361
376.833254	0.995618
377.219367	0.994881
377.605417	0.995749
377.991404	0.995051
378.377329	0.995028
378.763191	0.994878
379.148991	0.996600
379.534727	0.996198
379.920402	0.994980
380.306013	0.995860
380.691563	0.995404
381.077049	0.994324
381.462474	0.995701
381.847835	0.995487
382.233134	0.995733
382.618371	0.996000
383.003545	0.996062
383.388657	0.995623
383.773706	0.996549
384.158693	0.995382
384.543618	0.996061
384.928480	0.995823
385.313280	0.996178
385.698017	0.996257
386.082692	0.995783
386.467305	0.996142
386.851856	0.995796
387.236344	0.995450
387.620770	0.994737
388.005133	0.996675
388.389435	0.997386
388.773674	0.995518
389.157851	0.996853
389.541965	0.995814
389.926018	0.995655
390.310008	0.997000
390.693936	0.996091
391.077802	0.996233
391.461606	0.994796
391.845348	0.996274
392.229027	0.997381
392.612645	0.996010
392.996200	0.996653
393.379694	0.996662
393.763125	0.997605
394.146494	0.996627
394.529801	0.995100
394.913047	0.997233
395.296230	0.996847
395.679351	0.996202
396.062410	0.996161
396.445408	0.997425
396.828343	0.995620
397.211217	0.996760
397.594028	0.997284
397.976778	0.996269
398.359466	0.996342
398.742092	0.996260
399.124656	0.996738
399.507158	0.996117
399.889598	0.996431
400.271977	0.996266
400.654294	0.996462
401.036549	0.997391
401.418742	0.997037
401.800874	0.996292
402.182944	0.996731
402.564952	0.995902
402.946898	0.996898
403.328783	0.996266
403.710606	0.996050
404.092367	0.996634
404.474067	0.996718
404.855705	0.996663
405.237282	0.995853
405.618797	0.996529
406.000250	0.995350
406.381642	0.996838
406.762972	0.997290
407.144240	0.997093
407.525447	0.997053
407.906593	0.996524
408.287677	0.996548
408.668700	0.997267
409.049661	0.996208
409.430560	0.996869
409.811399	0.996087
410.192176	0.995686
410.572891	0.995197
410.953545	0.996491
411.334138	0.996003
411.714669	0.996695
412.095139	0.996004
412.475547	0.997102
412.855894	0.996814
413.236180	0.997190
413.616405	0.996726
413.996568	0.996992
414.376670	0.996527
414.756711	0.996119
415.136691	0.996733
415.516609	0.995933
415.896466	0.996428
416.276262	0.995583
416.655997	0.997233
417.035670	0.995415
417.415283	0.996463
417.794834	0.996706
418.174324	0.996311
418.553753	0.996372
418.933121	0.996252
419.312428	0.995799
419.691674	0.996048
420.070859	0.996686
420.449983	0.995506
420.829045	0.995910
421.208047	0.997068
421.586988	0.998377
421.965867	0.995789
422.344686	0.995959
422.723444	0.996019
423.102141	0.996596
423.480777	0.996139
423.859352	0.995674
424.237866	0.995536
424.616319	0.995107
424.994712	0.996131
425.373044	0.996427
425.751314	0.995866
426.129524	0.995001
426.507673	0.995534
426.885762	0.996101
427.263789	0.995039
427.641756	0.994418
428.019662	0.994641
428.397508	0.992767
428.775292	0.993108
429.153016	0.992182
429.530679	0.991660
429.908282	0.991488
430.285824	0.989328
430.663305	0.989420
431.040726	0.988577
431.418086	0.988523
431.795385	0.987231
432.172624	0.984285
432.549802	0.983019
432.926920	0.982436
433.303977	0.980532
433.680974	0.978378
434.057910	0.976361
434.434786	0.974748
434.811601	0.972372
435.188355	0.969013
435.565050	0.967104
435.941683	0.964799
436.318257	0.962219
436.694770	0.958456
437.071222	0.956511
437.447614	0.952770
437.823946	0.950627
438.200218	0.946619
438.576429	0.943695
438.952580	0.939581
439.328670	0.934523
439.704700	0.932335
440.080670	0.928381
440.456580	0.920491
440.832429	0.916796
441.208218	0.914469
441.583947	0.907908
441.959616	0.903256
442.335224	0.898910
442.710773	0.892388
443.086261	0.884902
443.461689	0.881941
443.837057	0.874168
444.212365	0.865752
444.587612	0.861362
444.962800	0.852668
445.337927	0.846726
445.712995	0.846109
446.088002	0.829635
446.462949	0.825975
446.837837	0.818778
447.212664	0.810250
447.587431	0.798138
447.962139	0.780182
448.336786	0.757225
448.711374	0.754818
449.085901	0.762558
449.460369	0.756203
449.834776	0.748437
450.209124	0.731546
450.583412	0.718420
450.957640	0.709995
451.331808	0.705267
451.705917	0.707020
452.079965	0.700318
452.453954	0.686179
452.827883	0.682161
453.201752	0.671104
453.575562	0.669340
453.949311	0.653870
454.323001	0.650175
454.696632	0.640432
455.070202	0.626862
455.443713	0.613887
455.817164	0.603082
456.190556	0.591670
456.563888	0.582024
456.937160	0.573007
457.310373	0.576054
457.683526	0.567253
458.056619	0.562983
458.429653	0.556099
458.802628	0.551981
459.175542	0.540855
459.548398	0.520813
459.921194	0.509484
460.293930	0.503909
460.666607	0.479649
461.039224	0.465673
461.411782	0.456333
461.784280	0.448332
462.156719	0.444376
462.529099	0.440902
462.901419	0.446553
463.273680	0.443811
463.645882	0.437907
464.018024	0.436554
464.390106	0.425487
464.762130	0.407998
465.134094	0.390185
465.505999	0.362386
465.877845	0.333429
466.249631	0.316304
466.621358	0.315703
466.993026	0.321009
467.364634	0.321890
467.736184	0.325194
468.107674	0.329236
468.479105	0.324374
468.850477	0.327407
469.221790	0.330018
469.593043	0.335934
469.964238	0.337161
470.335373	0.333629
470.706449	0.329598
471.077467	0.328044
471.448425	0.289978
471.819324	0.264916
472.190164	0.262041
472.560945	0.287177
472.931667	0.306745
473.302330	0.308939
473.672934	0.318833
474.043479	0.305879
474.413965	0.306141
474.784393	0.308604
475.154761	0.302556
475.525070	0.298312
475.895321	0.303136
476.265513	0.296519
476.635645	0.291107
477.005719	0.290182
477.375734	0.286130
477.745691	0.279067
478.115588	0.274393
478.485427	0.267638
478.855207	0.254100
479.224928	0.236449
479.594591	0.224324
479.964194	0.227179
480.333739	0.228068
480.703226	0.229042
481.072653	0.227376
481.442022	0.222773
481.811333	0.218979
482.180584	0.222498
482.549777	0.227061
482.918912	0.230317
483.287988	0.229831
483.657005	0.229338
484.025964	0.235503
484.394864	0.232700
484.763706	0.233285
485.132489	0.237847
485.501213	0.238592
485.869879	0.236935
486.238487	0.240070
486.607036	0.237933
486.975527	0.242090
487.343959	0.237884
487.712333	0.237049
488.080648	0.238429
488.448905	0.237310
488.817104	0.238473
489.185244	0.233005
489.553326	0.229894
489.921350	0.220020
490.289315	0.202310
490.657222	0.197231
491.025070	0.198485
491.392861	0.200503
491.760593	0.206174
492.128267	0.211607
492.495883	0.217107
492.863440	0.223153
493.230939	0.229610
493.598380	0.230921
493.965763	0.233029
494.333088	0.235292
494.700354	0.236731
495.067563	0.235614
495.434713	0.238880
495.801805	0.236789
496.168839	0.238157
496.535815	0.239292
496.902733	0.239414
497.269593	0.240819
497.636395	0.238894
498.003139	0.238875
498.369825	0.241979
498.736453	0.238066
499.103023	0.239598
499.469535	0.239380
499.835989	0.239417
500.202385	0.240306
500.568723	0.243354
500.935003	0.238650
501.301226	0.242710
501.667390	0.237283
502.033497	0.235091
502.399546	0.238226
502.765537	0.239974
503.131470	0.238293
503.497345	0.234745
503.863163	0.243403
504.228923	0.236367
504.594625	0.234921
504.960269	0.240198
505.325856	0.235534
505.691385	0.239807
506.056856	0.236774
506.422270	0.236039
506.787625	0.238558
507.152924	0.236051
507.518164	0.236383
507.883347	0.238116
508.248472	0.239778
508.613540	0.234876
508.978550	0.237289
509.343503	0.237727
509.708398	0.235356
510.073236	0.233086
510.438016	0.232785
510.802738	0.233832
511.167403	0.232907
511.532010	0.234750
511.896561	0.230361
512.261053	0.229289
512.625488	0.231212
512.989866	0.231516
513.354186	0.231810
513.718449	0.233635
514.082655	0.229875
514.446803	0.232295
514.810894	0.229936
515.174927	0.232374
515.538904	0.231739
515.902822	0.228719
516.266684	0.231203
516.630488	0.232578
516.994235	0.231037
517.357925	0.229946
517.721558	0.228238
518.085133	0.227737
518.448651	0.228011
518.812112	0.229967
519.175516	0.229515
519.538863	0.227584
519.902152	0.228765
520.265385	0.225785
520.628560	0.227542
520.991678	0.227830
521.354739	0.226854
521.717743	0.228056
522.080690	0.228709
522.443580	0.225629
522.806413	0.226799
523.169189	0.226237
523.531908	0.225300
523.894569	0.228570
524.257174	0.228605
524.619722	0.226053
524.982213	0.227151
525.344647	0.226212
525.707025	0.227038
526.069345	0.225293
526.431608	0.227068
526.793815	0.224895
527.155964	0.229108
527.518057	0.228054
527.880093	0.229134
528.242072	0.227617
528.603995	0.229458
528.965860	0.231006
529.327669	0.230062
529.689421	0.231081
530.051117	0.231692
530.412755	0.229552
530.774337	0.232097
531.135862	0.232074
531.497331	0.231455
531.858743	0.234631
532.220098	0.231352
532.581396	0.233607
532.942638	0.234082
533.303824	0.235047
533.664953	0.234863
534.026025	0.236577
534.387040	0.234648
534.747999	0.234320
535.108902	0.233331
535.469748	0.238253
535.830537	0.236141
536.191270	0.236998
536.551947	0.236126
536.912567	0.236322
537.273131	0.237934
537.633638	0.238185
537.994089	0.238530
538.354483	0.239606
538.714821	0.236520
539.075103	0.236179
539.435328	0.237137
539.795497	0.240718
540.155609	0.237391
540.515665	0.235586
540.875665	0.241150
541.235609	0.239641
541.595496	0.239543
541.955328	0.236198
542.315102	0.238977
542.674821	0.240103
543.034483	0.239948
543.394090	0.239775
543.753640	0.241393
544.113134	0.236755
544.472571	0.240041
544.831953	0.236617
545.191278	0.240995
545.550548	0.240383
545.909761	0.237449
546.268918	0.238106
546.628019	0.236344
546.987064	0.239012
547.346053	0.240809
547.704986	0.238635
548.063863	0.238728
548.422684	0.239145
548.781449	0.241022
549.140158	0.238737
549.498811	0.241374
549.857408	0.244676
550.215949	0.239528
550.574434	0.242531
550.932864	0.240548
551.291237	0.239058
551.649555	0.240556
552.007817	0.240393
552.366022	0.241150
552.724173	0.241279
553.082267	0.241398
553.440305	0.238600
553.798288	0.242798
554.156215	0.239523
554.514086	0.240190
554.871902	0.243274
555.229661	0.242695
555.587365	0.242977
555.945014	0.245504
556.302606	0.242252
556.660143	0.245028
557.017625	0.241529
557.375050	0.243934
557.732421	0.240762
558.089735	0.242743
558.446994	0.242884
558.804197	0.242099
559.161345	0.242057
559.518437	0.245454
559.875474	0.243129
560.232455	0.242362
560.589381	0.243936
560.946251	0.243815
561.303065	0.241256
561.659825	0.243087
562.016528	0.244370
562.373177	0.246981
562.729770	0.244607
563.086307	0.246884
563.442789	0.244528
563.799216	0.247205
564.155587	0.245921
564.511904	0.247105
564.868164	0.247251
565.224370	0.246984
565.580520	0.248917
565.936615	0.248753
566.292654	0.251607
566.648638	0.248776
567.004567	0.249653
567.360441	0.250286
567.716260	0.252152
568.072023	0.250180
568.427732	0.250774
568.783385	0.253288
569.138982	0.251453
569.494525	0.250957
569.850013	0.253818
570.205445	0.252269
570.560823	0.254800
570.916145	0.256393
571.271412	0.254976
571.626625	0.256517
571.981782	0.256781
572.336884	0.257922
572.691931	0.257590
573.046923	0.258608
573.401860	0.260255
573.756743	0.261706
574.111570	0.260521
574.466342	0.260864
574.821059	0.259975
575.175722	0.263033
575.530330	0.262797
575.884882	0.262658
576.239380	0.264963
576.593823	0.265838
576.948211	0.265095
577.302544	0.268206
577.656823	0.267848
578.011047	0.268302
578.365216	0.268473
578.719330	0.270501
579.073389	0.270669
579.427394	0.271919
579.781344	0.272620
580.135239	0.274033
580.489080	0.273744
580.842866	0.276742
581.196597	0.277069
581.550273	0.275108
581.903895	0.276432
582.257463	0.274317
582.610975	0.277543
582.964434	0.276663
583.317837	0.279752
583.671186	0.280013
584.024481	0.280233
584.377721	0.282316
584.730906	0.283067
585.084037	0.282317
585.437113	0.283948
585.790135	0.283758
586.143103	0.286427
586.496016	0.287709
586.848874	0.284988
587.201679	0.285939
587.554428	0.289358
587.907124	0.287665
588.259765	0.288248
588.612352	0.288992
588.964884	0.293311
589.317362	0.292379
589.669786	0.292228
590.022155	0.291213
590.374470	0.290488
590.726731	0.292330
591.078937	0.297199
591.431090	0.293409
591.783188	0.297268
592.135232	0.297970
592.487222	0.297850
592.839157	0.296180
593.191038	0.298358
593.542866	0.300266
593.894639	0.304107
594.246358	0.301742
594.598022	0.301545
594.949633	0.304728
595.301190	0.305797
595.652692	0.304859
596.004141	0.301023
596.355535	0.309151
596.706876	0.309378
597.058162	0.312154
597.409395	0.309119
597.760573	0.306995
598.111698	0.310518
598.462768	0.310551
598.813785	0.312018
599.164748	0.313247
599.515657	0.313508
599.866511	0.317060
600.217312	0.312284
600.568060	0.317718
600.918753	0.313921
601.269392	0.314759
601.619978	0.318143
601.970510	0.316087
602.320988	0.315660
602.671412	0.313361
603.021783	0.316158
603.372100	0.317368
603.722363	0.316984
604.072572	0.317919
604.422728	0.317809
604.772830	0.319935
605.122878	0.319629
605.472872	0.320046
605.822813	0.318212
606.172701	0.320845
606.522534	0.318617
606.872314	0.318271
607.222041	0.319177
607.571714	0.317421
607.921333	0.318863
608.270899	0.318538
608.620411	0.315454
608.969870	0.319145
609.319276	0.319368
609.668627	0.319047
610.017926	0.317838
610.367171	0.316412
610.716362	0.317192
611.065500	0.317117
611.414585	0.315860
611.763616	0.316505
612.112594	0.317124
612.461518	0.316237
612.810389	0.314002
613.159207	0.316502
613.507971	0.318223
613.856682	0.313898
614.205340	0.315453
614.553945	0.312334
614.902496	0.316246
615.250994	0.314193
615.599439	0.315105
615.947830	0.314404
616.296169	0.315085
616.644454	0.314797
616.992686	0.314975
617.340864	0.312719
617.688990	0.316296
618.037063	0.313231
618.385082	0.314574
618.733048	0.311455
619.080961	0.313879
619.428821	0.313456
619.776628	0.313303
620.124382	0.315331
620.472083	0.315349
620.819731	0.314599
621.167326	0.318259
621.514868	0.318217
621.862357	0.322408
622.209793	0.322115
622.557176	0.324167
622.904506	0.325354
623.251783	0.327304
623.599007	0.329777
623.946179	0.329453
624.293297	0.331800
624.640363	0.335161
624.987376	0.336054
625.334336	0.338298
625.681243	0.340455
626.028097	0.341198
626.374899	0.342199
626.721647	0.342344
627.068343	0.346174
627.414987	0.346509
627.761577	0.349012
628.108115	0.347569
628.454600	0.352828
628.801032	0.349519
629.147412	0.351975
629.493739	0.352072
629.840014	0.355316
630.186236	0.352540
630.532405	0.358579
630.878521	0.355681
631.224585	0.358086
631.570597	0.361692
631.916556	0.360009
632.262462	0.360226
632.608316	0.362046
632.954117	0.363080
633.299866	0.363477
633.645562	0.364308
633.991206	0.368455
634.336797	0.371402
634.682336	0.373803
635.027823	0.375572
635.373257	0.375787
635.718639	0.379301
636.063968	0.378670
636.409245	0.384520
636.754470	0.384834
637.099642	0.387160
637.444762	0.390680
637.789829	0.390097
638.134845	0.393490
638.479808	0.394399
638.824719	0.393332
639.169577	0.397594
639.514383	0.396651
639.859137	0.401294
640.203839	0.400694
640.548489	0.401235
640.893086	0.402797
641.237632	0.404228
641.582125	0.402879
641.926566	0.404343
642.270955	0.404305
642.615292	0.404504
642.959576	0.403910
643.303809	0.404554
643.647990	0.404062
643.992118	0.404373
644.336195	0.408549
644.680219	0.406247
645.024192	0.407529
645.368112	0.400545
645.711981	0.399619
646.055797	0.395163
646.399562	0.397663
646.743274	0.389668
647.086935	0.386778
647.430544	0.387362
647.774101	0.386196
648.117606	0.385579
648.461059	0.386295
648.804460	0.388492
649.147810	0.394204
649.491108	0.396013
649.834354	0.397419
650.177548	0.402569
650.520690	0.407851
650.863781	0.409130
651.206820	0.408228
651.549807	0.412972
651.892742	0.416875
652.235626	0.416112
652.578458	0.417278
652.921238	0.423588
653.263967	0.420846
653.606644	0.425119
653.949269	0.424983
654.291843	0.428522
654.634365	0.425426
654.976836	0.428406
655.319255	0.429144
655.661622	0.430811
656.003938	0.430483
656.346203	0.433158
656.688416	0.431248
657.030577	0.434861
657.372687	0.436546
657.714746	0.437423
658.056753	0.433861
658.398708	0.438747
658.740612	0.439370
659.082465	0.435179
659.424266	0.436257
659.766016	0.435673
660.107715	0.438306
660.449362	0.437104
660.790958	0.437332
661.132503	0.437713
661.473996	0.436314
661.815438	0.436736
662.156829	0.436674
662.498168	0.437508
662.839456	0.439315
663.180693	0.436932
663.521879	0.436751
663.863013	0.438060
664.204097	0.436092
664.545129	0.433333
664.886110	0.433413
665.227040	0.430900
665.567918	0.433562
665.908746	0.431234
666.249522	0.430792
666.590248	0.431797
666.930922	0.430145
667.271545	0.429136
667.612118	0.429070
667.952639	0.430873
668.293109	0.429626
668.633528	0.432567
668.973896	0.431980
669.314213	0.432710
669.654480	0.434660
669.994695	0.434671
670.334859	0.435333
670.674973	0.435544
671.015035	0.435945
671.355047	0.435680
671.695008	0.436784
672.034918	0.438243
672.374777	0.437813
672.714585	0.439099
673.054342	0.438841
673.394049	0.439587
673.733705	0.436884
674.073310	0.437647
674.412864	0.441845
674.752368	0.441678
675.091820	0.441527
675.431223	0.446017
675.770574	0.446314
676.109875	0.448572
676.449125	0.449242
676.788324	0.450921
677.127473	0.457013
677.466571	0.456246
677.805619	0.458409
678.144616	0.458959
678.483562	0.460794
678.822458	0.463628
679.161303	0.464868
679.500098	0.464448
679.838842	0.466419
680.177535	0.466150
680.516179	0.464157
680.854771	0.463979
681.193314	0.456302
681.531805	0.448575
681.870247	0.437066
682.208638	0.429272
682.546978	0.428162
682.885268	0.430156
683.223508	0.436252
683.561697	0.439884
683.899836	0.442902
684.237925	0.445939
684.575963	0.448478
684.913951	0.451603
685.251889	0.448101
685.589776	0.449501
685.927614	0.451945
686.265401	0.446229
686.603137	0.447405
686.940824	0.441486
687.278460	0.440338
687.616046	0.439118
687.953582	0.433970
688.291068	0.435626
688.628504	0.430766
688.965889	0.433394
689.303224	0.437112
689.640510	0.441576
689.977745	0.447669
690.314930	0.455176
690.652065	0.459760
690.989150	0.467722
691.326185	0.473169
691.663170	0.478181
692.000105	0.485082
692.336990	0.492091
692.673825	0.495023
693.010610	0.501882
693.347345	0.507133
693.684030	0.508405
694.020665	0.513448
694.357251	0.521990
694.693786	0.522000
695.030272	0.525939
695.366707	0.529642
695.703093	0.532721
696.039429	0.530467
696.375716	0.532913
696.711952	0.534980
697.048139	0.536815
697.384276	0.539070
697.720363	0.537222
698.056400	0.536173
698.392388	0.541831
698.728326	0.544975
699.064214	0.547630
699.400053	0.548296
699.735842	0.551482
700.071581	0.554708
700.407270	0.557265
700.742910	0.560047
701.078501	0.566357
701.414042	0.566837
701.749533	0.570267
702.084974	0.579009
702.420366	0.570880
702.755709	0.578878
703.091002	0.586414
703.426246	0.579961
703.761440	0.586277
704.096584	0.590181
704.431679	0.588334
704.766725	0.589142
705.101721	0.591446
705.436668	0.587484
705.771565	0.594323
706.106413	0.590965
706.441212	0.585905
706.775961	0.584777
707.110661	0.587864
707.445311	0.584373
707.779913	0.581598
708.114465	0.580588
708.448967	0.577387
708.783421	0.568841
709.117825	0.563804
709.452180	0.563777
709.786485	0.557681
710.120742	0.547206
710.454949	0.549387
710.789107	0.541699
711.123216	0.532028
711.457275	0.533943
711.791286	0.524536
712.125247	0.523856
712.459159	0.535009
712.793023	0.527806
713.126837	0.530796
713.460602	0.531610
713.794318	0.540790
714.127985	0.540117
714.461602	0.549925
714.795171	0.553262
715.128691	0.561200
715.462162	0.568316
715.795584	0.574145
716.128957	0.577001
716.462281	0.583607
716.795556	0.586992
717.128782	0.591534
717.461960	0.601742
717.795088	0.600166
718.128167	0.606230
718.461198	0.615065
718.794180	0.615256
719.127113	0.618498
719.459997	0.621892
719.792833	0.628870
720.125619	0.630137
720.458357	0.634906
720.791046	0.634920
721.123686	0.637824
721.456278	0.644779
721.788821	0.642532
722.121315	0.646153
722.453761	0.650703
722.786158	0.648345
723.118506	0.645396
723.450805	0.652655
723.783056	0.648745
724.115259	0.645613
724.447412	0.645724
724.779518	0.647274
725.111574	0.646111
725.443582	0.642418
725.775542	0.644196
726.107453	0.635601
726.439315	0.635892
726.771129	0.634807
727.102895	0.627373
727.434612	0.620758
727.766281	0.618065
728.097901	0.617743
728.429473	0.617707
728.760996	0.615720
729.092471	0.616428
729.423897	0.619749
729.755276	0.618749
730.086606	0.619048
730.417887	0.613819
730.749120	0.604746
731.080305	0.595147
731.411442	0.591202
731.742530	0.596085
732.073570	0.594927
732.404562	0.588166
732.735506	0.589514
733.066401	0.593621
733.397249	0.603690
733.728048	0.614432
734.058798	0.626338
734.389501	0.637544
734.720156	0.647364
735.050762	0.654921
735.381320	0.656531
735.711831	0.664923
736.042293	0.670472
736.372707	0.665895
736.703073	0.671064
737.033391	0.673479
737.363661	0.669389
737.693883	0.664412
738.024056	0.664608
738.354182	0.664372
738.684260	0.654214
739.014290	0.649430
739.344272	0.650049
739.674207	0.644253
740.004093	0.643498
740.333931	0.644074
740.663722	0.643686
740.993464	0.644724
741.323159	0.648144
741.652806	0.652799
741.982405	0.658015
742.311956	0.662423
742.641460	0.664847
742.970915	0.668315
743.300323	0.676559
743.629683	0.682487
743.958996	0.684791
744.288260	0.688141
744.617477	0.695689
744.946647	0.696193
745.275768	0.701712
745.604842	0.702201
745.933869	0.711500
746.262847	0.712918
746.591778	0.705440
746.920662	0.711330
747.249498	0.718047
747.578286	0.708465
747.907027	0.705389
748.235720	0.706077
748.564365	0.701362
748.892963	0.700478
749.221514	0.703376
749.550017	0.709094
749.878473	0.707817
750.206881	0.714658
750.535242	0.715588
750.863555	0.715869
751.191821	0.717095
751.520039	0.719687
751.848210	0.724471
752.176334	0.717511
752.504411	0.717184
752.832440	0.724132
753.160421	0.728369
753.488356	0.726194
753.816243	0.725527
754.144082	0.732821
754.471875	0.736361
754.799620	0.732000
755.127318	0.732834
755.454969	0.733268
755.782572	0.732316
756.110129	0.738172
756.437638	0.740087
756.765100	0.735650
757.092515	0.734722
757.419882	0.733034
757.747203	0.738487
758.074477	0.737724
758.401703	0.735682
758.728882	0.730268
759.056014	0.729796
759.383099	0.728539
759.710138	0.729344
760.037129	0.726714
760.364073	0.719038
760.690970	0.722669
761.017820	0.728706
761.344623	0.723577
761.671379	0.714888
761.998088	0.703063
762.324751	0.680240
762.651366	0.638492
762.977935	0.572720
763.304456	0.520515
763.630931	0.510675
763.957359	0.549169
764.283740	0.594080
764.610074	0.621253
764.936362	0.651596
765.262602	0.678299
765.588796	0.699948
765.914943	0.717927
766.241044	0.736512
766.567097	0.742204
766.893104	0.751553
767.219064	0.758180
767.544978	0.764483
767.870845	0.778502
768.196665	0.781448
768.522438	0.780523
768.848165	0.781826
769.173846	0.790023
769.499479	0.794193
769.825066	0.798618
770.150607	0.803156
770.476101	0.798146
770.801548	0.799341
771.126949	0.810097
771.452303	0.814397
771.777611	0.813924
772.102872	0.813429
772.428087	0.817575
772.753256	0.821315
773.078378	0.824059
773.403453	0.832218
773.728482	0.836746
774.053465	0.829535
774.378401	0.833506
774.703291	0.841597
775.028135	0.841311
775.352932	0.843800
775.677683	0.846093
776.002388	0.846373
776.327046	0.845682
776.651658	0.849642
776.976224	0.852220
777.300743	0.852781
777.625216	0.855039
777.949643	0.857177
778.274024	0.857185
778.598359	0.858445
778.922647	0.857502
779.246889	0.857410
779.571086	0.862162
779.895236	0.863798
780.219339	0.861880
780.543397	0.857181
780.867409	0.857085
781.191374	0.859277
781.515294	0.860855
781.839167	0.859372
782.162995	0.862805
782.486776	0.859523
782.810511	0.860770
783.134201	0.864810
783.457844	0.861997
783.781441	0.865389
784.104993	0.870906
784.428498	0.871930
784.751958	0.866505
785.075372	0.868637
785.398739	0.873147
785.722061	0.869261
786.045337	0.864684
786.368568	0.869601
786.691752	0.872317
787.014891	0.857482
787.337983	0.850002
787.661030	0.841714
787.984031	0.824037
788.306987	0.811650
788.629897	0.813497
788.952760	0.817273
789.275579	0.821010
789.598351	0.837794
789.921078	0.849492
790.243759	0.851656
790.566395	0.856305
790.888984	0.864184
791.211529	0.868901
791.534027	0.872812
791.856480	0.874427
792.178888	0.879196
792.501249	0.881635
792.823566	0.883090
793.145836	0.882859
793.468062	0.885567
793.790241	0.885770
794.112375	0.883640
794.434464	0.878409
794.756507	0.877946
795.078505	0.878079
795.400457	0.872007
795.722364	0.860243
796.044226	0.853687
796.366042	0.851916
796.687812	0.855060
797.009538	0.851756
797.331218	0.855345
797.652852	0.860134
797.974442	0.865079
798.295986	0.864094
798.617484	0.866852
798.938938	0.871061
799.260346	0.876168
799.581709	0.878119
799.903026	0.880736
800.224299	0.880526
800.545526	0.885991
800.866708	0.889125
801.187845	0.892688
801.508936	0.892310
801.829983	0.889775
802.150984	0.892425
802.471940	0.898204
802.792851	0.897143
803.113717	0.898135
803.434538	0.895989
803.755314	0.898858
804.076045	0.900712
804.396731	0.901029
804.717372	0.900465
805.037967	0.901655
805.358518	0.899713
805.679024	0.896137
805.999485	0.897195
806.319901	0.898164
806.640272	0.899291
806.960598	0.896086
807.280879	0.893650
807.601115	0.892250
807.921306	0.895901
808.241453	0.895985
808.561554	0.894382
808.881611	0.894637
809.201623	0.896423
809.521590	0.896125
809.841513	0.897592
810.161390	0.896835
810.481223	0.898437
810.801011	0.900630
811.120755	0.903288
811.440453	0.902136
811.760107	0.900880
812.079716	0.901017
812.399281	0.904379
812.718801	0.906809
813.038276	0.907382
813.357707	0.907541
813.677093	0.903657
813.996434	0.907414
814.315731	0.908386
814.634983	0.909907
814.954191	0.907550
815.273354	0.904639
815.592473	0.902108
815.911547	0.901974
816.230577	0.898623
816.549562	0.896325
816.868502	0.896846
817.187399	0.894208
817.506250	0.888856
817.825058	0.890745
818.143821	0.886313
818.462539	0.881933
818.781213	0.873236
819.099843	0.862854
819.418429	0.846999
819.736970	0.830616
820.055466	0.811450
820.373919	0.785351
820.692327	0.752130
821.010691	0.718068
821.329011	0.641321
821.647286	0.525875
821.965517	0.413266
822.283704	0.370483
822.601847	0.371876
822.919945	0.407703
823.237999	0.440482
823.556010	0.487638
823.873976	0.542559
824.191897	0.593727
824.509775	0.635240
824.827609	0.680527
825.145398	0.703999
825.463144	0.707056
825.780845	0.688946
826.098502	0.670433
826.416116	0.624782
826.733685	0.580929
827.051210	0.573005
827.368692	0.587063
827.686129	0.624480
828.003522	0.676681
828.320872	0.724291
828.638177	0.768363
828.955439	0.800298
829.272656	0.822353
829.589830	0.838516
829.906960	0.855919
830.224046	0.867865
830.541088	0.878074
830.858086	0.882295
831.175041	0.887778
831.491952	0.887529
831.808819	0.883711
832.125642	0.877593
832.442421	0.863115
832.759157	0.840548
833.075849	0.795176
833.392497	0.732981
833.709101	0.690633
834.025662	0.700392
834.342179	0.732401
834.658653	0.770757
834.975083	0.807760
835.291469	0.832798
835.607811	0.855421
835.924110	0.871431
836.240366	0.887862
836.556578	0.902250
836.872746	0.908893
837.188871	0.914274
837.504952	0.920620
837.820990	0.923766
838.136984	0.926867
838.452935	0.930904
838.768842	0.931279
839.084706	0.925900
839.400526	0.899498
839.716303	0.859566
840.032037	0.837091
840.347727	0.841245
840.663373	0.858433
840.978977	0.879849
841.294537	0.902727
841.610054	0.918837
841.925527	0.926084
842.240957	0.932995
842.556344	0.939986
842.871687	0.946583
843.186987	0.950478
843.502244	0.950577
843.817458	0.951704
844.132629	0.955175
844.447756	0.960387
844.762840	0.961202
845.077881	0.959271
845.392879	0.960072
845.707833	0.962056
846.022745	0.965349
846.337613	0.964502
846.652438	0.967334
846.967221	0.965140
847.281960	0.964926
847.596656	0.967489
847.911309	0.965868
848.225919	0.968101
848.540485	0.968617
848.855009	0.969548
849.169490	0.969130
849.483928	0.969100
849.798323	0.969126
850.112675	0.969109
850.426984	0.969627
850.741251	0.970925
851.055474	0.970591
851.369654	0.968490
851.683792	0.969414
851.997887	0.970425
852.311938	0.970289
852.625947	0.970314
852.939914	0.968334
853.253837	0.968190
853.567718	0.970260
853.881555	0.971325
854.195350	0.968071
854.509103	0.969473
854.822812	0.970074
855.136479	0.970169
855.450103	0.970091
855.763685	0.969003
856.077224	0.968297
856.390720	0.970576
856.704173	0.970747
857.017584	0.969293
857.330953	0.966242
857.644278	0.968207
857.957561	0.969065
858.270802	0.968648
858.584000	0.969025
858.897155	0.967536
859.210268	0.967548
859.523339	0.968081
859.836367	0.969929
860.149352	0.970886
860.462295	0.968187
860.775195	0.970997
861.088054	0.969720
861.400869	0.969665
861.713642	0.970101
862.026373	0.971277
862.339062	0.971151
862.651708	0.968055
862.964312	0.968152
863.276873	0.969992
863.589392	0.968023
863.901869	0.965796
864.214303	0.965118
864.526696	0.964225
864.839045	0.964057
865.151353	0.962581
865.463619	0.963033
865.775842	0.963591
866.088023	0.962026
866.400162	0.963542
866.712258	0.962452
867.024313	0.963121
867.336325	0.963639
867.648296	0.964107
867.960224	0.962777
868.272110	0.961938
868.583954	0.963946
868.895755	0.964326
869.207515	0.962621
869.519233	0.959407
869.830909	0.961604
870.142542	0.962494
870.454134	0.962274
870.765684	0.960798
871.077191	0.958564
871.388657	0.958488
871.700081	0.958381
872.011463	0.958253
872.322803	0.958898
872.634101	0.956678
872.945357	0.955462
873.256571	0.953510
873.567744	0.953041
873.878874	0.953966
874.189963	0.951194
874.501010	0.951697
874.812015	0.948924
875.122979	0.951506
875.433900	0.953596
875.744780	0.954676
876.055618	0.950917
876.366415	0.951014
876.677169	0.950102
876.987882	0.951640
877.298554	0.951596
877.609183	0.948084
877.919771	0.945595
878.230317	0.943771
878.540822	0.941614
878.851285	0.935227
879.161707	0.927330
879.472087	0.916367
879.782425	0.899088
880.092722	0.867269
880.402977	0.815073
880.713191	0.754328
881.023363	0.696392
881.333494	0.662577
881.643583	0.634627
881.953631	0.633873
882.263637	0.662628
882.573602	0.702550
882.883526	0.728304
883.193408	0.750799
883.503248	0.773292
883.813048	0.800188
884.122806	0.829718
884.432522	0.852188
884.742197	0.872404
885.051831	0.882735
885.361424	0.892385
885.670975	0.904074
885.980485	0.915264
886.289954	0.919489
886.599382	0.926801
886.908768	0.928624
887.218113	0.934745
887.527417	0.939767
887.836680	0.942371
888.145901	0.944023
888.455082	0.946232
888.764221	0.951320
889.073319	0.953355
889.382376	0.953894
889.691392	0.954998
890.000366	0.952643
890.309300	0.953410
890.618193	0.953535
890.927044	0.951686
891.235855	0.952833
891.544625	0.951290
891.853353	0.952111
892.162041	0.949377
892.470687	0.944404
892.779293	0.938663
893.087858	0.934969
893.396381	0.927285
893.704864	0.914391
894.013306	0.890755
894.321707	0.863732
894.630068	0.849903
894.938387	0.845384
895.246665	0.846890
895.554903	0.858733
895.863100	0.871913
896.171256	0.888469
896.479371	0.908321
896.787446	0.921312
897.095480	0.926443
897.403473	0.929044
897.711425	0.932873
898.019336	0.941539
898.327207	0.943834
898.635038	0.945683
898.942827	0.944293
899.250576	0.948576
899.558284	0.953240
899.865952	0.954922
900.173579	0.955303
900.481165	0.956209
900.788711	0.960352
901.096216	0.962542
901.403681	0.961978
901.711105	0.964675
902.018489	0.964225
902.325832	0.963288
902.633135	0.962029
902.940397	0.956293
903.247619	0.945079
903.554800	0.919778
903.861941	0.880409
904.169041	0.845470
904.476101	0.828221
904.783121	0.829797
905.090100	0.844551
905.397039	0.865584
905.703938	0.887356
906.010796	0.906707
906.317614	0.924067
906.624391	0.936799
906.931129	0.944253
907.237826	0.952237
907.544483	0.959325
907.851099	0.964245
908.157675	0.967055
908.464211	0.971162
908.770707	0.972994
909.077163	0.975005
909.383578	0.975210
909.689954	0.975885
909.996289	0.975283
910.302584	0.977463
910.608839	0.980297
910.915054	0.978981
911.221229	0.979395
911.527363	0.977525
911.833458	0.977269
912.139513	0.977904
912.445527	0.974580
912.751502	0.975229
913.057436	0.973014
913.363331	0.970902
913.669186	0.966669
913.975000	0.962771
914.280775	0.955601
914.586510	0.950416
914.892205	0.936123
915.197859	0.915341
915.503475	0.888746
915.809050	0.869358
916.114585	0.864790
916.420081	0.861314
916.725536	0.857523
917.030952	0.866404
917.336328	0.879362
917.641665	0.894223
917.946961	0.908657
918.252218	0.920656
918.557435	0.929226
918.862612	0.936676
919.167750	0.942809
919.472848	0.947923
919.777906	0.953347
920.082925	0.959152
920.387904	0.962656
920.692843	0.964857
920.997743	0.964775
921.302603	0.968230
921.607423	0.969251
921.912204	0.971427
922.216946	0.972699
922.521647	0.973732
922.826310	0.974789
923.130932	0.976688
923.435516	0.978525
923.740059	0.979448
924.044564	0.979306
924.349028	0.980185
924.653454	0.982487
924.957840	0.984497
925.262186	0.984631
925.566493	0.983846
925.870761	0.985894
926.174989	0.987493
926.479178	0.987823
926.783328	0.988533
927.087438	0.989123
927.391509	0.988729
927.695541	0.989236
927.999533	0.988984
928.303486	0.989579
928.607400	0.992235
928.911275	0.989404
929.215110	0.991173
929.518906	0.989720
929.822663	0.989655
930.126381	0.991225
930.430060	0.990221
930.733699	0.989986
931.037299	0.989363
931.340861	0.989843
931.644383	0.989904
931.947866	0.989730
932.251309	0.990869
932.554714	0.990803
932.858080	0.990075
933.161407	0.991172
933.464694	0.990631
933.767943	0.989698
934.071153	0.991563
934.374323	0.991888
934.677455	0.990654
934.980548	0.992251
935.283602	0.991074
935.586617	0.990701
935.889593	0.990748
936.192530	0.990295
936.495428	0.990997
936.798287	0.990584
937.101108	0.991720
937.403890	0.988606
937.706632	0.990234
938.009336	0.988162
938.312002	0.986954
938.614628	0.984588
938.917216	0.984288
939.219765	0.981861
939.522275	0.982519
939.824747	0.983366
940.127179	0.983193
940.429573	0.984670
940.731929	0.983642
941.034246	0.983156
941.336524	0.985307
941.638763	0.986469
941.940964	0.986278
942.243126	0.987206
942.545250	0.987190
942.847335	0.988023
943.149381	0.988921
943.451389	0.987613
943.753359	0.988320
944.055290	0.990713
944.357182	0.991172
944.659036	0.988420
944.960851	0.989280
945.262628	0.989437
945.564367	0.991221
945.866067	0.989263
946.167729	0.989797
946.469352	0.990106
946.770937	0.988340
947.072484	0.991246
947.373992	0.989712
947.675462	0.990482
947.976893	0.989905
948.278286	0.990521
948.579641	0.991421
948.880958	0.991142
949.182236	0.991933
949.483476	0.992084
949.784678	0.990070
950.085841	0.990708
950.386967	0.991413
950.688054	0.990428
950.989103	0.990635
951.290114	0.989557
951.591087	0.989778
951.892021	0.989567
952.192917	0.990280
952.493776	0.988602
952.794596	0.987770
953.095378	0.987776
953.396122	0.987836
953.696828	0.987278
953.997496	0.990106
954.298126	0.990038
954.598718	0.990967
954.899272	0.991627
955.199788	0.990328
955.500266	0.992668
955.800706	0.993593
956.101108	0.993349
956.401472	0.994231
956.701798	0.994086
957.002087	0.993836
957.302337	0.994034
957.602550	0.996037
957.902724	0.994682
958.202861	0.995420
958.502960	0.995823
958.803022	0.993268
959.103045	0.995459
959.403031	0.995468
959.702979	0.995620
960.002889	0.995394
960.302762	0.994598
960.602596	0.996120
960.902393	0.995289
961.202153	0.996327
961.501875	0.996411
961.801559	0.995840
962.101205	0.995441
962.400814	0.996432
962.700385	0.996622
962.999918	0.996047
963.299414	0.995750
963.598873	0.995120
963.898293	0.997008
964.197677	0.996261
964.497022	0.995452
964.796331	0.998157
965.095601	0.997515
965.394835	0.996172
965.694030	0.996174
965.993189	0.997213
966.292309	0.996729
966.591393	0.997772
966.890439	0.997494
967.189447	0.997350
967.488419	0.996672
967.787353	0.996629
968.086249	0.996759
968.385108	0.996254
968.683930	0.997000
968.982714	0.996826
969.281462	0.997118
969.580172	0.996659
969.878844	0.996649
970.177480	0.996616
970.476078	0.997141
970.774639	0.996793
971.073162	0.997142
971.371649	0.996160
971.670098	0.996523
971.968510	0.997424
972.266885	0.996425
972.565223	0.996645
972.863524	0.996473
973.161788	0.995183
973.460014	0.997122
973.758204	0.995800
974.056356	0.996601
974.354471	0.994451
974.652550	0.995941
974.950591	0.996742
975.248595	0.996325
975.546563	0.997690
975.844493	0.997753
976.142386	0.996156
976.440243	0.998181
976.738062	0.996664
977.035845	0.997649
977.333590	0.997341
977.631299	0.997465
977.928971	0.997301
978.226606	0.997221
978.524204	0.995953
978.821765	0.998459
979.119290	0.996094
979.416777	0.996113
979.714228	0.997292
980.011642	0.994945
980.309020	0.997230
980.606360	0.997389
980.903664	0.998554
981.200931	0.995538
981.498162	0.994879
981.795356	0.994215
982.092513	0.993488
982.389633	0.994524
982.686717	0.992146
982.983764	0.991913
983.280775	0.990881
983.577749	0.990269
983.874686	0.992229
984.171587	0.992296
984.468451	0.994207
984.765279	0.995034
985.062070	0.994192
985.358824	0.994446
985.655543	0.994678
985.952224	0.995313
986.248869	0.996515
986.545478	0.996025
986.842050	0.998033
987.138586	0.995528
987.435086	0.997424
987.731549	0.998221
988.027975	0.997448
988.324366	0.997394
988.620719	0.997756
988.917037	0.995410
989.213318	0.998052
989.509563	0.998750
989.805772	0.998161
990.101944	0.997679
990.398080	0.998131
990.694180	0.998309
990.990244	0.997419
991.286271	0.997896
991.582262	0.997856
991.878217	0.997624
992.174136	0.998468
992.470019	0.998499
992.765865	0.997884
993.061676	0.998003
993.357450	0.998034
993.653188	0.998053
993.948890	0.996908
994.244556	0.998509
994.540186	0.997843
994.835780	0.995888
995.131337	0.998444
995.426859	0.996388
995.722345	0.997671
996.017795	0.995859
996.313208	0.995934
996.608586	0.995979
996.903928	0.996288
997.199234	0.995816
997.494504	0.996291
997.789738	0.995798
998.084936	0.995930
998.380099	0.997391
998.675225	0.997939
998.970316	0.998460
999.265371	0.997715
999.560390	0.998179
999.855373	0.998166
1000.150320	0.997556
1000.445232	0.997531
1000.740108	0.996963
1001.034948	0.998381
1001.329752	0.999218
1001.624521	0.998722
1001.919254	0.997845
1002.213951	0.998908
1002.508613	0.997248
1002.803239	0.999290
1003.097829	0.997881
1003.392384	0.998520
1003.686903	0.998800
1003.981386	0.999200
1004.275834	0.999663
1004.570246	0.998579
1004.864623	0.999496
1005.158964	0.999777
1005.453270	0.998852
1005.747540	0.996762
1006.041775	0.999153
1006.335974	0.998588
1006.630138	0.999040
1006.924266	1.000684
1007.218359	1.000486
1007.512416	0.999791
1007.806438	0.998346
1008.100425	0.999315
1008.394376	0.998489
1008.688292	0.997544
1008.982172	1.000440
1009.276017	0.999119
1009.569827	0.999796
1009.863602	0.998383
1010.157341	0.999205
1010.451045	0.998946
1010.744714	0.998633
1011.038347	0.999619
1011.331945	0.998388
1011.625508	0.998260
1011.919036	0.997563
1012.212528	0.999313
1012.505986	0.998113
1012.799408	0.998922
1013.092795	0.998993
1013.386147	0.998792
1013.679464	0.998932
1013.972745	0.998248
1014.265992	0.997450
1014.559204	0.999117
1014.852380	0.998919
1015.145521	0.999135
1015.438628	0.999729
1015.731699	0.998702
1016.024736	0.999294
1016.317737	0.997618
1016.610703	0.998056
1016.903635	0.999041
1017.196531	0.999150
1017.489393	0.999294
1017.782219	0.998686
1018.075011	0.999094
1018.367768	0.999393
1018.660490	0.999158
1018.953177	0.999158
1019.245829	0.999158
