Dividing Wavelength (nm)	Counts (n)	Blue Motor Position (mm): 0.000000	Red Motor Position (mm): 17.000000	
326.493990	1.001385
326.888308	1.001385
327.282561	1.001385
327.676750	1.001202
328.070874	0.998940
328.464933	1.000176
328.858929	0.999120
329.252859	1.001470
329.646726	1.000778
330.040528	0.999276
330.434265	0.999684
330.827938	1.002465
331.221547	1.000923
331.615091	1.001252
332.008571	1.000344
332.401986	1.000438
332.795338	1.001067
333.188625	0.998603
333.581847	1.000643
333.975006	1.000180
334.368100	1.001180
334.761129	1.000743
335.154095	1.001390
335.546996	0.998625
335.939833	0.994734
336.332606	0.992800
336.725315	0.994253
337.117960	0.995803
337.510540	0.993641
337.903056	0.994132
338.295508	0.993312
338.687896	0.994166
339.080220	0.994730
339.472480	0.994271
339.864676	0.994848
340.256807	0.995107
340.648875	0.995731
341.040879	0.995244
341.432818	0.993834
341.824694	0.994542
342.216506	0.995293
342.608253	0.994303
342.999937	0.994363
343.391557	0.994089
343.783113	0.994087
344.174605	0.994840
344.566033	0.995786
344.957397	0.993682
345.348697	0.994069
345.739934	0.994542
346.131106	0.993799
346.522215	0.993930
346.913260	0.994890
347.304241	0.994431
347.695159	0.994472
348.086012	0.994091
348.476802	0.993970
348.867528	0.994197
349.258191	0.993191
349.648789	0.995538
350.039324	0.993424
350.429796	0.994972
350.820203	0.994424
351.210548	0.994026
351.600828	0.994235
351.991045	0.994236
352.381198	0.993511
352.771288	0.995076
353.161314	0.994227
353.551276	0.995127
353.941175	0.994872
354.331010	0.993274
354.720782	0.994197
355.110490	0.993987
355.500135	0.994050
355.889717	0.994548
356.279235	0.994266
356.668689	0.993160
357.058080	0.993441
357.447408	0.995018
357.836672	0.994370
358.225873	0.995099
358.615010	0.995195
359.004084	0.995502
359.393095	0.994839
359.782043	0.995423
360.170927	0.996252
360.559748	0.995684
360.948505	0.994243
361.337199	0.994833
361.725830	0.994821
362.114398	0.995465
362.502903	0.994646
362.891344	0.995292
363.279722	0.994009
363.668037	0.995235
364.056289	0.993862
364.444478	0.995995
364.832603	0.993960
365.220665	0.994347
365.608665	0.994488
365.996601	0.995173
366.384474	0.993515
366.772284	0.994538
367.160031	0.993789
367.547715	0.993447
367.935336	0.994060
368.322893	0.993526
368.710388	0.993704
369.097820	0.994181
369.485189	0.994536
369.872495	0.992536
370.259738	0.992276
370.646918	0.995437
371.034035	0.995123
371.421090	0.994826
371.808081	0.993020
372.195010	0.994583
372.581875	0.994624
372.968678	0.993371
373.355418	0.994272
373.742096	0.993954
374.128710	0.994967
374.515262	0.992704
374.901751	0.994684
375.288177	0.994969
375.674540	0.994045
376.060841	0.993988
376.447079	0.993988
376.833254	0.994450
377.219367	0.994311
377.605417	0.994642
377.991404	0.994507
378.377329	0.993522
378.763191	0.994915
379.148991	0.995205
379.534727	0.994587
379.920402	0.994146
380.306013	0.994450
380.691563	0.995266
381.077049	0.994226
381.462474	0.994512
381.847835	0.994559
382.233134	0.995194
382.618371	0.994315
383.003545	0.994397
383.388657	0.993699
383.773706	0.995042
384.158693	0.994828
384.543618	0.994931
384.928480	0.995719
385.313280	0.994690
385.698017	0.994979
386.082692	0.995867
386.467305	0.995672
386.851856	0.994912
387.236344	0.994598
387.620770	0.993477
388.005133	0.995391
388.389435	0.995555
388.773674	0.994602
389.157851	0.995296
389.541965	0.994218
389.926018	0.994955
390.310008	0.994896
390.693936	0.994015
391.077802	0.995219
391.461606	0.994304
391.845348	0.994896
392.229027	0.995076
392.612645	0.995075
392.996200	0.995352
393.379694	0.993737
393.763125	0.995518
394.146494	0.994708
394.529801	0.994544
394.913047	0.994997
395.296230	0.993998
395.679351	0.993944
396.062410	0.994422
396.445408	0.994519
396.828343	0.994132
397.211217	0.993642
397.594028	0.994635
397.976778	0.993682
398.359466	0.992417
398.742092	0.992115
399.124656	0.992300
399.507158	0.991866
399.889598	0.991200
400.271977	0.990919
400.654294	0.990202
401.036549	0.989440
401.418742	0.986665
401.800874	0.984799
402.182944	0.984161
402.564952	0.980428
402.946898	0.980371
403.328783	0.976188
403.710606	0.973540
404.092367	0.969435
404.474067	0.966969
404.855705	0.962535
405.237282	0.961080
405.618797	0.955223
406.000250	0.948971
406.381642	0.945810
406.762972	0.941044
407.144240	0.935845
407.525447	0.930768
407.906593	0.923751
408.287677	0.917537
408.668700	0.913189
409.049661	0.904071
409.430560	0.897696
409.811399	0.892174
410.192176	0.881142
410.572891	0.876761
410.953545	0.866837
411.334138	0.862009
411.714669	0.852601
412.095139	0.848917
412.475547	0.836167
412.855894	0.828207
413.236180	0.819464
413.616405	0.813855
413.996568	0.801831
414.376670	0.795683
414.756711	0.788698
415.136691	0.779602
415.516609	0.767022
415.896466	0.755905
416.276262	0.744208
416.655997	0.738084
417.035670	0.718564
417.415283	0.705689
417.794834	0.699202
418.174324	0.694083
418.553753	0.691562
418.933121	0.670848
419.312428	0.658175
419.691674	0.652998
420.070859	0.637595
420.449983	0.634851
420.829045	0.620237
421.208047	0.618837
421.586988	0.606406
421.965867	0.597582
422.344686	0.581334
422.723444	0.584670
423.102141	0.591850
423.480777	0.563616
423.859352	0.574508
424.237866	0.548932
424.616319	0.544367
424.994712	0.531330
425.373044	0.534972
425.751314	0.518742
426.129524	0.528296
426.507673	0.509669
426.885762	0.499704
427.263789	0.500122
427.641756	0.505169
428.019662	0.493161
428.397508	0.488802
428.775292	0.489196
429.153016	0.478841
429.530679	0.482204
429.908282	0.473122
430.285824	0.480004
430.663305	0.456901
431.040726	0.475458
431.418086	0.474288
431.795385	0.463890
432.172624	0.461127
432.549802	0.460410
432.926920	0.458151
433.303977	0.456209
433.680974	0.452325
434.057910	0.450211
434.434786	0.448639
434.811601	0.450565
435.188355	0.432069
435.565050	0.440806
435.941683	0.441499
436.318257	0.426300
436.694770	0.425838
437.071222	0.423607
437.447614	0.428042
437.823946	0.434018
438.200218	0.423311
438.576429	0.432853
438.952580	0.425795
439.328670	0.422079
439.704700	0.428089
440.080670	0.429701
440.456580	0.410510
440.832429	0.418300
441.208218	0.429166
441.583947	0.418360
441.959616	0.417561
442.335224	0.422535
442.710773	0.413823
443.086261	0.411055
443.461689	0.425143
443.837057	0.415096
444.212365	0.405316
444.587612	0.411451
444.962800	0.401705
445.337927	0.403319
445.712995	0.429463
446.088002	0.391627
446.462949	0.401709
446.837837	0.406794
447.212664	0.395633
447.587431	0.387062
447.962139	0.357733
448.336786	0.317101
448.711374	0.327616
449.085901	0.370913
449.460369	0.375838
449.834776	0.379126
450.209124	0.358270
450.583412	0.351129
450.957640	0.343865
451.331808	0.355215
451.705917	0.378906
452.079965	0.383265
452.453954	0.371335
452.827883	0.378319
453.201752	0.373264
453.575562	0.384586
453.949311	0.373421
454.323001	0.378798
454.696632	0.375036
455.070202	0.367723
455.443713	0.359673
455.817164	0.354686
456.190556	0.350184
456.563888	0.347046
456.937160	0.344518
457.310373	0.361676
457.683526	0.360530
458.056619	0.366583
458.429653	0.366903
458.802628	0.370218
459.175542	0.364397
459.548398	0.346848
459.921194	0.339672
460.293930	0.339717
460.666607	0.317097
461.039224	0.305543
461.411782	0.301259
461.784280	0.300767
462.156719	0.304854
462.529099	0.309232
462.901419	0.325467
463.273680	0.329772
463.645882	0.329297
464.018024	0.334763
464.390106	0.327928
464.762130	0.312778
465.134094	0.296125
465.505999	0.264977
465.877845	0.235551
466.249631	0.222573
466.621358	0.230101
466.993026	0.243839
467.364634	0.249980
467.736184	0.258813
468.107674	0.267844
468.479105	0.266703
468.850477	0.273485
469.221790	0.280362
469.593043	0.290886
469.964238	0.295099
470.335373	0.294522
470.706449	0.293098
471.077467	0.293454
471.448425	0.255524
471.819324	0.231530
472.190164	0.230665
472.560945	0.259543
472.931667	0.281791
473.302330	0.285889
473.672934	0.297795
474.043479	0.285959
474.413965	0.287470
474.784393	0.291325
475.154761	0.285979
475.525070	0.283362
475.895321	0.289114
476.265513	0.283379
476.635645	0.278778
477.005719	0.278815
477.375734	0.275131
477.745691	0.268589
478.115588	0.265220
478.485427	0.258659
478.855207	0.245682
479.224928	0.228136
479.594591	0.216146
479.964194	0.219705
480.333739	0.220902
480.703226	0.222333
481.072653	0.220870
481.442022	0.216492
481.811333	0.212928
482.180584	0.216543
482.549777	0.221758
482.918912	0.225074
483.287988	0.224845
483.657005	0.224113
484.025964	0.230751
484.394864	0.228042
484.763706	0.228699
485.132489	0.233696
485.501213	0.234323
485.869879	0.232449
486.238487	0.235899
486.607036	0.233749
486.975527	0.238300
487.343959	0.234348
487.712333	0.233110
488.080648	0.234551
488.448905	0.233883
488.817104	0.235070
489.185244	0.229621
489.553326	0.226495
489.921350	0.216386
490.289315	0.198931
490.657222	0.193984
491.025070	0.195269
491.392861	0.197183
491.760593	0.202855
492.128267	0.208481
492.495883	0.214039
492.863440	0.220211
493.230939	0.226505
493.598380	0.227982
493.965763	0.230033
494.333088	0.232691
494.700354	0.233678
495.067563	0.233020
495.434713	0.235871
495.801805	0.234077
496.168839	0.235311
496.535815	0.236797
496.902733	0.236761
497.269593	0.238341
497.636395	0.236242
498.003139	0.236285
498.369825	0.239327
498.736453	0.235957
499.103023	0.237338
499.469535	0.236748
499.835989	0.237127
500.202385	0.237843
500.568723	0.241139
500.935003	0.236111
501.301226	0.240749
501.667390	0.235060
502.033497	0.232939
502.399546	0.236157
502.765537	0.237766
503.131470	0.236241
503.497345	0.232339
503.863163	0.241372
504.228923	0.234103
504.594625	0.232871
504.960269	0.238438
505.325856	0.233603
505.691385	0.237965
506.056856	0.234504
506.422270	0.234308
506.787625	0.236406
507.152924	0.233827
507.518164	0.234406
507.883347	0.236114
508.248472	0.237832
508.613540	0.232757
508.978550	0.235381
509.343503	0.235864
509.708398	0.233875
510.073236	0.231029
510.438016	0.231089
510.802738	0.232095
511.167403	0.231028
511.532010	0.233121
511.896561	0.228459
512.261053	0.227179
512.625488	0.229534
512.989866	0.229772
513.354186	0.229760
513.718449	0.232001
514.082655	0.228078
514.446803	0.230394
514.810894	0.228185
515.174927	0.230499
515.538904	0.229781
515.902822	0.227060
516.266684	0.229436
516.630488	0.230474
516.994235	0.229484
517.357925	0.227924
517.721558	0.226290
518.085133	0.225791
518.448651	0.225970
518.812112	0.228237
519.175516	0.228158
519.538863	0.225656
519.902152	0.227137
520.265385	0.223818
520.628560	0.225552
520.991678	0.226311
521.354739	0.225291
521.717743	0.226345
522.080690	0.226876
522.443580	0.224126
522.806413	0.224996
523.169189	0.224272
523.531908	0.223173
523.894569	0.226690
524.257174	0.226771
524.619722	0.224379
524.982213	0.225574
525.344647	0.224434
525.707025	0.225360
526.069345	0.223264
526.431608	0.224952
526.793815	0.223037
527.155964	0.227405
527.518057	0.225930
527.880093	0.227113
528.242072	0.225769
528.603995	0.227458
528.965860	0.229268
529.327669	0.228187
529.689421	0.228966
530.051117	0.230053
530.412755	0.227482
530.774337	0.230044
531.135862	0.230315
531.497331	0.229656
531.858743	0.232342
532.220098	0.229281
532.581396	0.231715
532.942638	0.232184
533.303824	0.233142
533.664953	0.232752
534.026025	0.234510
534.387040	0.232811
534.747999	0.232454
535.108902	0.231146
535.469748	0.236409
535.830537	0.234130
536.191270	0.234485
536.551947	0.234165
536.912567	0.233888
537.273131	0.236006
537.633638	0.235851
537.994089	0.236452
538.354483	0.237465
538.714821	0.234513
539.075103	0.234096
539.435328	0.235159
539.795497	0.238718
540.155609	0.235590
540.515665	0.233523
540.875665	0.239145
541.235609	0.237729
541.595496	0.237710
541.955328	0.234114
542.315102	0.237016
542.674821	0.237885
543.034483	0.237890
543.394090	0.237766
543.753640	0.239677
544.113134	0.234595
544.472571	0.237951
544.831953	0.234525
545.191278	0.238781
545.550548	0.238253
545.909761	0.235102
546.268918	0.235653
546.628019	0.234178
546.987064	0.236958
547.346053	0.238620
547.704986	0.236793
548.063863	0.236607
548.422684	0.237043
548.781449	0.238870
549.140158	0.236592
549.498811	0.239508
549.857408	0.242576
550.215949	0.237534
550.574434	0.240116
550.932864	0.238267
551.291237	0.236881
551.649555	0.238209
552.007817	0.238041
552.366022	0.238725
552.724173	0.239154
553.082267	0.239438
553.440305	0.236267
553.798288	0.240888
554.156215	0.237320
554.514086	0.237940
554.871902	0.241240
555.229661	0.240497
555.587365	0.240583
555.945014	0.243598
556.302606	0.240319
556.660143	0.242829
557.017625	0.239454
557.375050	0.241634
557.732421	0.238712
558.089735	0.240859
558.446994	0.240826
558.804197	0.240041
559.161345	0.239768
559.518437	0.243421
559.875474	0.240889
560.232455	0.240498
560.589381	0.241779
560.946251	0.241624
561.303065	0.239278
561.659825	0.240772
562.016528	0.242211
562.373177	0.244804
562.729770	0.242465
563.086307	0.244302
563.442789	0.242297
563.799216	0.245247
564.155587	0.243978
564.511904	0.244624
564.868164	0.245061
565.224370	0.244735
565.580520	0.246626
565.936615	0.246453
566.292654	0.249822
566.648638	0.246669
567.004567	0.247385
567.360441	0.248083
567.716260	0.250152
568.072023	0.247947
568.427732	0.248392
568.783385	0.251051
569.138982	0.249124
569.494525	0.248700
569.850013	0.251603
570.205445	0.250027
570.560823	0.252403
570.916145	0.254326
571.271412	0.252940
571.626625	0.254074
571.981782	0.254722
572.336884	0.255600
572.691931	0.255261
573.046923	0.256463
573.401860	0.257568
573.756743	0.259255
574.111570	0.258121
574.466342	0.258706
574.821059	0.257836
575.175722	0.260787
575.530330	0.260481
575.884882	0.260866
576.239380	0.262894
576.593823	0.263160
576.948211	0.262693
577.302544	0.266113
577.656823	0.265542
578.011047	0.265632
578.365216	0.266264
578.719330	0.268344
579.073389	0.268299
579.427394	0.269371
579.781344	0.270029
580.135239	0.271700
580.489080	0.271418
580.842866	0.274436
581.196597	0.273922
581.550273	0.273006
581.903895	0.273925
582.257463	0.271942
582.610975	0.275561
582.964434	0.274939
583.317837	0.277278
583.671186	0.277621
584.024481	0.277854
584.377721	0.280018
584.730906	0.280715
585.084037	0.279888
585.437113	0.281644
585.790135	0.281172
586.143103	0.284147
586.496016	0.285477
586.848874	0.282785
587.201679	0.283280
587.554428	0.286791
587.907124	0.285429
588.259765	0.286073
588.612352	0.286819
588.964884	0.290603
589.317362	0.290269
589.669786	0.290220
590.022155	0.288601
590.374470	0.287916
590.726731	0.290017
591.078937	0.294692
591.431090	0.291111
591.783188	0.295173
592.135232	0.295402
592.487222	0.295566
592.839157	0.293806
593.191038	0.296256
593.542866	0.298122
593.894639	0.301557
594.246358	0.299287
594.598022	0.299275
594.949633	0.303017
595.301190	0.303588
595.652692	0.302810
596.004141	0.298846
596.355535	0.306926
596.706876	0.307186
597.058162	0.309667
597.409395	0.306871
597.760573	0.304794
598.111698	0.308164
598.462768	0.308503
598.813785	0.309934
599.164748	0.311140
599.515657	0.311128
599.866511	0.314892
600.217312	0.309808
600.568060	0.315273
600.918753	0.311576
601.269392	0.312749
601.619978	0.315854
601.970510	0.313498
602.320988	0.313594
602.671412	0.311232
603.021783	0.313903
603.372100	0.315045
603.722363	0.314870
604.072572	0.315647
604.422728	0.315522
604.772830	0.317563
605.122878	0.317005
605.472872	0.317901
605.822813	0.316029
606.172701	0.318727
606.522534	0.316171
606.872314	0.316181
607.222041	0.317141
607.571714	0.315203
607.921333	0.316749
608.270899	0.316443
608.620411	0.312872
608.969870	0.316653
609.319276	0.317002
609.668627	0.317113
610.017926	0.315633
610.367171	0.314157
610.716362	0.314934
611.065500	0.314856
611.414585	0.313783
611.763616	0.313989
612.112594	0.314705
612.461518	0.314052
612.810389	0.311904
613.159207	0.314149
613.507971	0.315860
613.856682	0.311692
614.205340	0.313306
614.553945	0.309971
614.902496	0.314018
615.250994	0.311785
615.599439	0.313113
615.947830	0.312065
616.296169	0.312783
616.644454	0.312426
616.992686	0.313000
617.340864	0.310403
617.688990	0.314054
618.037063	0.310808
618.385082	0.312669
618.733048	0.309972
619.080961	0.311685
619.428821	0.311318
619.776628	0.310904
620.124382	0.312571
620.472083	0.313260
620.819731	0.312029
621.167326	0.316095
621.514868	0.316122
621.862357	0.320230
622.209793	0.319954
622.557176	0.322049
622.904506	0.323049
623.251783	0.325602
623.599007	0.327266
623.946179	0.327461
624.293297	0.329204
624.640363	0.333205
624.987376	0.333697
625.334336	0.336058
625.681243	0.338801
626.028097	0.339298
626.374899	0.340397
626.721647	0.340070
627.068343	0.343879
627.414987	0.344707
627.761577	0.347211
628.108115	0.345055
628.454600	0.350307
628.801032	0.347372
629.147412	0.349383
629.493739	0.349834
629.840014	0.353333
630.186236	0.350610
630.532405	0.355925
630.878521	0.353601
631.224585	0.355842
631.570597	0.359118
631.916556	0.357804
632.262462	0.357788
632.608316	0.360205
632.954117	0.360968
633.299866	0.362027
633.645562	0.362192
633.991206	0.366638
634.336797	0.369503
634.682336	0.371652
635.027823	0.373622
635.373257	0.374104
635.718639	0.377326
636.063968	0.376549
636.409245	0.382672
636.754470	0.383278
637.099642	0.384802
637.444762	0.388651
637.789829	0.387892
638.134845	0.391170
638.479808	0.391830
638.824719	0.391481
639.169577	0.395589
639.514383	0.394666
639.859137	0.399461
640.203839	0.398797
640.548489	0.399438
640.893086	0.400657
641.237632	0.402192
641.582125	0.401023
641.926566	0.402368
642.270955	0.402393
642.615292	0.403060
642.959576	0.401895
643.303809	0.402610
643.647990	0.401982
643.992118	0.402658
644.336195	0.406358
644.680219	0.404554
645.024192	0.405513
645.368112	0.399226
645.711981	0.397611
646.055797	0.393129
646.399562	0.396081
646.743274	0.387393
647.086935	0.385028
647.430544	0.385085
647.774101	0.384039
648.117606	0.383568
648.461059	0.384407
648.804460	0.386521
649.147810	0.391680
649.491108	0.393779
649.834354	0.395101
650.177548	0.400518
650.520690	0.406084
650.863781	0.406619
651.206820	0.406260
651.549807	0.410956
651.892742	0.415111
652.235626	0.414585
652.578458	0.415194
652.921238	0.421412
653.263967	0.418984
653.606644	0.423280
653.949269	0.422711
654.291843	0.427183
654.634365	0.423473
654.976836	0.426815
655.319255	0.426855
655.661622	0.428846
656.003938	0.428399
656.346203	0.431388
656.688416	0.429250
657.030577	0.433263
657.372687	0.435071
657.714746	0.435445
658.056753	0.432650
658.398708	0.436192
658.740612	0.437857
659.082465	0.433783
659.424266	0.434299
659.766016	0.433896
660.107715	0.436444
660.449362	0.434897
660.790958	0.435764
661.132503	0.436559
661.473996	0.434037
661.815438	0.435137
662.156829	0.435400
662.498168	0.435963
662.839456	0.437474
663.180693	0.435465
663.521879	0.435326
663.863013	0.435746
664.204097	0.434530
664.545129	0.431786
664.886110	0.431851
665.227040	0.429030
665.567918	0.431732
665.908746	0.429344
666.249522	0.429291
666.590248	0.430028
666.930922	0.428423
667.271545	0.427501
667.612118	0.427013
667.952639	0.429134
668.293109	0.427569
668.633528	0.430562
668.973896	0.430495
669.314213	0.431207
669.654480	0.432690
669.994695	0.433254
670.334859	0.433401
670.674973	0.434096
671.015035	0.433857
671.355047	0.434373
671.695008	0.434998
672.034918	0.437017
672.374777	0.436287
672.714585	0.437344
673.054342	0.437393
673.394049	0.437521
673.733705	0.434921
674.073310	0.435878
674.412864	0.439308
674.752368	0.439677
675.091820	0.440425
675.431223	0.444651
675.770574	0.444200
676.109875	0.447647
676.449125	0.447566
676.788324	0.449309
677.127473	0.454660
677.466571	0.454758
677.805619	0.455734
678.144616	0.457285
678.483562	0.458977
678.822458	0.461962
679.161303	0.462542
679.500098	0.462798
679.838842	0.465154
680.177535	0.464292
680.516179	0.462643
680.854771	0.461899
681.193314	0.455523
681.531805	0.446719
681.870247	0.435528
682.208638	0.427492
682.546978	0.427013
682.885268	0.428396
683.223508	0.434912
683.561697	0.438236
683.899836	0.441172
684.237925	0.444785
684.575963	0.447296
684.913951	0.449504
685.251889	0.446119
685.589776	0.447795
685.927614	0.450284
686.265401	0.444517
686.603137	0.445993
686.940824	0.439720
687.278460	0.438269
687.616046	0.437493
687.953582	0.432141
688.291068	0.433688
688.628504	0.429605
688.965889	0.431510
689.303224	0.435660
689.640510	0.439509
689.977745	0.445788
690.314930	0.452836
690.652065	0.457702
690.989150	0.465319
691.326185	0.471733
691.663170	0.476361
692.000105	0.483645
692.336990	0.491013
692.673825	0.493316
693.010610	0.499977
693.347345	0.505262
693.684030	0.507117
694.020665	0.511822
694.357251	0.520499
694.693786	0.520524
695.030272	0.524625
695.366707	0.528043
695.703093	0.531253
696.039429	0.528826
696.375716	0.530841
696.711952	0.533053
697.048139	0.535417
697.384276	0.536904
697.720363	0.535679
698.056400	0.534631
698.392388	0.540544
698.728326	0.543928
699.064214	0.545917
699.400053	0.546501
699.735842	0.550252
700.071581	0.553537
700.407270	0.555656
700.742910	0.558846
701.078501	0.565173
701.414042	0.566051
701.749533	0.568940
702.084974	0.577439
702.420366	0.569283
702.755709	0.577395
703.091002	0.585054
703.426246	0.578901
703.761440	0.583890
704.096584	0.589475
704.431679	0.586526
704.766725	0.588828
705.101721	0.589914
705.436668	0.586605
705.771565	0.593144
706.106413	0.589730
706.441212	0.585576
706.775961	0.584368
707.110661	0.586241
707.445311	0.583067
707.779913	0.580288
708.114465	0.578873
708.448967	0.575817
708.783421	0.567211
709.117825	0.562407
709.452180	0.562454
709.786485	0.555742
710.120742	0.545616
710.454949	0.547716
710.789107	0.539699
711.123216	0.530590
711.457275	0.532622
711.791286	0.523524
712.125247	0.522269
712.459159	0.533529
712.793023	0.525448
713.126837	0.530302
713.460602	0.530243
713.794318	0.539526
714.127985	0.537824
714.461602	0.548448
714.795171	0.551550
715.128691	0.559577
715.462162	0.567206
715.795584	0.572728
716.128957	0.575791
716.462281	0.581991
716.795556	0.585932
717.128782	0.590925
717.461960	0.601116
717.795088	0.598514
718.128167	0.605148
718.461198	0.614194
718.794180	0.614046
719.127113	0.616887
719.459997	0.620330
719.792833	0.627611
720.125619	0.628435
720.458357	0.634586
720.791046	0.633796
721.123686	0.636849
721.456278	0.644502
721.788821	0.641354
722.121315	0.645166
722.453761	0.649652
722.786158	0.647860
723.118506	0.644150
723.450805	0.652069
723.783056	0.648222
724.115259	0.645439
724.447412	0.644553
724.779518	0.646649
725.111574	0.645073
725.443582	0.640177
725.775542	0.642749
726.107453	0.634898
726.439315	0.634772
726.771129	0.633205
727.102895	0.626509
727.434612	0.619101
727.766281	0.617606
728.097901	0.616457
728.429473	0.616607
728.760996	0.614566
729.092471	0.615182
729.423897	0.618294
729.755276	0.617486
730.086606	0.617985
730.417887	0.612208
730.749120	0.603030
731.080305	0.594093
731.411442	0.590266
731.742530	0.594771
732.073570	0.594309
732.404562	0.586560
732.735506	0.587883
733.066401	0.592684
733.397249	0.601988
733.728048	0.613033
734.058798	0.625883
734.389501	0.636160
734.720156	0.645665
735.050762	0.654624
735.381320	0.655110
735.711831	0.664809
736.042293	0.669093
736.372707	0.664370
736.703073	0.669478
737.033391	0.672504
737.363661	0.668838
737.693883	0.664070
738.024056	0.662999
738.354182	0.662950
738.684260	0.653010
739.014290	0.647856
739.344272	0.649418
739.674207	0.642822
740.004093	0.642380
740.333931	0.642801
740.663722	0.642864
740.993464	0.643459
741.323159	0.646749
741.652806	0.652297
741.982405	0.656741
742.311956	0.660250
742.641460	0.663854
742.970915	0.667148
743.300323	0.675286
743.629683	0.680810
743.958996	0.683136
744.288260	0.687319
744.617477	0.693760
744.946647	0.694422
745.275768	0.700222
745.604842	0.700342
745.933869	0.710282
746.262847	0.710917
746.591778	0.704816
746.920662	0.711293
747.249498	0.717212
747.578286	0.708577
747.907027	0.704342
748.235720	0.704933
748.564365	0.700239
748.892963	0.699865
749.221514	0.703309
749.550017	0.708531
749.878473	0.707708
750.206881	0.713832
750.535242	0.715075
750.863555	0.714765
751.191821	0.715700
751.520039	0.719227
751.848210	0.724024
752.176334	0.717135
752.504411	0.715646
752.832440	0.723871
753.160421	0.727897
753.488356	0.726253
753.816243	0.723153
754.144082	0.731534
754.471875	0.736082
754.799620	0.731765
755.127318	0.732331
755.454969	0.732060
755.782572	0.731666
756.110129	0.735901
756.437638	0.738342
756.765100	0.736048
757.092515	0.733590
757.419882	0.732334
757.747203	0.737435
758.074477	0.736980
758.401703	0.734295
758.728882	0.729582
759.056014	0.728578
759.383099	0.726595
759.710138	0.728000
760.037129	0.725107
760.364073	0.719610
760.690970	0.721239
761.017820	0.726535
761.344623	0.723381
761.671379	0.713181
761.998088	0.701394
762.324751	0.679236
762.651366	0.637199
762.977935	0.570082
763.304456	0.518360
763.630931	0.508918
763.957359	0.547277
764.283740	0.592139
764.610074	0.619193
764.936362	0.650670
765.262602	0.678261
765.588796	0.699164
765.914943	0.717179
766.241044	0.735635
766.567097	0.741485
766.893104	0.751496
767.219064	0.757208
767.544978	0.763845
767.870845	0.776994
768.196665	0.780943
768.522438	0.779430
768.848165	0.781228
769.173846	0.789600
769.499479	0.794145
769.825066	0.796894
770.150607	0.802718
770.476101	0.797877
770.801548	0.799248
771.126949	0.810666
771.452303	0.813663
771.777611	0.813274
772.102872	0.811781
772.428087	0.818510
772.753256	0.820721
773.078378	0.823272
773.403453	0.832711
773.728482	0.835755
774.053465	0.829509
774.378401	0.833501
774.703291	0.841984
775.028135	0.841101
775.352932	0.842461
775.677683	0.845820
776.002388	0.847059
776.327046	0.846170
776.651658	0.848800
776.976224	0.852398
777.300743	0.853210
777.625216	0.854191
777.949643	0.856375
778.274024	0.856437
778.598359	0.858823
778.922647	0.856212
779.246889	0.858478
779.571086	0.861179
779.895236	0.863834
780.219339	0.861042
780.543397	0.857805
780.867409	0.855555
781.191374	0.858288
781.515294	0.860152
781.839167	0.858562
782.162995	0.862421
782.486776	0.859688
782.810511	0.860229
783.134201	0.863680
783.457844	0.861978
783.781441	0.863925
784.104993	0.869538
784.428498	0.870100
784.751958	0.866596
785.075372	0.868386
785.398739	0.872471
785.722061	0.869433
786.045337	0.864191
786.368568	0.869190
786.691752	0.871732
787.014891	0.857114
787.337983	0.848977
787.661030	0.841239
787.984031	0.822845
788.306987	0.810282
788.629897	0.812289
788.952760	0.816518
789.275579	0.822008
789.598351	0.836056
789.921078	0.848598
790.243759	0.852255
790.566395	0.856198
790.888984	0.863191
791.211529	0.868408
791.534027	0.871837
791.856480	0.873901
792.178888	0.878778
792.501249	0.881849
792.823566	0.882804
793.145836	0.882847
793.468062	0.884786
793.790241	0.884947
794.112375	0.883524
794.434464	0.878687
794.756507	0.877584
795.078505	0.876476
795.400457	0.871901
795.722364	0.860135
796.044226	0.852808
796.366042	0.852436
796.687812	0.855180
797.009538	0.851653
797.331218	0.853369
797.652852	0.859119
797.974442	0.864318
798.295986	0.863589
798.617484	0.866372
798.938938	0.870880
799.260346	0.875978
799.581709	0.877822
799.903026	0.878964
800.224299	0.880565
800.545526	0.884540
800.866708	0.889041
801.187845	0.892423
801.508936	0.892059
801.829983	0.889846
802.150984	0.892406
802.471940	0.897759
802.792851	0.897303
803.113717	0.897690
803.434538	0.896566
803.755314	0.898188
804.076045	0.900282
804.396731	0.899870
804.717372	0.899697
805.037967	0.900899
805.358518	0.899434
805.679024	0.896443
805.999485	0.896517
806.319901	0.896180
806.640272	0.898374
806.960598	0.895906
807.280879	0.893125
807.601115	0.891920
807.921306	0.895577
808.241453	0.896878
808.561554	0.894035
808.881611	0.893696
809.201623	0.896537
809.521590	0.896616
809.841513	0.897377
810.161390	0.895919
810.481223	0.897995
810.801011	0.901128
811.120755	0.903604
811.440453	0.902616
811.760107	0.900498
812.079716	0.899655
812.399281	0.903935
812.718801	0.906742
813.038276	0.907352
813.357707	0.905724
813.677093	0.904108
813.996434	0.907344
814.315731	0.908107
814.634983	0.909761
814.954191	0.908131
815.273354	0.905919
815.592473	0.901401
815.911547	0.902010
816.230577	0.899309
816.549562	0.895576
816.868502	0.897051
817.187399	0.891810
817.506250	0.888688
817.825058	0.889465
818.143821	0.886484
818.462539	0.881342
818.781213	0.873489
819.099843	0.861186
819.418429	0.846325
819.736970	0.828751
820.055466	0.809444
820.373919	0.784000
820.692327	0.751690
821.010691	0.716479
821.329011	0.638677
821.647286	0.522263
821.965517	0.408352
822.283704	0.365550
822.601847	0.366920
822.919945	0.402478
823.237999	0.435974
823.556010	0.483224
823.873976	0.539463
824.191897	0.590406
824.509775	0.632706
824.827609	0.678055
825.145398	0.701157
825.463144	0.703770
825.780845	0.686963
826.098502	0.667549
826.416116	0.621151
826.733685	0.578519
827.051210	0.569245
827.368692	0.583722
827.686129	0.621620
828.003522	0.675279
828.320872	0.722819
828.638177	0.766092
828.955439	0.799374
829.272656	0.821110
829.589830	0.838706
829.906960	0.854530
830.224046	0.866645
830.541088	0.876454
830.858086	0.880891
831.175041	0.887650
831.491952	0.886677
831.808819	0.883271
832.125642	0.878047
832.442421	0.861381
832.759157	0.840294
833.075849	0.793156
833.392497	0.729647
833.709101	0.688581
834.025662	0.698347
834.342179	0.729930
834.658653	0.769158
834.975083	0.805021
835.291469	0.830452
835.607811	0.854555
835.924110	0.869808
836.240366	0.887603
836.556578	0.901498
836.872746	0.908643
837.188871	0.915139
837.504952	0.920160
837.820990	0.923734
838.136984	0.926925
838.452935	0.930187
838.768842	0.931979
839.084706	0.924746
839.400526	0.899442
839.716303	0.858892
840.032037	0.836516
840.347727	0.839279
840.663373	0.858398
840.978977	0.879519
841.294537	0.902192
841.610054	0.918241
841.925527	0.925219
842.240957	0.933407
842.556344	0.940664
842.871687	0.946155
843.186987	0.950220
843.502244	0.949957
843.817458	0.953291
844.132629	0.955354
844.447756	0.959820
844.762840	0.960556
845.077881	0.959516
845.392879	0.959338
845.707833	0.962628
846.022745	0.964879
846.337613	0.965264
846.652438	0.966429
846.967221	0.965058
847.281960	0.966233
847.596656	0.967066
847.911309	0.966417
848.225919	0.967279
848.540485	0.969122
848.855009	0.968669
849.169490	0.968767
849.483928	0.969878
849.798323	0.968716
850.112675	0.969701
850.426984	0.971020
850.741251	0.969943
851.055474	0.971426
851.369654	0.968392
851.683792	0.969347
851.997887	0.970809
852.311938	0.970950
852.625947	0.970692
852.939914	0.967607
853.253837	0.969263
853.567718	0.971179
853.881555	0.970401
854.195350	0.968289
854.509103	0.970646
854.822812	0.969712
855.136479	0.970673
855.450103	0.971073
855.763685	0.968673
856.077224	0.968788
856.390720	0.970319
856.704173	0.970786
857.017584	0.969265
857.330953	0.966622
857.644278	0.968483
857.957561	0.968314
858.270802	0.968804
858.584000	0.966961
858.897155	0.967296
859.210268	0.968006
859.523339	0.968789
859.836367	0.970268
860.149352	0.971434
860.462295	0.968664
860.775195	0.969660
861.088054	0.969425
861.400869	0.969993
861.713642	0.970426
862.026373	0.970290
862.339062	0.971342
862.651708	0.968318
862.964312	0.967770
863.276873	0.969134
863.589392	0.968584
863.901869	0.967202
864.214303	0.965281
864.526696	0.963770
864.839045	0.963423
865.151353	0.961902
865.463619	0.962389
865.775842	0.961295
866.088023	0.962885
866.400162	0.961337
866.712258	0.963707
867.024313	0.963103
867.336325	0.964993
867.648296	0.963736
867.960224	0.962489
868.272110	0.961781
868.583954	0.963608
868.895755	0.963779
869.207515	0.962391
869.519233	0.959950
869.830909	0.961395
870.142542	0.962440
870.454134	0.961862
870.765684	0.960973
871.077191	0.959407
871.388657	0.959415
871.700081	0.958447
872.011463	0.958270
872.322803	0.958816
872.634101	0.956747
872.945357	0.955726
873.256571	0.954042
873.567744	0.952847
873.878874	0.953054
874.189963	0.952388
874.501010	0.951537
874.812015	0.949887
875.122979	0.951604
875.433900	0.953819
875.744780	0.953856
876.055618	0.951659
876.366415	0.949845
876.677169	0.950139
876.987882	0.952187
877.298554	0.951398
877.609183	0.947696
877.919771	0.945403
878.230317	0.942685
878.540822	0.940391
878.851285	0.935169
879.161707	0.926799
879.472087	0.914775
879.782425	0.898123
880.092722	0.863839
880.402977	0.812541
880.713191	0.751108
881.023363	0.691543
881.333494	0.657247
881.643583	0.629971
881.953631	0.628672
882.263637	0.658622
882.573602	0.697459
882.883526	0.723489
883.193408	0.747005
883.503248	0.770073
883.813048	0.797359
884.122806	0.826664
884.432522	0.850598
884.742197	0.870034
885.051831	0.881625
885.361424	0.891738
885.670975	0.903319
885.980485	0.913996
886.289954	0.919636
886.599382	0.924026
886.908768	0.928646
887.218113	0.934526
887.527417	0.939144
887.836680	0.941590
888.145901	0.944060
888.455082	0.946470
888.764221	0.950632
889.073319	0.954089
889.382376	0.952754
889.691392	0.952707
890.000366	0.952489
890.309300	0.953345
890.618193	0.952936
890.927044	0.951973
891.235855	0.951123
891.544625	0.951951
891.853353	0.952810
892.162041	0.949350
892.470687	0.942382
892.779293	0.937013
893.087858	0.934384
893.396381	0.926205
893.704864	0.912355
894.013306	0.889728
894.321707	0.862489
894.630068	0.847319
894.938387	0.843241
895.246665	0.843488
895.554903	0.856353
895.863100	0.869887
896.171256	0.887203
896.479371	0.906304
896.787446	0.919232
897.095480	0.924140
897.403473	0.928620
897.711425	0.933117
898.019336	0.940465
898.327207	0.943151
898.635038	0.944528
898.942827	0.945598
899.250576	0.948274
899.558284	0.952331
899.865952	0.954342
900.173579	0.956084
900.481165	0.954997
900.788711	0.960232
901.096216	0.960596
901.403681	0.960859
901.711105	0.962862
902.018489	0.964535
902.325832	0.962894
902.633135	0.962366
902.940397	0.955931
903.247619	0.943829
903.554800	0.918724
903.861941	0.878314
904.169041	0.843268
904.476101	0.824792
904.783121	0.825906
905.090100	0.841775
905.397039	0.863682
905.703938	0.885437
906.010796	0.905874
906.317614	0.922549
906.624391	0.935572
906.931129	0.944037
907.237826	0.952818
907.544483	0.959778
907.851099	0.962462
908.157675	0.967909
908.464211	0.970053
908.770707	0.972455
909.077163	0.974813
909.383578	0.975939
909.689954	0.974989
909.996289	0.976171
910.302584	0.978333
910.608839	0.980302
910.915054	0.978261
911.221229	0.978647
911.527363	0.976181
911.833458	0.978381
912.139513	0.977010
912.445527	0.976011
912.751502	0.974412
913.057436	0.972235
913.363331	0.971149
913.669186	0.965217
913.975000	0.960488
914.280775	0.955607
914.586510	0.948920
914.892205	0.935229
915.197859	0.913747
915.503475	0.886165
915.809050	0.866972
916.114585	0.860682
916.420081	0.858507
916.725536	0.854592
917.030952	0.862973
917.336328	0.876956
917.641665	0.891920
917.946961	0.906749
918.252218	0.919209
918.557435	0.927916
918.862612	0.936874
919.167750	0.942024
919.472848	0.946560
919.777906	0.952871
920.082925	0.958273
920.387904	0.962622
920.692843	0.963858
920.997743	0.964089
921.302603	0.967713
921.607423	0.968351
921.912204	0.973069
922.216946	0.972159
922.521647	0.973503
922.826310	0.974838
923.130932	0.977429
923.435516	0.978741
923.740059	0.979261
924.044564	0.979185
924.349028	0.981521
924.653454	0.984258
924.957840	0.985919
925.262186	0.984967
925.566493	0.983876
925.870761	0.985523
926.174989	0.986515
926.479178	0.988820
926.783328	0.988768
927.087438	0.988043
927.391509	0.988101
927.695541	0.990716
927.999533	0.989619
928.303486	0.990106
928.607400	0.991370
928.911275	0.990403
929.215110	0.990447
929.518906	0.990313
929.822663	0.990495
930.126381	0.991344
930.430060	0.990501
930.733699	0.989827
931.037299	0.989226
931.340861	0.991458
931.644383	0.990114
931.947866	0.988993
932.251309	0.990492
932.554714	0.990685
932.858080	0.990718
933.161407	0.990944
933.464694	0.991452
933.767943	0.991494
934.071153	0.990954
934.374323	0.992513
934.677455	0.990109
934.980548	0.992096
935.283602	0.991853
935.586617	0.990777
935.889593	0.990945
936.192530	0.990788
936.495428	0.990656
936.798287	0.991719
937.101108	0.989874
937.403890	0.989242
937.706632	0.989110
938.009336	0.987096
938.312002	0.986746
938.614628	0.984939
938.917216	0.982931
939.219765	0.981461
939.522275	0.983938
939.824747	0.982889
940.127179	0.983085
940.429573	0.985466
940.731929	0.983995
941.034246	0.984777
941.336524	0.985916
941.638763	0.986893
941.940964	0.986819
942.243126	0.987079
942.545250	0.987307
942.847335	0.989490
943.149381	0.988655
943.451389	0.989256
943.753359	0.988985
944.055290	0.991617
944.357182	0.990764
944.659036	0.989200
944.960851	0.989649
945.262628	0.990239
945.564367	0.990729
945.866067	0.990620
946.167729	0.989962
946.469352	0.990768
946.770937	0.989349
947.072484	0.991646
947.373992	0.990852
947.675462	0.990249
947.976893	0.991135
948.278286	0.990486
948.579641	0.992609
948.880958	0.991307
949.182236	0.991499
949.483476	0.991503
949.784678	0.991778
950.085841	0.991573
950.386967	0.991114
950.688054	0.991623
950.989103	0.990879
951.290114	0.988990
951.591087	0.989552
951.892021	0.989267
952.192917	0.988236
952.493776	0.988783
952.794596	0.989282
953.095378	0.987862
953.396122	0.988557
953.696828	0.987475
953.997496	0.989311
954.298126	0.990606
954.598718	0.991484
954.899272	0.990812
955.199788	0.989851
955.500266	0.993284
955.800706	0.993396
956.101108	0.992591
956.401472	0.994086
956.701798	0.994695
957.002087	0.993248
957.302337	0.993852
957.602550	0.995175
957.902724	0.995963
958.202861	0.995804
958.502960	0.995821
958.803022	0.993899
959.103045	0.996668
959.403031	0.996398
959.702979	0.996100
960.002889	0.996434
960.302762	0.995141
960.602596	0.996125
960.902393	0.993765
961.202153	0.997974
961.501875	0.995911
961.801559	0.996158
962.101205	0.996512
962.400814	0.997215
962.700385	0.997042
962.999918	0.996864
963.299414	0.997321
963.598873	0.996458
963.898293	0.996643
964.197677	0.996682
964.497022	0.997610
964.796331	0.999086
965.095601	0.997284
965.394835	0.997924
965.694030	0.997363
965.993189	0.996697
966.292309	0.996496
966.591393	0.996907
966.890439	0.997871
967.189447	0.997785
967.488419	0.997489
967.787353	0.996900
968.086249	0.996514
968.385108	0.997328
968.683930	0.997377
968.982714	0.997243
969.281462	0.998046
969.580172	0.996950
969.878844	0.997743
970.177480	0.996600
970.476078	0.997736
970.774639	0.996338
971.073162	0.997548
971.371649	0.995552
971.670098	0.996847
971.968510	0.996203
972.266885	0.996097
972.565223	0.996745
972.863524	0.996601
973.161788	0.997289
973.460014	0.998362
973.758204	0.995771
974.056356	0.997065
974.354471	0.994348
974.652550	0.996243
974.950591	0.996654
975.248595	0.997080
975.546563	0.997287
975.844493	0.998507
976.142386	0.997388
976.440243	0.998204
976.738062	0.997309
977.035845	0.997730
977.333590	0.996639
977.631299	0.999282
977.928971	0.996330
978.226606	0.997906
978.524204	0.996524
978.821765	0.998607
979.119290	0.996709
979.416777	0.997142
979.714228	0.997718
980.011642	0.997003
980.309020	0.997527
980.606360	0.997540
980.903664	0.999974
981.200931	0.996104
981.498162	0.995431
981.795356	0.994965
982.092513	0.994236
982.389633	0.994885
982.686717	0.990910
982.983764	0.991494
983.280775	0.990101
983.577749	0.990432
983.874686	0.992513
984.171587	0.992469
984.468451	0.993279
984.765279	0.995190
985.062070	0.994757
985.358824	0.995432
985.655543	0.994134
985.952224	0.997271
986.248869	0.996585
986.545478	0.998116
986.842050	0.998898
987.138586	0.995635
987.435086	0.997514
987.731549	0.997904
988.027975	0.997965
988.324366	0.998734
988.620719	0.996878
988.917037	0.997275
989.213318	0.999189
989.509563	0.999867
989.805772	0.999263
990.101944	0.998973
990.398080	0.998188
990.694180	0.997123
990.990244	0.998114
991.286271	0.998272
991.582262	1.000127
991.878217	0.998110
992.174136	0.998273
992.470019	0.998674
992.765865	0.997710
993.061676	0.998229
993.357450	0.998571
993.653188	0.997120
993.948890	0.997909
994.244556	0.997722
994.540186	0.996752
994.835780	0.997228
995.131337	0.997867
995.426859	0.997532
995.722345	0.997437
996.017795	0.997177
996.313208	0.996037
996.608586	0.996262
996.903928	0.996907
997.199234	0.995742
997.494504	0.997779
997.789738	0.996266
998.084936	0.996836
998.380099	0.997779
998.675225	0.997452
998.970316	0.999328
999.265371	0.998405
999.560390	0.997468
999.855373	0.999045
1000.150320	0.998129
1000.445232	0.999336
1000.740108	0.997706
1001.034948	0.998859
1001.329752	0.998845
1001.624521	0.999301
1001.919254	0.999450
1002.213951	0.998360
1002.508613	0.998614
1002.803239	1.000240
1003.097829	1.000049
1003.392384	0.999168
1003.686903	0.998275
1003.981386	0.997926
1004.275834	0.999660
1004.570246	0.999906
1004.864623	0.999883
1005.158964	0.999870
1005.453270	0.999376
1005.747540	0.998747
1006.041775	0.999296
1006.335974	0.999785
1006.630138	0.999443
1006.924266	0.999360
1007.218359	1.000101
1007.512416	0.999973
1007.806438	0.998638
1008.100425	0.998678
1008.394376	0.999353
1008.688292	0.999281
1008.982172	0.999483
1009.276017	0.999585
1009.569827	0.998718
1009.863602	0.999660
1010.157341	1.000117
1010.451045	0.999580
1010.744714	0.999785
1011.038347	0.999434
1011.331945	0.999504
1011.625508	0.998028
1011.919036	0.999687
1012.212528	0.998896
1012.505986	0.997700
1012.799408	0.998688
1013.092795	0.999056
1013.386147	0.999518
1013.679464	0.999397
1013.972745	0.998964
1014.265992	0.997354
1014.559204	0.999491
1014.852380	0.999739
1015.145521	1.000205
1015.438628	0.999041
1015.731699	0.999146
1016.024736	0.998921
1016.317737	0.999545
1016.610703	0.999284
1016.903635	1.000301
1017.196531	0.999059
1017.489393	1.001079
1017.782219	0.999531
1018.075011	0.999064
1018.367768	0.998307
1018.660490	0.999209
1018.953177	0.999209
1019.245829	0.999209
