Dividing Wavelength (nm)	Counts (n)	Blue Motor Position (mm): 0.000000	Red Motor Position (mm): 23.100000	
326.493990	1.000992
326.888308	1.000992
327.282561	1.000992
327.676750	0.999971
328.070874	0.999284
328.464933	1.001404
328.858929	0.999728
329.252859	1.000249
329.646726	1.000126
330.040528	0.999912
330.434265	0.999067
330.827938	1.001351
331.221547	1.000305
331.615091	1.000461
332.008571	0.999745
332.401986	0.999065
332.795338	1.000190
333.188625	0.998149
333.581847	1.000477
333.975006	0.998705
334.368100	0.999280
334.761129	0.999394
335.154095	1.000906
335.546996	0.996952
335.939833	0.993767
336.332606	0.994313
336.725315	0.994259
337.117960	0.994840
337.510540	0.994216
337.903056	0.995188
338.295508	0.993283
338.687896	0.994848
339.080220	0.994265
339.472480	0.994196
339.864676	0.993919
340.256807	0.994496
340.648875	0.993840
341.040879	0.995834
341.432818	0.994108
341.824694	0.993785
342.216506	0.994867
342.608253	0.994357
342.999937	0.994214
343.391557	0.994168
343.783113	0.994396
344.174605	0.994476
344.566033	0.995939
344.957397	0.993861
345.348697	0.992792
345.739934	0.994549
346.131106	0.994252
346.522215	0.993914
346.913260	0.993413
347.304241	0.993471
347.695159	0.994540
348.086012	0.993083
348.476802	0.994486
348.867528	0.994146
349.258191	0.993097
349.648789	0.995002
350.039324	0.994749
350.429796	0.994656
350.820203	0.994646
351.210548	0.993799
351.600828	0.993715
351.991045	0.994585
352.381198	0.994125
352.771288	0.994202
353.161314	0.993309
353.551276	0.995233
353.941175	0.993804
354.331010	0.994634
354.720782	0.995168
355.110490	0.995008
355.500135	0.994115
355.889717	0.994795
356.279235	0.993124
356.668689	0.993715
357.058080	0.993579
357.447408	0.995131
357.836672	0.994227
358.225873	0.994563
358.615010	0.995301
359.004084	0.995753
359.393095	0.994988
359.782043	0.994272
360.170927	0.995607
360.559748	0.994882
360.948505	0.994838
361.337199	0.994119
361.725830	0.994132
362.114398	0.993462
362.502903	0.995271
362.891344	0.994783
363.279722	0.995087
363.668037	0.995591
364.056289	0.994543
364.444478	0.994541
364.832603	0.993870
365.220665	0.993484
365.608665	0.993940
365.996601	0.993755
366.384474	0.993451
366.772284	0.995294
367.160031	0.992119
367.547715	0.992967
367.935336	0.994502
368.322893	0.993286
368.710388	0.994318
369.097820	0.994164
369.485189	0.995498
369.872495	0.992063
370.259738	0.992734
370.646918	0.994865
371.034035	0.995466
371.421090	0.993593
371.808081	0.994365
372.195010	0.995149
372.581875	0.994487
372.968678	0.994558
373.355418	0.994063
373.742096	0.994312
374.128710	0.994805
374.515262	0.995066
374.901751	0.994418
375.288177	0.994704
375.674540	0.995608
376.060841	0.994289
376.447079	0.995042
376.833254	0.995340
377.219367	0.996392
377.605417	0.994594
377.991404	0.995055
378.377329	0.994098
378.763191	0.995208
379.148991	0.995610
379.534727	0.995464
379.920402	0.995705
380.306013	0.995366
380.691563	0.996181
381.077049	0.995054
381.462474	0.995296
381.847835	0.995299
382.233134	0.994489
382.618371	0.996419
383.003545	0.995337
383.388657	0.995205
383.773706	0.996340
384.158693	0.995444
384.543618	0.995193
384.928480	0.995816
385.313280	0.994879
385.698017	0.995272
386.082692	0.996056
386.467305	0.996474
386.851856	0.995011
387.236344	0.994598
387.620770	0.995233
388.005133	0.996677
388.389435	0.996755
388.773674	0.995588
389.157851	0.996264
389.541965	0.995948
389.926018	0.995291
390.310008	0.997457
390.693936	0.996018
391.077802	0.997028
391.461606	0.996003
391.845348	0.996580
392.229027	0.996423
392.612645	0.996393
392.996200	0.996753
393.379694	0.994834
393.763125	0.997898
394.146494	0.996361
394.529801	0.996209
394.913047	0.996762
395.296230	0.996588
395.679351	0.996686
396.062410	0.995377
396.445408	0.997180
396.828343	0.996177
397.211217	0.996743
397.594028	0.996532
397.976778	0.996395
398.359466	0.996245
398.742092	0.995974
399.124656	0.995626
399.507158	0.996656
399.889598	0.996562
400.271977	0.995970
400.654294	0.996303
401.036549	0.995890
401.418742	0.996600
401.800874	0.995504
402.182944	0.995423
402.564952	0.995610
402.946898	0.997529
403.328783	0.996178
403.710606	0.995812
404.092367	0.995809
404.474067	0.995875
404.855705	0.995758
405.237282	0.995754
405.618797	0.995633
406.000250	0.996419
406.381642	0.995812
406.762972	0.995928
407.144240	0.997072
407.525447	0.995732
407.906593	0.996686
408.287677	0.996449
408.668700	0.996821
409.049661	0.995703
409.430560	0.995558
409.811399	0.995318
410.192176	0.995969
410.572891	0.996163
410.953545	0.995518
411.334138	0.995498
411.714669	0.995556
412.095139	0.995472
412.475547	0.996934
412.855894	0.995660
413.236180	0.995774
413.616405	0.995560
413.996568	0.996426
414.376670	0.995855
414.756711	0.994860
415.136691	0.995095
415.516609	0.995978
415.896466	0.995974
416.276262	0.994509
416.655997	0.995570
417.035670	0.995341
417.415283	0.994828
417.794834	0.996157
418.174324	0.995570
418.553753	0.995342
418.933121	0.995569
419.312428	0.994663
419.691674	0.994705
420.070859	0.995211
420.449983	0.994786
420.829045	0.994689
421.208047	0.994721
421.586988	0.994756
421.965867	0.994437
422.344686	0.994804
422.723444	0.993846
423.102141	0.993886
423.480777	0.992961
423.859352	0.992009
424.237866	0.990439
424.616319	0.990802
424.994712	0.990158
425.373044	0.989754
425.751314	0.988381
426.129524	0.987634
426.507673	0.985681
426.885762	0.985291
427.263789	0.983459
427.641756	0.982637
428.019662	0.980823
428.397508	0.978741
428.775292	0.975605
429.153016	0.974216
429.530679	0.973054
429.908282	0.970265
430.285824	0.967046
430.663305	0.963733
431.040726	0.962348
431.418086	0.960851
431.795385	0.957319
432.172624	0.952495
432.549802	0.949915
432.926920	0.946529
433.303977	0.942792
433.680974	0.938108
434.057910	0.934120
434.434786	0.930392
434.811601	0.925347
435.188355	0.919199
435.565050	0.914952
435.941683	0.911891
436.318257	0.904311
436.694770	0.897448
437.071222	0.891939
437.447614	0.887244
437.823946	0.882861
438.200218	0.875013
438.576429	0.870973
438.952580	0.862841
439.328670	0.854925
439.704700	0.850295
440.080670	0.843920
440.456580	0.831122
440.832429	0.825537
441.208218	0.822848
441.583947	0.811332
441.959616	0.804492
442.335224	0.798515
442.710773	0.787592
443.086261	0.777827
443.461689	0.775687
443.837057	0.763372
444.212365	0.751657
444.587612	0.746319
444.962800	0.733902
445.337927	0.726739
445.712995	0.729902
446.088002	0.703420
446.462949	0.700626
446.837837	0.693692
447.212664	0.681181
447.587431	0.665994
447.962139	0.641412
448.336786	0.609750
448.711374	0.608705
449.085901	0.625452
449.460369	0.617825
449.834776	0.612193
450.209124	0.591163
450.583412	0.576786
450.957640	0.566399
451.331808	0.564886
451.705917	0.572538
452.079965	0.567819
452.453954	0.551432
452.827883	0.549394
453.201752	0.539010
453.575562	0.540945
453.949311	0.524124
454.323001	0.523277
454.696632	0.513310
455.070202	0.500976
455.443713	0.488951
455.817164	0.479243
456.190556	0.468963
456.563888	0.460784
456.937160	0.453256
457.310373	0.461998
457.683526	0.455220
458.056619	0.454499
458.429653	0.450566
458.802628	0.448575
459.175542	0.438905
459.548398	0.419837
459.921194	0.409759
460.293930	0.406761
460.666607	0.382517
461.039224	0.368792
461.411782	0.361589
461.784280	0.356075
462.156719	0.356184
462.529099	0.355843
462.901419	0.367347
463.273680	0.368282
463.645882	0.364493
464.018024	0.367490
464.390106	0.358490
464.762130	0.341678
465.134094	0.324499
465.505999	0.294405
465.877845	0.264519
466.249631	0.249615
466.621358	0.253917
466.993026	0.264792
467.364634	0.268929
467.736184	0.275975
468.107674	0.283371
468.479105	0.281103
468.850477	0.286953
469.221790	0.292339
469.593043	0.301701
469.964238	0.305375
470.335373	0.304081
470.706449	0.301852
471.077467	0.302084
471.448425	0.263965
471.819324	0.239120
472.190164	0.238029
472.560945	0.266054
472.931667	0.287997
473.302330	0.291558
473.672934	0.303154
474.043479	0.291070
474.413965	0.292641
474.784393	0.295808
475.154761	0.290678
475.525070	0.287544
475.895321	0.293110
476.265513	0.287121
476.635645	0.282148
477.005719	0.282413
477.375734	0.278627
477.745691	0.272261
478.115588	0.268467
478.485427	0.261823
478.855207	0.248887
479.224928	0.231212
479.594591	0.219403
479.964194	0.222843
480.333739	0.223735
480.703226	0.225292
481.072653	0.223540
481.442022	0.219422
481.811333	0.215555
482.180584	0.219331
482.549777	0.224327
482.918912	0.227662
483.287988	0.227335
483.657005	0.226795
484.025964	0.233500
484.394864	0.230487
484.763706	0.231191
485.132489	0.236030
485.501213	0.236769
485.869879	0.235111
486.238487	0.238447
486.607036	0.236102
486.975527	0.240749
487.343959	0.236692
487.712333	0.235606
488.080648	0.236931
488.448905	0.236303
488.817104	0.237439
489.185244	0.231861
489.553326	0.228732
489.921350	0.218471
490.289315	0.201279
490.657222	0.196285
491.025070	0.197544
491.392861	0.199521
491.760593	0.205068
492.128267	0.210721
492.495883	0.216297
492.863440	0.222487
493.230939	0.228722
493.598380	0.229922
493.965763	0.232128
494.333088	0.234447
494.700354	0.235850
495.067563	0.234821
495.434713	0.238041
495.801805	0.236059
496.168839	0.237488
496.535815	0.238945
496.902733	0.238801
497.269593	0.240317
497.636395	0.238124
498.003139	0.238469
498.369825	0.241505
498.736453	0.237775
499.103023	0.238804
499.469535	0.238657
499.835989	0.238909
500.202385	0.239733
500.568723	0.242844
500.935003	0.238086
501.301226	0.242598
501.667390	0.237047
502.033497	0.234863
502.399546	0.237685
502.765537	0.239377
503.131470	0.237921
503.497345	0.234094
503.863163	0.242930
504.228923	0.235674
504.594625	0.234669
504.960269	0.239710
505.325856	0.235095
505.691385	0.239583
506.056856	0.235977
506.422270	0.235539
506.787625	0.237832
507.152924	0.235461
507.518164	0.236056
507.883347	0.237637
508.248472	0.239341
508.613540	0.234474
508.978550	0.236747
509.343503	0.237400
509.708398	0.234772
510.073236	0.232424
510.438016	0.232566
510.802738	0.233496
511.167403	0.232641
511.532010	0.234554
511.896561	0.229698
512.261053	0.228576
512.625488	0.230755
512.989866	0.231161
513.354186	0.231363
513.718449	0.233281
514.082655	0.229757
514.446803	0.231852
514.810894	0.229436
515.174927	0.232200
515.538904	0.231393
515.902822	0.228596
516.266684	0.231063
516.630488	0.231930
516.994235	0.230891
517.357925	0.229518
517.721558	0.227975
518.085133	0.227339
518.448651	0.227743
518.812112	0.229706
519.175516	0.229109
519.538863	0.227038
519.902152	0.228585
520.265385	0.225543
520.628560	0.227459
520.991678	0.227818
521.354739	0.226662
521.717743	0.227772
522.080690	0.228344
522.443580	0.225543
522.806413	0.226437
523.169189	0.225651
523.531908	0.224710
523.894569	0.228236
524.257174	0.228365
524.619722	0.226003
524.982213	0.227129
525.344647	0.226069
525.707025	0.226838
526.069345	0.225054
526.431608	0.226862
526.793815	0.224667
527.155964	0.228846
527.518057	0.227731
527.880093	0.228678
528.242072	0.227020
528.603995	0.229313
528.965860	0.230793
529.327669	0.229804
529.689421	0.230682
530.051117	0.231550
530.412755	0.229313
530.774337	0.231404
531.135862	0.231723
531.497331	0.231049
531.858743	0.234103
532.220098	0.230799
532.581396	0.233430
532.942638	0.234025
533.303824	0.234695
533.664953	0.234438
534.026025	0.235941
534.387040	0.234411
534.747999	0.234177
535.108902	0.233210
535.469748	0.237833
535.830537	0.235864
536.191270	0.236302
536.551947	0.235815
536.912567	0.236026
537.273131	0.237354
537.633638	0.237795
537.994089	0.237914
538.354483	0.239207
538.714821	0.236168
539.075103	0.236180
539.435328	0.236970
539.795497	0.240543
540.155609	0.237288
540.515665	0.234979
540.875665	0.240911
541.235609	0.239314
541.595496	0.239467
541.955328	0.236095
542.315102	0.238636
542.674821	0.239787
543.034483	0.239842
543.394090	0.239329
543.753640	0.241547
544.113134	0.236227
544.472571	0.239724
544.831953	0.236694
545.191278	0.240763
545.550548	0.240384
545.909761	0.236892
546.268918	0.237657
546.628019	0.236097
546.987064	0.239070
547.346053	0.240647
547.704986	0.238414
548.063863	0.238703
548.422684	0.238880
548.781449	0.240789
549.140158	0.238279
549.498811	0.241265
549.857408	0.244325
550.215949	0.239159
550.574434	0.242315
550.932864	0.240373
551.291237	0.239044
551.649555	0.239894
552.007817	0.239965
552.366022	0.240748
552.724173	0.241036
553.082267	0.241151
553.440305	0.238155
553.798288	0.242559
554.156215	0.239136
554.514086	0.239830
554.871902	0.243127
555.229661	0.242355
555.587365	0.242732
555.945014	0.245188
556.302606	0.242090
556.660143	0.244553
557.017625	0.241123
557.375050	0.243562
557.732421	0.240624
558.089735	0.242547
558.446994	0.242669
558.804197	0.242052
559.161345	0.241734
559.518437	0.245172
559.875474	0.243017
560.232455	0.242540
560.589381	0.243877
560.946251	0.243795
561.303065	0.241307
561.659825	0.242555
562.016528	0.244110
562.373177	0.247260
562.729770	0.244273
563.086307	0.246505
563.442789	0.244286
563.799216	0.247054
564.155587	0.245878
564.511904	0.246704
564.868164	0.247257
565.224370	0.246959
565.580520	0.248799
565.936615	0.248510
566.292654	0.251269
566.648638	0.248230
567.004567	0.249581
567.360441	0.250069
567.716260	0.252098
568.072023	0.250024
568.427732	0.250581
568.783385	0.253204
569.138982	0.251008
569.494525	0.250786
569.850013	0.253399
570.205445	0.251871
570.560823	0.254466
570.916145	0.256562
571.271412	0.254734
571.626625	0.256259
571.981782	0.256422
572.336884	0.257512
572.691931	0.257299
573.046923	0.258516
573.401860	0.259814
573.756743	0.261351
574.111570	0.260111
574.466342	0.260804
574.821059	0.260138
575.175722	0.262934
575.530330	0.262666
575.884882	0.262593
576.239380	0.264905
576.593823	0.265319
576.948211	0.264682
577.302544	0.268202
577.656823	0.267650
578.011047	0.267801
578.365216	0.268334
578.719330	0.270427
579.073389	0.270024
579.427394	0.271662
579.781344	0.272261
580.135239	0.274030
580.489080	0.273432
580.842866	0.276382
581.196597	0.275951
581.550273	0.274736
581.903895	0.276083
582.257463	0.274141
582.610975	0.277259
582.964434	0.276744
583.317837	0.279235
583.671186	0.279465
584.024481	0.279934
584.377721	0.281866
584.730906	0.282843
585.084037	0.281980
585.437113	0.283545
585.790135	0.283383
586.143103	0.286142
586.496016	0.287406
586.848874	0.284582
587.201679	0.285704
587.554428	0.288571
587.907124	0.287458
588.259765	0.288046
588.612352	0.288592
588.964884	0.292395
589.317362	0.291766
589.669786	0.291961
590.022155	0.290455
590.374470	0.290140
590.726731	0.292083
591.078937	0.296725
591.431090	0.292695
591.783188	0.297313
592.135232	0.297555
592.487222	0.297626
592.839157	0.295646
593.191038	0.298303
593.542866	0.299808
593.894639	0.303718
594.246358	0.301104
594.598022	0.300826
594.949633	0.304716
595.301190	0.305419
595.652692	0.304524
596.004141	0.300642
596.355535	0.308721
596.706876	0.309061
597.058162	0.311539
597.409395	0.308732
597.760573	0.306546
598.111698	0.310035
598.462768	0.310294
598.813785	0.311843
599.164748	0.313019
599.515657	0.312995
599.866511	0.316514
600.217312	0.311773
600.568060	0.317287
600.918753	0.313336
601.269392	0.314417
601.619978	0.317870
601.970510	0.315378
602.320988	0.315440
602.671412	0.313312
603.021783	0.315763
603.372100	0.317180
603.722363	0.316487
604.072572	0.317636
604.422728	0.316929
604.772830	0.319806
605.122878	0.318843
605.472872	0.319599
605.822813	0.317406
606.172701	0.320558
606.522534	0.317977
606.872314	0.317815
607.222041	0.318456
607.571714	0.317064
607.921333	0.318317
608.270899	0.318423
608.620411	0.314957
608.969870	0.318283
609.319276	0.318602
609.668627	0.318736
610.017926	0.317376
610.367171	0.315971
610.716362	0.316805
611.065500	0.316289
611.414585	0.315354
611.763616	0.316340
612.112594	0.316596
612.461518	0.316216
612.810389	0.313682
613.159207	0.316142
613.507971	0.317921
613.856682	0.313870
614.205340	0.315217
614.553945	0.311962
614.902496	0.315883
615.250994	0.313594
615.599439	0.314669
615.947830	0.313817
616.296169	0.314848
616.644454	0.314255
616.992686	0.314734
617.340864	0.312219
617.688990	0.315933
618.037063	0.312736
618.385082	0.314244
618.733048	0.311271
619.080961	0.313943
619.428821	0.312878
619.776628	0.312327
620.124382	0.314669
620.472083	0.314967
620.819731	0.313988
621.167326	0.318135
621.514868	0.318015
621.862357	0.322312
622.209793	0.321620
622.557176	0.323740
622.904506	0.324941
623.251783	0.326925
623.599007	0.329455
623.946179	0.329297
624.293297	0.330920
624.640363	0.334769
624.987376	0.335655
625.334336	0.338104
625.681243	0.340020
626.028097	0.340742
626.374899	0.342145
626.721647	0.342014
627.068343	0.345442
627.414987	0.346379
627.761577	0.348388
628.108115	0.346676
628.454600	0.351925
628.801032	0.348942
629.147412	0.351242
629.493739	0.351569
629.840014	0.355133
630.186236	0.352473
630.532405	0.357847
630.878521	0.355168
631.224585	0.357422
631.570597	0.361244
631.916556	0.359235
632.262462	0.359805
632.608316	0.361717
632.954117	0.362507
633.299866	0.363434
633.645562	0.363976
633.991206	0.367976
634.336797	0.370905
634.682336	0.373324
635.027823	0.375108
635.373257	0.375394
635.718639	0.378903
636.063968	0.378071
636.409245	0.383714
636.754470	0.384169
637.099642	0.387074
637.444762	0.390546
637.789829	0.389133
638.134845	0.393101
638.479808	0.393538
638.824719	0.393289
639.169577	0.397445
639.514383	0.396672
639.859137	0.400649
640.203839	0.400441
640.548489	0.400997
640.893086	0.402440
641.237632	0.404040
641.582125	0.402412
641.926566	0.403661
642.270955	0.404328
642.615292	0.404697
642.959576	0.403464
643.303809	0.404194
643.647990	0.403499
643.992118	0.404565
644.336195	0.407755
644.680219	0.405881
645.024192	0.406751
645.368112	0.400476
645.711981	0.399577
646.055797	0.394765
646.399562	0.397508
646.743274	0.389386
647.086935	0.386632
647.430544	0.387007
647.774101	0.385743
648.117606	0.385525
648.461059	0.385695
648.804460	0.387754
649.147810	0.393366
649.491108	0.395273
649.834354	0.396497
650.177548	0.402136
650.520690	0.407715
650.863781	0.408421
651.206820	0.407823
651.549807	0.412543
651.892742	0.416673
652.235626	0.416258
652.578458	0.417191
652.921238	0.423080
653.263967	0.421343
653.606644	0.424791
653.949269	0.424353
654.291843	0.428453
654.634365	0.424965
654.976836	0.428308
655.319255	0.428412
655.661622	0.429597
656.003938	0.430500
656.346203	0.432952
656.688416	0.430681
657.030577	0.433909
657.372687	0.436253
657.714746	0.437081
658.056753	0.434258
658.398708	0.437945
658.740612	0.439008
659.082465	0.435285
659.424266	0.435632
659.766016	0.435294
660.107715	0.437771
660.449362	0.436868
660.790958	0.437387
661.132503	0.437706
661.473996	0.435549
661.815438	0.436361
662.156829	0.436107
662.498168	0.437539
662.839456	0.438317
663.180693	0.436658
663.521879	0.436352
663.863013	0.437331
664.204097	0.435709
664.545129	0.433162
664.886110	0.433273
665.227040	0.430630
665.567918	0.433248
665.908746	0.430753
666.249522	0.430927
666.590248	0.431744
666.930922	0.429804
667.271545	0.428931
667.612118	0.428753
667.952639	0.430602
668.293109	0.428897
668.633528	0.432095
668.973896	0.431867
669.314213	0.432230
669.654480	0.434259
669.994695	0.434071
670.334859	0.434682
670.674973	0.435249
671.015035	0.435453
671.355047	0.434937
671.695008	0.436415
672.034918	0.438113
672.374777	0.437641
672.714585	0.438600
673.054342	0.438798
673.394049	0.438928
673.733705	0.436476
674.073310	0.437596
674.412864	0.440227
674.752368	0.441155
675.091820	0.441133
675.431223	0.445983
675.770574	0.445640
676.109875	0.448985
676.449125	0.448052
676.788324	0.450592
677.127473	0.456347
677.466571	0.456478
677.805619	0.457597
678.144616	0.458401
678.483562	0.460439
678.822458	0.462957
679.161303	0.463857
679.500098	0.463778
679.838842	0.466014
680.177535	0.465355
680.516179	0.463949
680.854771	0.463510
681.193314	0.456612
681.531805	0.447477
681.870247	0.436618
682.208638	0.428861
682.546978	0.428114
682.885268	0.429684
683.223508	0.436135
683.561697	0.440025
683.899836	0.442220
684.237925	0.446137
684.575963	0.448129
684.913951	0.451061
685.251889	0.447501
685.589776	0.449134
685.927614	0.451716
686.265401	0.445782
686.603137	0.447337
686.940824	0.441223
687.278460	0.439342
687.616046	0.438563
687.953582	0.433726
688.291068	0.435465
688.628504	0.430684
688.965889	0.433522
689.303224	0.437277
689.640510	0.441078
689.977745	0.446785
690.314930	0.454494
690.652065	0.459040
690.989150	0.466523
691.326185	0.473095
691.663170	0.477716
692.000105	0.485171
692.336990	0.491333
692.673825	0.494396
693.010610	0.501796
693.347345	0.506983
693.684030	0.508451
694.020665	0.513552
694.357251	0.522179
694.693786	0.521500
695.030272	0.525941
695.366707	0.528668
695.703093	0.532360
696.039429	0.530329
696.375716	0.531739
696.711952	0.535124
697.048139	0.536643
697.384276	0.538334
697.720363	0.536466
698.056400	0.535938
698.392388	0.541719
698.728326	0.544866
699.064214	0.547332
699.400053	0.548508
699.735842	0.551492
700.071581	0.554786
700.407270	0.557755
700.742910	0.559555
701.078501	0.566355
701.414042	0.566036
701.749533	0.569709
702.084974	0.579156
702.420366	0.570404
702.755709	0.578910
703.091002	0.586210
703.426246	0.579799
703.761440	0.585375
704.096584	0.590237
704.431679	0.587556
704.766725	0.589826
705.101721	0.590579
705.436668	0.586790
705.771565	0.593976
706.106413	0.590340
706.441212	0.586495
706.775961	0.584677
707.110661	0.587966
707.445311	0.584036
707.779913	0.581236
708.114465	0.579216
708.448967	0.577217
708.783421	0.568193
709.117825	0.563466
709.452180	0.562579
709.786485	0.557183
710.120742	0.547007
710.454949	0.549434
710.789107	0.541447
711.123216	0.532185
711.457275	0.534059
711.791286	0.524501
712.125247	0.523455
712.459159	0.534353
712.793023	0.527524
713.126837	0.531670
713.460602	0.531385
713.794318	0.540759
714.127985	0.539942
714.461602	0.549323
714.795171	0.552316
715.128691	0.560532
715.462162	0.568107
715.795584	0.573547
716.128957	0.576716
716.462281	0.583215
716.795556	0.587039
717.128782	0.591567
717.461960	0.601605
717.795088	0.599264
718.128167	0.605517
718.461198	0.614574
718.794180	0.615533
719.127113	0.618561
719.459997	0.621661
719.792833	0.627626
720.125619	0.629048
720.458357	0.634987
720.791046	0.634916
721.123686	0.637996
721.456278	0.644852
721.788821	0.642354
722.121315	0.646243
722.453761	0.650537
722.786158	0.648332
723.118506	0.644273
723.450805	0.652988
723.783056	0.648610
724.115259	0.645523
724.447412	0.645309
724.779518	0.647162
725.111574	0.645945
725.443582	0.641251
725.775542	0.643366
726.107453	0.635735
726.439315	0.635451
726.771129	0.634494
727.102895	0.627375
727.434612	0.620290
727.766281	0.617949
728.097901	0.617351
728.429473	0.617343
728.760996	0.615850
729.092471	0.615580
729.423897	0.619287
729.755276	0.618547
730.086606	0.618830
730.417887	0.612993
730.749120	0.604107
731.080305	0.595031
731.411442	0.590820
731.742530	0.595825
732.073570	0.595208
732.404562	0.587687
732.735506	0.588895
733.066401	0.593206
733.397249	0.602834
733.728048	0.614031
734.058798	0.626281
734.389501	0.636924
734.720156	0.646515
735.050762	0.654221
735.381320	0.656333
735.711831	0.665342
736.042293	0.670077
736.372707	0.665500
736.703073	0.670424
737.033391	0.673044
737.363661	0.669438
737.693883	0.664562
738.024056	0.664275
738.354182	0.663856
738.684260	0.653473
739.014290	0.649603
739.344272	0.650829
739.674207	0.643720
740.004093	0.643654
740.333931	0.643497
740.663722	0.643979
740.993464	0.644112
741.323159	0.647754
741.652806	0.652949
741.982405	0.658373
742.311956	0.662661
742.641460	0.664060
742.970915	0.667810
743.300323	0.675505
743.629683	0.681682
743.958996	0.683874
744.288260	0.688418
744.617477	0.694123
744.946647	0.696719
745.275768	0.700784
745.604842	0.700713
745.933869	0.710899
746.262847	0.711561
746.591778	0.705198
746.920662	0.711461
747.249498	0.717751
747.578286	0.708593
747.907027	0.704782
748.235720	0.705789
748.564365	0.701114
748.892963	0.700162
749.221514	0.703510
749.550017	0.707760
749.878473	0.707888
750.206881	0.714553
750.535242	0.715738
750.863555	0.714696
751.191821	0.716560
751.520039	0.719428
751.848210	0.724205
752.176334	0.717713
752.504411	0.716690
752.832440	0.724251
753.160421	0.728058
753.488356	0.726206
753.816243	0.724409
754.144082	0.732453
754.471875	0.736561
754.799620	0.731124
755.127318	0.733478
755.454969	0.732839
755.782572	0.731769
756.110129	0.736511
756.437638	0.740089
756.765100	0.736340
757.092515	0.734616
757.419882	0.732975
757.747203	0.739197
758.074477	0.737372
758.401703	0.735313
758.728882	0.729910
759.056014	0.728923
759.383099	0.727881
759.710138	0.728782
760.037129	0.725496
760.364073	0.719970
760.690970	0.722175
761.017820	0.727734
761.344623	0.722776
761.671379	0.714088
761.998088	0.702340
762.324751	0.680445
762.651366	0.637958
762.977935	0.571707
763.304456	0.519964
763.630931	0.510473
763.957359	0.549027
764.283740	0.593574
764.610074	0.620644
764.936362	0.651620
765.262602	0.678431
765.588796	0.699496
765.914943	0.717434
766.241044	0.734790
766.567097	0.742028
766.893104	0.751545
767.219064	0.758273
767.544978	0.764507
767.870845	0.777503
768.196665	0.781602
768.522438	0.779256
768.848165	0.781096
769.173846	0.790199
769.499479	0.793925
769.825066	0.797694
770.150607	0.802525
770.476101	0.798078
770.801548	0.798317
771.126949	0.810470
771.452303	0.813438
771.777611	0.813880
772.102872	0.812384
772.428087	0.818148
772.753256	0.821684
773.078378	0.822923
773.403453	0.832549
773.728482	0.837053
774.053465	0.829973
774.378401	0.833735
774.703291	0.842460
775.028135	0.841443
775.352932	0.843308
775.677683	0.845475
776.002388	0.846955
776.327046	0.846156
776.651658	0.848091
776.976224	0.852236
777.300743	0.853764
777.625216	0.855357
777.949643	0.856456
778.274024	0.856423
778.598359	0.857889
778.922647	0.858012
779.246889	0.857192
779.571086	0.861556
779.895236	0.863923
780.219339	0.861009
780.543397	0.857198
780.867409	0.856343
781.191374	0.858351
781.515294	0.859322
781.839167	0.859329
782.162995	0.861685
782.486776	0.859670
782.810511	0.860690
783.134201	0.863649
783.457844	0.861165
783.781441	0.864326
784.104993	0.869775
784.428498	0.870666
784.751958	0.866379
785.075372	0.869092
785.398739	0.872573
785.722061	0.869914
786.045337	0.864408
786.368568	0.868565
786.691752	0.872348
787.014891	0.856559
787.337983	0.849113
787.661030	0.841648
787.984031	0.824268
788.306987	0.810141
788.629897	0.812982
788.952760	0.816811
789.275579	0.821084
789.598351	0.836225
789.921078	0.849266
790.243759	0.851094
790.566395	0.856983
790.888984	0.863613
791.211529	0.868510
791.534027	0.871033
791.856480	0.873451
792.178888	0.879061
792.501249	0.881520
792.823566	0.882782
793.145836	0.882692
793.468062	0.885076
793.790241	0.883940
794.112375	0.882540
794.434464	0.878324
794.756507	0.877476
795.078505	0.877418
795.400457	0.872922
795.722364	0.860347
796.044226	0.853215
796.366042	0.852125
796.687812	0.855351
797.009538	0.851533
797.331218	0.854537
797.652852	0.859918
797.974442	0.864099
798.295986	0.863535
798.617484	0.866139
798.938938	0.871498
799.260346	0.876871
799.581709	0.877460
799.903026	0.880195
800.224299	0.879931
800.545526	0.884808
800.866708	0.888961
801.187845	0.892221
801.508936	0.892208
801.829983	0.889877
802.150984	0.892528
802.471940	0.897901
802.792851	0.897078
803.113717	0.897894
803.434538	0.895897
803.755314	0.898712
804.076045	0.899944
804.396731	0.899601
804.717372	0.899073
805.037967	0.901601
805.358518	0.899584
805.679024	0.896477
805.999485	0.897342
806.319901	0.897867
806.640272	0.897712
806.960598	0.895778
807.280879	0.894281
807.601115	0.891887
807.921306	0.895991
808.241453	0.896200
808.561554	0.894255
808.881611	0.893999
809.201623	0.896145
809.521590	0.896000
809.841513	0.897308
810.161390	0.896159
810.481223	0.897686
810.801011	0.901999
811.120755	0.902676
811.440453	0.902095
811.760107	0.900769
812.079716	0.900801
812.399281	0.904183
812.718801	0.906142
813.038276	0.907214
813.357707	0.906512
813.677093	0.903253
813.996434	0.906915
814.315731	0.908765
814.634983	0.909908
814.954191	0.908422
815.273354	0.905777
815.592473	0.901237
815.911547	0.900913
816.230577	0.898158
816.549562	0.896171
816.868502	0.896922
817.187399	0.892846
817.506250	0.888279
817.825058	0.890781
818.143821	0.886870
818.462539	0.881075
818.781213	0.873616
819.099843	0.862979
819.418429	0.845878
819.736970	0.829444
820.055466	0.809717
820.373919	0.784874
820.692327	0.752487
821.010691	0.716881
821.329011	0.640698
821.647286	0.526080
821.965517	0.411746
822.283704	0.369445
822.601847	0.370990
822.919945	0.406649
823.237999	0.439919
823.556010	0.486572
823.873976	0.542173
824.191897	0.592749
824.509775	0.634958
824.827609	0.680270
825.145398	0.702447
825.463144	0.705923
825.780845	0.688353
826.098502	0.670347
826.416116	0.624271
826.733685	0.580093
827.051210	0.572076
827.368692	0.586448
827.686129	0.624081
828.003522	0.676314
828.320872	0.723557
828.638177	0.767398
828.955439	0.800258
829.272656	0.822142
829.589830	0.838158
829.906960	0.854394
830.224046	0.866397
830.541088	0.877707
830.858086	0.881469
831.175041	0.887480
831.491952	0.887467
831.808819	0.883971
832.125642	0.877828
832.442421	0.861220
832.759157	0.840117
833.075849	0.795107
833.392497	0.731089
833.709101	0.690957
834.025662	0.700173
834.342179	0.731581
834.658653	0.769794
834.975083	0.806366
835.291469	0.831638
835.607811	0.854187
835.924110	0.870935
836.240366	0.888061
836.556578	0.901306
836.872746	0.908448
837.188871	0.914896
837.504952	0.919349
837.820990	0.924030
838.136984	0.926675
838.452935	0.930768
838.768842	0.931091
839.084706	0.925565
839.400526	0.900334
839.716303	0.859363
840.032037	0.836945
840.347727	0.840143
840.663373	0.858752
840.978977	0.880542
841.294537	0.902978
841.610054	0.919451
841.925527	0.925663
842.240957	0.932715
842.556344	0.939533
842.871687	0.945297
843.186987	0.949317
843.502244	0.950327
843.817458	0.951194
844.132629	0.956081
844.447756	0.961068
844.762840	0.961782
845.077881	0.958878
845.392879	0.959884
845.707833	0.962683
846.022745	0.963442
846.337613	0.965028
846.652438	0.965904
846.967221	0.964889
847.281960	0.965260
847.596656	0.967543
847.911309	0.965762
848.225919	0.967541
848.540485	0.968474
848.855009	0.967740
849.169490	0.968873
849.483928	0.968970
849.798323	0.968969
850.112675	0.969389
850.426984	0.970007
850.741251	0.970532
851.055474	0.970358
851.369654	0.968392
851.683792	0.969608
851.997887	0.969470
852.311938	0.970945
852.625947	0.970150
852.939914	0.968540
853.253837	0.969061
853.567718	0.971697
853.881555	0.970996
854.195350	0.968200
854.509103	0.970228
854.822812	0.969248
855.136479	0.969747
855.450103	0.969147
855.763685	0.968397
856.077224	0.969136
856.390720	0.970402
856.704173	0.970039
857.017584	0.968926
857.330953	0.966175
857.644278	0.966922
857.957561	0.969725
858.270802	0.969184
858.584000	0.967857
858.897155	0.966795
859.210268	0.967991
859.523339	0.968128
859.836367	0.970065
860.149352	0.971021
860.462295	0.969063
860.775195	0.969622
861.088054	0.970329
861.400869	0.969686
861.713642	0.970347
862.026373	0.970648
862.339062	0.970628
862.651708	0.967964
862.964312	0.967729
863.276873	0.969914
863.589392	0.968246
863.901869	0.967498
864.214303	0.964430
864.526696	0.963951
864.839045	0.963954
865.151353	0.962261
865.463619	0.962656
865.775842	0.961703
866.088023	0.961752
866.400162	0.962756
866.712258	0.962121
867.024313	0.962591
867.336325	0.962804
867.648296	0.962968
867.960224	0.962697
868.272110	0.962356
868.583954	0.963139
868.895755	0.964934
869.207515	0.961392
869.519233	0.959640
869.830909	0.961282
870.142542	0.962220
870.454134	0.961708
870.765684	0.959703
871.077191	0.958630
871.388657	0.959365
871.700081	0.958473
872.011463	0.957082
872.322803	0.958763
872.634101	0.957483
872.945357	0.954624
873.256571	0.954380
873.567744	0.953309
873.878874	0.953885
874.189963	0.951261
874.501010	0.951234
874.812015	0.949383
875.122979	0.951384
875.433900	0.952956
875.744780	0.953921
876.055618	0.950686
876.366415	0.950015
876.677169	0.950861
876.987882	0.951161
877.298554	0.952159
877.609183	0.948303
877.919771	0.945612
878.230317	0.942578
878.540822	0.940381
878.851285	0.936629
879.161707	0.926683
879.472087	0.915387
879.782425	0.899783
880.092722	0.866137
880.402977	0.814128
880.713191	0.753507
881.023363	0.695642
881.333494	0.661668
881.643583	0.633930
881.953631	0.633247
882.263637	0.662488
882.573602	0.700572
882.883526	0.726974
883.193408	0.751005
883.503248	0.771896
883.813048	0.799431
884.122806	0.828124
884.432522	0.851929
884.742197	0.871957
885.051831	0.882508
885.361424	0.892722
885.670975	0.903820
885.980485	0.913927
886.289954	0.919223
886.599382	0.924933
886.908768	0.929119
887.218113	0.935205
887.527417	0.939126
887.836680	0.942435
888.145901	0.942870
888.455082	0.946801
888.764221	0.951055
889.073319	0.953153
889.382376	0.954004
889.691392	0.953417
890.000366	0.953204
890.309300	0.954699
890.618193	0.953046
890.927044	0.951948
891.235855	0.952133
891.544625	0.951294
891.853353	0.951890
892.162041	0.950373
892.470687	0.942804
892.779293	0.939055
893.087858	0.933891
893.396381	0.926641
893.704864	0.913752
894.013306	0.889828
894.321707	0.863278
894.630068	0.849385
894.938387	0.845461
895.246665	0.845826
895.554903	0.858096
895.863100	0.871685
896.171256	0.888361
896.479371	0.906829
896.787446	0.920847
897.095480	0.925934
897.403473	0.928878
897.711425	0.932577
898.019336	0.940573
898.327207	0.943654
898.635038	0.946346
898.942827	0.945143
899.250576	0.948147
899.558284	0.953229
899.865952	0.953581
900.173579	0.956188
900.481165	0.956390
900.788711	0.960657
901.096216	0.961287
901.403681	0.961976
901.711105	0.962621
902.018489	0.963057
902.325832	0.962507
902.633135	0.961560
902.940397	0.956016
903.247619	0.944358
903.554800	0.917542
903.861941	0.879327
904.169041	0.844451
904.476101	0.827088
904.783121	0.828467
905.090100	0.844090
905.397039	0.865221
905.703938	0.886821
906.010796	0.907529
906.317614	0.923419
906.624391	0.935487
906.931129	0.944293
907.237826	0.952622
907.544483	0.958968
907.851099	0.962826
908.157675	0.967240
908.464211	0.969242
908.770707	0.972946
909.077163	0.974230
909.383578	0.974445
909.689954	0.975384
909.996289	0.974932
910.302584	0.976840
910.608839	0.978767
910.915054	0.978615
911.221229	0.978158
911.527363	0.977315
911.833458	0.976424
912.139513	0.977812
912.445527	0.975295
912.751502	0.973386
913.057436	0.974227
913.363331	0.969684
913.669186	0.967176
913.975000	0.961416
914.280775	0.955110
914.586510	0.949063
914.892205	0.936213
915.197859	0.914378
915.503475	0.888476
915.809050	0.868276
916.114585	0.862934
916.420081	0.861049
916.725536	0.858010
917.030952	0.865413
917.336328	0.877409
917.641665	0.893259
917.946961	0.909019
918.252218	0.920337
918.557435	0.927771
918.862612	0.937121
919.167750	0.943395
919.472848	0.947322
919.777906	0.952840
920.082925	0.957459
920.387904	0.962154
920.692843	0.963476
920.997743	0.964366
921.302603	0.968094
921.607423	0.968973
921.912204	0.972337
922.216946	0.972209
922.521647	0.972561
922.826310	0.975303
923.130932	0.976675
923.435516	0.979122
923.740059	0.980838
924.044564	0.978859
924.349028	0.980428
924.653454	0.982747
924.957840	0.984703
925.262186	0.985260
925.566493	0.984231
925.870761	0.985130
926.174989	0.986947
926.479178	0.988519
926.783328	0.987624
927.087438	0.988313
927.391509	0.988259
927.695541	0.989449
927.999533	0.989398
928.303486	0.989496
928.607400	0.991038
928.911275	0.990406
929.215110	0.991093
929.518906	0.990528
929.822663	0.989269
930.126381	0.990780
930.430060	0.989694
930.733699	0.989469
931.037299	0.989934
931.340861	0.990491
931.644383	0.990202
931.947866	0.989953
932.251309	0.990106
932.554714	0.990990
932.858080	0.989998
933.161407	0.989195
933.464694	0.990784
933.767943	0.989245
934.071153	0.990272
934.374323	0.991493
934.677455	0.991094
934.980548	0.991879
935.283602	0.990855
935.586617	0.991349
935.889593	0.991716
936.192530	0.989770
936.495428	0.990971
936.798287	0.990663
937.101108	0.990198
937.403890	0.989632
937.706632	0.988945
938.009336	0.986148
938.312002	0.986064
938.614628	0.984236
938.917216	0.983860
939.219765	0.982112
939.522275	0.983058
939.824747	0.982142
940.127179	0.983395
940.429573	0.984273
940.731929	0.983952
941.034246	0.984479
941.336524	0.985916
941.638763	0.986880
941.940964	0.985778
942.243126	0.986472
942.545250	0.986477
942.847335	0.988285
943.149381	0.988249
943.451389	0.987227
943.753359	0.988046
944.055290	0.990981
944.357182	0.990697
944.659036	0.988293
944.960851	0.989245
945.262628	0.990085
945.564367	0.991034
945.866067	0.989477
946.167729	0.990463
946.469352	0.990286
946.770937	0.988351
947.072484	0.990936
947.373992	0.989251
947.675462	0.990330
947.976893	0.989686
948.278286	0.991108
948.579641	0.991092
948.880958	0.990949
949.182236	0.991297
949.483476	0.991550
949.784678	0.989311
950.085841	0.991463
950.386967	0.989997
950.688054	0.990182
950.989103	0.990255
951.290114	0.989007
951.591087	0.989897
951.892021	0.988716
952.192917	0.988399
952.493776	0.987898
952.794596	0.988276
953.095378	0.988243
953.396122	0.988497
953.696828	0.987359
953.997496	0.988971
954.298126	0.990303
954.598718	0.990494
954.899272	0.990259
955.199788	0.990679
955.500266	0.992222
955.800706	0.992483
956.101108	0.993068
956.401472	0.993670
956.701798	0.993719
957.002087	0.993103
957.302337	0.994387
957.602550	0.995355
957.902724	0.995128
958.202861	0.995781
958.502960	0.994056
958.803022	0.993073
959.103045	0.996098
959.403031	0.996630
959.702979	0.995232
960.002889	0.995738
960.302762	0.994196
960.602596	0.995599
960.902393	0.994233
961.202153	0.996800
961.501875	0.997698
961.801559	0.995475
962.101205	0.995286
962.400814	0.996518
962.700385	0.997156
962.999918	0.995507
963.299414	0.996910
963.598873	0.995908
963.898293	0.995522
964.197677	0.996331
964.497022	0.996996
964.796331	0.996734
965.095601	0.997051
965.394835	0.995615
965.694030	0.996257
965.993189	0.997115
966.292309	0.995717
966.591393	0.997642
966.890439	0.997651
967.189447	0.997298
967.488419	0.998044
967.787353	0.996023
968.086249	0.997249
968.385108	0.995895
968.683930	0.996289
968.982714	0.997753
969.281462	0.997151
969.580172	0.996491
969.878844	0.997273
970.177480	0.997926
970.476078	0.997159
970.774639	0.996874
971.073162	0.997639
971.371649	0.996356
971.670098	0.996304
971.968510	0.997034
972.266885	0.994506
972.565223	0.996212
972.863524	0.996219
973.161788	0.996552
973.460014	0.997953
973.758204	0.996398
974.056356	0.996661
974.354471	0.994319
974.652550	0.995775
974.950591	0.996066
975.248595	0.996394
975.546563	0.996056
975.844493	0.996585
976.142386	0.996738
976.440243	0.997116
976.738062	0.996120
977.035845	0.998108
977.333590	0.994554
977.631299	0.998532
977.928971	0.996376
978.226606	0.996533
978.524204	0.995951
978.821765	0.997601
979.119290	0.996404
979.416777	0.996076
979.714228	0.996846
980.011642	0.995854
980.309020	0.997028
980.606360	0.996751
980.903664	0.999334
981.200931	0.996544
981.498162	0.994450
981.795356	0.994315
982.092513	0.993244
982.389633	0.995327
982.686717	0.990591
982.983764	0.991828
983.280775	0.989575
983.577749	0.990631
983.874686	0.992565
984.171587	0.991840
984.468451	0.993600
984.765279	0.994881
985.062070	0.993901
985.358824	0.994746
985.655543	0.995063
985.952224	0.995382
986.248869	0.997301
986.545478	0.995749
986.842050	0.998431
987.138586	0.995422
987.435086	0.997026
987.731549	0.998979
988.027975	0.996797
988.324366	0.997406
988.620719	0.997592
988.917037	0.996418
989.213318	0.998263
989.509563	0.997118
989.805772	0.998487
990.101944	0.998462
990.398080	0.997480
990.694180	0.998556
990.990244	0.997917
991.286271	0.997381
991.582262	0.996616
991.878217	0.997902
992.174136	0.999106
992.470019	0.997910
992.765865	0.998962
993.061676	0.997182
993.357450	0.996652
993.653188	0.996975
993.948890	0.996690
994.244556	0.997834
994.540186	0.998108
994.835780	0.995528
995.131337	0.997605
995.426859	0.995946
995.722345	0.997797
996.017795	0.995555
996.313208	0.996519
996.608586	0.994962
996.903928	0.996722
997.199234	0.995201
997.494504	0.996465
997.789738	0.996143
998.084936	0.996024
998.380099	0.996730
998.675225	0.996916
998.970316	0.997253
999.265371	0.997726
999.560390	0.998282
999.855373	0.998658
1000.150320	0.997580
1000.445232	0.998346
1000.740108	0.998029
1001.034948	0.998670
1001.329752	0.999134
1001.624521	0.998376
1001.919254	0.997493
1002.213951	0.997162
1002.508613	0.997244
1002.803239	0.999137
1003.097829	0.998568
1003.392384	0.998708
1003.686903	0.998329
1003.981386	0.998759
1004.275834	0.999570
1004.570246	0.998822
1004.864623	0.998533
1005.158964	0.998784
1005.453270	0.998793
1005.747540	0.996454
1006.041775	0.998222
1006.335974	0.999902
1006.630138	0.999069
1006.924266	0.999585
1007.218359	0.999852
1007.512416	0.999467
1007.806438	0.998462
1008.100425	0.999594
1008.394376	0.997980
1008.688292	0.998252
1008.982172	1.000248
1009.276017	0.998590
1009.569827	0.999429
1009.863602	0.999261
1010.157341	0.998444
1010.451045	0.999454
1010.744714	0.999475
1011.038347	0.998907
1011.331945	0.999387
1011.625508	0.998736
1011.919036	0.998804
1012.212528	0.999337
1012.505986	0.997967
1012.799408	0.999469
1013.092795	0.998933
1013.386147	0.998644
1013.679464	0.999350
1013.972745	0.997020
1014.265992	0.997067
1014.559204	0.997936
1014.852380	0.998663
1015.145521	0.998423
1015.438628	0.998045
1015.731699	0.998288
1016.024736	0.999112
1016.317737	0.996928
1016.610703	0.998774
1016.903635	0.999356
1017.196531	0.998656
1017.489393	0.998967
1017.782219	0.998769
1018.075011	0.996890
1018.367768	0.999047
1018.660490	0.998386
1018.953177	0.998386
1019.245829	0.998386
