Dividing Wavelength (nm)	Counts (n)	Blue Motor Position (mm): 0.000000	Red Motor Position (mm): 28.600000	
326.493990	1.000020
326.888308	1.000020
327.282561	1.000020
327.676750	0.999110
328.070874	0.998532
328.464933	1.000540
328.858929	0.998841
329.252859	0.999538
329.646726	0.999508
330.040528	0.999594
330.434265	0.998596
330.827938	1.000167
331.221547	1.001211
331.615091	0.999400
332.008571	0.999883
332.401986	0.999078
332.795338	0.998817
333.188625	0.997579
333.581847	0.999639
333.975006	1.000299
334.368100	0.999108
334.761129	0.999416
335.154095	1.000744
335.546996	0.997232
335.939833	0.994602
336.332606	0.994538
336.725315	0.994812
337.117960	0.996726
337.510540	0.994666
337.903056	0.994715
338.295508	0.993686
338.687896	0.995856
339.080220	0.995270
339.472480	0.994388
339.864676	0.994832
340.256807	0.994845
340.648875	0.997006
341.040879	0.995826
341.432818	0.995189
341.824694	0.994698
342.216506	0.995759
342.608253	0.995610
342.999937	0.994864
343.391557	0.995165
343.783113	0.995462
344.174605	0.995670
344.566033	0.995960
344.957397	0.993800
345.348697	0.993755
345.739934	0.995125
346.131106	0.994521
346.522215	0.993921
346.913260	0.994266
347.304241	0.995638
347.695159	0.994263
348.086012	0.994770
348.476802	0.994767
348.867528	0.995608
349.258191	0.993241
349.648789	0.995793
350.039324	0.994425
350.429796	0.995032
350.820203	0.994981
351.210548	0.995531
351.600828	0.995194
351.991045	0.995164
352.381198	0.994067
352.771288	0.994176
353.161314	0.994374
353.551276	0.996528
353.941175	0.994979
354.331010	0.994817
354.720782	0.995682
355.110490	0.994815
355.500135	0.995162
355.889717	0.994212
356.279235	0.994011
356.668689	0.995224
357.058080	0.995374
357.447408	0.995553
357.836672	0.995825
358.225873	0.995678
358.615010	0.996255
359.004084	0.995131
359.393095	0.994368
359.782043	0.994953
360.170927	0.996713
360.559748	0.995922
360.948505	0.994323
361.337199	0.995865
361.725830	0.995822
362.114398	0.995162
362.502903	0.995142
362.891344	0.995423
363.279722	0.994692
363.668037	0.996753
364.056289	0.995110
364.444478	0.995218
364.832603	0.995230
365.220665	0.995475
365.608665	0.994709
365.996601	0.994743
366.384474	0.995121
366.772284	0.995007
367.160031	0.993775
367.547715	0.994420
367.935336	0.994817
368.322893	0.994515
368.710388	0.994359
369.097820	0.994234
369.485189	0.994250
369.872495	0.994351
370.259738	0.994070
370.646918	0.995519
371.034035	0.996049
371.421090	0.995365
371.808081	0.994855
372.195010	0.995405
372.581875	0.995023
372.968678	0.995191
373.355418	0.995932
373.742096	0.994481
374.128710	0.996340
374.515262	0.996179
374.901751	0.996156
375.288177	0.996568
375.674540	0.996168
376.060841	0.996048
376.447079	0.995868
376.833254	0.995982
377.219367	0.996257
377.605417	0.995278
377.991404	0.996564
378.377329	0.995349
378.763191	0.994596
379.148991	0.996928
379.534727	0.995617
379.920402	0.995005
380.306013	0.995579
380.691563	0.996236
381.077049	0.995783
381.462474	0.995846
381.847835	0.996071
382.233134	0.995483
382.618371	0.996303
383.003545	0.996636
383.388657	0.996269
383.773706	0.997208
384.158693	0.995652
384.543618	0.995592
384.928480	0.997158
385.313280	0.996330
385.698017	0.997911
386.082692	0.996363
386.467305	0.996778
386.851856	0.995603
387.236344	0.996126
387.620770	0.996720
388.005133	0.997103
388.389435	0.997054
388.773674	0.996468
389.157851	0.997463
389.541965	0.996915
389.926018	0.996765
390.310008	0.998886
390.693936	0.996216
391.077802	0.996430
391.461606	0.997139
391.845348	0.997603
392.229027	0.998544
392.612645	0.995770
392.996200	0.998003
393.379694	0.996715
393.763125	0.996886
394.146494	0.996955
394.529801	0.996948
394.913047	0.997513
395.296230	0.996616
395.679351	0.996758
396.062410	0.997047
396.445408	0.996736
396.828343	0.996683
397.211217	0.996215
397.594028	0.997569
397.976778	0.996275
398.359466	0.995691
398.742092	0.996713
399.124656	0.997074
399.507158	0.996964
399.889598	0.996775
400.271977	0.996899
400.654294	0.996881
401.036549	0.997241
401.418742	0.997437
401.800874	0.996250
402.182944	0.996330
402.564952	0.995964
402.946898	0.997425
403.328783	0.997199
403.710606	0.997042
404.092367	0.997477
404.474067	0.996829
404.855705	0.996733
405.237282	0.997072
405.618797	0.996882
406.000250	0.996685
406.381642	0.997436
406.762972	0.996980
407.144240	0.997669
407.525447	0.997617
407.906593	0.997174
408.287677	0.997350
408.668700	0.997641
409.049661	0.997082
409.430560	0.996687
409.811399	0.995896
410.192176	0.996601
410.572891	0.997101
410.953545	0.996433
411.334138	0.996577
411.714669	0.997164
412.095139	0.996024
412.475547	0.998227
412.855894	0.997224
413.236180	0.997211
413.616405	0.997234
413.996568	0.997482
414.376670	0.997737
414.756711	0.996839
415.136691	0.996848
415.516609	0.996582
415.896466	0.996208
416.276262	0.995964
416.655997	0.997579
417.035670	0.996276
417.415283	0.997306
417.794834	0.997819
418.174324	0.997223
418.553753	0.997802
418.933121	0.996552
419.312428	0.997152
419.691674	0.997301
420.070859	0.997427
420.449983	0.997746
420.829045	0.997880
421.208047	0.996680
421.586988	0.998151
421.965867	0.996836
422.344686	0.998283
422.723444	0.996611
423.102141	0.997289
423.480777	0.997037
423.859352	0.997733
424.237866	0.996929
424.616319	0.997172
424.994712	0.997408
425.373044	0.998277
425.751314	0.996769
426.129524	0.997445
426.507673	0.998476
426.885762	0.997567
427.263789	0.996777
427.641756	0.997464
428.019662	0.997322
428.397508	0.997273
428.775292	0.996163
429.153016	0.997605
429.530679	0.997676
429.908282	0.998108
430.285824	0.997024
430.663305	0.996731
431.040726	0.997000
431.418086	0.998345
431.795385	0.997454
432.172624	0.996484
432.549802	0.997966
432.926920	0.997825
433.303977	0.996685
433.680974	0.997306
434.057910	0.997059
434.434786	0.997275
434.811601	0.996721
435.188355	0.996971
435.565050	0.996076
435.941683	0.997115
436.318257	0.997276
436.694770	0.996919
437.071222	0.997268
437.447614	0.997288
437.823946	0.997376
438.200218	0.998137
438.576429	0.996367
438.952580	0.996542
439.328670	0.996234
439.704700	0.997628
440.080670	0.997654
440.456580	0.996787
440.832429	0.996551
441.208218	0.997246
441.583947	0.996654
441.959616	0.997681
442.335224	0.997038
442.710773	0.998033
443.086261	0.996120
443.461689	0.996719
443.837057	0.997257
444.212365	0.997149
444.587612	0.997097
444.962800	0.996247
445.337927	0.996601
445.712995	0.997109
446.088002	0.997302
446.462949	0.997122
446.837837	0.997346
447.212664	0.996971
447.587431	0.996597
447.962139	0.996753
448.336786	0.996223
448.711374	0.996378
449.085901	0.996054
449.460369	0.996226
449.834776	0.995875
450.209124	0.996102
450.583412	0.995896
450.957640	0.995584
451.331808	0.994825
451.705917	0.994771
452.079965	0.994592
452.453954	0.994735
452.827883	0.993876
453.201752	0.994247
453.575562	0.993801
453.949311	0.994597
454.323001	0.993106
454.696632	0.992214
455.070202	0.991498
455.443713	0.991168
455.817164	0.991001
456.190556	0.990054
456.563888	0.989322
456.937160	0.988319
457.310373	0.987619
457.683526	0.986924
458.056619	0.986562
458.429653	0.985542
458.802628	0.984096
459.175542	0.983442
459.548398	0.981938
459.921194	0.979710
460.293930	0.978345
460.666607	0.975358
461.039224	0.972198
461.411782	0.971867
461.784280	0.969674
462.156719	0.970204
462.529099	0.967909
462.901419	0.966015
463.273680	0.965105
463.645882	0.962586
464.018024	0.960858
464.390106	0.958520
464.762130	0.955831
465.134094	0.951136
465.505999	0.942802
465.877845	0.936825
466.249631	0.933387
466.621358	0.932805
466.993026	0.931026
467.364634	0.929418
467.736184	0.927418
468.107674	0.924256
468.479105	0.918997
468.850477	0.917362
469.221790	0.914219
469.593043	0.911614
469.964238	0.907655
470.335373	0.902182
470.706449	0.897961
471.077467	0.893722
471.448425	0.880677
471.819324	0.871065
472.190164	0.867477
472.560945	0.868638
472.931667	0.865951
473.302330	0.861725
473.672934	0.857439
474.043479	0.849994
474.413965	0.843902
474.784393	0.837861
475.154761	0.831103
475.525070	0.824061
475.895321	0.820600
476.265513	0.812184
476.635645	0.805094
477.005719	0.797295
477.375734	0.789728
477.745691	0.781615
478.115588	0.773006
478.485427	0.764045
478.855207	0.752778
479.224928	0.737578
479.594591	0.727005
479.964194	0.721148
480.333739	0.715648
480.703226	0.706526
481.072653	0.698614
481.442022	0.687986
481.811333	0.679118
482.180584	0.673041
482.549777	0.666364
482.918912	0.659920
483.287988	0.651012
483.657005	0.643414
484.025964	0.638047
484.394864	0.628608
484.763706	0.620409
485.132489	0.615475
485.501213	0.607669
485.869879	0.599253
486.238487	0.592639
486.607036	0.583993
486.975527	0.577132
487.343959	0.567878
487.712333	0.559499
488.080648	0.553466
488.448905	0.544126
488.817104	0.537525
489.185244	0.526524
489.553326	0.517197
489.921350	0.503699
490.289315	0.485243
490.657222	0.475906
491.025070	0.468264
491.392861	0.462923
491.760593	0.459325
492.128267	0.455302
492.495883	0.451706
492.863440	0.449033
493.230939	0.446211
493.598380	0.440570
493.965763	0.435058
494.333088	0.431859
494.700354	0.425309
495.067563	0.419855
495.434713	0.415530
495.801805	0.408533
496.168839	0.403727
496.535815	0.398480
496.902733	0.393986
497.269593	0.388717
497.636395	0.382598
498.003139	0.376248
498.369825	0.374648
498.736453	0.366078
499.103023	0.362793
499.469535	0.357144
499.835989	0.352878
500.202385	0.349349
500.568723	0.347795
500.935003	0.339972
501.301226	0.338916
501.667390	0.330261
502.033497	0.324767
502.399546	0.323618
502.765537	0.321066
503.131470	0.316310
503.497345	0.308923
503.863163	0.313714
504.228923	0.304135
504.594625	0.299920
504.960269	0.302114
505.325856	0.294435
505.691385	0.295524
506.056856	0.289763
506.422270	0.286697
506.787625	0.286654
507.152924	0.281732
507.518164	0.279963
507.883347	0.278994
508.248472	0.278637
508.613540	0.272034
508.978550	0.272458
509.343503	0.270755
509.708398	0.267031
510.073236	0.262923
510.438016	0.261325
510.802738	0.260819
511.167403	0.258483
511.532010	0.258820
511.896561	0.253215
512.261053	0.250900
512.625488	0.251552
512.989866	0.250874
513.354186	0.250205
513.718449	0.250800
514.082655	0.246462
514.446803	0.247551
514.810894	0.244286
515.174927	0.246226
515.538904	0.244987
515.902822	0.241376
516.266684	0.243032
516.630488	0.243547
516.994235	0.241636
517.357925	0.239976
517.721558	0.237991
518.085133	0.236690
518.448651	0.236508
518.812112	0.238300
519.175516	0.237530
519.538863	0.234995
519.902152	0.236133
520.265385	0.232601
520.628560	0.234098
520.991678	0.234383
521.354739	0.232807
521.717743	0.233952
522.080690	0.234321
522.443580	0.231283
522.806413	0.232008
523.169189	0.231240
523.531908	0.229883
523.894569	0.233293
524.257174	0.233170
524.619722	0.230629
524.982213	0.231606
525.344647	0.230392
525.707025	0.231198
526.069345	0.229168
526.431608	0.230668
526.793815	0.228617
527.155964	0.232561
527.518057	0.231408
527.880093	0.232642
528.242072	0.230774
528.603995	0.232479
528.965860	0.234117
529.327669	0.232864
529.689421	0.233680
530.051117	0.234734
530.412755	0.231918
530.774337	0.234347
531.135862	0.234571
531.497331	0.234012
531.858743	0.236970
532.220098	0.233426
532.581396	0.235996
532.942638	0.236484
533.303824	0.237377
533.664953	0.237123
534.026025	0.238845
534.387040	0.236588
534.747999	0.236332
535.108902	0.235390
535.469748	0.240302
535.830537	0.238316
536.191270	0.238760
536.551947	0.238287
536.912567	0.238158
537.273131	0.239721
537.633638	0.239941
537.994089	0.240267
538.354483	0.241280
538.714821	0.238246
539.075103	0.238104
539.435328	0.238760
539.795497	0.242502
540.155609	0.239069
540.515665	0.237016
540.875665	0.242879
541.235609	0.241163
541.595496	0.241514
541.955328	0.237908
542.315102	0.240436
542.674821	0.241492
543.034483	0.241379
543.394090	0.241256
543.753640	0.243090
544.113134	0.238087
544.472571	0.241477
544.831953	0.238387
545.191278	0.242360
545.550548	0.241692
545.909761	0.238676
546.268918	0.239409
546.628019	0.237812
546.987064	0.240299
547.346053	0.241982
547.704986	0.239820
548.063863	0.240309
548.422684	0.240614
548.781449	0.242254
549.140158	0.239808
549.498811	0.242875
549.857408	0.245935
550.215949	0.240867
550.574434	0.243686
550.932864	0.241563
551.291237	0.240263
551.649555	0.241779
552.007817	0.241285
552.366022	0.242490
552.724173	0.242544
553.082267	0.242848
553.440305	0.239862
553.798288	0.243978
554.156215	0.240793
554.514086	0.241475
554.871902	0.244500
555.229661	0.243868
555.587365	0.244239
555.945014	0.246663
556.302606	0.243710
556.660143	0.246350
557.017625	0.242665
557.375050	0.244972
557.732421	0.241886
558.089735	0.244208
558.446994	0.244086
558.804197	0.243260
559.161345	0.243441
559.518437	0.246987
559.875474	0.244555
560.232455	0.243578
560.589381	0.245000
560.946251	0.245055
561.303065	0.242601
561.659825	0.244457
562.016528	0.245462
562.373177	0.248675
562.729770	0.245557
563.086307	0.247804
563.442789	0.245634
563.799216	0.248442
564.155587	0.247115
564.511904	0.248034
564.868164	0.248274
565.224370	0.248217
565.580520	0.250032
565.936615	0.249898
566.292654	0.252942
566.648638	0.249949
567.004567	0.250765
567.360441	0.251373
567.716260	0.253484
568.072023	0.251164
568.427732	0.251753
568.783385	0.254566
569.138982	0.252646
569.494525	0.252128
569.850013	0.255221
570.205445	0.253398
570.560823	0.256243
570.916145	0.257661
571.271412	0.255997
571.626625	0.257566
571.981782	0.257777
572.336884	0.259031
572.691931	0.258635
573.046923	0.259872
573.401860	0.261198
573.756743	0.262774
574.111570	0.261648
574.466342	0.262129
574.821059	0.261121
575.175722	0.263824
575.530330	0.263919
575.884882	0.264207
576.239380	0.266384
576.593823	0.266676
576.948211	0.266085
577.302544	0.269392
577.656823	0.268936
578.011047	0.269013
578.365216	0.269797
578.719330	0.271415
579.073389	0.271616
579.427394	0.272889
579.781344	0.273569
580.135239	0.275227
580.489080	0.274768
580.842866	0.277619
581.196597	0.277395
581.550273	0.276033
581.903895	0.277448
582.257463	0.275481
582.610975	0.278597
582.964434	0.278042
583.317837	0.280560
583.671186	0.281051
584.024481	0.281022
584.377721	0.283275
584.730906	0.284266
585.084037	0.283407
585.437113	0.285105
585.790135	0.284490
586.143103	0.287268
586.496016	0.288762
586.848874	0.286028
587.201679	0.286788
587.554428	0.290119
587.907124	0.288890
588.259765	0.289869
588.612352	0.290267
588.964884	0.293771
589.317362	0.293544
589.669786	0.293488
590.022155	0.292125
590.374470	0.291533
590.726731	0.293543
591.078937	0.297906
591.431090	0.294338
591.783188	0.298847
592.135232	0.299032
592.487222	0.298977
592.839157	0.297213
593.191038	0.299410
593.542866	0.301389
593.894639	0.305213
594.246358	0.302741
594.598022	0.302414
594.949633	0.306129
595.301190	0.306766
595.652692	0.305921
596.004141	0.301985
596.355535	0.310124
596.706876	0.310811
597.058162	0.313021
597.409395	0.310107
597.760573	0.307998
598.111698	0.311577
598.462768	0.311919
598.813785	0.313269
599.164748	0.314283
599.515657	0.314662
599.866511	0.318213
600.217312	0.313002
600.568060	0.318447
600.918753	0.314927
601.269392	0.315824
601.619978	0.319498
601.970510	0.316862
602.320988	0.317021
602.671412	0.314768
603.021783	0.317140
603.372100	0.318399
603.722363	0.318301
604.072572	0.319363
604.422728	0.318856
604.772830	0.321114
605.122878	0.320464
605.472872	0.321149
605.822813	0.319303
606.172701	0.321945
606.522534	0.319637
606.872314	0.319425
607.222041	0.320420
607.571714	0.318813
607.921333	0.319811
608.270899	0.319837
608.620411	0.316327
608.969870	0.320077
609.319276	0.320296
609.668627	0.320319
610.017926	0.319078
610.367171	0.317404
610.716362	0.318200
611.065500	0.318423
611.414585	0.317217
611.763616	0.317561
612.112594	0.318141
612.461518	0.317851
612.810389	0.315277
613.159207	0.317479
613.507971	0.319550
613.856682	0.315052
614.205340	0.316627
614.553945	0.313588
614.902496	0.317401
615.250994	0.314981
615.599439	0.316310
615.947830	0.315691
616.296169	0.316633
616.644454	0.315638
616.992686	0.316240
617.340864	0.313828
617.688990	0.317798
618.037063	0.314113
618.385082	0.316104
618.733048	0.312980
619.080961	0.315204
619.428821	0.314751
619.776628	0.314224
620.124382	0.316459
620.472083	0.316705
620.819731	0.315718
621.167326	0.319905
621.514868	0.319802
621.862357	0.323655
622.209793	0.323260
622.557176	0.325466
622.904506	0.326784
623.251783	0.329158
623.599007	0.331295
623.946179	0.331101
624.293297	0.332592
624.640363	0.336410
624.987376	0.336930
625.334336	0.339757
625.681243	0.341635
626.028097	0.341824
626.374899	0.343711
626.721647	0.343772
627.068343	0.347146
627.414987	0.347921
627.761577	0.350287
628.108115	0.348301
628.454600	0.353524
628.801032	0.351003
629.147412	0.353058
629.493739	0.353480
629.840014	0.356743
630.186236	0.354109
630.532405	0.359630
630.878521	0.356952
631.224585	0.358892
631.570597	0.362806
631.916556	0.361303
632.262462	0.361430
632.608316	0.362941
632.954117	0.364425
633.299866	0.364857
633.645562	0.365416
633.991206	0.369694
634.336797	0.372647
634.682336	0.374743
635.027823	0.376417
635.373257	0.376804
635.718639	0.380560
636.063968	0.379869
636.409245	0.385708
636.754470	0.386250
637.099642	0.388402
637.444762	0.391572
637.789829	0.391287
638.134845	0.394278
638.479808	0.395388
638.824719	0.395032
639.169577	0.399139
639.514383	0.398428
639.859137	0.401962
640.203839	0.402251
640.548489	0.402483
640.893086	0.403593
641.237632	0.405911
641.582125	0.404471
641.926566	0.405548
642.270955	0.405428
642.615292	0.406121
642.959576	0.405260
643.303809	0.405970
643.647990	0.405556
643.992118	0.405749
644.336195	0.409796
644.680219	0.407462
645.024192	0.408411
645.368112	0.401885
645.711981	0.401196
646.055797	0.395896
646.399562	0.398989
646.743274	0.391002
647.086935	0.388112
647.430544	0.388667
647.774101	0.387135
648.117606	0.387417
648.461059	0.387400
648.804460	0.389927
649.147810	0.395168
649.491108	0.396967
649.834354	0.397927
650.177548	0.403393
650.520690	0.408712
650.863781	0.410213
651.206820	0.409509
651.549807	0.414543
651.892742	0.417893
652.235626	0.417630
652.578458	0.418422
652.921238	0.424379
653.263967	0.422410
653.606644	0.426850
653.949269	0.425583
654.291843	0.430466
654.634365	0.426717
654.976836	0.430039
655.319255	0.430235
655.661622	0.431821
656.003938	0.431726
656.346203	0.434439
656.688416	0.432311
657.030577	0.435941
657.372687	0.437796
657.714746	0.438295
658.056753	0.435258
658.398708	0.439597
658.740612	0.440349
659.082465	0.436696
659.424266	0.437131
659.766016	0.436368
660.107715	0.439843
660.449362	0.438483
660.790958	0.439058
661.132503	0.439261
661.473996	0.437401
661.815438	0.438187
662.156829	0.437846
662.498168	0.438293
662.839456	0.440215
663.180693	0.437966
663.521879	0.437961
663.863013	0.438803
664.204097	0.437820
664.545129	0.434906
664.886110	0.434839
665.227040	0.432151
665.567918	0.434597
665.908746	0.433152
666.249522	0.432111
666.590248	0.433149
666.930922	0.431806
667.271545	0.430420
667.612118	0.431110
667.952639	0.432542
668.293109	0.430868
668.633528	0.434128
668.973896	0.433582
669.314213	0.433994
669.654480	0.435464
669.994695	0.435738
670.334859	0.436920
670.674973	0.436609
671.015035	0.437018
671.355047	0.436905
671.695008	0.438257
672.034918	0.439695
672.374777	0.439383
672.714585	0.440070
673.054342	0.440299
673.394049	0.440529
673.733705	0.438174
674.073310	0.439262
674.412864	0.442407
674.752368	0.443911
675.091820	0.443312
675.431223	0.448122
675.770574	0.447399
676.109875	0.450758
676.449125	0.450552
676.788324	0.453041
677.127473	0.458370
677.466571	0.457832
677.805619	0.459636
678.144616	0.460372
678.483562	0.462567
678.822458	0.464803
679.161303	0.465748
679.500098	0.465914
679.838842	0.467512
680.177535	0.467123
680.516179	0.466342
680.854771	0.465190
681.193314	0.458454
681.531805	0.450086
681.870247	0.438743
682.208638	0.430546
682.546978	0.429793
682.885268	0.431199
683.223508	0.437780
683.561697	0.441301
683.899836	0.443992
684.237925	0.448217
684.575963	0.450389
684.913951	0.452655
685.251889	0.449164
685.589776	0.450989
685.927614	0.453476
686.265401	0.447336
686.603137	0.449378
686.940824	0.442983
687.278460	0.441297
687.616046	0.440703
687.953582	0.435513
688.291068	0.436852
688.628504	0.432539
688.965889	0.434988
689.303224	0.438835
689.640510	0.442427
689.977745	0.448256
690.314930	0.456597
690.652065	0.460847
690.989150	0.468564
691.326185	0.474695
691.663170	0.479096
692.000105	0.486534
692.336990	0.493366
692.673825	0.496078
693.010610	0.503061
693.347345	0.509135
693.684030	0.510092
694.020665	0.515274
694.357251	0.524006
694.693786	0.523385
695.030272	0.527697
695.366707	0.530655
695.703093	0.533857
696.039429	0.531863
696.375716	0.533367
696.711952	0.536563
697.048139	0.538465
697.384276	0.540346
697.720363	0.538482
698.056400	0.537409
698.392388	0.543000
698.728326	0.546527
699.064214	0.549617
699.400053	0.549546
699.735842	0.553789
700.071581	0.556144
700.407270	0.558748
700.742910	0.561731
701.078501	0.568160
701.414042	0.568264
701.749533	0.571340
702.084974	0.580117
702.420366	0.572188
702.755709	0.580318
703.091002	0.587900
703.426246	0.580788
703.761440	0.586893
704.096584	0.591981
704.431679	0.588904
704.766725	0.590345
705.101721	0.592304
705.436668	0.587866
705.771565	0.595602
706.106413	0.591914
706.441212	0.587676
706.775961	0.586236
707.110661	0.589438
707.445311	0.586088
707.779913	0.582532
708.114465	0.581517
708.448967	0.577931
708.783421	0.570374
709.117825	0.564400
709.452180	0.564675
709.786485	0.558586
710.120742	0.548470
710.454949	0.551023
710.789107	0.542160
711.123216	0.533494
711.457275	0.535035
711.791286	0.526318
712.125247	0.525194
712.459159	0.535979
712.793023	0.528590
713.126837	0.533040
713.460602	0.533415
713.794318	0.542478
714.127985	0.541345
714.461602	0.551486
714.795171	0.554285
715.128691	0.561643
715.462162	0.569319
715.795584	0.575582
716.128957	0.578609
716.462281	0.584835
716.795556	0.588847
717.128782	0.592831
717.461960	0.603244
717.795088	0.601467
718.128167	0.608088
718.461198	0.616166
718.794180	0.616222
719.127113	0.619919
719.459997	0.622904
719.792833	0.628833
720.125619	0.630573
720.458357	0.635851
720.791046	0.636637
721.123686	0.639123
721.456278	0.646392
721.788821	0.644224
722.121315	0.647701
722.453761	0.652165
722.786158	0.650119
723.118506	0.646695
723.450805	0.654094
723.783056	0.649402
724.115259	0.647423
724.447412	0.647117
724.779518	0.648677
725.111574	0.647128
725.443582	0.642800
725.775542	0.645533
726.107453	0.638230
726.439315	0.637052
726.771129	0.635305
727.102895	0.628761
727.434612	0.622027
727.766281	0.620197
728.097901	0.619876
728.429473	0.618690
728.760996	0.617360
729.092471	0.617390
729.423897	0.622124
729.755276	0.621192
730.086606	0.620376
730.417887	0.615295
730.749120	0.605670
731.080305	0.596175
731.411442	0.592381
731.742530	0.597312
732.073570	0.596722
732.404562	0.589587
732.735506	0.590121
733.066401	0.595069
733.397249	0.604504
733.728048	0.616027
734.058798	0.627788
734.389501	0.638735
734.720156	0.648127
735.050762	0.656476
735.381320	0.657156
735.711831	0.666116
736.042293	0.670993
736.372707	0.666776
736.703073	0.671873
737.033391	0.674476
737.363661	0.671000
737.693883	0.666692
738.024056	0.664865
738.354182	0.665722
738.684260	0.655132
739.014290	0.651009
739.344272	0.652150
739.674207	0.645096
740.004093	0.644549
740.333931	0.645765
740.663722	0.645773
740.993464	0.645478
741.323159	0.649140
741.652806	0.653761
741.982405	0.659107
742.311956	0.663949
742.641460	0.665928
742.970915	0.668990
743.300323	0.677858
743.629683	0.683745
743.958996	0.685730
744.288260	0.690411
744.617477	0.695423
744.946647	0.696603
745.275768	0.702665
745.604842	0.702960
745.933869	0.712679
746.262847	0.713536
746.591778	0.706923
746.920662	0.712881
747.249498	0.720190
747.578286	0.709454
747.907027	0.706380
748.235720	0.707005
748.564365	0.702042
748.892963	0.701647
749.221514	0.704246
749.550017	0.709787
749.878473	0.709716
750.206881	0.716233
750.535242	0.718387
750.863555	0.717039
751.191821	0.718086
751.520039	0.721355
751.848210	0.726478
752.176334	0.718850
752.504411	0.717482
752.832440	0.726192
753.160421	0.729724
753.488356	0.728436
753.816243	0.725152
754.144082	0.734316
754.471875	0.737335
754.799620	0.732901
755.127318	0.734374
755.454969	0.735009
755.782572	0.733306
756.110129	0.738056
756.437638	0.740847
756.765100	0.737160
757.092515	0.735079
757.419882	0.734260
757.747203	0.739982
758.074477	0.739432
758.401703	0.735996
758.728882	0.731040
759.056014	0.730423
759.383099	0.728802
759.710138	0.730812
760.037129	0.727087
760.364073	0.720765
760.690970	0.722353
761.017820	0.729500
761.344623	0.724979
761.671379	0.715748
761.998088	0.703786
762.324751	0.681691
762.651366	0.640301
762.977935	0.574655
763.304456	0.522217
763.630931	0.512788
763.957359	0.551338
764.283740	0.595928
764.610074	0.622748
764.936362	0.653171
765.262602	0.679786
765.588796	0.701284
765.914943	0.719526
766.241044	0.737084
766.567097	0.742925
766.893104	0.752018
767.219064	0.758967
767.544978	0.766157
767.870845	0.777910
768.196665	0.782610
768.522438	0.780784
768.848165	0.782127
769.173846	0.791032
769.499479	0.795547
769.825066	0.798877
770.150607	0.804477
770.476101	0.799280
770.801548	0.800234
771.126949	0.811506
771.452303	0.815306
771.777611	0.815151
772.102872	0.813966
772.428087	0.819439
772.753256	0.821996
773.078378	0.824277
773.403453	0.833218
773.728482	0.836949
774.053465	0.831056
774.378401	0.835132
774.703291	0.842670
775.028135	0.842325
775.352932	0.844288
775.677683	0.846315
776.002388	0.847472
776.327046	0.847486
776.651658	0.850383
776.976224	0.853828
777.300743	0.854714
777.625216	0.856066
777.949643	0.858043
778.274024	0.856866
778.598359	0.859376
778.922647	0.858043
779.246889	0.858590
779.571086	0.861860
779.895236	0.864516
780.219339	0.861991
780.543397	0.858305
780.867409	0.857705
781.191374	0.860646
781.515294	0.861104
781.839167	0.859647
782.162995	0.862757
782.486776	0.860250
782.810511	0.861187
783.134201	0.865110
783.457844	0.861747
783.781441	0.864708
784.104993	0.870875
784.428498	0.870890
784.751958	0.866129
785.075372	0.869403
785.398739	0.872772
785.722061	0.870789
786.045337	0.864907
786.368568	0.869882
786.691752	0.872478
787.014891	0.858478
787.337983	0.848546
787.661030	0.842961
787.984031	0.825556
788.306987	0.812201
788.629897	0.814618
788.952760	0.819059
789.275579	0.822768
789.598351	0.837729
789.921078	0.851972
790.243759	0.852796
790.566395	0.856977
790.888984	0.865150
791.211529	0.870473
791.534027	0.872273
791.856480	0.875161
792.178888	0.880001
792.501249	0.882901
792.823566	0.883312
793.145836	0.883885
793.468062	0.885536
793.790241	0.885692
794.112375	0.884048
794.434464	0.878289
794.756507	0.878800
795.078505	0.878714
795.400457	0.873604
795.722364	0.861443
796.044226	0.853587
796.366042	0.853308
796.687812	0.856592
797.009538	0.853111
797.331218	0.855587
797.652852	0.860019
797.974442	0.864593
798.295986	0.865528
798.617484	0.867753
798.938938	0.872525
799.260346	0.876541
799.581709	0.878752
799.903026	0.881604
800.224299	0.881040
800.545526	0.885361
800.866708	0.889718
801.187845	0.893276
801.508936	0.892273
801.829983	0.891376
802.150984	0.892984
802.471940	0.899617
802.792851	0.897493
803.113717	0.897989
803.434538	0.897055
803.755314	0.899953
804.076045	0.901405
804.396731	0.901147
804.717372	0.901085
805.037967	0.902694
805.358518	0.900038
805.679024	0.897092
805.999485	0.897488
806.319901	0.897450
806.640272	0.899146
806.960598	0.897186
807.280879	0.894966
807.601115	0.893933
807.921306	0.897457
808.241453	0.897498
808.561554	0.894724
808.881611	0.894730
809.201623	0.896978
809.521590	0.897252
809.841513	0.898243
810.161390	0.896953
810.481223	0.898788
810.801011	0.902495
811.120755	0.904119
811.440453	0.902441
811.760107	0.901682
812.079716	0.901700
812.399281	0.904295
812.718801	0.908192
813.038276	0.908136
813.357707	0.908143
813.677093	0.904922
813.996434	0.907391
814.315731	0.908667
814.634983	0.910790
814.954191	0.908503
815.273354	0.906433
815.592473	0.902654
815.911547	0.902806
816.230577	0.900985
816.549562	0.897385
816.868502	0.898554
817.187399	0.894432
817.506250	0.888418
817.825058	0.892426
818.143821	0.887322
818.462539	0.881920
818.781213	0.874328
819.099843	0.863474
819.418429	0.847150
819.736970	0.832077
820.055466	0.812439
820.373919	0.786099
820.692327	0.754189
821.010691	0.719747
821.329011	0.643610
821.647286	0.530111
821.965517	0.416816
822.283704	0.374550
822.601847	0.376535
822.919945	0.412027
823.237999	0.444588
823.556010	0.490873
823.873976	0.546308
824.191897	0.596093
824.509775	0.638183
824.827609	0.682541
825.145398	0.706200
825.463144	0.707477
825.780845	0.691245
826.098502	0.672503
826.416116	0.626895
826.733685	0.583871
827.051210	0.575815
827.368692	0.590675
827.686129	0.627575
828.003522	0.678944
828.320872	0.726723
828.638177	0.769440
828.955439	0.802596
829.272656	0.823409
829.589830	0.840368
829.906960	0.856445
830.224046	0.868931
830.541088	0.878462
830.858086	0.883619
831.175041	0.888479
831.491952	0.888312
831.808819	0.884632
832.125642	0.877570
832.442421	0.863565
832.759157	0.843191
833.075849	0.797178
833.392497	0.733620
833.709101	0.692930
834.025662	0.702595
834.342179	0.733853
834.658653	0.771764
834.975083	0.809416
835.291469	0.834206
835.607811	0.856222
835.924110	0.872615
836.240366	0.889143
836.556578	0.901819
836.872746	0.909204
837.188871	0.915290
837.504952	0.920473
837.820990	0.923682
838.136984	0.928369
838.452935	0.931828
838.768842	0.931607
839.084706	0.926371
839.400526	0.900038
839.716303	0.860252
840.032037	0.839097
840.347727	0.842557
840.663373	0.860747
840.978977	0.881291
841.294537	0.903562
841.610054	0.920075
841.925527	0.926653
842.240957	0.933596
842.556344	0.941352
842.871687	0.946807
843.186987	0.950269
843.502244	0.950944
843.817458	0.952849
844.132629	0.955587
844.447756	0.960181
844.762840	0.960876
845.077881	0.960051
845.392879	0.960153
845.707833	0.963489
846.022745	0.965653
846.337613	0.964540
846.652438	0.966447
846.967221	0.964770
847.281960	0.965381
847.596656	0.967790
847.911309	0.966041
848.225919	0.968249
848.540485	0.968692
848.855009	0.969022
849.169490	0.967715
849.483928	0.970146
849.798323	0.969651
850.112675	0.969999
850.426984	0.969186
850.741251	0.970725
851.055474	0.971332
851.369654	0.968713
851.683792	0.970287
851.997887	0.970358
852.311938	0.971761
852.625947	0.969831
852.939914	0.968247
853.253837	0.969660
853.567718	0.970766
853.881555	0.971437
854.195350	0.968134
854.509103	0.969846
854.822812	0.969364
855.136479	0.971067
855.450103	0.969702
855.763685	0.969225
856.077224	0.968701
856.390720	0.970750
856.704173	0.970881
857.017584	0.969845
857.330953	0.966014
857.644278	0.968569
857.957561	0.969093
858.270802	0.969171
858.584000	0.967894
858.897155	0.968086
859.210268	0.968526
859.523339	0.968511
859.836367	0.970295
860.149352	0.970629
860.462295	0.968943
860.775195	0.970731
861.088054	0.968898
861.400869	0.969761
861.713642	0.970909
862.026373	0.969526
862.339062	0.971286
862.651708	0.968416
862.964312	0.968750
863.276873	0.970389
863.589392	0.969661
863.901869	0.966471
864.214303	0.966144
864.526696	0.964718
864.839045	0.963370
865.151353	0.963083
865.463619	0.962040
865.775842	0.962789
866.088023	0.963266
866.400162	0.962825
866.712258	0.962378
867.024313	0.962821
867.336325	0.963018
867.648296	0.964535
867.960224	0.962686
868.272110	0.963051
868.583954	0.964454
868.895755	0.965033
869.207515	0.961618
869.519233	0.959898
869.830909	0.962673
870.142542	0.963495
870.454134	0.962414
870.765684	0.961537
871.077191	0.958264
871.388657	0.959666
871.700081	0.958258
872.011463	0.958946
872.322803	0.958799
872.634101	0.957556
872.945357	0.954213
873.256571	0.954559
873.567744	0.953159
873.878874	0.953902
874.189963	0.954333
874.501010	0.952090
874.812015	0.949810
875.122979	0.952479
875.433900	0.952689
875.744780	0.954524
876.055618	0.952256
876.366415	0.951480
876.677169	0.950935
876.987882	0.952674
877.298554	0.952557
877.609183	0.948798
877.919771	0.946988
878.230317	0.943939
878.540822	0.942095
878.851285	0.936055
879.161707	0.928359
879.472087	0.916808
879.782425	0.901138
880.092722	0.867788
880.402977	0.816483
880.713191	0.756967
881.023363	0.699647
881.333494	0.667337
881.643583	0.638800
881.953631	0.638244
882.263637	0.666987
882.573602	0.706250
882.883526	0.730678
883.193408	0.754032
883.503248	0.775040
883.813048	0.801892
884.122806	0.832139
884.432522	0.854222
884.742197	0.873629
885.051831	0.884039
885.361424	0.894036
885.670975	0.905305
885.980485	0.915501
886.289954	0.921643
886.599382	0.926317
886.908768	0.929961
887.218113	0.935843
887.527417	0.940476
887.836680	0.942767
888.145901	0.945281
888.455082	0.947187
888.764221	0.951259
889.073319	0.953137
889.382376	0.953414
889.691392	0.954127
890.000366	0.953324
890.309300	0.955191
890.618193	0.953276
890.927044	0.953568
891.235855	0.952833
891.544625	0.952814
891.853353	0.953206
892.162041	0.950505
892.470687	0.944980
892.779293	0.939655
893.087858	0.936221
893.396381	0.928657
893.704864	0.914848
894.013306	0.891654
894.321707	0.865368
894.630068	0.852280
894.938387	0.848194
895.246665	0.848283
895.554903	0.860844
895.863100	0.873272
896.171256	0.890628
896.479371	0.909015
896.787446	0.921886
897.095480	0.927911
897.403473	0.930197
897.711425	0.933529
898.019336	0.940962
898.327207	0.944553
898.635038	0.946005
898.942827	0.946561
899.250576	0.951085
899.558284	0.953276
899.865952	0.955963
900.173579	0.956070
900.481165	0.956167
900.788711	0.960713
901.096216	0.962232
901.403681	0.962685
901.711105	0.963080
902.018489	0.963932
902.325832	0.963431
902.633135	0.962773
902.940397	0.956680
903.247619	0.947052
903.554800	0.919664
903.861941	0.880999
904.169041	0.848006
904.476101	0.831021
904.783121	0.831748
905.090100	0.847446
905.397039	0.866882
905.703938	0.889988
906.010796	0.908091
906.317614	0.925593
906.624391	0.936703
906.931129	0.946126
907.237826	0.953765
907.544483	0.960309
907.851099	0.962964
908.157675	0.969061
908.464211	0.970110
908.770707	0.973244
909.077163	0.975919
909.383578	0.974688
909.689954	0.975407
909.996289	0.975830
910.302584	0.979485
910.608839	0.979409
910.915054	0.978797
911.221229	0.978469
911.527363	0.978410
911.833458	0.979069
912.139513	0.977381
912.445527	0.975744
912.751502	0.975165
913.057436	0.973363
913.363331	0.970703
913.669186	0.967968
913.975000	0.962233
914.280775	0.956678
914.586510	0.950390
914.892205	0.938064
915.197859	0.917337
915.503475	0.889883
915.809050	0.871530
916.114585	0.865205
916.420081	0.864476
916.725536	0.861173
917.030952	0.868458
917.336328	0.879418
917.641665	0.895201
917.946961	0.911003
918.252218	0.922993
918.557435	0.930077
918.862612	0.938201
919.167750	0.944130
919.472848	0.949206
919.777906	0.954001
920.082925	0.958445
920.387904	0.963343
920.692843	0.963299
920.997743	0.965332
921.302603	0.968061
921.607423	0.969807
921.912204	0.972985
922.216946	0.973722
922.521647	0.973917
922.826310	0.976556
923.130932	0.978294
923.435516	0.978819
923.740059	0.980084
924.044564	0.979324
924.349028	0.980771
924.653454	0.983540
924.957840	0.985076
925.262186	0.985870
925.566493	0.984704
925.870761	0.984829
926.174989	0.986913
926.479178	0.988374
926.783328	0.988431
927.087438	0.989133
927.391509	0.987171
927.695541	0.991359
927.999533	0.988986
928.303486	0.991185
928.607400	0.990288
928.911275	0.989677
929.215110	0.990568
929.518906	0.991133
929.822663	0.989624
930.126381	0.991064
930.430060	0.989439
930.733699	0.990164
931.037299	0.990113
931.340861	0.990976
931.644383	0.990296
931.947866	0.989244
932.251309	0.991443
932.554714	0.990105
932.858080	0.989523
933.161407	0.989063
933.464694	0.991330
933.767943	0.989750
934.071153	0.991424
934.374323	0.992346
934.677455	0.990600
934.980548	0.993054
935.283602	0.991263
935.586617	0.990886
935.889593	0.990631
936.192530	0.990076
936.495428	0.991082
936.798287	0.991512
937.101108	0.990102
937.403890	0.988985
937.706632	0.989234
938.009336	0.986093
938.312002	0.986322
938.614628	0.984854
938.917216	0.984266
939.219765	0.982354
939.522275	0.983143
939.824747	0.983736
940.127179	0.983512
940.429573	0.984747
940.731929	0.984723
941.034246	0.984895
941.336524	0.985042
941.638763	0.987380
941.940964	0.986665
942.243126	0.987231
942.545250	0.987775
942.847335	0.989030
943.149381	0.989131
943.451389	0.988219
943.753359	0.988293
944.055290	0.990536
944.357182	0.989171
944.659036	0.990594
944.960851	0.989875
945.262628	0.990152
945.564367	0.990355
945.866067	0.990326
946.167729	0.991255
946.469352	0.990979
946.770937	0.988457
947.072484	0.991077
947.373992	0.990008
947.675462	0.990553
947.976893	0.990554
948.278286	0.991195
948.579641	0.991523
948.880958	0.991436
949.182236	0.990620
949.483476	0.991153
949.784678	0.990329
950.085841	0.991933
950.386967	0.991127
950.688054	0.991376
950.989103	0.991008
951.290114	0.989585
951.591087	0.990816
951.892021	0.989793
952.192917	0.989031
952.493776	0.988242
952.794596	0.988426
953.095378	0.988684
953.396122	0.988721
953.696828	0.988373
953.997496	0.990052
954.298126	0.990340
954.598718	0.991599
954.899272	0.991901
955.199788	0.991118
955.500266	0.992018
955.800706	0.992999
956.101108	0.993158
956.401472	0.993846
956.701798	0.993690
957.002087	0.993035
957.302337	0.992804
957.602550	0.994798
957.902724	0.995346
958.202861	0.994522
958.502960	0.994858
958.803022	0.994465
959.103045	0.996418
959.403031	0.995546
959.702979	0.996259
960.002889	0.995650
960.302762	0.994811
960.602596	0.995164
960.902393	0.994795
961.202153	0.996547
961.501875	0.996624
961.801559	0.995383
962.101205	0.995888
962.400814	0.995948
962.700385	0.996770
962.999918	0.996901
963.299414	0.995998
963.598873	0.996515
963.898293	0.995449
964.197677	0.996974
964.497022	0.996120
964.796331	0.997807
965.095601	0.995645
965.394835	0.996111
965.694030	0.994942
965.993189	0.997616
966.292309	0.997078
966.591393	0.997674
966.890439	0.996561
967.189447	0.996377
967.488419	0.998279
967.787353	0.996291
968.086249	0.997116
968.385108	0.996534
968.683930	0.997217
968.982714	0.997512
969.281462	0.997282
969.580172	0.995190
969.878844	0.997174
970.177480	0.997078
970.476078	0.997166
970.774639	0.997072
971.073162	0.996950
971.371649	0.996423
971.670098	0.997541
971.968510	0.997579
972.266885	0.996012
972.565223	0.995433
972.863524	0.995730
973.161788	0.995370
973.460014	0.997893
973.758204	0.996054
974.056356	0.995277
974.354471	0.995435
974.652550	0.995877
974.950591	0.996038
975.248595	0.996038
975.546563	0.996650
975.844493	0.997241
976.142386	0.996298
976.440243	0.996700
976.738062	0.997069
977.035845	0.997686
977.333590	0.997963
977.631299	0.998302
977.928971	0.995188
978.226606	0.996744
978.524204	0.995768
978.821765	0.997993
979.119290	0.995765
979.416777	0.996584
979.714228	0.995756
980.011642	0.996667
980.309020	0.996893
980.606360	0.995854
980.903664	0.997872
981.200931	0.996467
981.498162	0.995966
981.795356	0.994740
982.092513	0.992988
982.389633	0.995026
982.686717	0.991393
982.983764	0.992359
983.280775	0.991513
983.577749	0.990312
983.874686	0.992042
984.171587	0.991845
984.468451	0.994519
984.765279	0.994752
985.062070	0.994278
985.358824	0.995262
985.655543	0.995024
985.952224	0.995988
986.248869	0.997237
986.545478	0.996697
986.842050	0.998578
987.138586	0.995695
987.435086	0.997524
987.731549	0.999728
988.027975	0.998098
988.324366	0.997452
988.620719	0.996959
988.917037	0.995948
989.213318	0.998327
989.509563	0.998661
989.805772	0.997534
990.101944	0.998332
990.398080	0.997229
990.694180	0.998556
990.990244	0.996720
991.286271	0.997469
991.582262	0.998340
991.878217	0.996664
992.174136	0.999123
992.470019	0.997261
992.765865	0.997501
993.061676	0.999096
993.357450	0.997821
993.653188	0.995891
993.948890	0.996838
994.244556	0.997517
994.540186	0.995827
994.835780	0.996838
995.131337	0.998146
995.426859	0.995632
995.722345	0.997207
996.017795	0.996077
996.313208	0.996046
996.608586	0.995883
996.903928	0.996463
997.199234	0.995987
997.494504	0.997112
997.789738	0.996685
998.084936	0.996391
998.380099	0.998058
998.675225	0.996853
998.970316	0.997993
999.265371	0.997802
999.560390	0.997953
999.855373	0.999259
1000.150320	0.998453
1000.445232	0.998602
1000.740108	0.997384
1001.034948	0.998691
1001.329752	0.999374
1001.624521	0.998604
1001.919254	0.997827
1002.213951	0.998192
1002.508613	0.998128
1002.803239	0.997589
1003.097829	0.998968
1003.392384	0.998589
1003.686903	0.997238
1003.981386	0.998363
1004.275834	0.998235
1004.570246	0.998519
1004.864623	0.997588
1005.158964	0.999732
1005.453270	0.998233
1005.747540	0.997937
1006.041775	0.998274
1006.335974	0.999838
1006.630138	0.998006
1006.924266	1.000457
1007.218359	0.999224
1007.512416	0.999909
1007.806438	0.998879
1008.100425	1.000335
1008.394376	0.998070
1008.688292	0.999077
1008.982172	1.000300
1009.276017	0.999403
1009.569827	0.997975
1009.863602	0.999181
1010.157341	0.999127
1010.451045	0.999522
1010.744714	0.998167
1011.038347	0.998837
1011.331945	0.999041
1011.625508	0.997053
1011.919036	0.997259
1012.212528	0.998322
1012.505986	0.997680
1012.799408	0.998578
1013.092795	0.997887
1013.386147	0.998720
1013.679464	0.997735
1013.972745	0.997411
1014.265992	0.995982
1014.559204	0.998056
1014.852380	0.999552
1015.145521	0.997717
1015.438628	0.999631
1015.731699	0.999020
1016.024736	0.999603
1016.317737	0.997791
1016.610703	0.998398
1016.903635	0.998127
1017.196531	0.998847
1017.489393	0.999840
1017.782219	0.997483
1018.075011	0.998843
1018.367768	0.998264
1018.660490	0.999036
1018.953177	0.999036
1019.245829	0.999036
