Dividing Wavelength (nm)	Counts (n)	Blue Motor Position (mm): 0.000000	Red Motor Position (mm): 2.500000	
326.493990	1.000915
326.888308	1.000915
327.282561	1.000915
327.676750	1.000195
328.070874	1.000330
328.464933	1.001582
328.858929	0.999504
329.252859	0.999959
329.646726	1.000237
330.040528	1.000405
330.434265	0.998698
330.827938	1.001525
331.221547	0.999578
331.615091	0.999434
332.008571	0.998955
332.401986	0.999901
332.795338	1.000935
333.188625	0.999331
333.581847	1.000665
333.975006	0.999612
334.368100	0.999484
334.761129	1.000585
335.154095	1.002088
335.546996	0.997853
335.939833	0.993459
336.332606	0.993731
336.725315	0.993741
337.117960	0.993806
337.510540	0.994703
337.903056	0.994059
338.295508	0.993146
338.687896	0.992927
339.080220	0.995017
339.472480	0.994047
339.864676	0.994494
340.256807	0.993879
340.648875	0.995245
341.040879	0.993676
341.432818	0.993881
341.824694	0.994132
342.216506	0.994951
342.608253	0.993561
342.999937	0.993554
343.391557	0.992743
343.783113	0.992945
344.174605	0.993588
344.566033	0.994736
344.957397	0.994290
345.348697	0.993479
345.739934	0.994892
346.131106	0.993639
346.522215	0.993617
346.913260	0.994247
347.304241	0.993481
347.695159	0.993258
348.086012	0.993061
348.476802	0.993889
348.867528	0.994034
349.258191	0.992459
349.648789	0.993309
350.039324	0.993808
350.429796	0.993814
350.820203	0.993941
351.210548	0.994216
351.600828	0.992642
351.991045	0.993134
352.381198	0.992971
352.771288	0.993661
353.161314	0.993596
353.551276	0.994013
353.941175	0.992162
354.331010	0.992934
354.720782	0.993191
355.110490	0.992960
355.500135	0.993205
355.889717	0.992793
356.279235	0.993103
356.668689	0.992843
357.058080	0.991946
357.447408	0.993548
357.836672	0.992198
358.225873	0.993701
358.615010	0.993859
359.004084	0.994293
359.393095	0.992752
359.782043	0.992476
360.170927	0.992360
360.559748	0.993584
360.948505	0.991732
361.337199	0.992676
361.725830	0.992276
362.114398	0.992218
362.502903	0.993266
362.891344	0.993221
363.279722	0.992124
363.668037	0.991383
364.056289	0.991444
364.444478	0.993531
364.832603	0.992759
365.220665	0.991346
365.608665	0.991276
365.996601	0.991277
366.384474	0.990735
366.772284	0.990281
367.160031	0.988588
367.547715	0.988063
367.935336	0.989100
368.322893	0.987280
368.710388	0.986205
369.097820	0.984531
369.485189	0.982414
369.872495	0.980983
370.259738	0.976780
370.646918	0.975650
371.034035	0.972838
371.421090	0.969324
371.808081	0.964831
372.195010	0.962588
372.581875	0.957321
372.968678	0.953055
373.355418	0.948868
373.742096	0.942962
374.128710	0.937587
374.515262	0.932553
374.901751	0.927031
375.288177	0.923509
375.674540	0.914989
376.060841	0.909101
376.447079	0.903223
376.833254	0.895866
377.219367	0.891026
377.605417	0.881120
377.991404	0.876861
378.377329	0.869840
378.763191	0.865423
379.148991	0.855711
379.534727	0.847286
379.920402	0.840644
380.306013	0.836661
380.691563	0.824419
381.077049	0.816557
381.462474	0.812715
381.847835	0.802984
382.233134	0.797066
382.618371	0.796734
383.003545	0.780095
383.388657	0.778381
383.773706	0.771671
384.158693	0.766440
384.543618	0.761787
384.928480	0.753576
385.313280	0.742274
385.698017	0.743986
386.082692	0.731750
386.467305	0.731002
386.851856	0.723550
387.236344	0.719410
387.620770	0.712271
388.005133	0.707208
388.389435	0.703443
388.773674	0.699954
389.157851	0.692261
389.541965	0.689404
389.926018	0.695682
390.310008	0.683182
390.693936	0.678404
391.077802	0.671551
391.461606	0.674197
391.845348	0.662440
392.229027	0.663418
392.612645	0.660704
392.996200	0.648052
393.379694	0.640180
393.763125	0.631163
394.146494	0.635903
394.529801	0.625571
394.913047	0.619447
395.296230	0.623409
395.679351	0.615764
396.062410	0.611981
396.445408	0.614419
396.828343	0.609435
397.211217	0.605241
397.594028	0.618127
397.976778	0.607778
398.359466	0.604320
398.742092	0.599567
399.124656	0.611485
399.507158	0.599883
399.889598	0.596734
400.271977	0.588006
400.654294	0.592792
401.036549	0.590989
401.418742	0.596142
401.800874	0.580395
402.182944	0.579217
402.564952	0.569787
402.946898	0.572131
403.328783	0.572616
403.710606	0.583886
404.092367	0.558515
404.474067	0.563713
404.855705	0.562245
405.237282	0.571770
405.618797	0.557790
406.000250	0.553161
406.381642	0.544217
406.762972	0.548959
407.144240	0.547523
407.525447	0.548220
407.906593	0.540496
408.287677	0.535837
408.668700	0.543370
409.049661	0.537584
409.430560	0.533283
409.811399	0.541660
410.192176	0.522977
410.572891	0.529904
410.953545	0.518938
411.334138	0.531989
411.714669	0.524831
412.095139	0.536101
412.475547	0.521078
412.855894	0.522948
413.236180	0.522339
413.616405	0.527037
413.996568	0.518157
414.376670	0.523787
414.756711	0.529103
415.136691	0.525540
415.516609	0.516810
415.896466	0.513763
416.276262	0.509087
416.655997	0.511253
417.035670	0.492563
417.415283	0.484917
417.794834	0.488843
418.174324	0.494325
418.553753	0.504195
418.933121	0.486082
419.312428	0.479569
419.691674	0.485303
420.070859	0.474206
420.449983	0.481993
420.829045	0.471001
421.208047	0.480323
421.586988	0.474039
421.965867	0.472574
422.344686	0.461174
422.723444	0.474158
423.102141	0.490080
423.480777	0.464043
423.859352	0.483838
424.237866	0.461075
424.616319	0.461707
424.994712	0.453161
425.373044	0.463101
425.751314	0.451479
426.129524	0.467241
426.507673	0.451588
426.885762	0.445209
427.263789	0.450816
427.641756	0.460334
428.019662	0.450592
428.397508	0.449469
428.775292	0.454044
429.153016	0.445573
429.530679	0.452012
429.908282	0.445056
430.285824	0.455584
430.663305	0.433435
431.040726	0.455096
431.418086	0.455302
431.795385	0.446653
432.172624	0.444960
432.549802	0.446317
432.926920	0.445056
433.303977	0.444231
433.680974	0.441328
434.057910	0.440041
434.434786	0.439735
434.811601	0.441753
435.188355	0.424050
435.565050	0.433591
435.941683	0.434816
436.318257	0.419842
436.694770	0.420214
437.071222	0.418353
437.447614	0.422592
437.823946	0.429071
438.200218	0.418594
438.576429	0.428291
438.952580	0.421406
439.328670	0.417780
439.704700	0.424436
440.080670	0.425932
440.456580	0.406802
440.832429	0.414824
441.208218	0.425927
441.583947	0.414878
441.959616	0.414675
442.335224	0.419745
442.710773	0.410668
443.086261	0.408686
443.461689	0.422846
443.837057	0.412463
444.212365	0.402033
444.587612	0.408846
444.962800	0.398967
445.337927	0.400509
445.712995	0.427008
446.088002	0.389219
446.462949	0.399778
446.837837	0.403746
447.212664	0.393044
447.587431	0.384170
447.962139	0.355330
448.336786	0.314305
448.711374	0.324841
449.085901	0.368128
449.460369	0.373251
449.834776	0.376603
450.209124	0.356012
450.583412	0.348735
450.957640	0.341607
451.331808	0.352809
451.705917	0.376289
452.079965	0.380243
452.453954	0.368887
452.827883	0.376129
453.201752	0.370393
453.575562	0.382278
453.949311	0.370644
454.323001	0.376713
454.696632	0.372669
455.070202	0.365147
455.443713	0.357066
455.817164	0.351611
456.190556	0.347396
456.563888	0.344345
456.937160	0.342083
457.310373	0.359310
457.683526	0.357694
458.056619	0.363769
458.429653	0.364407
458.802628	0.367799
459.175542	0.361953
459.548398	0.344686
459.921194	0.336991
460.293930	0.337254
460.666607	0.314722
461.039224	0.302948
461.411782	0.298523
461.784280	0.297846
462.156719	0.302076
462.529099	0.306662
462.901419	0.322600
463.273680	0.326835
463.645882	0.326671
464.018024	0.332258
464.390106	0.325250
464.762130	0.309782
465.134094	0.292472
465.505999	0.262130
465.877845	0.232382
466.249631	0.219724
466.621358	0.226986
466.993026	0.240814
467.364634	0.246916
467.736184	0.255883
468.107674	0.264114
468.479105	0.263508
468.850477	0.270091
469.221790	0.276986
469.593043	0.287433
469.964238	0.292550
470.335373	0.291536
470.706449	0.289827
471.077467	0.290200
471.448425	0.252401
471.819324	0.227793
472.190164	0.227331
472.560945	0.256042
472.931667	0.278465
473.302330	0.282586
473.672934	0.294605
474.043479	0.282377
474.413965	0.284291
474.784393	0.287659
475.154761	0.283022
475.525070	0.279837
475.895321	0.285934
476.265513	0.279767
476.635645	0.275287
477.005719	0.275353
477.375734	0.271796
477.745691	0.265551
478.115588	0.261569
478.485427	0.254990
478.855207	0.242142
479.224928	0.224498
479.594591	0.212838
479.964194	0.215864
480.333739	0.217251
480.703226	0.218910
481.072653	0.216952
481.442022	0.213049
481.811333	0.209460
482.180584	0.212871
482.549777	0.218267
482.918912	0.221537
483.287988	0.221273
483.657005	0.221139
484.025964	0.227569
484.394864	0.224983
484.763706	0.225363
485.132489	0.230454
485.501213	0.231068
485.869879	0.229245
486.238487	0.232981
486.607036	0.230685
486.975527	0.235104
487.343959	0.231008
487.712333	0.229790
488.080648	0.231609
488.448905	0.230788
488.817104	0.231920
489.185244	0.226405
489.553326	0.223350
489.921350	0.213079
490.289315	0.195819
490.657222	0.190755
491.025070	0.191965
491.392861	0.194104
491.760593	0.199661
492.128267	0.205362
492.495883	0.210739
492.863440	0.216865
493.230939	0.223555
493.598380	0.224761
493.965763	0.227158
494.333088	0.229396
494.700354	0.230656
495.067563	0.229772
495.434713	0.233154
495.801805	0.230632
496.168839	0.232536
496.535815	0.233496
496.902733	0.233946
497.269593	0.235406
497.636395	0.233068
498.003139	0.233356
498.369825	0.236247
498.736453	0.232941
499.103023	0.234273
499.469535	0.233661
499.835989	0.234132
500.202385	0.234983
500.568723	0.238036
500.935003	0.233651
501.301226	0.237592
501.667390	0.232138
502.033497	0.230077
502.399546	0.232967
502.765537	0.235062
503.131470	0.233123
503.497345	0.229495
503.863163	0.238218
504.228923	0.231109
504.594625	0.229970
504.960269	0.235336
505.325856	0.230708
505.691385	0.234894
506.056856	0.231604
506.422270	0.231251
506.787625	0.233603
507.152924	0.231139
507.518164	0.231364
507.883347	0.232997
508.248472	0.234766
508.613540	0.229581
508.978550	0.232627
509.343503	0.232630
509.708398	0.230471
510.073236	0.228109
510.438016	0.228255
510.802738	0.229108
511.167403	0.228132
511.532010	0.229829
511.896561	0.225090
512.261053	0.224095
512.625488	0.226193
512.989866	0.226709
513.354186	0.226803
513.718449	0.228688
514.082655	0.225176
514.446803	0.227118
514.810894	0.224909
515.174927	0.227586
515.538904	0.226911
515.902822	0.223953
516.266684	0.226299
516.630488	0.227876
516.994235	0.226093
517.357925	0.225081
517.721558	0.223313
518.085133	0.222988
518.448651	0.222887
518.812112	0.225215
519.175516	0.224621
519.538863	0.222582
519.902152	0.224086
520.265385	0.220992
520.628560	0.223031
520.991678	0.222780
521.354739	0.221927
521.717743	0.223175
522.080690	0.223670
522.443580	0.221119
522.806413	0.222101
523.169189	0.221196
523.531908	0.220271
523.894569	0.223644
524.257174	0.223620
524.619722	0.221379
524.982213	0.222574
525.344647	0.221730
525.707025	0.222095
526.069345	0.220408
526.431608	0.222036
526.793815	0.219961
527.155964	0.224192
527.518057	0.222966
527.880093	0.224037
528.242072	0.222601
528.603995	0.224743
528.965860	0.226070
529.327669	0.225017
529.689421	0.225814
530.051117	0.226972
530.412755	0.224431
530.774337	0.226791
531.135862	0.227235
531.497331	0.226751
531.858743	0.229543
532.220098	0.226287
532.581396	0.228806
532.942638	0.229230
533.303824	0.230225
533.664953	0.230083
534.026025	0.231725
534.387040	0.229652
534.747999	0.229648
535.108902	0.228387
535.469748	0.233578
535.830537	0.231172
536.191270	0.231675
536.551947	0.230990
536.912567	0.231331
537.273131	0.232868
537.633638	0.232973
537.994089	0.233724
538.354483	0.234486
538.714821	0.231627
539.075103	0.231292
539.435328	0.232054
539.795497	0.235630
540.155609	0.232523
540.515665	0.230533
540.875665	0.236322
541.235609	0.234769
541.595496	0.234504
541.955328	0.231143
542.315102	0.234136
542.674821	0.234778
543.034483	0.235161
543.394090	0.234811
543.753640	0.236641
544.113134	0.231892
544.472571	0.234814
544.831953	0.231912
545.191278	0.235935
545.550548	0.235538
545.909761	0.232196
546.268918	0.232866
546.628019	0.231088
546.987064	0.233773
547.346053	0.235914
547.704986	0.233467
548.063863	0.233902
548.422684	0.234148
548.781449	0.235868
549.140158	0.233685
549.498811	0.236516
549.857408	0.239794
550.215949	0.234401
550.574434	0.237382
550.932864	0.235429
551.291237	0.234142
551.649555	0.235394
552.007817	0.235182
552.366022	0.236142
552.724173	0.236364
553.082267	0.236460
553.440305	0.233335
553.798288	0.238035
554.156215	0.234352
554.514086	0.235077
554.871902	0.238061
555.229661	0.237331
555.587365	0.237878
555.945014	0.240744
556.302606	0.237381
556.660143	0.239831
557.017625	0.236352
557.375050	0.238906
557.732421	0.235652
558.089735	0.237702
558.446994	0.237721
558.804197	0.237099
559.161345	0.236887
559.518437	0.240339
559.875474	0.238038
560.232455	0.237351
560.589381	0.238630
560.946251	0.238955
561.303065	0.236412
561.659825	0.237760
562.016528	0.239227
562.373177	0.242005
562.729770	0.239177
563.086307	0.241543
563.442789	0.239327
563.799216	0.242030
564.155587	0.240925
564.511904	0.241836
564.868164	0.242013
565.224370	0.241983
565.580520	0.243567
565.936615	0.243731
566.292654	0.246606
566.648638	0.243810
567.004567	0.244416
567.360441	0.245255
567.716260	0.247081
568.072023	0.244736
568.427732	0.245514
568.783385	0.248112
569.138982	0.246151
569.494525	0.245878
569.850013	0.248323
570.205445	0.247190
570.560823	0.249449
570.916145	0.251567
571.271412	0.250154
571.626625	0.251510
571.981782	0.251974
572.336884	0.252794
572.691931	0.252363
573.046923	0.253461
573.401860	0.254800
573.756743	0.256401
574.111570	0.255218
574.466342	0.255791
574.821059	0.254984
575.175722	0.258025
575.530330	0.257791
575.884882	0.258008
576.239380	0.259959
576.593823	0.260300
576.948211	0.260063
577.302544	0.263192
577.656823	0.262713
578.011047	0.262984
578.365216	0.263419
578.719330	0.265912
579.073389	0.265303
579.427394	0.266635
579.781344	0.267547
580.135239	0.268465
580.489080	0.268450
580.842866	0.271465
581.196597	0.271499
581.550273	0.269975
581.903895	0.270960
582.257463	0.269369
582.610975	0.272512
582.964434	0.271766
583.317837	0.274283
583.671186	0.274983
584.024481	0.274626
584.377721	0.277684
584.730906	0.278030
585.084037	0.277047
585.437113	0.278827
585.790135	0.278293
586.143103	0.281126
586.496016	0.282792
586.848874	0.280047
587.201679	0.280647
587.554428	0.284043
587.907124	0.282854
588.259765	0.283434
588.612352	0.284061
588.964884	0.287878
589.317362	0.287481
589.669786	0.287429
590.022155	0.285481
590.374470	0.285130
590.726731	0.287156
591.078937	0.291995
591.431090	0.288235
591.783188	0.292646
592.135232	0.293054
592.487222	0.292845
592.839157	0.290968
593.191038	0.293575
593.542866	0.295342
593.894639	0.298691
594.246358	0.296887
594.598022	0.296302
594.949633	0.300093
595.301190	0.300817
595.652692	0.299836
596.004141	0.296247
596.355535	0.303967
596.706876	0.304498
597.058162	0.307168
597.409395	0.304422
597.760573	0.302025
598.111698	0.305156
598.462768	0.305692
598.813785	0.306889
599.164748	0.308241
599.515657	0.308485
599.866511	0.312015
600.217312	0.307414
600.568060	0.312637
600.918753	0.309060
601.269392	0.309797
601.619978	0.313105
601.970510	0.310629
602.320988	0.310911
602.671412	0.308285
603.021783	0.311185
603.372100	0.312593
603.722363	0.311854
604.072572	0.312762
604.422728	0.312832
604.772830	0.314798
605.122878	0.314519
605.472872	0.314803
605.822813	0.313539
606.172701	0.315863
606.522534	0.313678
606.872314	0.313435
607.222041	0.314125
607.571714	0.312324
607.921333	0.313791
608.270899	0.313743
608.620411	0.310404
608.969870	0.314517
609.319276	0.314081
609.668627	0.314066
610.017926	0.312694
610.367171	0.311453
610.716362	0.312161
611.065500	0.312408
611.414585	0.311368
611.763616	0.311661
612.112594	0.312132
612.461518	0.311327
612.810389	0.309193
613.159207	0.311558
613.507971	0.313163
613.856682	0.309171
614.205340	0.310709
614.553945	0.307475
614.902496	0.311321
615.250994	0.309000
615.599439	0.310239
615.947830	0.309515
616.296169	0.310222
616.644454	0.310151
616.992686	0.310300
617.340864	0.307754
617.688990	0.311716
618.037063	0.308001
618.385082	0.309729
618.733048	0.306991
619.080961	0.308927
619.428821	0.308673
619.776628	0.308077
620.124382	0.310039
620.472083	0.310517
620.819731	0.310052
621.167326	0.313440
621.514868	0.313325
621.862357	0.317761
622.209793	0.317300
622.557176	0.319455
622.904506	0.320529
623.251783	0.322889
623.599007	0.325222
623.946179	0.324957
624.293297	0.326674
624.640363	0.330577
624.987376	0.331110
625.334336	0.333207
625.681243	0.335863
626.028097	0.336688
626.374899	0.337565
626.721647	0.337624
627.068343	0.340934
627.414987	0.342271
627.761577	0.344007
628.108115	0.342586
628.454600	0.347820
628.801032	0.344999
629.147412	0.346846
629.493739	0.347557
629.840014	0.350551
630.186236	0.348182
630.532405	0.353486
630.878521	0.350702
631.224585	0.353182
631.570597	0.356573
631.916556	0.355656
632.262462	0.355530
632.608316	0.357363
632.954117	0.358499
633.299866	0.359079
633.645562	0.359577
633.991206	0.364199
634.336797	0.367144
634.682336	0.369195
635.027823	0.370673
635.373257	0.371510
635.718639	0.374706
636.063968	0.373883
636.409245	0.379507
636.754470	0.380563
637.099642	0.382916
637.444762	0.385883
637.789829	0.385356
638.134845	0.388750
638.479808	0.389654
638.824719	0.389794
639.169577	0.393722
639.514383	0.392450
639.859137	0.396882
640.203839	0.396446
640.548489	0.396608
640.893086	0.398760
641.237632	0.400079
641.582125	0.398364
641.926566	0.400160
642.270955	0.400016
642.615292	0.400337
642.959576	0.399889
643.303809	0.400660
643.647990	0.399845
643.992118	0.400342
644.336195	0.403970
644.680219	0.401986
645.024192	0.403359
645.368112	0.396659
645.711981	0.395725
646.055797	0.390488
646.399562	0.393664
646.743274	0.384988
647.086935	0.382697
647.430544	0.382769
647.774101	0.381879
648.117606	0.381269
648.461059	0.381792
648.804460	0.383985
649.147810	0.389864
649.491108	0.391467
649.834354	0.392472
650.177548	0.398431
650.520690	0.403330
650.863781	0.404634
651.206820	0.404256
651.549807	0.409005
651.892742	0.412698
652.235626	0.411964
652.578458	0.412981
652.921238	0.419225
653.263967	0.416909
653.606644	0.421175
653.949269	0.420745
654.291843	0.424890
654.634365	0.421283
654.976836	0.424518
655.319255	0.424792
655.661622	0.426027
656.003938	0.426516
656.346203	0.428823
656.688416	0.427229
657.030577	0.430377
657.372687	0.432405
657.714746	0.433074
658.056753	0.430385
658.398708	0.434160
658.740612	0.435234
659.082465	0.431580
659.424266	0.431826
659.766016	0.431109
660.107715	0.434511
660.449362	0.433062
660.790958	0.433867
661.132503	0.434288
661.473996	0.432088
661.815438	0.432403
662.156829	0.432821
662.498168	0.433561
662.839456	0.435431
663.180693	0.432450
663.521879	0.432571
663.863013	0.433068
664.204097	0.432474
664.545129	0.429451
664.886110	0.429527
665.227040	0.426840
665.567918	0.428816
665.908746	0.427832
666.249522	0.427417
666.590248	0.427500
666.930922	0.426822
667.271545	0.425449
667.612118	0.425039
667.952639	0.426575
668.293109	0.425466
668.633528	0.428228
668.973896	0.428352
669.314213	0.428775
669.654480	0.429903
669.994695	0.430828
670.334859	0.431492
670.674973	0.431478
671.015035	0.431549
671.355047	0.431885
671.695008	0.433201
672.034918	0.435046
672.374777	0.434109
672.714585	0.435343
673.054342	0.435328
673.394049	0.435333
673.733705	0.432550
674.073310	0.434218
674.412864	0.436995
674.752368	0.437688
675.091820	0.437727
675.431223	0.441604
675.770574	0.441984
676.109875	0.444837
676.449125	0.445140
676.788324	0.447548
677.127473	0.452394
677.466571	0.452350
677.805619	0.453713
678.144616	0.455164
678.483562	0.456887
678.822458	0.459604
679.161303	0.460371
679.500098	0.460518
679.838842	0.462818
680.177535	0.462322
680.516179	0.460963
680.854771	0.459699
681.193314	0.453263
681.531805	0.444312
681.870247	0.433232
682.208638	0.425223
682.546978	0.424308
682.885268	0.425879
683.223508	0.432420
683.561697	0.436256
683.899836	0.438739
684.237925	0.441716
684.575963	0.444792
684.913951	0.447943
685.251889	0.443321
685.589776	0.445518
685.927614	0.447678
686.265401	0.442246
686.603137	0.443347
686.940824	0.437538
687.278460	0.435483
687.616046	0.435542
687.953582	0.429816
688.291068	0.431359
688.628504	0.427437
688.965889	0.429466
689.303224	0.433216
689.640510	0.437473
689.977745	0.443390
690.314930	0.450777
690.652065	0.455183
690.989150	0.463096
691.326185	0.469620
691.663170	0.474474
692.000105	0.481973
692.336990	0.487696
692.673825	0.491177
693.010610	0.498020
693.347345	0.503395
693.684030	0.505046
694.020665	0.509595
694.357251	0.518478
694.693786	0.518386
695.030272	0.522716
695.366707	0.525963
695.703093	0.529258
696.039429	0.527020
696.375716	0.528542
696.711952	0.531365
697.048139	0.533428
697.384276	0.535606
697.720363	0.533880
698.056400	0.532796
698.392388	0.538697
698.728326	0.541766
699.064214	0.543672
699.400053	0.544912
699.735842	0.548854
700.071581	0.551813
700.407270	0.554202
700.742910	0.557169
701.078501	0.563734
701.414042	0.563600
701.749533	0.566491
702.084974	0.575089
702.420366	0.567997
702.755709	0.575280
703.091002	0.583206
703.426246	0.576618
703.761440	0.582214
704.096584	0.587529
704.431679	0.584300
704.766725	0.586460
705.101721	0.588137
705.436668	0.583948
705.771565	0.590828
706.106413	0.588130
706.441212	0.583555
706.775961	0.581725
707.110661	0.584769
707.445311	0.580549
707.779913	0.578563
708.114465	0.576893
708.448967	0.574158
708.783421	0.565513
709.117825	0.560596
709.452180	0.560051
709.786485	0.553988
710.120742	0.544045
710.454949	0.545625
710.789107	0.537633
711.123216	0.528442
711.457275	0.530368
711.791286	0.521428
712.125247	0.520960
712.459159	0.530905
712.793023	0.523794
713.126837	0.528099
713.460602	0.528201
713.794318	0.537759
714.127985	0.536748
714.461602	0.546854
714.795171	0.549579
715.128691	0.557243
715.462162	0.565190
715.795584	0.570189
716.128957	0.573638
716.462281	0.579989
716.795556	0.583265
717.128782	0.588814
717.461960	0.598762
717.795088	0.596529
718.128167	0.602328
718.461198	0.611586
718.794180	0.612037
719.127113	0.615672
719.459997	0.618675
719.792833	0.625010
720.125619	0.625999
720.458357	0.632654
720.791046	0.632199
721.123686	0.635078
721.456278	0.641668
721.788821	0.639984
722.121315	0.643663
722.453761	0.647624
722.786158	0.645786
723.118506	0.642803
723.450805	0.649217
723.783056	0.646137
724.115259	0.643008
724.447412	0.642305
724.779518	0.644641
725.111574	0.643087
725.443582	0.638503
725.775542	0.640644
726.107453	0.633418
726.439315	0.632980
726.771129	0.630981
727.102895	0.624362
727.434612	0.617452
727.766281	0.615615
728.097901	0.614206
728.429473	0.614486
728.760996	0.612841
729.092471	0.613240
729.423897	0.616766
729.755276	0.615738
730.086606	0.615325
730.417887	0.610184
730.749120	0.601474
731.080305	0.591715
731.411442	0.587870
731.742530	0.592828
732.073570	0.591637
732.404562	0.584303
732.735506	0.585248
733.066401	0.590655
733.397249	0.599315
733.728048	0.611605
734.058798	0.623584
734.389501	0.634437
734.720156	0.643810
735.050762	0.652145
735.381320	0.653410
735.711831	0.662299
736.042293	0.667104
736.372707	0.662850
736.703073	0.667854
737.033391	0.670998
737.363661	0.666317
737.693883	0.662586
738.024056	0.661312
738.354182	0.661369
738.684260	0.650451
739.014290	0.646730
739.344272	0.646983
739.674207	0.640966
740.004093	0.640523
740.333931	0.640405
740.663722	0.640839
740.993464	0.640988
741.323159	0.644907
741.652806	0.650341
741.982405	0.654774
742.311956	0.659553
742.641460	0.661861
742.970915	0.665254
743.300323	0.672394
743.629683	0.679998
743.958996	0.681054
744.288260	0.685775
744.617477	0.692600
744.946647	0.693452
745.275768	0.698710
745.604842	0.698272
745.933869	0.708604
746.262847	0.709155
746.591778	0.702802
746.920662	0.708902
747.249498	0.715709
747.578286	0.706390
747.907027	0.701958
748.235720	0.702855
748.564365	0.698166
748.892963	0.698145
749.221514	0.701468
749.550017	0.705686
749.878473	0.706033
750.206881	0.711672
750.535242	0.713943
750.863555	0.713472
751.191821	0.714899
751.520039	0.716773
751.848210	0.722418
752.176334	0.715035
752.504411	0.714196
752.832440	0.722020
753.160421	0.726230
753.488356	0.724259
753.816243	0.721793
754.144082	0.730193
754.471875	0.734415
754.799620	0.728536
755.127318	0.730478
755.454969	0.730375
755.782572	0.730311
756.110129	0.734717
756.437638	0.736418
756.765100	0.733106
757.092515	0.732079
757.419882	0.731159
757.747203	0.736121
758.074477	0.734971
758.401703	0.732222
758.728882	0.727781
759.056014	0.726076
759.383099	0.725534
759.710138	0.727266
760.037129	0.723139
760.364073	0.716533
760.690970	0.719587
761.017820	0.725147
761.344623	0.721087
761.671379	0.711168
761.998088	0.699428
762.324751	0.677576
762.651366	0.635423
762.977935	0.567894
763.304456	0.515727
763.630931	0.506486
763.957359	0.544520
764.283740	0.589453
764.610074	0.617664
764.936362	0.648102
765.262602	0.674992
765.588796	0.697177
765.914943	0.714685
766.241044	0.732907
766.567097	0.739090
766.893104	0.749501
767.219064	0.755479
767.544978	0.761733
767.870845	0.775368
768.196665	0.780000
768.522438	0.778179
768.848165	0.779346
769.173846	0.787045
769.499479	0.791752
769.825066	0.795789
770.150607	0.801149
770.476101	0.796708
770.801548	0.798107
771.126949	0.808384
771.452303	0.812047
771.777611	0.811439
772.102872	0.811372
772.428087	0.815491
772.753256	0.820171
773.078378	0.821383
773.403453	0.830989
773.728482	0.835060
774.053465	0.827822
774.378401	0.831944
774.703291	0.840741
775.028135	0.839985
775.352932	0.841073
775.677683	0.844363
776.002388	0.845498
776.327046	0.843311
776.651658	0.848130
776.976224	0.850761
777.300743	0.851623
777.625216	0.853905
777.949643	0.855147
778.274024	0.855615
778.598359	0.857982
778.922647	0.855002
779.246889	0.856589
779.571086	0.859465
779.895236	0.862029
780.219339	0.859646
780.543397	0.857159
780.867409	0.854800
781.191374	0.856678
781.515294	0.859232
781.839167	0.857965
782.162995	0.861415
782.486776	0.858273
782.810511	0.859840
783.134201	0.862506
783.457844	0.860214
783.781441	0.863002
784.104993	0.869090
784.428498	0.869393
784.751958	0.864429
785.075372	0.867270
785.398739	0.871248
785.722061	0.866804
786.045337	0.862329
786.368568	0.868361
786.691752	0.870583
787.014891	0.855410
787.337983	0.847458
787.661030	0.839308
787.984031	0.822229
788.306987	0.808617
788.629897	0.810915
788.952760	0.815033
789.275579	0.819870
789.598351	0.835572
789.921078	0.847840
790.243759	0.849886
790.566395	0.855734
790.888984	0.862456
791.211529	0.867823
791.534027	0.870757
791.856480	0.872654
792.178888	0.877894
792.501249	0.880295
792.823566	0.881120
793.145836	0.882208
793.468062	0.883235
793.790241	0.883243
794.112375	0.881504
794.434464	0.877061
794.756507	0.876557
795.078505	0.876710
795.400457	0.871134
795.722364	0.858626
796.044226	0.851858
796.366042	0.850544
796.687812	0.853440
797.009538	0.850042
797.331218	0.853235
797.652852	0.858389
797.974442	0.862627
798.295986	0.862118
798.617484	0.865288
798.938938	0.869440
799.260346	0.873984
799.581709	0.876205
799.903026	0.879006
800.224299	0.879127
800.545526	0.883342
800.866708	0.887931
801.187845	0.891023
801.508936	0.890317
801.829983	0.888529
802.150984	0.891979
802.471940	0.896098
802.792851	0.896915
803.113717	0.897194
803.434538	0.894376
803.755314	0.897352
804.076045	0.898992
804.396731	0.899128
804.717372	0.898643
805.037967	0.899146
805.358518	0.898016
805.679024	0.895548
805.999485	0.896056
806.319901	0.895856
806.640272	0.896507
806.960598	0.896031
807.280879	0.892158
807.601115	0.891525
807.921306	0.893866
808.241453	0.895163
808.561554	0.893604
808.881611	0.893153
809.201623	0.895260
809.521590	0.895582
809.841513	0.895962
810.161390	0.895047
810.481223	0.896921
810.801011	0.900236
811.120755	0.901983
811.440453	0.900056
811.760107	0.899023
812.079716	0.897727
812.399281	0.902628
812.718801	0.905343
813.038276	0.907367
813.357707	0.905202
813.677093	0.903282
813.996434	0.905594
814.315731	0.907775
814.634983	0.909426
814.954191	0.907643
815.273354	0.903523
815.592473	0.900156
815.911547	0.899971
816.230577	0.897370
816.549562	0.894865
816.868502	0.895095
817.187399	0.891093
817.506250	0.886344
817.825058	0.889112
818.143821	0.884868
818.462539	0.880034
818.781213	0.872025
819.099843	0.860511
819.418429	0.843215
819.736970	0.826951
820.055466	0.807218
820.373919	0.781148
820.692327	0.747894
821.010691	0.712384
821.329011	0.633615
821.647286	0.516613
821.965517	0.401951
822.283704	0.358674
822.601847	0.358986
822.919945	0.395332
823.237999	0.429797
823.556010	0.477548
823.873976	0.533345
824.191897	0.585484
824.509775	0.628407
824.827609	0.674667
825.145398	0.697655
825.463144	0.700556
825.780845	0.682447
826.098502	0.664188
826.416116	0.617679
826.733685	0.572592
827.051210	0.564519
827.368692	0.578090
827.686129	0.616882
828.003522	0.671108
828.320872	0.718684
828.638177	0.763464
828.955439	0.797309
829.272656	0.818297
829.589830	0.835807
829.906960	0.851595
830.224046	0.864812
830.541088	0.875137
830.858086	0.878895
831.175041	0.885828
831.491952	0.884426
831.808819	0.880906
832.125642	0.875300
832.442421	0.859150
832.759157	0.837276
833.075849	0.790066
833.392497	0.726658
833.709101	0.683939
834.025662	0.693807
834.342179	0.726265
834.658653	0.765476
834.975083	0.803099
835.291469	0.828904
835.607811	0.852453
835.924110	0.867790
836.240366	0.885309
836.556578	0.899270
836.872746	0.907674
837.188871	0.912593
837.504952	0.918947
837.820990	0.922474
838.136984	0.926676
838.452935	0.928465
838.768842	0.930741
839.084706	0.923267
839.400526	0.897353
839.716303	0.856029
840.032037	0.832633
840.347727	0.837686
840.663373	0.855775
840.978977	0.877845
841.294537	0.900232
841.610054	0.917401
841.925527	0.924793
842.240957	0.931796
842.556344	0.939015
842.871687	0.946154
843.186987	0.950522
843.502244	0.949572
843.817458	0.951445
844.132629	0.954462
844.447756	0.959433
844.762840	0.959737
845.077881	0.958889
845.392879	0.960460
845.707833	0.962306
846.022745	0.963943
846.337613	0.964633
846.652438	0.965677
846.967221	0.963834
847.281960	0.963935
847.596656	0.966674
847.911309	0.965231
848.225919	0.967742
848.540485	0.967988
848.855009	0.968272
849.169490	0.968062
849.483928	0.968892
849.798323	0.969683
850.112675	0.969318
850.426984	0.968969
850.741251	0.969993
851.055474	0.970042
851.369654	0.966564
851.683792	0.968784
851.997887	0.969972
852.311938	0.969562
852.625947	0.969823
852.939914	0.967144
853.253837	0.969689
853.567718	0.970329
853.881555	0.970051
854.195350	0.967824
854.509103	0.969648
854.822812	0.969730
855.136479	0.969784
855.450103	0.968675
855.763685	0.968791
856.077224	0.967239
856.390720	0.970319
856.704173	0.969512
857.017584	0.968684
857.330953	0.965841
857.644278	0.967744
857.957561	0.967314
858.270802	0.968306
858.584000	0.967777
858.897155	0.966405
859.210268	0.966900
859.523339	0.968159
859.836367	0.969780
860.149352	0.969823
860.462295	0.969212
860.775195	0.968622
861.088054	0.969598
861.400869	0.969784
861.713642	0.970110
862.026373	0.969870
862.339062	0.971030
862.651708	0.967989
862.964312	0.967431
863.276873	0.968229
863.589392	0.967113
863.901869	0.964680
864.214303	0.964577
864.526696	0.963207
864.839045	0.962782
865.151353	0.961026
865.463619	0.961429
865.775842	0.962159
866.088023	0.960794
866.400162	0.961192
866.712258	0.961188
867.024313	0.962310
867.336325	0.962377
867.648296	0.963094
867.960224	0.962101
868.272110	0.961218
868.583954	0.963521
868.895755	0.963224
869.207515	0.961369
869.519233	0.958229
869.830909	0.960889
870.142542	0.961640
870.454134	0.960965
870.765684	0.960355
871.077191	0.956438
871.388657	0.957466
871.700081	0.956328
872.011463	0.957609
872.322803	0.958140
872.634101	0.955935
872.945357	0.953777
873.256571	0.952935
873.567744	0.952704
873.878874	0.952347
874.189963	0.951519
874.501010	0.950089
874.812015	0.949355
875.122979	0.950714
875.433900	0.952328
875.744780	0.952117
876.055618	0.950836
876.366415	0.950360
876.677169	0.948163
876.987882	0.950567
877.298554	0.949728
877.609183	0.947098
877.919771	0.943703
878.230317	0.941230
878.540822	0.938621
878.851285	0.933520
879.161707	0.925568
879.472087	0.913672
879.782425	0.896481
880.092722	0.860384
880.402977	0.807634
880.713191	0.744802
881.023363	0.684200
881.333494	0.649498
881.643583	0.621944
881.953631	0.621713
882.263637	0.650476
882.573602	0.689702
882.883526	0.717039
883.193408	0.740843
883.503248	0.764454
883.813048	0.792494
884.122806	0.822186
884.432522	0.846201
884.742197	0.866811
885.051831	0.877682
885.361424	0.888553
885.670975	0.901028
885.980485	0.911131
886.289954	0.918061
886.599382	0.922540
886.908768	0.927571
887.218113	0.931996
887.527417	0.938263
887.836680	0.940217
888.145901	0.942559
888.455082	0.945235
888.764221	0.949009
889.073319	0.951293
889.382376	0.952376
889.691392	0.951494
890.000366	0.952098
890.309300	0.952517
890.618193	0.952798
890.927044	0.950541
891.235855	0.950120
891.544625	0.950398
891.853353	0.951141
892.162041	0.947580
892.470687	0.941647
892.779293	0.935856
893.087858	0.932001
893.396381	0.923414
893.704864	0.911218
894.013306	0.886621
894.321707	0.859106
894.630068	0.844169
894.938387	0.839163
895.246665	0.840192
895.554903	0.852393
895.863100	0.866644
896.171256	0.884130
896.479371	0.902657
896.787446	0.916830
897.095480	0.922534
897.403473	0.926677
897.711425	0.929864
898.019336	0.938878
898.327207	0.940181
898.635038	0.944186
898.942827	0.943581
899.250576	0.946950
899.558284	0.951067
899.865952	0.952627
900.173579	0.953431
900.481165	0.954373
900.788711	0.958517
901.096216	0.960980
901.403681	0.960040
901.711105	0.962167
902.018489	0.962577
902.325832	0.960497
902.633135	0.960645
902.940397	0.954775
903.247619	0.940924
903.554800	0.916322
903.861941	0.874641
904.169041	0.837151
904.476101	0.819126
904.783121	0.819847
905.090100	0.837695
905.397039	0.860499
905.703938	0.881788
906.010796	0.903683
906.317614	0.919543
906.624391	0.931528
906.931129	0.942603
907.237826	0.949808
907.544483	0.957335
907.851099	0.960912
908.157675	0.966927
908.464211	0.969426
908.770707	0.971922
909.077163	0.973430
909.383578	0.973976
909.689954	0.975160
909.996289	0.974170
910.302584	0.976344
910.608839	0.978181
910.915054	0.977583
911.221229	0.977805
911.527363	0.976316
911.833458	0.977498
912.139513	0.976486
912.445527	0.974835
912.751502	0.972731
913.057436	0.971032
913.363331	0.969612
913.669186	0.965600
913.975000	0.959882
914.280775	0.953789
914.586510	0.945872
914.892205	0.932103
915.197859	0.909922
915.503475	0.882646
915.809050	0.862247
916.114585	0.855509
916.420081	0.853037
916.725536	0.849769
917.030952	0.859467
917.336328	0.872569
917.641665	0.888143
917.946961	0.903137
918.252218	0.915271
918.557435	0.924759
918.862612	0.934064
919.167750	0.939581
919.472848	0.944753
919.777906	0.950983
920.082925	0.956636
920.387904	0.960379
920.692843	0.961984
920.997743	0.962379
921.302603	0.965658
921.607423	0.968148
921.912204	0.970085
922.216946	0.971126
922.521647	0.972705
922.826310	0.974240
923.130932	0.976657
923.435516	0.977994
923.740059	0.978552
924.044564	0.977140
924.349028	0.980004
924.653454	0.981817
924.957840	0.983440
925.262186	0.983538
925.566493	0.983517
925.870761	0.984561
926.174989	0.985388
926.479178	0.987659
926.783328	0.988763
927.087438	0.989382
927.391509	0.986455
927.695541	0.989870
927.999533	0.988568
928.303486	0.990126
928.607400	0.990114
928.911275	0.989236
929.215110	0.991094
929.518906	0.992052
929.822663	0.989993
930.126381	0.990869
930.430060	0.989871
930.733699	0.989617
931.037299	0.990246
931.340861	0.989713
931.644383	0.988915
931.947866	0.988644
932.251309	0.989828
932.554714	0.990969
932.858080	0.989281
933.161407	0.991163
933.464694	0.990296
933.767943	0.988772
934.071153	0.991045
934.374323	0.991722
934.677455	0.990906
934.980548	0.991496
935.283602	0.990962
935.586617	0.991282
935.889593	0.991031
936.192530	0.989355
936.495428	0.990530
936.798287	0.989919
937.101108	0.990796
937.403890	0.989037
937.706632	0.988451
938.009336	0.986256
938.312002	0.984973
938.614628	0.983697
938.917216	0.983304
939.219765	0.980790
939.522275	0.982725
939.824747	0.982031
940.127179	0.981716
940.429573	0.984429
940.731929	0.982721
941.034246	0.984061
941.336524	0.984480
941.638763	0.985649
941.940964	0.986077
942.243126	0.985378
942.545250	0.985979
942.847335	0.987441
943.149381	0.988026
943.451389	0.988412
943.753359	0.988556
944.055290	0.988029
944.357182	0.990250
944.659036	0.987370
944.960851	0.989639
945.262628	0.990090
945.564367	0.990030
945.866067	0.991029
946.167729	0.989298
946.469352	0.990223
946.770937	0.988104
947.072484	0.991240
947.373992	0.988563
947.675462	0.990875
947.976893	0.989913
948.278286	0.990415
948.579641	0.991024
948.880958	0.990114
949.182236	0.989767
949.483476	0.990132
949.784678	0.990155
950.085841	0.990987
950.386967	0.990668
950.688054	0.990545
950.989103	0.989829
951.290114	0.988055
951.591087	0.989038
951.892021	0.989720
952.192917	0.989237
952.493776	0.988464
952.794596	0.988303
953.095378	0.987031
953.396122	0.987237
953.696828	0.987040
953.997496	0.989232
954.298126	0.991000
954.598718	0.990892
954.899272	0.991850
955.199788	0.989862
955.500266	0.991904
955.800706	0.992091
956.101108	0.992276
956.401472	0.993498
956.701798	0.993872
957.002087	0.993860
957.302337	0.992953
957.602550	0.994804
957.902724	0.995898
958.202861	0.994764
958.502960	0.995992
958.803022	0.993936
959.103045	0.995379
959.403031	0.995280
959.702979	0.995989
960.002889	0.996409
960.302762	0.994145
960.602596	0.995833
960.902393	0.995242
961.202153	0.996520
961.501875	0.996628
961.801559	0.996150
962.101205	0.996090
962.400814	0.997209
962.700385	0.997183
962.999918	0.996599
963.299414	0.997577
963.598873	0.996414
963.898293	0.996725
964.197677	0.996412
964.497022	0.996707
964.796331	0.997252
965.095601	0.996873
965.394835	0.996111
965.694030	0.996897
965.993189	0.996866
966.292309	0.997482
966.591393	0.997074
966.890439	0.997662
967.189447	0.997106
967.488419	0.997106
967.787353	0.995592
968.086249	0.997559
968.385108	0.997632
968.683930	0.997365
968.982714	0.997157
969.281462	0.997490
969.580172	0.996441
969.878844	0.998700
970.177480	0.996629
970.476078	0.998371
970.774639	0.996578
971.073162	0.998065
971.371649	0.996102
971.670098	0.997727
971.968510	0.998239
972.266885	0.995563
972.565223	0.996330
972.863524	0.996157
973.161788	0.997119
973.460014	0.998086
973.758204	0.995756
974.056356	0.995987
974.354471	0.993157
974.652550	0.996380
974.950591	0.996969
975.248595	0.995976
975.546563	0.996184
975.844493	0.997992
976.142386	0.997064
976.440243	0.996880
976.738062	0.997792
977.035845	0.998506
977.333590	0.996548
977.631299	0.997962
977.928971	0.996347
978.226606	0.995310
978.524204	0.996517
978.821765	0.998613
979.119290	0.996067
979.416777	0.997804
979.714228	0.997609
980.011642	0.996082
980.309020	0.996893
980.606360	0.997090
980.903664	0.997530
981.200931	0.996666
981.498162	0.994928
981.795356	0.995100
982.092513	0.994111
982.389633	0.994911
982.686717	0.991487
982.983764	0.990458
983.280775	0.990466
983.577749	0.990135
983.874686	0.991595
984.171587	0.992286
984.468451	0.993691
984.765279	0.995054
985.062070	0.993278
985.358824	0.995255
985.655543	0.994530
985.952224	0.995480
986.248869	0.997033
986.545478	0.996623
986.842050	0.998485
987.138586	0.995832
987.435086	0.997201
987.731549	0.998865
988.027975	0.998068
988.324366	0.999008
988.620719	0.997462
988.917037	0.996212
989.213318	0.998925
989.509563	0.999043
989.805772	0.997816
990.101944	0.998980
990.398080	0.998469
990.694180	0.997795
990.990244	0.998392
991.286271	0.998991
991.582262	0.998065
991.878217	0.998945
992.174136	0.998891
992.470019	0.998535
992.765865	0.996600
993.061676	0.998385
993.357450	0.998514
993.653188	0.997073
993.948890	0.997510
994.244556	0.997376
994.540186	0.998002
994.835780	0.996137
995.131337	0.996983
995.426859	0.996846
995.722345	0.997008
996.017795	0.996063
996.313208	0.995589
996.608586	0.995607
996.903928	0.996975
997.199234	0.996011
997.494504	0.996309
997.789738	0.996767
998.084936	0.996617
998.380099	0.998403
998.675225	0.998304
998.970316	0.999485
999.265371	0.998832
999.560390	0.998334
999.855373	0.998232
1000.150320	0.998154
1000.445232	0.998805
1000.740108	0.997811
1001.034948	0.998006
1001.329752	1.000013
1001.624521	0.998445
1001.919254	0.999079
1002.213951	0.998774
1002.508613	0.998915
1002.803239	1.000174
1003.097829	0.999492
1003.392384	0.999204
1003.686903	0.997529
1003.981386	0.999293
1004.275834	0.998447
1004.570246	0.999653
1004.864623	0.998802
1005.158964	1.000142
1005.453270	1.000059
1005.747540	0.997702
1006.041775	0.998897
1006.335974	0.999753
1006.630138	0.999666
1006.924266	0.999820
1007.218359	0.999773
1007.512416	0.998349
1007.806438	0.999544
1008.100425	0.999664
1008.394376	0.999558
1008.688292	0.998734
1008.982172	1.000500
1009.276017	0.999014
1009.569827	0.998925
1009.863602	0.998948
1010.157341	0.998845
1010.451045	1.000474
1010.744714	0.998301
1011.038347	0.999330
1011.331945	0.998309
1011.625508	0.997663
1011.919036	0.998727
1012.212528	0.998269
1012.505986	0.997859
1012.799408	0.998478
1013.092795	0.999184
1013.386147	0.999456
1013.679464	0.999363
1013.972745	0.998417
1014.265992	0.998178
1014.559204	0.999581
1014.852380	0.999572
1015.145521	0.998822
1015.438628	1.000074
1015.731699	0.999099
1016.024736	0.999079
1016.317737	0.998426
1016.610703	1.000142
1016.903635	1.000559
1017.196531	0.998405
1017.489393	0.999680
1017.782219	0.997608
1018.075011	0.999392
1018.367768	0.999215
1018.660490	1.000029
1018.953177	1.000029
1019.245829	1.000029
