Dividing Wavelength (nm)	Counts (n)	Blue Motor Position (mm): 0.000000	Red Motor Position (mm): 10.000000	
326.493990	1.001996
326.888308	1.001996
327.282561	1.001996
327.676750	1.000847
328.070874	0.999302
328.464933	1.001121
328.858929	0.999402
329.252859	0.998940
329.646726	0.999283
330.040528	0.999190
330.434265	0.999832
330.827938	0.999775
331.221547	1.000279
331.615091	1.000478
332.008571	1.000454
332.401986	0.999670
332.795338	1.000435
333.188625	0.998276
333.581847	1.000028
333.975006	0.998907
334.368100	0.999784
334.761129	0.998831
335.154095	1.000698
335.546996	0.997989
335.939833	0.992653
336.332606	0.993086
336.725315	0.995264
337.117960	0.994650
337.510540	0.993580
337.903056	0.993806
338.295508	0.992128
338.687896	0.994237
339.080220	0.993109
339.472480	0.992430
339.864676	0.992584
340.256807	0.994217
340.648875	0.993561
341.040879	0.994736
341.432818	0.993425
341.824694	0.993864
342.216506	0.994772
342.608253	0.993591
342.999937	0.993362
343.391557	0.993960
343.783113	0.992701
344.174605	0.993520
344.566033	0.994833
344.957397	0.993070
345.348697	0.992823
345.739934	0.993418
346.131106	0.991653
346.522215	0.992563
346.913260	0.993233
347.304241	0.994728
347.695159	0.993252
348.086012	0.992819
348.476802	0.993333
348.867528	0.992908
349.258191	0.991798
349.648789	0.995282
350.039324	0.992457
350.429796	0.994221
350.820203	0.992904
351.210548	0.992854
351.600828	0.993453
351.991045	0.993107
352.381198	0.992620
352.771288	0.993472
353.161314	0.992707
353.551276	0.993084
353.941175	0.992870
354.331010	0.993399
354.720782	0.993655
355.110490	0.993318
355.500135	0.993783
355.889717	0.992435
356.279235	0.993135
356.668689	0.993808
357.058080	0.993220
357.447408	0.994674
357.836672	0.994192
358.225873	0.993288
358.615010	0.993503
359.004084	0.993289
359.393095	0.993716
359.782043	0.993829
360.170927	0.994748
360.559748	0.992943
360.948505	0.991991
361.337199	0.992778
361.725830	0.993885
362.114398	0.992336
362.502903	0.993445
362.891344	0.993668
363.279722	0.992477
363.668037	0.993650
364.056289	0.993859
364.444478	0.994003
364.832603	0.992591
365.220665	0.991480
365.608665	0.993220
365.996601	0.993072
366.384474	0.992850
366.772284	0.991334
367.160031	0.991826
367.547715	0.990923
367.935336	0.992365
368.322893	0.991009
368.710388	0.991605
369.097820	0.992318
369.485189	0.991615
369.872495	0.990163
370.259738	0.988708
370.646918	0.992509
371.034035	0.991727
371.421090	0.992123
371.808081	0.991578
372.195010	0.992452
372.581875	0.992067
372.968678	0.992160
373.355418	0.991861
373.742096	0.991309
374.128710	0.992727
374.515262	0.991036
374.901751	0.992701
375.288177	0.992098
375.674540	0.991951
376.060841	0.992232
376.447079	0.992482
376.833254	0.992873
377.219367	0.991002
377.605417	0.991739
377.991404	0.991845
378.377329	0.990348
378.763191	0.991020
379.148991	0.990817
379.534727	0.989314
379.920402	0.987919
380.306013	0.987074
380.691563	0.985588
381.077049	0.982170
381.462474	0.981202
381.847835	0.977954
382.233134	0.974175
382.618371	0.974057
383.003545	0.968719
383.388657	0.964345
383.773706	0.961498
384.158693	0.956912
384.543618	0.950278
384.928480	0.947030
385.313280	0.940481
385.698017	0.935745
386.082692	0.928569
386.467305	0.922954
386.851856	0.914959
387.236344	0.908402
387.620770	0.900017
388.005133	0.892631
388.389435	0.884994
388.773674	0.877516
389.157851	0.867451
389.541965	0.860277
389.926018	0.855938
390.310008	0.843851
390.693936	0.834183
391.077802	0.824009
391.461606	0.817432
391.845348	0.803202
392.229027	0.798227
392.612645	0.788228
392.996200	0.773603
393.379694	0.762559
393.763125	0.749159
394.146494	0.744469
394.529801	0.730981
394.913047	0.718332
395.296230	0.715208
395.679351	0.701477
396.062410	0.692310
396.445408	0.689226
396.828343	0.678770
397.211217	0.668902
397.594028	0.675399
397.976778	0.660793
398.359466	0.653194
398.742092	0.643645
399.124656	0.651902
399.507158	0.637123
399.889598	0.630068
400.271977	0.618681
400.654294	0.620347
401.036549	0.615572
401.418742	0.617361
401.800874	0.600226
402.182944	0.595862
402.564952	0.584648
402.946898	0.586206
403.328783	0.584524
403.710606	0.593422
404.092367	0.568254
404.474067	0.571500
404.855705	0.569673
405.237282	0.577753
405.618797	0.563207
406.000250	0.558209
406.381642	0.548038
406.762972	0.552003
407.144240	0.551845
407.525447	0.551018
407.906593	0.543325
408.287677	0.538123
408.668700	0.546602
409.049661	0.539779
409.430560	0.535442
409.811399	0.543446
410.192176	0.525248
410.572891	0.531027
410.953545	0.520738
411.334138	0.532831
411.714669	0.526366
412.095139	0.537566
412.475547	0.522481
412.855894	0.524258
413.236180	0.523025
413.616405	0.528549
413.996568	0.518607
414.376670	0.524757
414.756711	0.529732
415.136691	0.526919
415.516609	0.517777
415.896466	0.513691
416.276262	0.510370
416.655997	0.511864
417.035670	0.493092
417.415283	0.485336
417.794834	0.489964
418.174324	0.495215
418.553753	0.505085
418.933121	0.486256
419.312428	0.480168
419.691674	0.485983
420.070859	0.475099
420.449983	0.482815
420.829045	0.472301
421.208047	0.481124
421.586988	0.474514
421.965867	0.473462
422.344686	0.462042
422.723444	0.474447
423.102141	0.491497
423.480777	0.464770
423.859352	0.484969
424.237866	0.461707
424.616319	0.462909
424.994712	0.453838
425.373044	0.464018
425.751314	0.452852
426.129524	0.468643
426.507673	0.452612
426.885762	0.445330
427.263789	0.451644
427.641756	0.460909
428.019662	0.451574
428.397508	0.450401
428.775292	0.454830
429.153016	0.446269
429.530679	0.452996
429.908282	0.446449
430.285824	0.456341
430.663305	0.435125
431.040726	0.455558
431.418086	0.456214
431.795385	0.447771
432.172624	0.446193
432.549802	0.446832
432.926920	0.446209
433.303977	0.444848
433.680974	0.442488
434.057910	0.440772
434.434786	0.440563
434.811601	0.443008
435.188355	0.425182
435.565050	0.434609
435.941683	0.436139
436.318257	0.420665
436.694770	0.420617
437.071222	0.418827
437.447614	0.423184
437.823946	0.429822
438.200218	0.419386
438.576429	0.428796
438.952580	0.422096
439.328670	0.419044
439.704700	0.425274
440.080670	0.426738
440.456580	0.407839
440.832429	0.415556
441.208218	0.426619
441.583947	0.415990
441.959616	0.415433
442.335224	0.420356
442.710773	0.410963
443.086261	0.409128
443.461689	0.423133
443.837057	0.412839
444.212365	0.402868
444.587612	0.409885
444.962800	0.399997
445.337927	0.401536
445.712995	0.427547
446.088002	0.389810
446.462949	0.400554
446.837837	0.404636
447.212664	0.393789
447.587431	0.385639
447.962139	0.355837
448.336786	0.315554
448.711374	0.325718
449.085901	0.369620
449.460369	0.373664
449.834776	0.377370
450.209124	0.356687
450.583412	0.349576
450.957640	0.342708
451.331808	0.353830
451.705917	0.376998
452.079965	0.381385
452.453954	0.370249
452.827883	0.376515
453.201752	0.372104
453.575562	0.383081
453.949311	0.371273
454.323001	0.377380
454.696632	0.373334
455.070202	0.365894
455.443713	0.357616
455.817164	0.352547
456.190556	0.348210
456.563888	0.345210
456.937160	0.343000
457.310373	0.359956
457.683526	0.358932
458.056619	0.364660
458.429653	0.365581
458.802628	0.368394
459.175542	0.363148
459.548398	0.345430
459.921194	0.338235
460.293930	0.338363
460.666607	0.315451
461.039224	0.304274
461.411782	0.299994
461.784280	0.299040
462.156719	0.302758
462.529099	0.307389
462.901419	0.323159
463.273680	0.327847
463.645882	0.327053
464.018024	0.333161
464.390106	0.325966
464.762130	0.310804
465.134094	0.294003
465.505999	0.263030
465.877845	0.233829
466.249631	0.220690
466.621358	0.227725
466.993026	0.241879
467.364634	0.247840
467.736184	0.256921
468.107674	0.265462
468.479105	0.264364
468.850477	0.271265
469.221790	0.278128
469.593043	0.288145
469.964238	0.293307
470.335373	0.292609
470.706449	0.290862
471.077467	0.291508
471.448425	0.253423
471.819324	0.229234
472.190164	0.228496
472.560945	0.257257
472.931667	0.279478
473.302330	0.283210
473.672934	0.295497
474.043479	0.283606
474.413965	0.285612
474.784393	0.288696
475.154761	0.283743
475.525070	0.280602
475.895321	0.286891
476.265513	0.280547
476.635645	0.276442
477.005719	0.276360
477.375734	0.272356
477.745691	0.266015
478.115588	0.262308
478.485427	0.255921
478.855207	0.242977
479.224928	0.225654
479.594591	0.213619
479.964194	0.216967
480.333739	0.218150
480.703226	0.219726
481.072653	0.218044
481.442022	0.213828
481.811333	0.210157
482.180584	0.213829
482.549777	0.219056
482.918912	0.222593
483.287988	0.222315
483.657005	0.221719
484.025964	0.228470
484.394864	0.225532
484.763706	0.226214
485.132489	0.231232
485.501213	0.232113
485.869879	0.230284
486.238487	0.233574
486.607036	0.231366
486.975527	0.236074
487.343959	0.232004
487.712333	0.230849
488.080648	0.232240
488.448905	0.231526
488.817104	0.233149
489.185244	0.227263
489.553326	0.224356
489.921350	0.214268
490.289315	0.196656
490.657222	0.191764
491.025070	0.193034
491.392861	0.194802
491.760593	0.200580
492.128267	0.206213
492.495883	0.212015
492.863440	0.217801
493.230939	0.224268
493.598380	0.225718
493.965763	0.227956
494.333088	0.230273
494.700354	0.231675
495.067563	0.230569
495.434713	0.233937
495.801805	0.231916
496.168839	0.233337
496.535815	0.234585
496.902733	0.234621
497.269593	0.236243
497.636395	0.234021
498.003139	0.234290
498.369825	0.237252
498.736453	0.233563
499.103023	0.235166
499.469535	0.234518
499.835989	0.234878
500.202385	0.235838
500.568723	0.238725
500.935003	0.234072
501.301226	0.238478
501.667390	0.232523
502.033497	0.230912
502.399546	0.233820
502.765537	0.235643
503.131470	0.234187
503.497345	0.230504
503.863163	0.239281
504.228923	0.232126
504.594625	0.230767
504.960269	0.236163
505.325856	0.231639
505.691385	0.235738
506.056856	0.232525
506.422270	0.231834
506.787625	0.234460
507.152924	0.232030
507.518164	0.232337
507.883347	0.233884
508.248472	0.235777
508.613540	0.231007
508.978550	0.233255
509.343503	0.233890
509.708398	0.231535
510.073236	0.228894
510.438016	0.228903
510.802738	0.229940
511.167403	0.228919
511.532010	0.230833
511.896561	0.226479
512.261053	0.225212
512.625488	0.227135
512.989866	0.227651
513.354186	0.227604
513.718449	0.229709
514.082655	0.226151
514.446803	0.228173
514.810894	0.226094
515.174927	0.228329
515.538904	0.227962
515.902822	0.225139
516.266684	0.226981
516.630488	0.228469
516.994235	0.227186
517.357925	0.225966
517.721558	0.224287
518.085133	0.223728
518.448651	0.223985
518.812112	0.226112
519.175516	0.225792
519.538863	0.223494
519.902152	0.225119
520.265385	0.221859
520.628560	0.223631
520.991678	0.223933
521.354739	0.222832
521.717743	0.224124
522.080690	0.224561
522.443580	0.221941
522.806413	0.222694
523.169189	0.222112
523.531908	0.221086
523.894569	0.224674
524.257174	0.224636
524.619722	0.222141
524.982213	0.223396
525.344647	0.222280
525.707025	0.223024
526.069345	0.221122
526.431608	0.222807
526.793815	0.220801
527.155964	0.224938
527.518057	0.224031
527.880093	0.225031
528.242072	0.223717
528.603995	0.225420
528.965860	0.227337
529.327669	0.226197
529.689421	0.226894
530.051117	0.227836
530.412755	0.225495
530.774337	0.227892
531.135862	0.228281
531.497331	0.227373
531.858743	0.230291
532.220098	0.227247
532.581396	0.229623
532.942638	0.230252
533.303824	0.230995
533.664953	0.230915
534.026025	0.232633
534.387040	0.230370
534.747999	0.230678
535.108902	0.229179
535.469748	0.234498
535.830537	0.232256
536.191270	0.232519
536.551947	0.231988
536.912567	0.232150
537.273131	0.233819
537.633638	0.234076
537.994089	0.234425
538.354483	0.235404
538.714821	0.232232
539.075103	0.232249
539.435328	0.233173
539.795497	0.236715
540.155609	0.233319
540.515665	0.231562
540.875665	0.236904
541.235609	0.235599
541.595496	0.235602
541.955328	0.232330
542.315102	0.234938
542.674821	0.235856
543.034483	0.235879
543.394090	0.235851
543.753640	0.237501
544.113134	0.232679
544.472571	0.235969
544.831953	0.232853
545.191278	0.236800
545.550548	0.236361
545.909761	0.233267
546.268918	0.233834
546.628019	0.232082
546.987064	0.234971
547.346053	0.236843
547.704986	0.234698
548.063863	0.234797
548.422684	0.234957
548.781449	0.236950
549.140158	0.234591
549.498811	0.237562
549.857408	0.240477
550.215949	0.235373
550.574434	0.238532
550.932864	0.236264
551.291237	0.234869
551.649555	0.236232
552.007817	0.235897
552.366022	0.236818
552.724173	0.237139
553.082267	0.237574
553.440305	0.234218
553.798288	0.238982
554.156215	0.235375
554.514086	0.236104
554.871902	0.239282
555.229661	0.238487
555.587365	0.239018
555.945014	0.241419
556.302606	0.238392
556.660143	0.241091
557.017625	0.237356
557.375050	0.239629
557.732421	0.236593
558.089735	0.238572
558.446994	0.238746
558.804197	0.237831
559.161345	0.238025
559.518437	0.241435
559.875474	0.239164
560.232455	0.238491
560.589381	0.239863
560.946251	0.239943
561.303065	0.237443
561.659825	0.238959
562.016528	0.239827
562.373177	0.242992
562.729770	0.240356
563.086307	0.242585
563.442789	0.240450
563.799216	0.243239
564.155587	0.241858
564.511904	0.242674
564.868164	0.242809
565.224370	0.243150
565.580520	0.244659
565.936615	0.244380
566.292654	0.247634
566.648638	0.244400
567.004567	0.245642
567.360441	0.246160
567.716260	0.248215
568.072023	0.245671
568.427732	0.246346
568.783385	0.248882
569.138982	0.247359
569.494525	0.246695
569.850013	0.249816
570.205445	0.248189
570.560823	0.250564
570.916145	0.252489
571.271412	0.250832
571.626625	0.252333
571.981782	0.252642
572.336884	0.253743
572.691931	0.253079
573.046923	0.254622
573.401860	0.255688
573.756743	0.257414
574.111570	0.256432
574.466342	0.257025
574.821059	0.256055
575.175722	0.258891
575.530330	0.258476
575.884882	0.259049
576.239380	0.260768
576.593823	0.261556
576.948211	0.260853
577.302544	0.264147
577.656823	0.263700
578.011047	0.263657
578.365216	0.264551
578.719330	0.266355
579.073389	0.266381
579.427394	0.267619
579.781344	0.268467
580.135239	0.269809
580.489080	0.269313
580.842866	0.272528
581.196597	0.272341
581.550273	0.270956
581.903895	0.271964
582.257463	0.269918
582.610975	0.273539
582.964434	0.272707
583.317837	0.275381
583.671186	0.275633
584.024481	0.275659
584.377721	0.278244
584.730906	0.278938
585.084037	0.278313
585.437113	0.280095
585.790135	0.279252
586.143103	0.282245
586.496016	0.283643
586.848874	0.280822
587.201679	0.281809
587.554428	0.285190
587.907124	0.283623
588.259765	0.284567
588.612352	0.285251
588.964884	0.288866
589.317362	0.288345
589.669786	0.288480
590.022155	0.286843
590.374470	0.286062
590.726731	0.288357
591.078937	0.292767
591.431090	0.289203
591.783188	0.293444
592.135232	0.293875
592.487222	0.293661
592.839157	0.291861
593.191038	0.294231
593.542866	0.296052
593.894639	0.299630
594.246358	0.297825
594.598022	0.297136
594.949633	0.301058
595.301190	0.301356
595.652692	0.300730
596.004141	0.296943
596.355535	0.304987
596.706876	0.304966
597.058162	0.308275
597.409395	0.305169
597.760573	0.302688
598.111698	0.306064
598.462768	0.306647
598.813785	0.307831
599.164748	0.309138
599.515657	0.309589
599.866511	0.313058
600.217312	0.307976
600.568060	0.313560
600.918753	0.309910
601.269392	0.310922
601.619978	0.314174
601.970510	0.311666
602.320988	0.311922
602.671412	0.309350
603.021783	0.311895
603.372100	0.313189
603.722363	0.312921
604.072572	0.313952
604.422728	0.313563
604.772830	0.315985
605.122878	0.315275
605.472872	0.315631
605.822813	0.314325
606.172701	0.316714
606.522534	0.314420
606.872314	0.314451
607.222041	0.315137
607.571714	0.313414
607.921333	0.314731
608.270899	0.314654
608.620411	0.311553
608.969870	0.315035
609.319276	0.315062
609.668627	0.315227
610.017926	0.313927
610.367171	0.312332
610.716362	0.313319
611.065500	0.313231
611.414585	0.311897
611.763616	0.312515
612.112594	0.312837
612.461518	0.312499
612.810389	0.310131
613.159207	0.312226
613.507971	0.314321
613.856682	0.310027
614.205340	0.311424
614.553945	0.308305
614.902496	0.312255
615.250994	0.310106
615.599439	0.311251
615.947830	0.310232
616.296169	0.311196
616.644454	0.310582
616.992686	0.311109
617.340864	0.308625
617.688990	0.312688
618.037063	0.308785
618.385082	0.310962
618.733048	0.307514
619.080961	0.309790
619.428821	0.309205
619.776628	0.309087
620.124382	0.311324
620.472083	0.311114
620.819731	0.310899
621.167326	0.314725
621.514868	0.314346
621.862357	0.318494
622.209793	0.317993
622.557176	0.320492
622.904506	0.321523
623.251783	0.323511
623.599007	0.325913
623.946179	0.325529
624.293297	0.327271
624.640363	0.331640
624.987376	0.332076
625.334336	0.334547
625.681243	0.336838
626.028097	0.337373
626.374899	0.338248
626.721647	0.338789
627.068343	0.342170
627.414987	0.343050
627.761577	0.345240
628.108115	0.343253
628.454600	0.348899
628.801032	0.345701
629.147412	0.347921
629.493739	0.348293
629.840014	0.351696
630.186236	0.349032
630.532405	0.354633
630.878521	0.351533
631.224585	0.354089
631.570597	0.357989
631.916556	0.356204
632.262462	0.355994
632.608316	0.357985
632.954117	0.359434
633.299866	0.360052
633.645562	0.360581
633.991206	0.364762
634.336797	0.367723
634.682336	0.369713
635.027823	0.371681
635.373257	0.371939
635.718639	0.375577
636.063968	0.375030
636.409245	0.380646
636.754470	0.381129
637.099642	0.383690
637.444762	0.387013
637.789829	0.385809
638.134845	0.389755
638.479808	0.390248
638.824719	0.390354
639.169577	0.394587
639.514383	0.393655
639.859137	0.397665
640.203839	0.397287
640.548489	0.397679
640.893086	0.398949
641.237632	0.400365
641.582125	0.399448
641.926566	0.400425
642.270955	0.401154
642.615292	0.402054
642.959576	0.400360
643.303809	0.400626
643.647990	0.400343
643.992118	0.400446
644.336195	0.404425
644.680219	0.402937
645.024192	0.403518
645.368112	0.396950
645.711981	0.396332
646.055797	0.391607
646.399562	0.394249
646.743274	0.385800
647.086935	0.383484
647.430544	0.383606
647.774101	0.382394
648.117606	0.382353
648.461059	0.382214
648.804460	0.384777
649.147810	0.390341
649.491108	0.392072
649.834354	0.393243
650.177548	0.398978
650.520690	0.404083
650.863781	0.405731
651.206820	0.405113
651.549807	0.409220
651.892742	0.413738
652.235626	0.412811
652.578458	0.413680
652.921238	0.419901
653.263967	0.417443
653.606644	0.421806
653.949269	0.421402
654.291843	0.425430
654.634365	0.422091
654.976836	0.425253
655.319255	0.425536
655.661622	0.427026
656.003938	0.427110
656.346203	0.430299
656.688416	0.428181
657.030577	0.431201
657.372687	0.432761
657.714746	0.433870
658.056753	0.431322
658.398708	0.435010
658.740612	0.436099
659.082465	0.432017
659.424266	0.432998
659.766016	0.432111
660.107715	0.434897
660.449362	0.434065
660.790958	0.433861
661.132503	0.435003
661.473996	0.432968
661.815438	0.433432
662.156829	0.433125
662.498168	0.434007
662.839456	0.435625
663.180693	0.433348
663.521879	0.433495
663.863013	0.434230
664.204097	0.433156
664.545129	0.430082
664.886110	0.429842
665.227040	0.427334
665.567918	0.429786
665.908746	0.427779
666.249522	0.427700
666.590248	0.428786
666.930922	0.426425
667.271545	0.425783
667.612118	0.425641
667.952639	0.427449
668.293109	0.426107
668.633528	0.428864
668.973896	0.428504
669.314213	0.429225
669.654480	0.430740
669.994695	0.431060
670.334859	0.432042
670.674973	0.432487
671.015035	0.432173
671.355047	0.431983
671.695008	0.433566
672.034918	0.435069
672.374777	0.434562
672.714585	0.435451
673.054342	0.435676
673.394049	0.435630
673.733705	0.433705
674.073310	0.434508
674.412864	0.437758
674.752368	0.438052
675.091820	0.438633
675.431223	0.442944
675.770574	0.442958
676.109875	0.445982
676.449125	0.445776
676.788324	0.448182
677.127473	0.453111
677.466571	0.452737
677.805619	0.454924
678.144616	0.455701
678.483562	0.457164
678.822458	0.460348
679.161303	0.460883
679.500098	0.460937
679.838842	0.463002
680.177535	0.462638
680.516179	0.460959
680.854771	0.460730
681.193314	0.453266
681.531805	0.444649
681.870247	0.433248
682.208638	0.425337
682.546978	0.424909
682.885268	0.426416
683.223508	0.432802
683.561697	0.436513
683.899836	0.439262
684.237925	0.442560
684.575963	0.444884
684.913951	0.448604
685.251889	0.443825
685.589776	0.445933
685.927614	0.448180
686.265401	0.442752
686.603137	0.444341
686.940824	0.438293
687.278460	0.436502
687.616046	0.436086
687.953582	0.430765
688.291068	0.431827
688.628504	0.427988
688.965889	0.430006
689.303224	0.434064
689.640510	0.437963
689.977745	0.443595
690.314930	0.452161
690.652065	0.455921
690.989150	0.464196
691.326185	0.470126
691.663170	0.474668
692.000105	0.482110
692.336990	0.489062
692.673825	0.492001
693.010610	0.498673
693.347345	0.503787
693.684030	0.505323
694.020665	0.510195
694.357251	0.519199
694.693786	0.519359
695.030272	0.523222
695.366707	0.526583
695.703093	0.530102
696.039429	0.527578
696.375716	0.529453
696.711952	0.532131
697.048139	0.533728
697.384276	0.535356
697.720363	0.534045
698.056400	0.533624
698.392388	0.539417
698.728326	0.542001
699.064214	0.545019
699.400053	0.545687
699.735842	0.548828
700.071581	0.551846
700.407270	0.554564
700.742910	0.557242
701.078501	0.563712
701.414042	0.564209
701.749533	0.567242
702.084974	0.576292
702.420366	0.568551
702.755709	0.576294
703.091002	0.583840
703.426246	0.576980
703.761440	0.582364
704.096584	0.587843
704.431679	0.584549
704.766725	0.586596
705.101721	0.588613
705.436668	0.585044
705.771565	0.591070
706.106413	0.588425
706.441212	0.583914
706.775961	0.582457
707.110661	0.585601
707.445311	0.581856
707.779913	0.578491
708.114465	0.577638
708.448967	0.574080
708.783421	0.565565
709.117825	0.560562
709.452180	0.560781
709.786485	0.554010
710.120742	0.544119
710.454949	0.546587
710.789107	0.538301
711.123216	0.529625
711.457275	0.531659
711.791286	0.521605
712.125247	0.521157
712.459159	0.530878
712.793023	0.524224
713.126837	0.528244
713.460602	0.529095
713.794318	0.537413
714.127985	0.536845
714.461602	0.547205
714.795171	0.549615
715.128691	0.558266
715.462162	0.565968
715.795584	0.571812
716.128957	0.574088
716.462281	0.580945
716.795556	0.584091
717.128782	0.589773
717.461960	0.598841
717.795088	0.596686
718.128167	0.603044
718.461198	0.612558
718.794180	0.612664
719.127113	0.615853
719.459997	0.618977
719.792833	0.625648
720.125619	0.626914
720.458357	0.632434
720.791046	0.632716
721.123686	0.635504
721.456278	0.642268
721.788821	0.640289
722.121315	0.643822
722.453761	0.648155
722.786158	0.646387
723.118506	0.643271
723.450805	0.650232
723.783056	0.646768
724.115259	0.643708
724.447412	0.643232
724.779518	0.643992
725.111574	0.643727
725.443582	0.639841
725.775542	0.640961
726.107453	0.633500
726.439315	0.633310
726.771129	0.631815
727.102895	0.625568
727.434612	0.617675
727.766281	0.615762
728.097901	0.614538
728.429473	0.614118
728.760996	0.613486
729.092471	0.613542
729.423897	0.617046
729.755276	0.615709
730.086606	0.616139
730.417887	0.610214
730.749120	0.601492
731.080305	0.592301
731.411442	0.588215
731.742530	0.593070
732.073570	0.592372
732.404562	0.584897
732.735506	0.586509
733.066401	0.591345
733.397249	0.599801
733.728048	0.611467
734.058798	0.623816
734.389501	0.634608
734.720156	0.643448
735.050762	0.652954
735.381320	0.653480
735.711831	0.663125
736.042293	0.667933
736.372707	0.663681
736.703073	0.667812
737.033391	0.670158
737.363661	0.666751
737.693883	0.663335
738.024056	0.661266
738.354182	0.661685
738.684260	0.650858
739.014290	0.646934
739.344272	0.648196
739.674207	0.641746
740.004093	0.641017
740.333931	0.641283
740.663722	0.641286
740.993464	0.642308
741.323159	0.645084
741.652806	0.650464
741.982405	0.654499
742.311956	0.659933
742.641460	0.662344
742.970915	0.666107
743.300323	0.673435
743.629683	0.678958
743.958996	0.681704
744.288260	0.685776
744.617477	0.692385
744.946647	0.693115
745.275768	0.698699
745.604842	0.698929
745.933869	0.708021
746.262847	0.709216
746.591778	0.702886
746.920662	0.709788
747.249498	0.715584
747.578286	0.706298
747.907027	0.703103
748.235720	0.702940
748.564365	0.698338
748.892963	0.698680
749.221514	0.701144
749.550017	0.705884
749.878473	0.705734
750.206881	0.712370
750.535242	0.714217
750.863555	0.713447
751.191821	0.714863
751.520039	0.717839
751.848210	0.722470
752.176334	0.715452
752.504411	0.714827
752.832440	0.722478
753.160421	0.726720
753.488356	0.724119
753.816243	0.722518
754.144082	0.730073
754.471875	0.733845
754.799620	0.729713
755.127318	0.730475
755.454969	0.730996
755.782572	0.730594
756.110129	0.734814
756.437638	0.736888
756.765100	0.733408
757.092515	0.732204
757.419882	0.730973
757.747203	0.737181
758.074477	0.735888
758.401703	0.733218
758.728882	0.727734
759.056014	0.726885
759.383099	0.725539
759.710138	0.727111
760.037129	0.724202
760.364073	0.716931
760.690970	0.719639
761.017820	0.725810
761.344623	0.721763
761.671379	0.711652
761.998088	0.700446
762.324751	0.677545
762.651366	0.635412
762.977935	0.568304
763.304456	0.515749
763.630931	0.506094
763.957359	0.546398
764.283740	0.589620
764.610074	0.618162
764.936362	0.649350
765.262602	0.675605
765.588796	0.697016
765.914943	0.714441
766.241044	0.732293
766.567097	0.739963
766.893104	0.749345
767.219064	0.756089
767.544978	0.762183
767.870845	0.775526
768.196665	0.779172
768.522438	0.776950
768.848165	0.779072
769.173846	0.787854
769.499479	0.792750
769.825066	0.795874
770.150607	0.801202
770.476101	0.795939
770.801548	0.797040
771.126949	0.808314
771.452303	0.811681
771.777611	0.811700
772.102872	0.811380
772.428087	0.816795
772.753256	0.819301
773.078378	0.821154
773.403453	0.830222
773.728482	0.835865
774.053465	0.828015
774.378401	0.831903
774.703291	0.839867
775.028135	0.840351
775.352932	0.841946
775.677683	0.844399
776.002388	0.845948
776.327046	0.844421
776.651658	0.847897
776.976224	0.851138
777.300743	0.851125
777.625216	0.853595
777.949643	0.855317
778.274024	0.855610
778.598359	0.857273
778.922647	0.855826
779.246889	0.855765
779.571086	0.861318
779.895236	0.862985
780.219339	0.858941
780.543397	0.856888
780.867409	0.855101
781.191374	0.858025
781.515294	0.858446
781.839167	0.857716
782.162995	0.860944
782.486776	0.858560
782.810511	0.858845
783.134201	0.862571
783.457844	0.860372
783.781441	0.862512
784.104993	0.869157
784.428498	0.868990
784.751958	0.864487
785.075372	0.867288
785.398739	0.870125
785.722061	0.867516
786.045337	0.861862
786.368568	0.867639
786.691752	0.870955
787.014891	0.855453
787.337983	0.846592
787.661030	0.839309
787.984031	0.822600
788.306987	0.808633
788.629897	0.810697
788.952760	0.815512
789.275579	0.820082
789.598351	0.834655
789.921078	0.847793
790.243759	0.849955
790.566395	0.855818
790.888984	0.861849
791.211529	0.866674
791.534027	0.870800
791.856480	0.873312
792.178888	0.877686
792.501249	0.881022
792.823566	0.881999
793.145836	0.881054
793.468062	0.882717
793.790241	0.883478
794.112375	0.881033
794.434464	0.876839
794.756507	0.876178
795.078505	0.876581
795.400457	0.869965
795.722364	0.858573
796.044226	0.851871
796.366042	0.851289
796.687812	0.853978
797.009538	0.850258
797.331218	0.853434
797.652852	0.858203
797.974442	0.862495
798.295986	0.862287
798.617484	0.865872
798.938938	0.869637
799.260346	0.874131
799.581709	0.876154
799.903026	0.878654
800.224299	0.879573
800.545526	0.883628
800.866708	0.886873
801.187845	0.890476
801.508936	0.890575
801.829983	0.888251
802.150984	0.891522
802.471940	0.896520
802.792851	0.895584
803.113717	0.895864
803.434538	0.895688
803.755314	0.897416
804.076045	0.898218
804.396731	0.898173
804.717372	0.898822
805.037967	0.899415
805.358518	0.897741
805.679024	0.895955
805.999485	0.894938
806.319901	0.895335
806.640272	0.896191
806.960598	0.895197
807.280879	0.893001
807.601115	0.890326
807.921306	0.894470
808.241453	0.895884
808.561554	0.891064
808.881611	0.892529
809.201623	0.894407
809.521590	0.894949
809.841513	0.895187
810.161390	0.894577
810.481223	0.895854
810.801011	0.899959
811.120755	0.901605
811.440453	0.900959
811.760107	0.898870
812.079716	0.899788
812.399281	0.902923
812.718801	0.904419
813.038276	0.907056
813.357707	0.904922
813.677093	0.903115
813.996434	0.906223
814.315731	0.908421
814.634983	0.908107
814.954191	0.906929
815.273354	0.904031
815.592473	0.899811
815.911547	0.900228
816.230577	0.897162
816.549562	0.894872
816.868502	0.895524
817.187399	0.891833
817.506250	0.886642
817.825058	0.887779
818.143821	0.885654
818.462539	0.879064
818.781213	0.871818
819.099843	0.860097
819.418429	0.843768
819.736970	0.827406
820.055466	0.806895
820.373919	0.781671
820.692327	0.747943
821.010691	0.712995
821.329011	0.634595
821.647286	0.517865
821.965517	0.403559
822.283704	0.360785
822.601847	0.361307
822.919945	0.397182
823.237999	0.431300
823.556010	0.479016
823.873976	0.534757
824.191897	0.586045
824.509775	0.628908
824.827609	0.674711
825.145398	0.697933
825.463144	0.701203
825.780845	0.684268
826.098502	0.664658
826.416116	0.619034
826.733685	0.573986
827.051210	0.565188
827.368692	0.579434
827.686129	0.618022
828.003522	0.671687
828.320872	0.719388
828.638177	0.763614
828.955439	0.796887
829.272656	0.819734
829.589830	0.836498
829.906960	0.852259
830.224046	0.864559
830.541088	0.874786
830.858086	0.878956
831.175041	0.886184
831.491952	0.885598
831.808819	0.881584
832.125642	0.875818
832.442421	0.859395
832.759157	0.837844
833.075849	0.791481
833.392497	0.726796
833.709101	0.686062
834.025662	0.695178
834.342179	0.726828
834.658653	0.766808
834.975083	0.802709
835.291469	0.829789
835.607811	0.852776
835.924110	0.868168
836.240366	0.885611
836.556578	0.899378
836.872746	0.906863
837.188871	0.913273
837.504952	0.919559
837.820990	0.921843
838.136984	0.924848
838.452935	0.928424
838.768842	0.930354
839.084706	0.923782
839.400526	0.898214
839.716303	0.856978
840.032037	0.833852
840.347727	0.837974
840.663373	0.855610
840.978977	0.877233
841.294537	0.900192
841.610054	0.916151
841.925527	0.924053
842.240957	0.932069
842.556344	0.939561
842.871687	0.944899
843.186987	0.949722
843.502244	0.949672
843.817458	0.951555
844.132629	0.954577
844.447756	0.959468
844.762840	0.959464
845.077881	0.959403
845.392879	0.959330
845.707833	0.961425
846.022745	0.964511
846.337613	0.963953
846.652438	0.965971
846.967221	0.963400
847.281960	0.964564
847.596656	0.968271
847.911309	0.964933
848.225919	0.966886
848.540485	0.967164
848.855009	0.967956
849.169490	0.967998
849.483928	0.968179
849.798323	0.968957
850.112675	0.969367
850.426984	0.969409
850.741251	0.968846
851.055474	0.969265
851.369654	0.966764
851.683792	0.969819
851.997887	0.968835
852.311938	0.969985
852.625947	0.968626
852.939914	0.967408
853.253837	0.969378
853.567718	0.970156
853.881555	0.969681
854.195350	0.968476
854.509103	0.968492
854.822812	0.969668
855.136479	0.969065
855.450103	0.968903
855.763685	0.967465
856.077224	0.967154
856.390720	0.969663
856.704173	0.969547
857.017584	0.968397
857.330953	0.966693
857.644278	0.966407
857.957561	0.968824
858.270802	0.968420
858.584000	0.967244
858.897155	0.966455
859.210268	0.967679
859.523339	0.966998
859.836367	0.969912
860.149352	0.970443
860.462295	0.966930
860.775195	0.970098
861.088054	0.967802
861.400869	0.968715
861.713642	0.969315
862.026373	0.969025
862.339062	0.969779
862.651708	0.968165
862.964312	0.966867
863.276873	0.968742
863.589392	0.967428
863.901869	0.966175
864.214303	0.963584
864.526696	0.962918
864.839045	0.962967
865.151353	0.960891
865.463619	0.962382
865.775842	0.961723
866.088023	0.961638
866.400162	0.962081
866.712258	0.961726
867.024313	0.962836
867.336325	0.962534
867.648296	0.963201
867.960224	0.961852
868.272110	0.960502
868.583954	0.962969
868.895755	0.962677
869.207515	0.960451
869.519233	0.958019
869.830909	0.960236
870.142542	0.961266
870.454134	0.961219
870.765684	0.960324
871.077191	0.957449
871.388657	0.958592
871.700081	0.957419
872.011463	0.956617
872.322803	0.957212
872.634101	0.955205
872.945357	0.953890
873.256571	0.952801
873.567744	0.951920
873.878874	0.952457
874.189963	0.950798
874.501010	0.950908
874.812015	0.948256
875.122979	0.949622
875.433900	0.951928
875.744780	0.954026
876.055618	0.950242
876.366415	0.949494
876.677169	0.949222
876.987882	0.950361
877.298554	0.950943
877.609183	0.945644
877.919771	0.944353
878.230317	0.940608
878.540822	0.939662
878.851285	0.933895
879.161707	0.924999
879.472087	0.913150
879.782425	0.896029
880.092722	0.861599
880.402977	0.808405
880.713191	0.746657
881.023363	0.685703
881.333494	0.651713
881.643583	0.623367
881.953631	0.623756
882.263637	0.651496
882.573602	0.691304
882.883526	0.717487
883.193408	0.742231
883.503248	0.764986
883.813048	0.793781
884.122806	0.823662
884.432522	0.848344
884.742197	0.868049
885.051831	0.877815
885.361424	0.889533
885.670975	0.901717
885.980485	0.911208
886.289954	0.918478
886.599382	0.922800
886.908768	0.927114
887.218113	0.932964
887.527417	0.936965
887.836680	0.940830
888.145901	0.942927
888.455082	0.944758
888.764221	0.948943
889.073319	0.950894
889.382376	0.951195
889.691392	0.951386
890.000366	0.952610
890.309300	0.952335
890.618193	0.951142
890.927044	0.949578
891.235855	0.950428
891.544625	0.950394
891.853353	0.950051
892.162041	0.947016
892.470687	0.940383
892.779293	0.936672
893.087858	0.932465
893.396381	0.924830
893.704864	0.910684
894.013306	0.886764
894.321707	0.860139
894.630068	0.843776
894.938387	0.838243
895.246665	0.840996
895.554903	0.853475
895.863100	0.867381
896.171256	0.884672
896.479371	0.903941
896.787446	0.917005
897.095480	0.923220
897.403473	0.925678
897.711425	0.931413
898.019336	0.938612
898.327207	0.940384
898.635038	0.943869
898.942827	0.944003
899.250576	0.946430
899.558284	0.950641
899.865952	0.952127
900.173579	0.954576
900.481165	0.954863
900.788711	0.958338
901.096216	0.959629
901.403681	0.959226
901.711105	0.962336
902.018489	0.962098
902.325832	0.960908
902.633135	0.960708
902.940397	0.953834
903.247619	0.943155
903.554800	0.915694
903.861941	0.875648
904.169041	0.838882
904.476101	0.821563
904.783121	0.821304
905.090100	0.837321
905.397039	0.860559
905.703938	0.882339
906.010796	0.903212
906.317614	0.921104
906.624391	0.931628
906.931129	0.943018
907.237826	0.950739
907.544483	0.958170
907.851099	0.961012
908.157675	0.966147
908.464211	0.968635
908.770707	0.972443
909.077163	0.973030
909.383578	0.973482
909.689954	0.974736
909.996289	0.974241
910.302584	0.975985
910.608839	0.978355
910.915054	0.976233
911.221229	0.977844
911.527363	0.975799
911.833458	0.976404
912.139513	0.977233
912.445527	0.974353
912.751502	0.971819
913.057436	0.972221
913.363331	0.968638
913.669186	0.965028
913.975000	0.959229
914.280775	0.954535
914.586510	0.947211
914.892205	0.933016
915.197859	0.911069
915.503475	0.882847
915.809050	0.862549
916.114585	0.857032
916.420081	0.853383
916.725536	0.850484
917.030952	0.859455
917.336328	0.872572
917.641665	0.887335
917.946961	0.903276
918.252218	0.915326
918.557435	0.924620
918.862612	0.935132
919.167750	0.940237
919.472848	0.944883
919.777906	0.951408
920.082925	0.956923
920.387904	0.959678
920.692843	0.962944
920.997743	0.962559
921.302603	0.966704
921.607423	0.968991
921.912204	0.970651
922.216946	0.971029
922.521647	0.972113
922.826310	0.975245
923.130932	0.975819
923.435516	0.978046
923.740059	0.979633
924.044564	0.978041
924.349028	0.980040
924.653454	0.982905
924.957840	0.983790
925.262186	0.984549
925.566493	0.984326
925.870761	0.984164
926.174989	0.986154
926.479178	0.987397
926.783328	0.988412
927.087438	0.987274
927.391509	0.987286
927.695541	0.989316
927.999533	0.988700
928.303486	0.988865
928.607400	0.991205
928.911275	0.988796
929.215110	0.990601
929.518906	0.990506
929.822663	0.988640
930.126381	0.989934
930.430060	0.988730
930.733699	0.989111
931.037299	0.988901
931.340861	0.990501
931.644383	0.989139
931.947866	0.988463
932.251309	0.990414
932.554714	0.989994
932.858080	0.989425
933.161407	0.988997
933.464694	0.990703
933.767943	0.989231
934.071153	0.990363
934.374323	0.990579
934.677455	0.990418
934.980548	0.991695
935.283602	0.990054
935.586617	0.990295
935.889593	0.990834
936.192530	0.989952
936.495428	0.989411
936.798287	0.989883
937.101108	0.989571
937.403890	0.988513
937.706632	0.989140
938.009336	0.986166
938.312002	0.985395
938.614628	0.983450
938.917216	0.983379
939.219765	0.982148
939.522275	0.982204
939.824747	0.981380
940.127179	0.981990
940.429573	0.983107
940.731929	0.982762
941.034246	0.983827
941.336524	0.983738
941.638763	0.985219
941.940964	0.985051
942.243126	0.985739
942.545250	0.985788
942.847335	0.987723
943.149381	0.987187
943.451389	0.987393
943.753359	0.987435
944.055290	0.990618
944.357182	0.989251
944.659036	0.986850
944.960851	0.988316
945.262628	0.989342
945.564367	0.989349
945.866067	0.989463
946.167729	0.990055
946.469352	0.988584
946.770937	0.988166
947.072484	0.990160
947.373992	0.989910
947.675462	0.990024
947.976893	0.988966
948.278286	0.989834
948.579641	0.991392
948.880958	0.990047
949.182236	0.991398
949.483476	0.990017
949.784678	0.989942
950.085841	0.989915
950.386967	0.990256
950.688054	0.989753
950.989103	0.990210
951.290114	0.989364
951.591087	0.988003
951.892021	0.988770
952.192917	0.987979
952.493776	0.987642
952.794596	0.988264
953.095378	0.986921
953.396122	0.987363
953.696828	0.987188
953.997496	0.988707
954.298126	0.989916
954.598718	0.990868
954.899272	0.989412
955.199788	0.990014
955.500266	0.991772
955.800706	0.993046
956.101108	0.992633
956.401472	0.992652
956.701798	0.994245
957.002087	0.992525
957.302337	0.992090
957.602550	0.995921
957.902724	0.994384
958.202861	0.994327
958.502960	0.995080
958.803022	0.994555
959.103045	0.995422
959.403031	0.995724
959.702979	0.994822
960.002889	0.996407
960.302762	0.993843
960.602596	0.995949
960.902393	0.995318
961.202153	0.996675
961.501875	0.997345
961.801559	0.995442
962.101205	0.993862
962.400814	0.995590
962.700385	0.996447
962.999918	0.996248
963.299414	0.995836
963.598873	0.996008
963.898293	0.995503
964.197677	0.996699
964.497022	0.997253
964.796331	0.997811
965.095601	0.998191
965.394835	0.995460
965.694030	0.996225
965.993189	0.997174
966.292309	0.995952
966.591393	0.995893
966.890439	0.996912
967.189447	0.996885
967.488419	0.996848
967.787353	0.995694
968.086249	0.995808
968.385108	0.997182
968.683930	0.997622
968.982714	0.997712
969.281462	0.996872
969.580172	0.996346
969.878844	0.997349
970.177480	0.996159
970.476078	0.997015
970.774639	0.997645
971.073162	0.997773
971.371649	0.995812
971.670098	0.996240
971.968510	0.997232
972.266885	0.996206
972.565223	0.996600
972.863524	0.995948
973.161788	0.995250
973.460014	0.996784
973.758204	0.995865
974.056356	0.995166
974.354471	0.993602
974.652550	0.997277
974.950591	0.996497
975.248595	0.996441
975.546563	0.997109
975.844493	0.997478
976.142386	0.996511
976.440243	0.997607
976.738062	0.996305
977.035845	0.998127
977.333590	0.997161
977.631299	0.997184
977.928971	0.995119
978.226606	0.996664
978.524204	0.995317
978.821765	0.997066
979.119290	0.996384
979.416777	0.996353
979.714228	0.996545
980.011642	0.995625
980.309020	0.996718
980.606360	0.996970
980.903664	0.999066
981.200931	0.996848
981.498162	0.995023
981.795356	0.993586
982.092513	0.993602
982.389633	0.994575
982.686717	0.990964
982.983764	0.991127
983.280775	0.990018
983.577749	0.989602
983.874686	0.990130
984.171587	0.991601
984.468451	0.994658
984.765279	0.995585
985.062070	0.994227
985.358824	0.994033
985.655543	0.993908
985.952224	0.995544
986.248869	0.995873
986.545478	0.996096
986.842050	0.998112
987.138586	0.996184
987.435086	0.997120
987.731549	0.998212
988.027975	0.997658
988.324366	0.998195
988.620719	0.997043
988.917037	0.994789
989.213318	0.996904
989.509563	0.999059
989.805772	0.998520
990.101944	0.998700
990.398080	0.997077
990.694180	0.997749
990.990244	0.996766
991.286271	0.997299
991.582262	0.997759
991.878217	0.998611
992.174136	0.998232
992.470019	0.999066
992.765865	0.998404
993.061676	0.998634
993.357450	0.998456
993.653188	0.996121
993.948890	0.997843
994.244556	0.996975
994.540186	0.996347
994.835780	0.996365
995.131337	0.996691
995.426859	0.995684
995.722345	0.996883
996.017795	0.996170
996.313208	0.995476
996.608586	0.995979
996.903928	0.996759
997.199234	0.994645
997.494504	0.996338
997.789738	0.995399
998.084936	0.997461
998.380099	0.996843
998.675225	0.997348
998.970316	0.997784
999.265371	0.998972
999.560390	0.996719
999.855373	0.998842
1000.150320	0.998091
1000.445232	0.998213
1000.740108	0.996719
1001.034948	0.997904
1001.329752	0.997496
1001.624521	0.998306
1001.919254	0.998499
1002.213951	0.998334
1002.508613	0.998078
1002.803239	0.998164
1003.097829	0.999221
1003.392384	0.999437
1003.686903	0.998036
1003.981386	0.998741
1004.275834	0.998836
1004.570246	0.998097
1004.864623	0.999099
1005.158964	0.999489
1005.453270	0.998860
1005.747540	0.998247
1006.041775	0.999310
1006.335974	0.999639
1006.630138	0.999006
1006.924266	0.999502
1007.218359	1.000077
1007.512416	0.999176
1007.806438	0.998798
1008.100425	0.999281
1008.394376	0.998611
1008.688292	0.999479
1008.982172	1.001331
1009.276017	0.998751
1009.569827	0.999698
1009.863602	0.999386
1010.157341	0.999990
1010.451045	0.999497
1010.744714	0.998738
1011.038347	0.998008
1011.331945	0.998319
1011.625508	0.998132
1011.919036	0.999959
1012.212528	0.998269
1012.505986	0.997111
1012.799408	0.999496
1013.092795	1.000044
1013.386147	1.000087
1013.679464	0.999335
1013.972745	0.998365
1014.265992	0.996698
1014.559204	0.997746
1014.852380	0.998499
1015.145521	0.999748
1015.438628	0.998955
1015.731699	0.999251
1016.024736	0.998766
1016.317737	0.998741
1016.610703	0.998450
1016.903635	0.999701
1017.196531	0.997585
1017.489393	1.000533
1017.782219	0.998081
1018.075011	0.999225
1018.367768	0.997482
1018.660490	0.999049
1018.953177	0.999049
1019.245829	0.999049
