Dividing Wavelength (nm)	Counts (n)	Blue Motor Position (mm): 0.000000	Red Motor Position (mm): 30.700000	
326.493990	0.999908
326.888308	0.999908
327.282561	0.999908
327.676750	0.999192
328.070874	0.999260
328.464933	1.000053
328.858929	0.999743
329.252859	0.998799
329.646726	0.998600
330.040528	0.999409
330.434265	0.998906
330.827938	1.000434
331.221547	0.999410
331.615091	1.000123
332.008571	1.000437
332.401986	1.000944
332.795338	1.000258
333.188625	0.998330
333.581847	1.000879
333.975006	0.999217
334.368100	0.998393
334.761129	0.999316
335.154095	1.000806
335.546996	0.999497
335.939833	0.993843
336.332606	0.994959
336.725315	0.995717
337.117960	0.997866
337.510540	0.996368
337.903056	0.996085
338.295508	0.994747
338.687896	0.995668
339.080220	0.996252
339.472480	0.995786
339.864676	0.995307
340.256807	0.996259
340.648875	0.996325
341.040879	0.995501
341.432818	0.994946
341.824694	0.996394
342.216506	0.997285
342.608253	0.996098
342.999937	0.995937
343.391557	0.996481
343.783113	0.994929
344.174605	0.995702
344.566033	0.995821
344.957397	0.994250
345.348697	0.995474
345.739934	0.994912
346.131106	0.996096
346.522215	0.994924
346.913260	0.995705
347.304241	0.994899
347.695159	0.995052
348.086012	0.995789
348.476802	0.995420
348.867528	0.995715
349.258191	0.993849
349.648789	0.995641
350.039324	0.995759
350.429796	0.997163
350.820203	0.996062
351.210548	0.994712
351.600828	0.994165
351.991045	0.995018
352.381198	0.994817
352.771288	0.993987
353.161314	0.995049
353.551276	0.996830
353.941175	0.995023
354.331010	0.996058
354.720782	0.996639
355.110490	0.994785
355.500135	0.996891
355.889717	0.994467
356.279235	0.996110
356.668689	0.993483
357.058080	0.995860
357.447408	0.996663
357.836672	0.995467
358.225873	0.996041
358.615010	0.995098
359.004084	0.996276
359.393095	0.994611
359.782043	0.995206
360.170927	0.996639
360.559748	0.996548
360.948505	0.995161
361.337199	0.995682
361.725830	0.996241
362.114398	0.995212
362.502903	0.995718
362.891344	0.997528
363.279722	0.995330
363.668037	0.996527
364.056289	0.996165
364.444478	0.996360
364.832603	0.995845
365.220665	0.995140
365.608665	0.996263
365.996601	0.994770
366.384474	0.995790
366.772284	0.995314
367.160031	0.994347
367.547715	0.995018
367.935336	0.995294
368.322893	0.995746
368.710388	0.994693
369.097820	0.995432
369.485189	0.995989
369.872495	0.994820
370.259738	0.993400
370.646918	0.995707
371.034035	0.997478
371.421090	0.996162
371.808081	0.995893
372.195010	0.996705
372.581875	0.995607
372.968678	0.996531
373.355418	0.995682
373.742096	0.994214
374.128710	0.997974
374.515262	0.994803
374.901751	0.996277
375.288177	0.995347
375.674540	0.996383
376.060841	0.995754
376.447079	0.996276
376.833254	0.995925
377.219367	0.996266
377.605417	0.995648
377.991404	0.996845
378.377329	0.995902
378.763191	0.996277
379.148991	0.997199
379.534727	0.998144
379.920402	0.996595
380.306013	0.996971
380.691563	0.996307
381.077049	0.995584
381.462474	0.996549
381.847835	0.997371
382.233134	0.995979
382.618371	0.996981
383.003545	0.996781
383.388657	0.996040
383.773706	0.997925
384.158693	0.997501
384.543618	0.997540
384.928480	0.997746
385.313280	0.996569
385.698017	0.997797
386.082692	0.997991
386.467305	0.997366
386.851856	0.996793
387.236344	0.997173
387.620770	0.996368
388.005133	0.997032
388.389435	0.997496
388.773674	0.996320
389.157851	0.996498
389.541965	0.997044
389.926018	0.996020
390.310008	0.998589
390.693936	0.997323
391.077802	0.997858
391.461606	0.997042
391.845348	0.997451
392.229027	0.998150
392.612645	0.996742
392.996200	0.998005
393.379694	0.996865
393.763125	0.997648
394.146494	0.997378
394.529801	0.997132
394.913047	0.998025
395.296230	0.997645
395.679351	0.997571
396.062410	0.997093
396.445408	0.997618
396.828343	0.996491
397.211217	0.998074
397.594028	0.997669
397.976778	0.997112
398.359466	0.997088
398.742092	0.996936
399.124656	0.996922
399.507158	0.996789
399.889598	0.997470
400.271977	0.997266
400.654294	0.997799
401.036549	0.998099
401.418742	0.997272
401.800874	0.997153
402.182944	0.996937
402.564952	0.995752
402.946898	0.998060
403.328783	0.996978
403.710606	0.997274
404.092367	0.997563
404.474067	0.997490
404.855705	0.997859
405.237282	0.997030
405.618797	0.998049
406.000250	0.996614
406.381642	0.998000
406.762972	0.997111
407.144240	0.999091
407.525447	0.997548
407.906593	0.998031
408.287677	0.998094
408.668700	0.997871
409.049661	0.997157
409.430560	0.998482
409.811399	0.997673
410.192176	0.997706
410.572891	0.996956
410.953545	0.997224
411.334138	0.997117
411.714669	0.997248
412.095139	0.997491
412.475547	0.998040
412.855894	0.997416
413.236180	0.997165
413.616405	0.998098
413.996568	0.998303
414.376670	0.997903
414.756711	0.997783
415.136691	0.997516
415.516609	0.997139
415.896466	0.997948
416.276262	0.996504
416.655997	0.997763
417.035670	0.997086
417.415283	0.997935
417.794834	0.997877
418.174324	0.996691
418.553753	0.998207
418.933121	0.997337
419.312428	0.997483
419.691674	0.996947
420.070859	0.997718
420.449983	0.997192
420.829045	0.997857
421.208047	0.998821
421.586988	0.999036
421.965867	0.997793
422.344686	0.998112
422.723444	0.997642
423.102141	0.997781
423.480777	0.997586
423.859352	0.997342
424.237866	0.997141
424.616319	0.996869
424.994712	0.997880
425.373044	0.998207
425.751314	0.998780
426.129524	0.997779
426.507673	0.997853
426.885762	0.998968
427.263789	0.998074
427.641756	0.997682
428.019662	0.998140
428.397508	0.997309
428.775292	0.997163
429.153016	0.997487
429.530679	0.998553
429.908282	0.998019
430.285824	0.997319
430.663305	0.997262
431.040726	0.998478
431.418086	0.998636
431.795385	0.998313
432.172624	0.997807
432.549802	0.998530
432.926920	0.998091
433.303977	0.997829
433.680974	0.998170
434.057910	0.998142
434.434786	0.997958
434.811601	0.997330
435.188355	0.997770
435.565050	0.997523
435.941683	0.997398
436.318257	0.998750
436.694770	0.996942
437.071222	0.998164
437.447614	0.998214
437.823946	0.997058
438.200218	0.997609
438.576429	0.997776
438.952580	0.998417
439.328670	0.997370
439.704700	0.997812
440.080670	0.997742
440.456580	0.997908
440.832429	0.997526
441.208218	0.998199
441.583947	0.997957
441.959616	0.998243
442.335224	0.997423
442.710773	0.998446
443.086261	0.997348
443.461689	0.997814
443.837057	0.998046
444.212365	0.997782
444.587612	0.997610
444.962800	0.997029
445.337927	0.997618
445.712995	0.998159
446.088002	0.998391
446.462949	0.997951
446.837837	0.997698
447.212664	0.998246
447.587431	0.997921
447.962139	0.997630
448.336786	0.998253
448.711374	0.998113
449.085901	0.997677
449.460369	0.998673
449.834776	0.997409
450.209124	0.997927
450.583412	0.997388
450.957640	0.998015
451.331808	0.997882
451.705917	0.997849
452.079965	0.996783
452.453954	0.997148
452.827883	0.997107
453.201752	0.997691
453.575562	0.998451
453.949311	0.997789
454.323001	0.997094
454.696632	0.997821
455.070202	0.997251
455.443713	0.997064
455.817164	0.997553
456.190556	0.997614
456.563888	0.997111
456.937160	0.997736
457.310373	0.996809
457.683526	0.997367
458.056619	0.996854
458.429653	0.998348
458.802628	0.997586
459.175542	0.996786
459.548398	0.997154
459.921194	0.997180
460.293930	0.997133
460.666607	0.996250
461.039224	0.996291
461.411782	0.998095
461.784280	0.996761
462.156719	0.998272
462.529099	0.997275
462.901419	0.997604
463.273680	0.997232
463.645882	0.996231
464.018024	0.996404
464.390106	0.996491
464.762130	0.997750
465.134094	0.997076
465.505999	0.997311
465.877845	0.996538
466.249631	0.996874
466.621358	0.995784
466.993026	0.995187
467.364634	0.995759
467.736184	0.995967
468.107674	0.994518
468.479105	0.993664
468.850477	0.994213
469.221790	0.993307
469.593043	0.993020
469.964238	0.993661
470.335373	0.991162
470.706449	0.990665
471.077467	0.990962
471.448425	0.990062
471.819324	0.989684
472.190164	0.987201
472.560945	0.987282
472.931667	0.986812
473.302330	0.985533
473.672934	0.985379
474.043479	0.984159
474.413965	0.982850
474.784393	0.982167
475.154761	0.980883
475.525070	0.979117
475.895321	0.979483
476.265513	0.977226
476.635645	0.975520
477.005719	0.974975
477.375734	0.972145
477.745691	0.970818
478.115588	0.968745
478.485427	0.967758
478.855207	0.964414
479.224928	0.960124
479.594591	0.957973
479.964194	0.956762
480.333739	0.955377
480.703226	0.951873
481.072653	0.950892
481.442022	0.946131
481.811333	0.942899
482.180584	0.941062
482.549777	0.937999
482.918912	0.936246
483.287988	0.932634
483.657005	0.929379
484.025964	0.927333
484.394864	0.923893
484.763706	0.920082
485.132489	0.917618
485.501213	0.913737
485.869879	0.910395
486.238487	0.906397
486.607036	0.904031
486.975527	0.898335
487.343959	0.894525
487.712333	0.889688
488.080648	0.885758
488.448905	0.880389
488.817104	0.876494
489.185244	0.870851
489.553326	0.864695
489.921350	0.856798
490.289315	0.844834
490.657222	0.839090
491.025070	0.834285
491.392861	0.829561
491.760593	0.826877
492.128267	0.823845
492.495883	0.819060
492.863440	0.814855
493.230939	0.810540
493.598380	0.804821
493.965763	0.798290
494.333088	0.794522
494.700354	0.786931
495.067563	0.781983
495.434713	0.775089
495.801805	0.769130
496.168839	0.762933
496.535815	0.755750
496.902733	0.750419
497.269593	0.743360
497.636395	0.737362
498.003139	0.729147
498.369825	0.725427
498.736453	0.715946
499.103023	0.710610
499.469535	0.702572
499.835989	0.696257
500.202385	0.689390
500.568723	0.683805
500.935003	0.676418
501.301226	0.668447
501.667390	0.661103
502.033497	0.652730
502.399546	0.648350
502.765537	0.641631
503.131470	0.633494
503.497345	0.624621
503.863163	0.623676
504.228923	0.611774
504.594625	0.605164
504.960269	0.601187
505.325856	0.591259
505.691385	0.586218
506.056856	0.578107
506.422270	0.570539
506.787625	0.566516
507.152924	0.557697
507.518164	0.552247
507.883347	0.546004
508.248472	0.540769
508.613540	0.531330
508.978550	0.526486
509.343503	0.519779
509.708398	0.512310
510.073236	0.504366
510.438016	0.498658
510.802738	0.492303
511.167403	0.486111
511.532010	0.480542
511.896561	0.472532
512.261053	0.466116
512.625488	0.460675
512.989866	0.454839
513.354186	0.449558
513.718449	0.444729
514.082655	0.437221
514.446803	0.433186
514.810894	0.425974
515.174927	0.422353
515.538904	0.417144
515.902822	0.408806
516.266684	0.406592
516.630488	0.402031
516.994235	0.396177
517.357925	0.389841
517.721558	0.384012
518.085133	0.378986
518.448651	0.374943
518.812112	0.372177
519.175516	0.367371
519.538863	0.361081
519.902152	0.358424
520.265385	0.350995
520.628560	0.349117
520.991678	0.344693
521.354739	0.340448
521.717743	0.337560
522.080690	0.334432
522.443580	0.327713
522.806413	0.325059
523.169189	0.321012
523.531908	0.316668
523.894569	0.316602
524.257174	0.313005
524.619722	0.307612
524.982213	0.306253
525.344647	0.301879
525.707025	0.299888
526.069345	0.295597
526.431608	0.293943
526.793815	0.289750
527.155964	0.290944
527.518057	0.287695
527.880093	0.285877
528.242072	0.282594
528.603995	0.281849
528.965860	0.281335
529.327669	0.278089
529.689421	0.276888
530.051117	0.275813
530.412755	0.271437
530.774337	0.272028
531.135862	0.270365
531.497331	0.268486
531.858743	0.269361
532.220098	0.264842
532.581396	0.265771
532.942638	0.264661
533.303824	0.264135
533.664953	0.262692
534.026025	0.263095
534.387040	0.259898
534.747999	0.258952
535.108902	0.256494
535.469748	0.260387
535.830537	0.257088
536.191270	0.256663
536.551947	0.255113
536.912567	0.254377
537.273131	0.255371
537.633638	0.254752
537.994089	0.254528
538.354483	0.254732
538.714821	0.251166
539.075103	0.250215
539.435328	0.250380
539.795497	0.253403
540.155609	0.249444
540.515665	0.247346
540.875665	0.252357
541.235609	0.250727
541.595496	0.250273
541.955328	0.246293
542.315102	0.248442
542.674821	0.249274
543.034483	0.248753
543.394090	0.247970
543.753640	0.249633
544.113134	0.244761
544.472571	0.247567
544.831953	0.243892
545.191278	0.248199
545.550548	0.247318
545.909761	0.243730
546.268918	0.244341
546.628019	0.242533
546.987064	0.245015
547.346053	0.246607
547.704986	0.244313
548.063863	0.244822
548.422684	0.244531
548.781449	0.246013
549.140158	0.243680
549.498811	0.246471
549.857408	0.249355
550.215949	0.244344
550.574434	0.247053
550.932864	0.245012
551.291237	0.243648
551.649555	0.244758
552.007817	0.244371
552.366022	0.245177
552.724173	0.245228
553.082267	0.245649
553.440305	0.242482
553.798288	0.246754
554.156215	0.243041
554.514086	0.244015
554.871902	0.246962
555.229661	0.246107
555.587365	0.246519
555.945014	0.248930
556.302606	0.245982
556.660143	0.248333
557.017625	0.244949
557.375050	0.247158
557.732421	0.243871
558.089735	0.246167
558.446994	0.245835
558.804197	0.244981
559.161345	0.244941
559.518437	0.248480
559.875474	0.246077
560.232455	0.245355
560.589381	0.246732
560.946251	0.246726
561.303065	0.244227
561.659825	0.245701
562.016528	0.246981
562.373177	0.249975
562.729770	0.246950
563.086307	0.249339
563.442789	0.246838
563.799216	0.249688
564.155587	0.248404
564.511904	0.249437
564.868164	0.249740
565.224370	0.249472
565.580520	0.251532
565.936615	0.251083
566.292654	0.254073
566.648638	0.251062
567.004567	0.251943
567.360441	0.252568
567.716260	0.254466
568.072023	0.252164
568.427732	0.252929
568.783385	0.255547
569.138982	0.253326
569.494525	0.253047
569.850013	0.255849
570.205445	0.254161
570.560823	0.257061
570.916145	0.258875
571.271412	0.257046
571.626625	0.258414
571.981782	0.259041
572.336884	0.259926
572.691931	0.259641
573.046923	0.260633
573.401860	0.262107
573.756743	0.263883
574.111570	0.262363
574.466342	0.263131
574.821059	0.262171
575.175722	0.265012
575.530330	0.264620
575.884882	0.264597
576.239380	0.266914
576.593823	0.267575
576.948211	0.266816
577.302544	0.270168
577.656823	0.269766
578.011047	0.269853
578.365216	0.270208
578.719330	0.272684
579.073389	0.272443
579.427394	0.273815
579.781344	0.274400
580.135239	0.275892
580.489080	0.275642
580.842866	0.278233
581.196597	0.278264
581.550273	0.276960
581.903895	0.277817
582.257463	0.275956
582.610975	0.279420
582.964434	0.279093
583.317837	0.281380
583.671186	0.281703
584.024481	0.281761
584.377721	0.284243
584.730906	0.284993
585.084037	0.284196
585.437113	0.285879
585.790135	0.284992
586.143103	0.288596
586.496016	0.289280
586.848874	0.286830
587.201679	0.287466
587.554428	0.290900
587.907124	0.289636
588.259765	0.290242
588.612352	0.290849
588.964884	0.294741
589.317362	0.294181
589.669786	0.294019
590.022155	0.292660
590.374470	0.292102
590.726731	0.293805
591.078937	0.298819
591.431090	0.295084
591.783188	0.299096
592.135232	0.299534
592.487222	0.299838
592.839157	0.297737
593.191038	0.300113
593.542866	0.301941
593.894639	0.305519
594.246358	0.303306
594.598022	0.303082
594.949633	0.306870
595.301190	0.307550
595.652692	0.306621
596.004141	0.303113
596.355535	0.310541
596.706876	0.311182
597.058162	0.313858
597.409395	0.311035
597.760573	0.308702
598.111698	0.312139
598.462768	0.312645
598.813785	0.313805
599.164748	0.315263
599.515657	0.315080
599.866511	0.318453
600.217312	0.313928
600.568060	0.319662
600.918753	0.315047
601.269392	0.316729
601.619978	0.319670
601.970510	0.317527
602.320988	0.317551
602.671412	0.315345
603.021783	0.317886
603.372100	0.319322
603.722363	0.318444
604.072572	0.319486
604.422728	0.319309
604.772830	0.321427
605.122878	0.321036
605.472872	0.321601
605.822813	0.319982
606.172701	0.322356
606.522534	0.319738
606.872314	0.319759
607.222041	0.320935
607.571714	0.319412
607.921333	0.320394
608.270899	0.320217
608.620411	0.317030
608.969870	0.321014
609.319276	0.321115
609.668627	0.320675
610.017926	0.319437
610.367171	0.317776
610.716362	0.318525
611.065500	0.318915
611.414585	0.317897
611.763616	0.318131
612.112594	0.318643
612.461518	0.317776
612.810389	0.315952
613.159207	0.318273
613.507971	0.319719
613.856682	0.315603
614.205340	0.317116
614.553945	0.314065
614.902496	0.318064
615.250994	0.315854
615.599439	0.316846
615.947830	0.316451
616.296169	0.316904
616.644454	0.316580
616.992686	0.316582
617.340864	0.314710
617.688990	0.317890
618.037063	0.314863
618.385082	0.317060
618.733048	0.313372
619.080961	0.316087
619.428821	0.315246
619.776628	0.314800
620.124382	0.316841
620.472083	0.317111
620.819731	0.316163
621.167326	0.320451
621.514868	0.320221
621.862357	0.324281
622.209793	0.323911
622.557176	0.326020
622.904506	0.327049
623.251783	0.329562
623.599007	0.331729
623.946179	0.331232
624.293297	0.333195
624.640363	0.337071
624.987376	0.337699
625.334336	0.339856
625.681243	0.342182
626.028097	0.343134
626.374899	0.344103
626.721647	0.344317
627.068343	0.347223
627.414987	0.348631
627.761577	0.350477
628.108115	0.348913
628.454600	0.354077
628.801032	0.351226
629.147412	0.353489
629.493739	0.353804
629.840014	0.357057
630.186236	0.354356
630.532405	0.359953
630.878521	0.357422
631.224585	0.359533
631.570597	0.362817
631.916556	0.361743
632.262462	0.361844
632.608316	0.363926
632.954117	0.364825
633.299866	0.365499
633.645562	0.365444
633.991206	0.370073
634.336797	0.373007
634.682336	0.375492
635.027823	0.376757
635.373257	0.377819
635.718639	0.380982
636.063968	0.380425
636.409245	0.386387
636.754470	0.386542
637.099642	0.389276
637.444762	0.392319
637.789829	0.391446
638.134845	0.394734
638.479808	0.395849
638.824719	0.395796
639.169577	0.399224
639.514383	0.398545
639.859137	0.402764
640.203839	0.402310
640.548489	0.403381
640.893086	0.404404
641.237632	0.405925
641.582125	0.404742
641.926566	0.405834
642.270955	0.406146
642.615292	0.406956
642.959576	0.405930
643.303809	0.406422
643.647990	0.405997
643.992118	0.406454
644.336195	0.409822
644.680219	0.408269
645.024192	0.408693
645.368112	0.402381
645.711981	0.401791
646.055797	0.396763
646.399562	0.399155
646.743274	0.391198
647.086935	0.388815
647.430544	0.389231
647.774101	0.388018
648.117606	0.387313
648.461059	0.388073
648.804460	0.390383
649.147810	0.395351
649.491108	0.397121
649.834354	0.398990
650.177548	0.404175
650.520690	0.409592
650.863781	0.410757
651.206820	0.410372
651.549807	0.414194
651.892742	0.418556
652.235626	0.418334
652.578458	0.419085
652.921238	0.424890
653.263967	0.422956
653.606644	0.426773
653.949269	0.426903
654.291843	0.430470
654.634365	0.427679
654.976836	0.430779
655.319255	0.430584
655.661622	0.431956
656.003938	0.432022
656.346203	0.435015
656.688416	0.432657
657.030577	0.435941
657.372687	0.438390
657.714746	0.438811
658.056753	0.436321
658.398708	0.439748
658.740612	0.440769
659.082465	0.437406
659.424266	0.437888
659.766016	0.437722
660.107715	0.440107
660.449362	0.439041
660.790958	0.439448
661.132503	0.440083
661.473996	0.437220
661.815438	0.438703
662.156829	0.438883
662.498168	0.439552
662.839456	0.441314
663.180693	0.438842
663.521879	0.438520
663.863013	0.439751
664.204097	0.437768
664.545129	0.435061
664.886110	0.435069
665.227040	0.432838
665.567918	0.435280
665.908746	0.433135
666.249522	0.433006
666.590248	0.434205
666.930922	0.432156
667.271545	0.431149
667.612118	0.431261
667.952639	0.432723
668.293109	0.431218
668.633528	0.434251
668.973896	0.434501
669.314213	0.434284
669.654480	0.435800
669.994695	0.436979
670.334859	0.437167
670.674973	0.437812
671.015035	0.437657
671.355047	0.437410
671.695008	0.438593
672.034918	0.440121
672.374777	0.440159
672.714585	0.441120
673.054342	0.440571
673.394049	0.440791
673.733705	0.438827
674.073310	0.439812
674.412864	0.443062
674.752368	0.443749
675.091820	0.443653
675.431223	0.448014
675.770574	0.448206
676.109875	0.451306
676.449125	0.451208
676.788324	0.453628
677.127473	0.458531
677.466571	0.458466
677.805619	0.460217
678.144616	0.460883
678.483562	0.462694
678.822458	0.464898
679.161303	0.466322
679.500098	0.466513
679.838842	0.468201
680.177535	0.467418
680.516179	0.466786
680.854771	0.465953
681.193314	0.458768
681.531805	0.450448
681.870247	0.438577
682.208638	0.431350
682.546978	0.430351
682.885268	0.432018
683.223508	0.438173
683.561697	0.441711
683.899836	0.444854
684.237925	0.448621
684.575963	0.450484
684.913951	0.453558
685.251889	0.449478
685.589776	0.451615
685.927614	0.453727
686.265401	0.448243
686.603137	0.449100
686.940824	0.443988
687.278460	0.441901
687.616046	0.441192
687.953582	0.436046
688.291068	0.437724
688.628504	0.433470
688.965889	0.435535
689.303224	0.439833
689.640510	0.443252
689.977745	0.449202
690.314930	0.456718
690.652065	0.461662
690.989150	0.468987
691.326185	0.475251
691.663170	0.479567
692.000105	0.486724
692.336990	0.494086
692.673825	0.496678
693.010610	0.503649
693.347345	0.509253
693.684030	0.510800
694.020665	0.515463
694.357251	0.523327
694.693786	0.523517
695.030272	0.528225
695.366707	0.531295
695.703093	0.534633
696.039429	0.532121
696.375716	0.534264
696.711952	0.537299
697.048139	0.538665
697.384276	0.540565
697.720363	0.538946
698.056400	0.538647
698.392388	0.543699
698.728326	0.546724
699.064214	0.549801
699.400053	0.550321
699.735842	0.553261
700.071581	0.556190
700.407270	0.559445
700.742910	0.561740
701.078501	0.568575
701.414042	0.569051
701.749533	0.572196
702.084974	0.580327
702.420366	0.572962
702.755709	0.581055
703.091002	0.588047
703.426246	0.581620
703.761440	0.587939
704.096584	0.592934
704.431679	0.589262
704.766725	0.590887
705.101721	0.592662
705.436668	0.589029
705.771565	0.595574
706.106413	0.592863
706.441212	0.588581
706.775961	0.587952
707.110661	0.589899
707.445311	0.586089
707.779913	0.583781
708.114465	0.581341
708.448967	0.578370
708.783421	0.570335
709.117825	0.564842
709.452180	0.565628
709.786485	0.558912
710.120742	0.549107
710.454949	0.551218
710.789107	0.543292
711.123216	0.534328
711.457275	0.536294
711.791286	0.527333
712.125247	0.526469
712.459159	0.536373
712.793023	0.529329
713.126837	0.533328
713.460602	0.533881
713.794318	0.542772
714.127985	0.542164
714.461602	0.551945
714.795171	0.555235
715.128691	0.563325
715.462162	0.570364
715.795584	0.575886
716.128957	0.578797
716.462281	0.585396
716.795556	0.588368
717.128782	0.593794
717.461960	0.602893
717.795088	0.602560
718.128167	0.608014
718.461198	0.617013
718.794180	0.617567
719.127113	0.620113
719.459997	0.623846
719.792833	0.630318
720.125619	0.631034
720.458357	0.636762
720.791046	0.636623
721.123686	0.639815
721.456278	0.647033
721.788821	0.644442
722.121315	0.647972
722.453761	0.652432
722.786158	0.651070
723.118506	0.647029
723.450805	0.654689
723.783056	0.650967
724.115259	0.647903
724.447412	0.647543
724.779518	0.649233
725.111574	0.647698
725.443582	0.643671
725.775542	0.644635
726.107453	0.638226
726.439315	0.637803
726.771129	0.635632
727.102895	0.630120
727.434612	0.621648
727.766281	0.620949
728.097901	0.619974
728.429473	0.619194
728.760996	0.617593
729.092471	0.617226
729.423897	0.622061
729.755276	0.620855
730.086606	0.620716
730.417887	0.614716
730.749120	0.606929
731.080305	0.597808
731.411442	0.593202
731.742530	0.598400
732.073570	0.597245
732.404562	0.590200
732.735506	0.591003
733.066401	0.595924
733.397249	0.605349
733.728048	0.616032
734.058798	0.628448
734.389501	0.639308
734.720156	0.648273
735.050762	0.656829
735.381320	0.657632
735.711831	0.667025
736.042293	0.671964
736.372707	0.667916
736.703073	0.672170
737.033391	0.674647
737.363661	0.671448
737.693883	0.666810
738.024056	0.665915
738.354182	0.666589
738.684260	0.655566
739.014290	0.651670
739.344272	0.652374
739.674207	0.646652
740.004093	0.645549
740.333931	0.646303
740.663722	0.645958
740.993464	0.646397
741.323159	0.650303
741.652806	0.655590
741.982405	0.659512
742.311956	0.664647
742.641460	0.666387
742.970915	0.670183
743.300323	0.677315
743.629683	0.684058
743.958996	0.687108
744.288260	0.690414
744.617477	0.697006
744.946647	0.696764
745.275768	0.703380
745.604842	0.703572
745.933869	0.712917
746.262847	0.713797
746.591778	0.706492
746.920662	0.713403
747.249498	0.719902
747.578286	0.710580
747.907027	0.706838
748.235720	0.708120
748.564365	0.702638
748.892963	0.702142
749.221514	0.705547
749.550017	0.710878
749.878473	0.709983
750.206881	0.716861
750.535242	0.717739
750.863555	0.718309
751.191821	0.719516
751.520039	0.722490
751.848210	0.727865
752.176334	0.719021
752.504411	0.718518
752.832440	0.726204
753.160421	0.729846
753.488356	0.729112
753.816243	0.726669
754.144082	0.735019
754.471875	0.737823
754.799620	0.734048
755.127318	0.734901
755.454969	0.735075
755.782572	0.734129
756.110129	0.738662
756.437638	0.742116
756.765100	0.738472
757.092515	0.737259
757.419882	0.734899
757.747203	0.741059
758.074477	0.739726
758.401703	0.737388
758.728882	0.732188
759.056014	0.731129
759.383099	0.730142
759.710138	0.731833
760.037129	0.727603
760.364073	0.721178
760.690970	0.724153
761.017820	0.730288
761.344623	0.725593
761.671379	0.716551
761.998088	0.705262
762.324751	0.682292
762.651366	0.642024
762.977935	0.575192
763.304456	0.523331
763.630931	0.513740
763.957359	0.552389
764.283740	0.596664
764.610074	0.623190
764.936362	0.654339
765.262602	0.680619
765.588796	0.702343
765.914943	0.719974
766.241044	0.737380
766.567097	0.743449
766.893104	0.753916
767.219064	0.759760
767.544978	0.766232
767.870845	0.778353
768.196665	0.783727
768.522438	0.781326
768.848165	0.782689
769.173846	0.792072
769.499479	0.796166
769.825066	0.798912
770.150607	0.804978
770.476101	0.800265
770.801548	0.800130
771.126949	0.812279
771.452303	0.815708
771.777611	0.814409
772.102872	0.814293
772.428087	0.818668
772.753256	0.823348
773.078378	0.824644
773.403453	0.833713
773.728482	0.837286
774.053465	0.831554
774.378401	0.835984
774.703291	0.843919
775.028135	0.843569
775.352932	0.844509
775.677683	0.847015
776.002388	0.848002
776.327046	0.846916
776.651658	0.850546
776.976224	0.854225
777.300743	0.854463
777.625216	0.857053
777.949643	0.857944
778.274024	0.859056
778.598359	0.859882
778.922647	0.858498
779.246889	0.859067
779.571086	0.863705
779.895236	0.866069
780.219339	0.862480
780.543397	0.859613
780.867409	0.858087
781.191374	0.860848
781.515294	0.861514
781.839167	0.860932
782.162995	0.864095
782.486776	0.861385
782.810511	0.861828
783.134201	0.865593
783.457844	0.863233
783.781441	0.866777
784.104993	0.871704
784.428498	0.871073
784.751958	0.867071
785.075372	0.869612
785.398739	0.875568
785.722061	0.870217
786.045337	0.866508
786.368568	0.871032
786.691752	0.873063
787.014891	0.859276
787.337983	0.849825
787.661030	0.843152
787.984031	0.826397
788.306987	0.812565
788.629897	0.814574
788.952760	0.819493
789.275579	0.822599
789.598351	0.838341
789.921078	0.850673
790.243759	0.853094
790.566395	0.858911
790.888984	0.865241
791.211529	0.870904
791.534027	0.874090
791.856480	0.874791
792.178888	0.880621
792.501249	0.883954
792.823566	0.884088
793.145836	0.884895
793.468062	0.886537
793.790241	0.887102
794.112375	0.883270
794.434464	0.879606
794.756507	0.878752
795.078505	0.879960
795.400457	0.873784
795.722364	0.861647
796.044226	0.854047
796.366042	0.853522
796.687812	0.856712
797.009538	0.853308
797.331218	0.856336
797.652852	0.861068
797.974442	0.865867
798.295986	0.865791
798.617484	0.868793
798.938938	0.872267
799.260346	0.878696
799.581709	0.878973
799.903026	0.881491
800.224299	0.882101
800.545526	0.885413
800.866708	0.889722
801.187845	0.892987
801.508936	0.893323
801.829983	0.892627
802.150984	0.894554
802.471940	0.898561
802.792851	0.897296
803.113717	0.899579
803.434538	0.896844
803.755314	0.899599
804.076045	0.901219
804.396731	0.900584
804.717372	0.901787
805.037967	0.903440
805.358518	0.900161
805.679024	0.898050
805.999485	0.898042
806.319901	0.898669
806.640272	0.900666
806.960598	0.897472
807.280879	0.894931
807.601115	0.893860
807.921306	0.897352
808.241453	0.897385
808.561554	0.894715
808.881611	0.895486
809.201623	0.897364
809.521590	0.897947
809.841513	0.899217
810.161390	0.897324
810.481223	0.899011
810.801011	0.901701
811.120755	0.904744
811.440453	0.902661
811.760107	0.902339
812.079716	0.901256
812.399281	0.904632
812.718801	0.908161
813.038276	0.908406
813.357707	0.908563
813.677093	0.904875
813.996434	0.909053
814.315731	0.910551
814.634983	0.910644
814.954191	0.909247
815.273354	0.906493
815.592473	0.901903
815.911547	0.903767
816.230577	0.899568
816.549562	0.897080
816.868502	0.898360
817.187399	0.894544
817.506250	0.890124
817.825058	0.891013
818.143821	0.887664
818.462539	0.883596
818.781213	0.874496
819.099843	0.864085
819.418429	0.848287
819.736970	0.832550
820.055466	0.812802
820.373919	0.787133
820.692327	0.755060
821.010691	0.721527
821.329011	0.645695
821.647286	0.531524
821.965517	0.419165
822.283704	0.376697
822.601847	0.378530
822.919945	0.413925
823.237999	0.446577
823.556010	0.493233
823.873976	0.548069
824.191897	0.597787
824.509775	0.640217
824.827609	0.684597
825.145398	0.706708
825.463144	0.708918
825.780845	0.692590
826.098502	0.674087
826.416116	0.629516
826.733685	0.585702
827.051210	0.577043
827.368692	0.591743
827.686129	0.628979
828.003522	0.680925
828.320872	0.728109
828.638177	0.770417
828.955439	0.803345
829.272656	0.824456
829.589830	0.841923
829.906960	0.857031
830.224046	0.868441
830.541088	0.879135
830.858086	0.883296
831.175041	0.888868
831.491952	0.888996
831.808819	0.885950
832.125642	0.879238
832.442421	0.864097
832.759157	0.843546
833.075849	0.798550
833.392497	0.735005
833.709101	0.695098
834.025662	0.704349
834.342179	0.735115
834.658653	0.774294
834.975083	0.808415
835.291469	0.835157
835.607811	0.857087
835.924110	0.872432
836.240366	0.888979
836.556578	0.902936
836.872746	0.911101
837.188871	0.917167
837.504952	0.922020
837.820990	0.924764
838.136984	0.928306
838.452935	0.931496
838.768842	0.933075
839.084706	0.925788
839.400526	0.901773
839.716303	0.861878
840.032037	0.839694
840.347727	0.843373
840.663373	0.861271
840.978977	0.882234
841.294537	0.903871
841.610054	0.919630
841.925527	0.927633
842.240957	0.934880
842.556344	0.940853
842.871687	0.946870
843.186987	0.950869
843.502244	0.951956
843.817458	0.952399
844.132629	0.956240
844.447756	0.961515
844.762840	0.960599
845.077881	0.960407
845.392879	0.960407
845.707833	0.963421
846.022745	0.966524
846.337613	0.965778
846.652438	0.967240
846.967221	0.965209
847.281960	0.966383
847.596656	0.968715
847.911309	0.966897
848.225919	0.968181
848.540485	0.968834
848.855009	0.968872
849.169490	0.969363
849.483928	0.969957
849.798323	0.970265
850.112675	0.970514
850.426984	0.970749
850.741251	0.969555
851.055474	0.972057
851.369654	0.969042
851.683792	0.970366
851.997887	0.970989
852.311938	0.970247
852.625947	0.970955
852.939914	0.968398
853.253837	0.969766
853.567718	0.970888
853.881555	0.971725
854.195350	0.969277
854.509103	0.970645
854.822812	0.970632
855.136479	0.971300
855.450103	0.970471
855.763685	0.969060
856.077224	0.970231
856.390720	0.971711
856.704173	0.972033
857.017584	0.968710
857.330953	0.968344
857.644278	0.968843
857.957561	0.969817
858.270802	0.968620
858.584000	0.968959
858.897155	0.968224
859.210268	0.969130
859.523339	0.969629
859.836367	0.970477
860.149352	0.971750
860.462295	0.969014
860.775195	0.969830
861.088054	0.969878
861.400869	0.971177
861.713642	0.971458
862.026373	0.971849
862.339062	0.971139
862.651708	0.968797
862.964312	0.968831
863.276873	0.970382
863.589392	0.968761
863.901869	0.966844
864.214303	0.965009
864.526696	0.966039
864.839045	0.964130
865.151353	0.964054
865.463619	0.963073
865.775842	0.964189
866.088023	0.963673
866.400162	0.962815
866.712258	0.964228
867.024313	0.964516
867.336325	0.964727
867.648296	0.964679
867.960224	0.963676
868.272110	0.962385
868.583954	0.964578
868.895755	0.964458
869.207515	0.963203
869.519233	0.961484
869.830909	0.962169
870.142542	0.963104
870.454134	0.963478
870.765684	0.962471
871.077191	0.959288
871.388657	0.959732
871.700081	0.958878
872.011463	0.960125
872.322803	0.959089
872.634101	0.958552
872.945357	0.955986
873.256571	0.954783
873.567744	0.953925
873.878874	0.954329
874.189963	0.953321
874.501010	0.952288
874.812015	0.951151
875.122979	0.952153
875.433900	0.955437
875.744780	0.954242
876.055618	0.953097
876.366415	0.951875
876.677169	0.952459
876.987882	0.952827
877.298554	0.952979
877.609183	0.949483
877.919771	0.947023
878.230317	0.944940
878.540822	0.942782
878.851285	0.937315
879.161707	0.929425
879.472087	0.917660
879.782425	0.902234
880.092722	0.869131
880.402977	0.818128
880.713191	0.759418
881.023363	0.702197
881.333494	0.669895
881.643583	0.641591
881.953631	0.640609
882.263637	0.669460
882.573602	0.708212
882.883526	0.733314
883.193408	0.755745
883.503248	0.778087
883.813048	0.804013
884.122806	0.832534
884.432522	0.856086
884.742197	0.875305
885.051831	0.885301
885.361424	0.894541
885.670975	0.905752
885.980485	0.916461
886.289954	0.922129
886.599382	0.927411
886.908768	0.931345
887.218113	0.936251
887.527417	0.941145
887.836680	0.944771
888.145901	0.945532
888.455082	0.947847
888.764221	0.952481
889.073319	0.955233
889.382376	0.955246
889.691392	0.954365
890.000366	0.954127
890.309300	0.954891
890.618193	0.954523
890.927044	0.953084
891.235855	0.952911
891.544625	0.952354
891.853353	0.953613
892.162041	0.951930
892.470687	0.944542
892.779293	0.939977
893.087858	0.936451
893.396381	0.929412
893.704864	0.916924
894.013306	0.894133
894.321707	0.867428
894.630068	0.853199
894.938387	0.848771
895.246665	0.850787
895.554903	0.862224
895.863100	0.875341
896.171256	0.891780
896.479371	0.911483
896.787446	0.922233
897.095480	0.927302
897.403473	0.931253
897.711425	0.935072
898.019336	0.942671
898.327207	0.945534
898.635038	0.946927
898.942827	0.947419
899.250576	0.951283
899.558284	0.953799
899.865952	0.955040
900.173579	0.956742
900.481165	0.958053
900.788711	0.960051
901.096216	0.961587
901.403681	0.963139
901.711105	0.964727
902.018489	0.965178
902.325832	0.964178
902.633135	0.963880
902.940397	0.957763
903.247619	0.945335
903.554800	0.921189
903.861941	0.883329
904.169041	0.850253
904.476101	0.833404
904.783121	0.834241
905.090100	0.848693
905.397039	0.870057
905.703938	0.891346
906.010796	0.910262
906.317614	0.926715
906.624391	0.937831
906.931129	0.946444
907.237826	0.955114
907.544483	0.960849
907.851099	0.964261
908.157675	0.968737
908.464211	0.971144
908.770707	0.974925
909.077163	0.975971
909.383578	0.976603
909.689954	0.975850
909.996289	0.975743
910.302584	0.978978
910.608839	0.981480
910.915054	0.979362
911.221229	0.979793
911.527363	0.978232
911.833458	0.977696
912.139513	0.976981
912.445527	0.976726
912.751502	0.975447
913.057436	0.974648
913.363331	0.971228
913.669186	0.967478
913.975000	0.963565
914.280775	0.957823
914.586510	0.951314
914.892205	0.937922
915.197859	0.917836
915.503475	0.891405
915.809050	0.873121
916.114585	0.868157
916.420081	0.866471
916.725536	0.862118
917.030952	0.870289
917.336328	0.882121
917.641665	0.896925
917.946961	0.910863
918.252218	0.923239
918.557435	0.931486
918.862612	0.940074
919.167750	0.945706
919.472848	0.949601
919.777906	0.954920
920.082925	0.960560
920.387904	0.963137
920.692843	0.964976
920.997743	0.965643
921.302603	0.969133
921.607423	0.970816
921.912204	0.972788
922.216946	0.973961
922.521647	0.974698
922.826310	0.975844
923.130932	0.977464
923.435516	0.979277
923.740059	0.980280
924.044564	0.979603
924.349028	0.981742
924.653454	0.982993
924.957840	0.985675
925.262186	0.984421
925.566493	0.984884
925.870761	0.984866
926.174989	0.986576
926.479178	0.988537
926.783328	0.988648
927.087438	0.989098
927.391509	0.987052
927.695541	0.991421
927.999533	0.989768
928.303486	0.990277
928.607400	0.990851
928.911275	0.990183
929.215110	0.991063
929.518906	0.990399
929.822663	0.991044
930.126381	0.991963
930.430060	0.989181
930.733699	0.989929
931.037299	0.990341
931.340861	0.992225
931.644383	0.990517
931.947866	0.988553
932.251309	0.992064
932.554714	0.990838
932.858080	0.990248
933.161407	0.990767
933.464694	0.990595
933.767943	0.990237
934.071153	0.990246
934.374323	0.991896
934.677455	0.992470
934.980548	0.991689
935.283602	0.990371
935.586617	0.991233
935.889593	0.991803
936.192530	0.991311
936.495428	0.991028
936.798287	0.991368
937.101108	0.990223
937.403890	0.989691
937.706632	0.989569
938.009336	0.986360
938.312002	0.987949
938.614628	0.985353
938.917216	0.984626
939.219765	0.982123
939.522275	0.984295
939.824747	0.984319
940.127179	0.983678
940.429573	0.986023
940.731929	0.985096
941.034246	0.985812
941.336524	0.986084
941.638763	0.987163
941.940964	0.986935
942.243126	0.987313
942.545250	0.987484
942.847335	0.988485
943.149381	0.988966
943.451389	0.988839
943.753359	0.989018
944.055290	0.991584
944.357182	0.990133
944.659036	0.988653
944.960851	0.990277
945.262628	0.990993
945.564367	0.991833
945.866067	0.991225
946.167729	0.990858
946.469352	0.990112
946.770937	0.989284
947.072484	0.991386
947.373992	0.990887
947.675462	0.990821
947.976893	0.989580
948.278286	0.990696
948.579641	0.992183
948.880958	0.990884
949.182236	0.992662
949.483476	0.992465
949.784678	0.990387
950.085841	0.991961
950.386967	0.990507
950.688054	0.991606
950.989103	0.991323
951.290114	0.990212
951.591087	0.989127
951.892021	0.990518
952.192917	0.989296
952.493776	0.989237
952.794596	0.988571
953.095378	0.988455
953.396122	0.988884
953.696828	0.987692
953.997496	0.989326
954.298126	0.990839
954.598718	0.991589
954.899272	0.991044
955.199788	0.991108
955.500266	0.992485
955.800706	0.993752
956.101108	0.994188
956.401472	0.993632
956.701798	0.994461
957.002087	0.993307
957.302337	0.994094
957.602550	0.995562
957.902724	0.994598
958.202861	0.994879
958.502960	0.995851
958.803022	0.994746
959.103045	0.995684
959.403031	0.995946
959.702979	0.995004
960.002889	0.995396
960.302762	0.994930
960.602596	0.996459
960.902393	0.994636
961.202153	0.995690
961.501875	0.997271
961.801559	0.995815
962.101205	0.995205
962.400814	0.995561
962.700385	0.996829
962.999918	0.997054
963.299414	0.996664
963.598873	0.995367
963.898293	0.996551
964.197677	0.996183
964.497022	0.995654
964.796331	0.998022
965.095601	0.996442
965.394835	0.996382
965.694030	0.996142
965.993189	0.997672
966.292309	0.996168
966.591393	0.997455
966.890439	0.997360
967.189447	0.996990
967.488419	0.997592
967.787353	0.995985
968.086249	0.996657
968.385108	0.996557
968.683930	0.997440
968.982714	0.996868
969.281462	0.997465
969.580172	0.996045
969.878844	0.997819
970.177480	0.997983
970.476078	0.997045
970.774639	0.996478
971.073162	0.997804
971.371649	0.995946
971.670098	0.996358
971.968510	0.996884
972.266885	0.995132
972.565223	0.996252
972.863524	0.996982
973.161788	0.994898
973.460014	0.997890
973.758204	0.996549
974.056356	0.996610
974.354471	0.995038
974.652550	0.996431
974.950591	0.997136
975.248595	0.995438
975.546563	0.996807
975.844493	0.998578
976.142386	0.997527
976.440243	0.997147
976.738062	0.997430
977.035845	0.998840
977.333590	0.997044
977.631299	0.998193
977.928971	0.996546
978.226606	0.996665
978.524204	0.996138
978.821765	0.998070
979.119290	0.997145
979.416777	0.997138
979.714228	0.998449
980.011642	0.995504
980.309020	0.997599
980.606360	0.996492
980.903664	0.998574
981.200931	0.996120
981.498162	0.994474
981.795356	0.995405
982.092513	0.994100
982.389633	0.995005
982.686717	0.991495
982.983764	0.990681
983.280775	0.990939
983.577749	0.990624
983.874686	0.992727
984.171587	0.992350
984.468451	0.994587
984.765279	0.995461
985.062070	0.994796
985.358824	0.994204
985.655543	0.995483
985.952224	0.995866
986.248869	0.996137
986.545478	0.997604
986.842050	0.998314
987.138586	0.994515
987.435086	0.997344
987.731549	0.998583
988.027975	0.997850
988.324366	0.998262
988.620719	0.997945
988.917037	0.996745
989.213318	0.998404
989.509563	0.997933
989.805772	0.998754
990.101944	0.998193
990.398080	0.997294
990.694180	0.997982
990.990244	0.997711
991.286271	0.999126
991.582262	0.998356
991.878217	0.997798
992.174136	0.998734
992.470019	0.999695
992.765865	0.997326
993.061676	0.997639
993.357450	0.998296
993.653188	0.996843
993.948890	0.997272
994.244556	0.997511
994.540186	0.997020
994.835780	0.997589
995.131337	0.998690
995.426859	0.996930
995.722345	0.996339
996.017795	0.997356
996.313208	0.995876
996.608586	0.996353
996.903928	0.997492
997.199234	0.995906
997.494504	0.996875
997.789738	0.996434
998.084936	0.995988
998.380099	0.998637
998.675225	0.997252
998.970316	0.998093
999.265371	0.997437
999.560390	0.998134
999.855373	0.998838
1000.150320	0.998769
1000.445232	0.998216
1000.740108	0.998777
1001.034948	0.997785
1001.329752	0.998707
1001.624521	0.997588
1001.919254	0.998138
1002.213951	0.997478
1002.508613	0.997747
1002.803239	0.999004
1003.097829	0.999615
1003.392384	0.998509
1003.686903	0.997483
1003.981386	0.998396
1004.275834	0.999736
1004.570246	0.998721
1004.864623	0.998997
1005.158964	0.999679
1005.453270	0.997783
1005.747540	0.997789
1006.041775	0.998126
1006.335974	0.999395
1006.630138	0.997962
1006.924266	1.001190
1007.218359	0.999447
1007.512416	0.999464
1007.806438	0.998570
1008.100425	0.998332
1008.394376	0.998216
1008.688292	0.998899
1008.982172	1.001152
1009.276017	0.998743
1009.569827	0.999167
1009.863602	0.999909
1010.157341	0.999513
1010.451045	0.998746
1010.744714	0.998434
1011.038347	0.998898
1011.331945	0.999904
1011.625508	0.998277
1011.919036	0.999098
1012.212528	0.999329
1012.505986	0.996939
1012.799408	0.998944
1013.092795	0.999051
1013.386147	1.000600
1013.679464	0.998796
1013.972745	0.998330
1014.265992	0.996475
1014.559204	0.998470
1014.852380	0.998803
1015.145521	0.998422
1015.438628	0.999397
1015.731699	0.998006
1016.024736	0.999098
1016.317737	0.998394
1016.610703	0.998927
1016.903635	1.000387
1017.196531	0.998760
1017.489393	0.999134
1017.782219	0.998774
1018.075011	0.999017
1018.367768	0.999380
1018.660490	0.999263
1018.953177	0.999263
1019.245829	0.999263
