Dividing Wavelength (nm)	Counts (n)	Blue Motor Position (mm): 0.000000	Red Motor Position (mm): 26.700000	
326.493990	1.000253
326.888308	1.000253
327.282561	1.000253
327.676750	0.999830
328.070874	0.998247
328.464933	0.999982
328.858929	0.999499
329.252859	0.999386
329.646726	1.000031
330.040528	0.999309
330.434265	0.998916
330.827938	0.999780
331.221547	1.000480
331.615091	1.000186
332.008571	0.999619
332.401986	1.000326
332.795338	1.000645
333.188625	0.998636
333.581847	0.999592
333.975006	0.999564
334.368100	0.999532
334.761129	0.999962
335.154095	1.000416
335.546996	0.998113
335.939833	0.993289
336.332606	0.994411
336.725315	0.996342
337.117960	0.995002
337.510540	0.995439
337.903056	0.994958
338.295508	0.994309
338.687896	0.996181
339.080220	0.994042
339.472480	0.995071
339.864676	0.994937
340.256807	0.994674
340.648875	0.995887
341.040879	0.994702
341.432818	0.995433
341.824694	0.994894
342.216506	0.995221
342.608253	0.994802
342.999937	0.994250
343.391557	0.995086
343.783113	0.994242
344.174605	0.994812
344.566033	0.995504
344.957397	0.993644
345.348697	0.994630
345.739934	0.994025
346.131106	0.995542
346.522215	0.993744
346.913260	0.994529
347.304241	0.995176
347.695159	0.994792
348.086012	0.993848
348.476802	0.995565
348.867528	0.993717
349.258191	0.993725
349.648789	0.996479
350.039324	0.994403
350.429796	0.995944
350.820203	0.995912
351.210548	0.994887
351.600828	0.994675
351.991045	0.995608
352.381198	0.993737
352.771288	0.994668
353.161314	0.994289
353.551276	0.994846
353.941175	0.994533
354.331010	0.995001
354.720782	0.995462
355.110490	0.993567
355.500135	0.995930
355.889717	0.995133
356.279235	0.995403
356.668689	0.995068
357.058080	0.995293
357.447408	0.994977
357.836672	0.995889
358.225873	0.995760
358.615010	0.995298
359.004084	0.995621
359.393095	0.995290
359.782043	0.994801
360.170927	0.995760
360.559748	0.995605
360.948505	0.994662
361.337199	0.993874
361.725830	0.995297
362.114398	0.994674
362.502903	0.995719
362.891344	0.996148
363.279722	0.994802
363.668037	0.995589
364.056289	0.995762
364.444478	0.995850
364.832603	0.995012
365.220665	0.993926
365.608665	0.995537
365.996601	0.993527
366.384474	0.995379
366.772284	0.994801
367.160031	0.993826
367.547715	0.994026
367.935336	0.994730
368.322893	0.994193
368.710388	0.993927
369.097820	0.994494
369.485189	0.994212
369.872495	0.994580
370.259738	0.993242
370.646918	0.995094
371.034035	0.995854
371.421090	0.994119
371.808081	0.994436
372.195010	0.996110
372.581875	0.994348
372.968678	0.995603
373.355418	0.994741
373.742096	0.995604
374.128710	0.995757
374.515262	0.994618
374.901751	0.995508
375.288177	0.995716
375.674540	0.995978
376.060841	0.994619
376.447079	0.995781
376.833254	0.995891
377.219367	0.995809
377.605417	0.995755
377.991404	0.995978
378.377329	0.996422
378.763191	0.994783
379.148991	0.996658
379.534727	0.995945
379.920402	0.995647
380.306013	0.996579
380.691563	0.997328
381.077049	0.995853
381.462474	0.997411
381.847835	0.997439
382.233134	0.996059
382.618371	0.996741
383.003545	0.996395
383.388657	0.995630
383.773706	0.996839
384.158693	0.996566
384.543618	0.995625
384.928480	0.997044
385.313280	0.996276
385.698017	0.998223
386.082692	0.998141
386.467305	0.997068
386.851856	0.996383
387.236344	0.995600
387.620770	0.995432
388.005133	0.997926
388.389435	0.997473
388.773674	0.997387
389.157851	0.997443
389.541965	0.997384
389.926018	0.996927
390.310008	0.998464
390.693936	0.997464
391.077802	0.997454
391.461606	0.997293
391.845348	0.998084
392.229027	0.999660
392.612645	0.997215
392.996200	0.998527
393.379694	0.997787
393.763125	0.998623
394.146494	0.998532
394.529801	0.997098
394.913047	0.997886
395.296230	0.998327
395.679351	0.997065
396.062410	0.997288
396.445408	0.997750
396.828343	0.998649
397.211217	0.997624
397.594028	0.998486
397.976778	0.997305
398.359466	0.997267
398.742092	0.997071
399.124656	0.997927
399.507158	0.997150
399.889598	0.998142
400.271977	0.998613
400.654294	0.998475
401.036549	0.998250
401.418742	0.998829
401.800874	0.997788
402.182944	0.998216
402.564952	0.997240
402.946898	0.998443
403.328783	0.998850
403.710606	0.998538
404.092367	0.998687
404.474067	0.998578
404.855705	0.997250
405.237282	0.998043
405.618797	0.998422
406.000250	0.997659
406.381642	0.997992
406.762972	0.997567
407.144240	0.999515
407.525447	0.999037
407.906593	0.998498
408.287677	0.998654
408.668700	0.998898
409.049661	0.997631
409.430560	0.998619
409.811399	0.997723
410.192176	0.998702
410.572891	0.998330
410.953545	0.998323
411.334138	0.996688
411.714669	0.998239
412.095139	0.998386
412.475547	0.998512
412.855894	0.998345
413.236180	0.998358
413.616405	0.997993
413.996568	0.999357
414.376670	0.997896
414.756711	0.998160
415.136691	0.998747
415.516609	0.997945
415.896466	0.998008
416.276262	0.996852
416.655997	0.998277
417.035670	0.997995
417.415283	0.998368
417.794834	0.997425
418.174324	0.998070
418.553753	0.998924
418.933121	0.999063
419.312428	0.998314
419.691674	0.999149
420.070859	0.999140
420.449983	0.999564
420.829045	0.998297
421.208047	0.999139
421.586988	0.999461
421.965867	0.998384
422.344686	0.999463
422.723444	0.998660
423.102141	0.998694
423.480777	0.999402
423.859352	0.997963
424.237866	0.998310
424.616319	0.998604
424.994712	0.998431
425.373044	0.999357
425.751314	0.998734
426.129524	0.998052
426.507673	0.998937
426.885762	0.999661
427.263789	0.998488
427.641756	0.998509
428.019662	0.999133
428.397508	0.998257
428.775292	0.997044
429.153016	0.998568
429.530679	0.998468
429.908282	0.999457
430.285824	0.997846
430.663305	0.998830
431.040726	0.997983
431.418086	0.999336
431.795385	0.999341
432.172624	0.998350
432.549802	0.999007
432.926920	0.999378
433.303977	0.997547
433.680974	0.998701
434.057910	0.997565
434.434786	0.998319
434.811601	0.998011
435.188355	0.996901
435.565050	0.996574
435.941683	0.998342
436.318257	0.998036
436.694770	0.997845
437.071222	0.998649
437.447614	0.997969
437.823946	0.998341
438.200218	0.997718
438.576429	0.998311
438.952580	0.998278
439.328670	0.997129
439.704700	0.997813
440.080670	0.997889
440.456580	0.996255
440.832429	0.995919
441.208218	0.995592
441.583947	0.995814
441.959616	0.996488
442.335224	0.994206
442.710773	0.995165
443.086261	0.993630
443.461689	0.993456
443.837057	0.992739
444.212365	0.992038
444.587612	0.991281
444.962800	0.989898
445.337927	0.989820
445.712995	0.989688
446.088002	0.988313
446.462949	0.986594
446.837837	0.985974
447.212664	0.985016
447.587431	0.982393
447.962139	0.979885
448.336786	0.977156
448.711374	0.976389
449.085901	0.975831
449.460369	0.974350
449.834776	0.972061
450.209124	0.969010
450.583412	0.965184
450.957640	0.964135
451.331808	0.962183
451.705917	0.960642
452.079965	0.957479
452.453954	0.954504
452.827883	0.952900
453.201752	0.950473
453.575562	0.948264
453.949311	0.943773
454.323001	0.940790
454.696632	0.936813
455.070202	0.932195
455.443713	0.926909
455.817164	0.923010
456.190556	0.917912
456.563888	0.913084
456.937160	0.908311
457.310373	0.906762
457.683526	0.901969
458.056619	0.897663
458.429653	0.893080
458.802628	0.888456
459.175542	0.881980
459.548398	0.873376
459.921194	0.865568
460.293930	0.859630
460.666607	0.844978
461.039224	0.835080
461.411782	0.829045
461.784280	0.822646
462.156719	0.818899
462.529099	0.813618
462.901419	0.811125
463.273680	0.806281
463.645882	0.800058
464.018024	0.793276
464.390106	0.784207
464.762130	0.772533
465.134094	0.756644
465.505999	0.736027
465.877845	0.717089
466.249631	0.706232
466.621358	0.702419
466.993026	0.698551
467.364634	0.692638
467.736184	0.688018
468.107674	0.683435
468.479105	0.672730
468.850477	0.670264
469.221790	0.663997
469.593043	0.659669
469.964238	0.653117
470.335373	0.643989
470.706449	0.635340
471.077467	0.627866
471.448425	0.598611
471.819324	0.577576
472.190164	0.569826
472.560945	0.578087
472.931667	0.580915
473.302330	0.575909
473.672934	0.575225
474.043479	0.559733
474.413965	0.553251
474.784393	0.547630
475.154761	0.536263
475.525070	0.526852
475.895321	0.524010
476.265513	0.511895
476.635645	0.501895
477.005719	0.494172
477.375734	0.485014
477.745691	0.473673
478.115588	0.463651
478.485427	0.451978
478.855207	0.436548
479.224928	0.417391
479.594591	0.403324
479.964194	0.397784
480.333739	0.392151
480.703226	0.384292
481.072653	0.377790
481.442022	0.369134
481.811333	0.360602
482.180584	0.357253
482.549777	0.354649
482.918912	0.352789
483.287988	0.346880
483.657005	0.341750
484.025964	0.341847
484.394864	0.333992
484.763706	0.329575
485.132489	0.329375
485.501213	0.325223
485.869879	0.319654
486.238487	0.317979
486.607036	0.312621
486.975527	0.312398
487.343959	0.305183
487.712333	0.300485
488.080648	0.298687
488.448905	0.294578
488.817104	0.292619
489.185244	0.284292
489.553326	0.278556
489.921350	0.267001
490.289315	0.247942
490.657222	0.240959
491.025070	0.239308
491.392861	0.238931
491.760593	0.241445
492.128267	0.244510
492.495883	0.247447
492.863440	0.251452
493.230939	0.255596
493.598380	0.255246
493.965763	0.255585
494.333088	0.256809
494.700354	0.256445
495.067563	0.254391
495.434713	0.256331
495.801805	0.252630
496.168839	0.253130
496.535815	0.253496
496.902733	0.252712
497.269593	0.253301
497.636395	0.250311
498.003139	0.249856
498.369825	0.252176
498.736453	0.247911
499.103023	0.248895
499.469535	0.247687
499.835989	0.247685
500.202385	0.248092
500.568723	0.250596
500.935003	0.245527
501.301226	0.249280
501.667390	0.243151
502.033497	0.240978
502.399546	0.243763
502.765537	0.245149
503.131470	0.243354
503.497345	0.239435
503.863163	0.247931
504.228923	0.240886
504.594625	0.239146
504.960269	0.244218
505.325856	0.239524
505.691385	0.243495
506.056856	0.240238
506.422270	0.239448
506.787625	0.241882
507.152924	0.239135
507.518164	0.239657
507.883347	0.241161
508.248472	0.242488
508.613540	0.237588
508.978550	0.240138
509.343503	0.240228
509.708398	0.237887
510.073236	0.235487
510.438016	0.235530
510.802738	0.236015
511.167403	0.234970
511.532010	0.236929
511.896561	0.232473
512.261053	0.230875
512.625488	0.233069
512.989866	0.233394
513.354186	0.233629
513.718449	0.235105
514.082655	0.231659
514.446803	0.233860
514.810894	0.231448
515.174927	0.234235
515.538904	0.233369
515.902822	0.230309
516.266684	0.232686
516.630488	0.233679
516.994235	0.232341
517.357925	0.231050
517.721558	0.229457
518.085133	0.229073
518.448651	0.229032
518.812112	0.230873
519.175516	0.230985
519.538863	0.228480
519.902152	0.230197
520.265385	0.226934
520.628560	0.229008
520.991678	0.229177
521.354739	0.228120
521.717743	0.229305
522.080690	0.229753
522.443580	0.227127
522.806413	0.227875
523.169189	0.227057
523.531908	0.226304
523.894569	0.229513
524.257174	0.229777
524.619722	0.227341
524.982213	0.228549
525.344647	0.227180
525.707025	0.228056
526.069345	0.226219
526.431608	0.227788
526.793815	0.225567
527.155964	0.229788
527.518057	0.228916
527.880093	0.229896
528.242072	0.228830
528.603995	0.230597
528.965860	0.232169
529.327669	0.230656
529.689421	0.231713
530.051117	0.232387
530.412755	0.230467
530.774337	0.232720
531.135862	0.232981
531.497331	0.232099
531.858743	0.235122
532.220098	0.231939
532.581396	0.234437
532.942638	0.234970
533.303824	0.235563
533.664953	0.235635
534.026025	0.237261
534.387040	0.235345
534.747999	0.235068
535.108902	0.234173
535.469748	0.238964
535.830537	0.236877
536.191270	0.237573
536.551947	0.236963
536.912567	0.236894
537.273131	0.238461
537.633638	0.238749
537.994089	0.239311
538.354483	0.240410
538.714821	0.237336
539.075103	0.236934
539.435328	0.237631
539.795497	0.241416
540.155609	0.238273
540.515665	0.236049
540.875665	0.241930
541.235609	0.240425
541.595496	0.240684
541.955328	0.237161
542.315102	0.239613
542.674821	0.240635
543.034483	0.240922
543.394090	0.240469
543.753640	0.242498
544.113134	0.237317
544.472571	0.240682
544.831953	0.237246
545.191278	0.241549
545.550548	0.241056
545.909761	0.237909
546.268918	0.238522
546.628019	0.236949
546.987064	0.239803
547.346053	0.241307
547.704986	0.239123
548.063863	0.239847
548.422684	0.239817
548.781449	0.241886
549.140158	0.239259
549.498811	0.242242
549.857408	0.245211
550.215949	0.240132
550.574434	0.243054
550.932864	0.241303
551.291237	0.239787
551.649555	0.241495
552.007817	0.240952
552.366022	0.241591
552.724173	0.242048
553.082267	0.242451
553.440305	0.239346
553.798288	0.243622
554.156215	0.240248
554.514086	0.240710
554.871902	0.244036
555.229661	0.243308
555.587365	0.243786
555.945014	0.246221
556.302606	0.242997
556.660143	0.245789
557.017625	0.242221
557.375050	0.244324
557.732421	0.241450
558.089735	0.243568
558.446994	0.243793
558.804197	0.242727
559.161345	0.242900
559.518437	0.246213
559.875474	0.243899
560.232455	0.243416
560.589381	0.244455
560.946251	0.244597
561.303065	0.242147
561.659825	0.244104
562.016528	0.245230
562.373177	0.248057
562.729770	0.245351
563.086307	0.247218
563.442789	0.245425
563.799216	0.247949
564.155587	0.246595
564.511904	0.247618
564.868164	0.248113
565.224370	0.247789
565.580520	0.249685
565.936615	0.249472
566.292654	0.252418
566.648638	0.249490
567.004567	0.250142
567.360441	0.250591
567.716260	0.252809
568.072023	0.250795
568.427732	0.251474
568.783385	0.253702
569.138982	0.252046
569.494525	0.251630
569.850013	0.254465
570.205445	0.252858
570.560823	0.255465
570.916145	0.257145
571.271412	0.255547
571.626625	0.257147
571.981782	0.257575
572.336884	0.258376
572.691931	0.258307
573.046923	0.259202
573.401860	0.260535
573.756743	0.262473
574.111570	0.261449
574.466342	0.261592
574.821059	0.260828
575.175722	0.263541
575.530330	0.263448
575.884882	0.263616
576.239380	0.265698
576.593823	0.266094
576.948211	0.265948
577.302544	0.268753
577.656823	0.268312
578.011047	0.268684
578.365216	0.269252
578.719330	0.271172
579.073389	0.271013
579.427394	0.272531
579.781344	0.273055
580.135239	0.274553
580.489080	0.274210
580.842866	0.277235
581.196597	0.277387
581.550273	0.275831
581.903895	0.277003
582.257463	0.274935
582.610975	0.278237
582.964434	0.277668
583.317837	0.280373
583.671186	0.280590
584.024481	0.280658
584.377721	0.282975
584.730906	0.283675
585.084037	0.282667
585.437113	0.284730
585.790135	0.284253
586.143103	0.286746
586.496016	0.288216
586.848874	0.285698
587.201679	0.286464
587.554428	0.289884
587.907124	0.288402
588.259765	0.289345
588.612352	0.289512
588.964884	0.293552
589.317362	0.293334
589.669786	0.292970
590.022155	0.291708
590.374470	0.290760
590.726731	0.293149
591.078937	0.297532
591.431090	0.294148
591.783188	0.298153
592.135232	0.298706
592.487222	0.298797
592.839157	0.296795
593.191038	0.298968
593.542866	0.301048
593.894639	0.304545
594.246358	0.302511
594.598022	0.302089
594.949633	0.305655
595.301190	0.306383
595.652692	0.305628
596.004141	0.301743
596.355535	0.310013
596.706876	0.310187
597.058162	0.312466
597.409395	0.310307
597.760573	0.307651
598.111698	0.310718
598.462768	0.311553
598.813785	0.312623
599.164748	0.313850
599.515657	0.314347
599.866511	0.317752
600.217312	0.312756
600.568060	0.318468
600.918753	0.314621
601.269392	0.315510
601.619978	0.318971
601.970510	0.316655
602.320988	0.316495
602.671412	0.314645
603.021783	0.316854
603.372100	0.318441
603.722363	0.317704
604.072572	0.318553
604.422728	0.318578
604.772830	0.320521
605.122878	0.320081
605.472872	0.320442
605.822813	0.319039
606.172701	0.321438
606.522534	0.318995
606.872314	0.319358
607.222041	0.320054
607.571714	0.318490
607.921333	0.319408
608.270899	0.319376
608.620411	0.315899
608.969870	0.319825
609.319276	0.320061
609.668627	0.319854
610.017926	0.318359
610.367171	0.316902
610.716362	0.317468
611.065500	0.318156
611.414585	0.316567
611.763616	0.316956
612.112594	0.317632
612.461518	0.317589
612.810389	0.314424
613.159207	0.317164
613.507971	0.318920
613.856682	0.314655
614.205340	0.316108
614.553945	0.313170
614.902496	0.317117
615.250994	0.315462
615.599439	0.315814
615.947830	0.315210
616.296169	0.316223
616.644454	0.315662
616.992686	0.316038
617.340864	0.313169
617.688990	0.317519
618.037063	0.313927
618.385082	0.315669
618.733048	0.312871
619.080961	0.314709
619.428821	0.314545
619.776628	0.313820
620.124382	0.315855
620.472083	0.316110
620.819731	0.315490
621.167326	0.319136
621.514868	0.318826
621.862357	0.323602
622.209793	0.323000
622.557176	0.325355
622.904506	0.326362
623.251783	0.328581
623.599007	0.330997
623.946179	0.330707
624.293297	0.332191
624.640363	0.336115
624.987376	0.336783
625.334336	0.339119
625.681243	0.341533
626.028097	0.342236
626.374899	0.343057
626.721647	0.343359
627.068343	0.346956
627.414987	0.347625
627.761577	0.350031
628.108115	0.348117
628.454600	0.353467
628.801032	0.350927
629.147412	0.352600
629.493739	0.352817
629.840014	0.356169
630.186236	0.353036
630.532405	0.359249
630.878521	0.356585
631.224585	0.359247
631.570597	0.362080
631.916556	0.360564
632.262462	0.361296
632.608316	0.362715
632.954117	0.363746
633.299866	0.364801
633.645562	0.365010
633.991206	0.369424
634.336797	0.372314
634.682336	0.374719
635.027823	0.376449
635.373257	0.376833
635.718639	0.380710
636.063968	0.379241
636.409245	0.385223
636.754470	0.385607
637.099642	0.388304
637.444762	0.391569
637.789829	0.390722
638.134845	0.394169
638.479808	0.395476
638.824719	0.394678
639.169577	0.399093
639.514383	0.397406
639.859137	0.401889
640.203839	0.402061
640.548489	0.402469
640.893086	0.403732
641.237632	0.405041
641.582125	0.403517
641.926566	0.405298
642.270955	0.405493
642.615292	0.405570
642.959576	0.405067
643.303809	0.405715
643.647990	0.404992
643.992118	0.405447
644.336195	0.408958
644.680219	0.407464
645.024192	0.408391
645.368112	0.401911
645.711981	0.400784
646.055797	0.396098
646.399562	0.398200
646.743274	0.390840
647.086935	0.387704
647.430544	0.387994
647.774101	0.386318
648.117606	0.386623
648.461059	0.387131
648.804460	0.389130
649.147810	0.394772
649.491108	0.396208
649.834354	0.397678
650.177548	0.403460
650.520690	0.409123
650.863781	0.409940
651.206820	0.408908
651.549807	0.413787
651.892742	0.417891
652.235626	0.417064
652.578458	0.418335
652.921238	0.423805
653.263967	0.422385
653.606644	0.426037
653.949269	0.425454
654.291843	0.429579
654.634365	0.426390
654.976836	0.429529
655.319255	0.429418
655.661622	0.431298
656.003938	0.431541
656.346203	0.433983
656.688416	0.432010
657.030577	0.435226
657.372687	0.437610
657.714746	0.438337
658.056753	0.435142
658.398708	0.438963
658.740612	0.440509
659.082465	0.436679
659.424266	0.437333
659.766016	0.436442
660.107715	0.439152
660.449362	0.437829
660.790958	0.438281
661.132503	0.439109
661.473996	0.437149
661.815438	0.437648
662.156829	0.438127
662.498168	0.438666
662.839456	0.440361
663.180693	0.437835
663.521879	0.437719
663.863013	0.439011
664.204097	0.437003
664.545129	0.434300
664.886110	0.434443
665.227040	0.431718
665.567918	0.434344
665.908746	0.432375
666.249522	0.432002
666.590248	0.432942
666.930922	0.431569
667.271545	0.430019
667.612118	0.430528
667.952639	0.432119
668.293109	0.430599
668.633528	0.433487
668.973896	0.433389
669.314213	0.433742
669.654480	0.435255
669.994695	0.435449
670.334859	0.436360
670.674973	0.436855
671.015035	0.436920
671.355047	0.436770
671.695008	0.437704
672.034918	0.439537
672.374777	0.439067
672.714585	0.440090
673.054342	0.440002
673.394049	0.440513
673.733705	0.437917
674.073310	0.438510
674.412864	0.441945
674.752368	0.442781
675.091820	0.442788
675.431223	0.447169
675.770574	0.447213
676.109875	0.449298
676.449125	0.449851
676.788324	0.452251
677.127473	0.457695
677.466571	0.457464
677.805619	0.458908
678.144616	0.460060
678.483562	0.461971
678.822458	0.464472
679.161303	0.465793
679.500098	0.465412
679.838842	0.467553
680.177535	0.466857
680.516179	0.465523
680.854771	0.464631
681.193314	0.458124
681.531805	0.449885
681.870247	0.437487
682.208638	0.430123
682.546978	0.429386
682.885268	0.431188
683.223508	0.437428
683.561697	0.441031
683.899836	0.443538
684.237925	0.447324
684.575963	0.449880
684.913951	0.453028
685.251889	0.448866
685.589776	0.450700
685.927614	0.452774
686.265401	0.447312
686.603137	0.448797
686.940824	0.442292
687.278460	0.440771
687.616046	0.440178
687.953582	0.434828
688.291068	0.436240
688.628504	0.432265
688.965889	0.434296
689.303224	0.438691
689.640510	0.442534
689.977745	0.448066
690.314930	0.456062
690.652065	0.460647
690.989150	0.467908
691.326185	0.474246
691.663170	0.479330
692.000105	0.485967
692.336990	0.492660
692.673825	0.495522
693.010610	0.502775
693.347345	0.508147
693.684030	0.509508
694.020665	0.513942
694.357251	0.522886
694.693786	0.522958
695.030272	0.527099
695.366707	0.530449
695.703093	0.533668
696.039429	0.531107
696.375716	0.533040
696.711952	0.536314
697.048139	0.537658
697.384276	0.539882
697.720363	0.537754
698.056400	0.537368
698.392388	0.543346
698.728326	0.545859
699.064214	0.548120
699.400053	0.549251
699.735842	0.552727
700.071581	0.555502
700.407270	0.558138
700.742910	0.560909
701.078501	0.567837
701.414042	0.567695
701.749533	0.571212
702.084974	0.579860
702.420366	0.572059
702.755709	0.579968
703.091002	0.587364
703.426246	0.581086
703.761440	0.586505
704.096584	0.590867
704.431679	0.588589
704.766725	0.590657
705.101721	0.592066
705.436668	0.588388
705.771565	0.594739
706.106413	0.591829
706.441212	0.587710
706.775961	0.586092
707.110661	0.589129
707.445311	0.585508
707.779913	0.582574
708.114465	0.580763
708.448967	0.578016
708.783421	0.569729
709.117825	0.564780
709.452180	0.564537
709.786485	0.557591
710.120742	0.548120
710.454949	0.550142
710.789107	0.542850
711.123216	0.533338
711.457275	0.535384
711.791286	0.525868
712.125247	0.525157
712.459159	0.535566
712.793023	0.527835
713.126837	0.532053
713.460602	0.532735
713.794318	0.542137
714.127985	0.541171
714.461602	0.551217
714.795171	0.554032
715.128691	0.561557
715.462162	0.569266
715.795584	0.575031
716.128957	0.577368
716.462281	0.584665
716.795556	0.588594
717.128782	0.592625
717.461960	0.602916
717.795088	0.600459
718.128167	0.606998
718.461198	0.615969
718.794180	0.616450
719.127113	0.619449
719.459997	0.622563
719.792833	0.628947
720.125619	0.629806
720.458357	0.636081
720.791046	0.635500
721.123686	0.638814
721.456278	0.645816
721.788821	0.643184
722.121315	0.647096
722.453761	0.651304
722.786158	0.649354
723.118506	0.645823
723.450805	0.654435
723.783056	0.649739
724.115259	0.646336
724.447412	0.646411
724.779518	0.648152
725.111574	0.646389
725.443582	0.642655
725.775542	0.644800
726.107453	0.636838
726.439315	0.636678
726.771129	0.634422
727.102895	0.628071
727.434612	0.622010
727.766281	0.619138
728.097901	0.618533
728.429473	0.618754
728.760996	0.616749
729.092471	0.616939
729.423897	0.621456
729.755276	0.619573
730.086606	0.619643
730.417887	0.614083
730.749120	0.605223
731.080305	0.596630
731.411442	0.592600
731.742530	0.597689
732.073570	0.596366
732.404562	0.588329
732.735506	0.589449
733.066401	0.595238
733.397249	0.603435
733.728048	0.615491
734.058798	0.627721
734.389501	0.638868
734.720156	0.647927
735.050762	0.656216
735.381320	0.656526
735.711831	0.666541
736.042293	0.670993
736.372707	0.666075
736.703073	0.671122
737.033391	0.673391
737.363661	0.670570
737.693883	0.665500
738.024056	0.665148
738.354182	0.664290
738.684260	0.654808
739.014290	0.651054
739.344272	0.650762
739.674207	0.645244
740.004093	0.644815
740.333931	0.644659
740.663722	0.644460
740.993464	0.645567
741.323159	0.649141
741.652806	0.654177
741.982405	0.659060
742.311956	0.663780
742.641460	0.666097
742.970915	0.669598
743.300323	0.676525
743.629683	0.683810
743.958996	0.685443
744.288260	0.689631
744.617477	0.695679
744.946647	0.696498
745.275768	0.702490
745.604842	0.701698
745.933869	0.712444
746.262847	0.713227
746.591778	0.706179
746.920662	0.712627
747.249498	0.718624
747.578286	0.710343
747.907027	0.705779
748.235720	0.707405
748.564365	0.702033
748.892963	0.701738
749.221514	0.703943
749.550017	0.710067
749.878473	0.709512
750.206881	0.715627
750.535242	0.717254
750.863555	0.716981
751.191821	0.717747
751.520039	0.721115
751.848210	0.726096
752.176334	0.718521
752.504411	0.717982
752.832440	0.725412
753.160421	0.728557
753.488356	0.727697
753.816243	0.725657
754.144082	0.733752
754.471875	0.737023
754.799620	0.732149
755.127318	0.734303
755.454969	0.733238
755.782572	0.733072
756.110129	0.738338
756.437638	0.740077
756.765100	0.736832
757.092515	0.734627
757.419882	0.734618
757.747203	0.739230
758.074477	0.737778
758.401703	0.735766
758.728882	0.731820
759.056014	0.729985
759.383099	0.728815
759.710138	0.730282
760.037129	0.726888
760.364073	0.720675
760.690970	0.723260
761.017820	0.728196
761.344623	0.724081
761.671379	0.715266
761.998088	0.703912
762.324751	0.681456
762.651366	0.639817
762.977935	0.572939
763.304456	0.521421
763.630931	0.511966
763.957359	0.550647
764.283740	0.595217
764.610074	0.622093
764.936362	0.652332
765.262602	0.679276
765.588796	0.701468
765.914943	0.718199
766.241044	0.736659
766.567097	0.742817
766.893104	0.752334
767.219064	0.758884
767.544978	0.765791
767.870845	0.778788
768.196665	0.782851
768.522438	0.780533
768.848165	0.781881
769.173846	0.791085
769.499479	0.794832
769.825066	0.797720
770.150607	0.802808
770.476101	0.798392
770.801548	0.799631
771.126949	0.811391
771.452303	0.815383
771.777611	0.815126
772.102872	0.813171
772.428087	0.818309
772.753256	0.821577
773.078378	0.824320
773.403453	0.833063
773.728482	0.837411
774.053465	0.829804
774.378401	0.834217
774.703291	0.843392
775.028135	0.842537
775.352932	0.844031
775.677683	0.846973
776.002388	0.846928
776.327046	0.846329
776.651658	0.849008
776.976224	0.852873
777.300743	0.853026
777.625216	0.855759
777.949643	0.856631
778.274024	0.858474
778.598359	0.859856
778.922647	0.857559
779.246889	0.859047
779.571086	0.862094
779.895236	0.864573
780.219339	0.862052
780.543397	0.859165
780.867409	0.857207
781.191374	0.859612
781.515294	0.860334
781.839167	0.859662
782.162995	0.863637
782.486776	0.859408
782.810511	0.861093
783.134201	0.865079
783.457844	0.861235
783.781441	0.865267
784.104993	0.870622
784.428498	0.871860
784.751958	0.867852
785.075372	0.868531
785.398739	0.873226
785.722061	0.869666
786.045337	0.865002
786.368568	0.870584
786.691752	0.873081
787.014891	0.858024
787.337983	0.849098
787.661030	0.841697
787.984031	0.824093
788.306987	0.811144
788.629897	0.813656
788.952760	0.818190
789.275579	0.821526
789.598351	0.836727
789.921078	0.850961
790.243759	0.852376
790.566395	0.857499
790.888984	0.864647
791.211529	0.869337
791.534027	0.872898
791.856480	0.874476
792.178888	0.879331
792.501249	0.882259
792.823566	0.883277
793.145836	0.883662
793.468062	0.885085
793.790241	0.885681
794.112375	0.884432
794.434464	0.879467
794.756507	0.879050
795.078505	0.878662
795.400457	0.873750
795.722364	0.860261
796.044226	0.853637
796.366042	0.853186
796.687812	0.856240
797.009538	0.852238
797.331218	0.854588
797.652852	0.860411
797.974442	0.864497
798.295986	0.865542
798.617484	0.868724
798.938938	0.871609
799.260346	0.877662
799.581709	0.878659
799.903026	0.880396
800.224299	0.881089
800.545526	0.885080
800.866708	0.889418
801.187845	0.893270
801.508936	0.892248
801.829983	0.890303
802.150984	0.893335
802.471940	0.897871
802.792851	0.897730
803.113717	0.899057
803.434538	0.896144
803.755314	0.899860
804.076045	0.901190
804.396731	0.901695
804.717372	0.899477
805.037967	0.903488
805.358518	0.899860
805.679024	0.896332
805.999485	0.897845
806.319901	0.897267
806.640272	0.898849
806.960598	0.896748
807.280879	0.894052
807.601115	0.892496
807.921306	0.896264
808.241453	0.896161
808.561554	0.895573
808.881611	0.894440
809.201623	0.896950
809.521590	0.897526
809.841513	0.897847
810.161390	0.897579
810.481223	0.897566
810.801011	0.902316
811.120755	0.903078
811.440453	0.903298
811.760107	0.901516
812.079716	0.901459
812.399281	0.904448
812.718801	0.905573
813.038276	0.908624
813.357707	0.907559
813.677093	0.905012
813.996434	0.907667
814.315731	0.909469
814.634983	0.908969
814.954191	0.909052
815.273354	0.906107
815.592473	0.901343
815.911547	0.902531
816.230577	0.898997
816.549562	0.897758
816.868502	0.897183
817.187399	0.894476
817.506250	0.888252
817.825058	0.889802
818.143821	0.887330
818.462539	0.881932
818.781213	0.874966
819.099843	0.863227
819.418429	0.847897
819.736970	0.831756
820.055466	0.811511
820.373919	0.785347
820.692327	0.753366
821.010691	0.719142
821.329011	0.642285
821.647286	0.528410
821.965517	0.415184
822.283704	0.372657
822.601847	0.374396
822.919945	0.410301
823.237999	0.442900
823.556010	0.489191
823.873976	0.544314
824.191897	0.594916
824.509775	0.637623
824.827609	0.682293
825.145398	0.704783
825.463144	0.706851
825.780845	0.689853
826.098502	0.670999
826.416116	0.626093
826.733685	0.582933
827.051210	0.574650
827.368692	0.589210
827.686129	0.625363
828.003522	0.678531
828.320872	0.725313
828.638177	0.768704
828.955439	0.801384
829.272656	0.823912
829.589830	0.840500
829.906960	0.855719
830.224046	0.867271
830.541088	0.878309
830.858086	0.882570
831.175041	0.887882
831.491952	0.887597
831.808819	0.883835
832.125642	0.877390
832.442421	0.862931
832.759157	0.841387
833.075849	0.796461
833.392497	0.732512
833.709101	0.691827
834.025662	0.701406
834.342179	0.733482
834.658653	0.771714
834.975083	0.807625
835.291469	0.833508
835.607811	0.855236
835.924110	0.870880
836.240366	0.888524
836.556578	0.902529
836.872746	0.909315
837.188871	0.915827
837.504952	0.921332
837.820990	0.924129
838.136984	0.928013
838.452935	0.929950
838.768842	0.931833
839.084706	0.926504
839.400526	0.899852
839.716303	0.860549
840.032037	0.838189
840.347727	0.841978
840.663373	0.860123
840.978977	0.880461
841.294537	0.902618
841.610054	0.918976
841.925527	0.926565
842.240957	0.934389
842.556344	0.941079
842.871687	0.947656
843.186987	0.950396
843.502244	0.951219
843.817458	0.952876
844.132629	0.955060
844.447756	0.960364
844.762840	0.961975
845.077881	0.960611
845.392879	0.961067
845.707833	0.963593
846.022745	0.965367
846.337613	0.965443
846.652438	0.966470
846.967221	0.964688
847.281960	0.965058
847.596656	0.967727
847.911309	0.966920
848.225919	0.968381
848.540485	0.968722
848.855009	0.971024
849.169490	0.969417
849.483928	0.968845
849.798323	0.969727
850.112675	0.970416
850.426984	0.969969
850.741251	0.970360
851.055474	0.970946
851.369654	0.968412
851.683792	0.969886
851.997887	0.971096
852.311938	0.970947
852.625947	0.970023
852.939914	0.968715
853.253837	0.969919
853.567718	0.970582
853.881555	0.970550
854.195350	0.968678
854.509103	0.970271
854.822812	0.970432
855.136479	0.970428
855.450103	0.970562
855.763685	0.967934
856.077224	0.967438
856.390720	0.970403
856.704173	0.971632
857.017584	0.968136
857.330953	0.967338
857.644278	0.969653
857.957561	0.969177
858.270802	0.968699
858.584000	0.968113
858.897155	0.966711
859.210268	0.968687
859.523339	0.968626
859.836367	0.970796
860.149352	0.971309
860.462295	0.968189
860.775195	0.969769
861.088054	0.969190
861.400869	0.970596
861.713642	0.971544
862.026373	0.971017
862.339062	0.971966
862.651708	0.968186
862.964312	0.968243
863.276873	0.970616
863.589392	0.968968
863.901869	0.967513
864.214303	0.964703
864.526696	0.964022
864.839045	0.964019
865.151353	0.961298
865.463619	0.963660
865.775842	0.962889
866.088023	0.962977
866.400162	0.962793
866.712258	0.963292
867.024313	0.962465
867.336325	0.963723
867.648296	0.963254
867.960224	0.961967
868.272110	0.962327
868.583954	0.964163
868.895755	0.964530
869.207515	0.962204
869.519233	0.960074
869.830909	0.961283
870.142542	0.962717
870.454134	0.962775
870.765684	0.961123
871.077191	0.958452
871.388657	0.958867
871.700081	0.959080
872.011463	0.958790
872.322803	0.958209
872.634101	0.957749
872.945357	0.955187
873.256571	0.954756
873.567744	0.952946
873.878874	0.954564
874.189963	0.952829
874.501010	0.951980
874.812015	0.950025
875.122979	0.952373
875.433900	0.953510
875.744780	0.955362
876.055618	0.951163
876.366415	0.950841
876.677169	0.950608
876.987882	0.952485
877.298554	0.951435
877.609183	0.949100
877.919771	0.945919
878.230317	0.942502
878.540822	0.941696
878.851285	0.936961
879.161707	0.928531
879.472087	0.916311
879.782425	0.900666
880.092722	0.866650
880.402977	0.815523
880.713191	0.756267
881.023363	0.698433
881.333494	0.665599
881.643583	0.637058
881.953631	0.635581
882.263637	0.665109
882.573602	0.704068
882.883526	0.729965
883.193408	0.752425
883.503248	0.774128
883.813048	0.801364
884.122806	0.830740
884.432522	0.854185
884.742197	0.873305
885.051831	0.883079
885.361424	0.892470
885.670975	0.904072
885.980485	0.915472
886.289954	0.920686
886.599382	0.925804
886.908768	0.929314
887.218113	0.935923
887.527417	0.940950
887.836680	0.943574
888.145901	0.944518
888.455082	0.949055
888.764221	0.951144
889.073319	0.954078
889.382376	0.953701
889.691392	0.954009
890.000366	0.953870
890.309300	0.953622
890.618193	0.953922
890.927044	0.952806
891.235855	0.953228
891.544625	0.952085
891.853353	0.953541
892.162041	0.951282
892.470687	0.944651
892.779293	0.938292
893.087858	0.935306
893.396381	0.927070
893.704864	0.915400
894.013306	0.891019
894.321707	0.865688
894.630068	0.850033
894.938387	0.845638
895.246665	0.847141
895.554903	0.859904
895.863100	0.872399
896.171256	0.889885
896.479371	0.908588
896.787446	0.920906
897.095480	0.928096
897.403473	0.928686
897.711425	0.932940
898.019336	0.940719
898.327207	0.944377
898.635038	0.946565
898.942827	0.946566
899.250576	0.949597
899.558284	0.954107
899.865952	0.955932
900.173579	0.955132
900.481165	0.956339
900.788711	0.960857
901.096216	0.961397
901.403681	0.962215
901.711105	0.963693
902.018489	0.963587
902.325832	0.963683
902.633135	0.962464
902.940397	0.957582
903.247619	0.945323
903.554800	0.920706
903.861941	0.881343
904.169041	0.845909
904.476101	0.829918
904.783121	0.830769
905.090100	0.846900
905.397039	0.866989
905.703938	0.888465
906.010796	0.909399
906.317614	0.924978
906.624391	0.935354
906.931129	0.945807
907.237826	0.953206
907.544483	0.960530
907.851099	0.963025
908.157675	0.968807
908.464211	0.971149
908.770707	0.973549
909.077163	0.974493
909.383578	0.975271
909.689954	0.974767
909.996289	0.976430
910.302584	0.978597
910.608839	0.981208
910.915054	0.979081
911.221229	0.979500
911.527363	0.978065
911.833458	0.977955
912.139513	0.977293
912.445527	0.976367
912.751502	0.974252
913.057436	0.972472
913.363331	0.970018
913.669186	0.967725
913.975000	0.962516
914.280775	0.955693
914.586510	0.950378
914.892205	0.935938
915.197859	0.915973
915.503475	0.888772
915.809050	0.870507
916.114585	0.866210
916.420081	0.863301
916.725536	0.859693
917.030952	0.867131
917.336328	0.879574
917.641665	0.895390
917.946961	0.909893
918.252218	0.922267
918.557435	0.929859
918.862612	0.938967
919.167750	0.944009
919.472848	0.949004
919.777906	0.954535
920.082925	0.958699
920.387904	0.962559
920.692843	0.963623
920.997743	0.964452
921.302603	0.968163
921.607423	0.969595
921.912204	0.972348
922.216946	0.973280
922.521647	0.972704
922.826310	0.975423
923.130932	0.977450
923.435516	0.979476
923.740059	0.980435
924.044564	0.980004
924.349028	0.981796
924.653454	0.983737
924.957840	0.986099
925.262186	0.985484
925.566493	0.983366
925.870761	0.986309
926.174989	0.987618
926.479178	0.988875
926.783328	0.989659
927.087438	0.988716
927.391509	0.987632
927.695541	0.989535
927.999533	0.989714
928.303486	0.990162
928.607400	0.990921
928.911275	0.989476
929.215110	0.991183
929.518906	0.990514
929.822663	0.990784
930.126381	0.990950
930.430060	0.990595
930.733699	0.990036
931.037299	0.989327
931.340861	0.990760
931.644383	0.988911
931.947866	0.989591
932.251309	0.991393
932.554714	0.990666
932.858080	0.990682
933.161407	0.990872
933.464694	0.991227
933.767943	0.990282
934.071153	0.992042
934.374323	0.991977
934.677455	0.991487
934.980548	0.991015
935.283602	0.991286
935.586617	0.990940
935.889593	0.991925
936.192530	0.990514
936.495428	0.990849
936.798287	0.991496
937.101108	0.990234
937.403890	0.988668
937.706632	0.988543
938.009336	0.986894
938.312002	0.986417
938.614628	0.985559
938.917216	0.984788
939.219765	0.981469
939.522275	0.984000
939.824747	0.982985
940.127179	0.983974
940.429573	0.985329
940.731929	0.984813
941.034246	0.984004
941.336524	0.986497
941.638763	0.987048
941.940964	0.986118
942.243126	0.987381
942.545250	0.988026
942.847335	0.987711
943.149381	0.988545
943.451389	0.987642
943.753359	0.988254
944.055290	0.990718
944.357182	0.989722
944.659036	0.989309
944.960851	0.989366
945.262628	0.989538
945.564367	0.991363
945.866067	0.990817
946.167729	0.990482
946.469352	0.989973
946.770937	0.988748
947.072484	0.990656
947.373992	0.990281
947.675462	0.990776
947.976893	0.989956
948.278286	0.990369
948.579641	0.990967
948.880958	0.990105
949.182236	0.991539
949.483476	0.991952
949.784678	0.990338
950.085841	0.991972
950.386967	0.991557
950.688054	0.991069
950.989103	0.990472
951.290114	0.989093
951.591087	0.989483
951.892021	0.989769
952.192917	0.989469
952.493776	0.988678
952.794596	0.988353
953.095378	0.988061
953.396122	0.987842
953.696828	0.988336
953.997496	0.989882
954.298126	0.991431
954.598718	0.990942
954.899272	0.991319
955.199788	0.990343
955.500266	0.991532
955.800706	0.992124
956.101108	0.993117
956.401472	0.993560
956.701798	0.994248
957.002087	0.992482
957.302337	0.994542
957.602550	0.994993
957.902724	0.995350
958.202861	0.994934
958.502960	0.996063
958.803022	0.994423
959.103045	0.996170
959.403031	0.995847
959.702979	0.996684
960.002889	0.995029
960.302762	0.994993
960.602596	0.996394
960.902393	0.994089
961.202153	0.996710
961.501875	0.996959
961.801559	0.996529
962.101205	0.995701
962.400814	0.996022
962.700385	0.996530
962.999918	0.996681
963.299414	0.997199
963.598873	0.996179
963.898293	0.996550
964.197677	0.995825
964.497022	0.997132
964.796331	0.997619
965.095601	0.996795
965.394835	0.996765
965.694030	0.996570
965.993189	0.997456
966.292309	0.996668
966.591393	0.997160
966.890439	0.996741
967.189447	0.996036
967.488419	0.997631
967.787353	0.996653
968.086249	0.996030
968.385108	0.996918
968.683930	0.997075
968.982714	0.997091
969.281462	0.997360
969.580172	0.996615
969.878844	0.996559
970.177480	0.997904
970.476078	0.997438
970.774639	0.997418
971.073162	0.997721
971.371649	0.994871
971.670098	0.997020
971.968510	0.997311
972.266885	0.995601
972.565223	0.995977
972.863524	0.995445
973.161788	0.996462
973.460014	0.997336
973.758204	0.995476
974.056356	0.995985
974.354471	0.994508
974.652550	0.996756
974.950591	0.995663
975.248595	0.996760
975.546563	0.996438
975.844493	0.998017
976.142386	0.998271
976.440243	0.997981
976.738062	0.996027
977.035845	0.998298
977.333590	0.996516
977.631299	0.998346
977.928971	0.996120
978.226606	0.996545
978.524204	0.994610
978.821765	0.998490
979.119290	0.996208
979.416777	0.996140
979.714228	0.997421
980.011642	0.995083
980.309020	0.997323
980.606360	0.996904
980.903664	0.998664
981.200931	0.996112
981.498162	0.995075
981.795356	0.995192
982.092513	0.994348
982.389633	0.993971
982.686717	0.991487
982.983764	0.992109
983.280775	0.990995
983.577749	0.989864
983.874686	0.992331
984.171587	0.991393
984.468451	0.994437
984.765279	0.994709
985.062070	0.993962
985.358824	0.995054
985.655543	0.995491
985.952224	0.996654
986.248869	0.996213
986.545478	0.997235
986.842050	0.998395
987.138586	0.996299
987.435086	0.997927
987.731549	0.998283
988.027975	0.997743
988.324366	0.997265
988.620719	0.996877
988.917037	0.997507
989.213318	0.997238
989.509563	0.998664
989.805772	0.999476
990.101944	0.998025
990.398080	0.997282
990.694180	0.998542
990.990244	0.997242
991.286271	0.998427
991.582262	0.998343
991.878217	0.998448
992.174136	0.997737
992.470019	0.999235
992.765865	0.998560
993.061676	0.998763
993.357450	0.997961
993.653188	0.996614
993.948890	0.996942
994.244556	0.997360
994.540186	0.997917
994.835780	0.996484
995.131337	0.998256
995.426859	0.996878
995.722345	0.998285
996.017795	0.996715
996.313208	0.995706
996.608586	0.996586
996.903928	0.997256
997.199234	0.995870
997.494504	0.997258
997.789738	0.996164
998.084936	0.996640
998.380099	0.997731
998.675225	0.997545
998.970316	0.998068
999.265371	0.997904
999.560390	0.997454
999.855373	0.998064
1000.150320	0.998134
1000.445232	0.998637
1000.740108	0.997924
1001.034948	0.998883
1001.329752	0.998053
1001.624521	0.998528
1001.919254	0.998809
1002.213951	0.998482
1002.508613	0.997805
1002.803239	0.998881
1003.097829	0.998765
1003.392384	0.999025
1003.686903	0.997876
1003.981386	0.998645
1004.275834	0.999393
1004.570246	0.997502
1004.864623	0.999786
1005.158964	0.998917
1005.453270	0.997889
1005.747540	0.997255
1006.041775	0.998776
1006.335974	0.998675
1006.630138	0.999379
1006.924266	0.999450
1007.218359	1.000613
1007.512416	0.999490
1007.806438	0.999721
1008.100425	0.999487
1008.394376	1.000012
1008.688292	0.999101
1008.982172	1.001160
1009.276017	0.999156
1009.569827	0.998792
1009.863602	0.998690
1010.157341	0.999222
1010.451045	0.998220
1010.744714	1.000402
1011.038347	0.998933
1011.331945	0.997696
1011.625508	0.998412
1011.919036	0.998256
1012.212528	0.999562
1012.505986	0.997661
1012.799408	0.999042
1013.092795	0.999780
1013.386147	0.998586
1013.679464	0.998635
1013.972745	0.998047
1014.265992	0.997613
1014.559204	0.999348
1014.852380	0.999497
1015.145521	0.999384
1015.438628	0.999892
1015.731699	0.998011
1016.024736	0.999420
1016.317737	0.997898
1016.610703	0.998974
1016.903635	1.000892
1017.196531	0.997637
1017.489393	1.000054
1017.782219	0.997735
1018.075011	0.998736
1018.367768	0.998750
1018.660490	0.998624
1018.953177	0.998624
1019.245829	0.998624
