Dividing Wavelength (nm)	Counts (n)	Blue Motor Position (mm): 0.000000	Red Motor Position (mm): 21.100000	
326.493990	1.002203
326.888308	1.002203
327.282561	1.002203
327.676750	1.001164
328.070874	0.999759
328.464933	1.000934
328.858929	0.999928
329.252859	1.000203
329.646726	0.999464
330.040528	0.999807
330.434265	1.000274
330.827938	1.001263
331.221547	1.000991
331.615091	1.001536
332.008571	1.001279
332.401986	1.000493
332.795338	1.001288
333.188625	0.999433
333.581847	1.001080
333.975006	1.001303
334.368100	1.000369
334.761129	1.000674
335.154095	1.000944
335.546996	0.998331
335.939833	0.994134
336.332606	0.994742
336.725315	0.995843
337.117960	0.996469
337.510540	0.995287
337.903056	0.995629
338.295508	0.993282
338.687896	0.995050
339.080220	0.995119
339.472480	0.994527
339.864676	0.994809
340.256807	0.995793
340.648875	0.995385
341.040879	0.995491
341.432818	0.995143
341.824694	0.995630
342.216506	0.995281
342.608253	0.995729
342.999937	0.994202
343.391557	0.995607
343.783113	0.994257
344.174605	0.995648
344.566033	0.995684
344.957397	0.994601
345.348697	0.995713
345.739934	0.994878
346.131106	0.994562
346.522215	0.994191
346.913260	0.992747
347.304241	0.994106
347.695159	0.995526
348.086012	0.993513
348.476802	0.994605
348.867528	0.994577
349.258191	0.993788
349.648789	0.994733
350.039324	0.995157
350.429796	0.995563
350.820203	0.995195
351.210548	0.995341
351.600828	0.994630
351.991045	0.994858
352.381198	0.994055
352.771288	0.995034
353.161314	0.994790
353.551276	0.995108
353.941175	0.995230
354.331010	0.993972
354.720782	0.994807
355.110490	0.994855
355.500135	0.995359
355.889717	0.995701
356.279235	0.994875
356.668689	0.993821
357.058080	0.994671
357.447408	0.995385
357.836672	0.995272
358.225873	0.996019
358.615010	0.995529
359.004084	0.996533
359.393095	0.995719
359.782043	0.994819
360.170927	0.995075
360.559748	0.996745
360.948505	0.994150
361.337199	0.995304
361.725830	0.994951
362.114398	0.994600
362.502903	0.994678
362.891344	0.996128
363.279722	0.994565
363.668037	0.995976
364.056289	0.994970
364.444478	0.995957
364.832603	0.996071
365.220665	0.995907
365.608665	0.995460
365.996601	0.994096
366.384474	0.994818
366.772284	0.995107
367.160031	0.993297
367.547715	0.992292
367.935336	0.995329
368.322893	0.995691
368.710388	0.994089
369.097820	0.995102
369.485189	0.994486
369.872495	0.994501
370.259738	0.992673
370.646918	0.996357
371.034035	0.995872
371.421090	0.994348
371.808081	0.995436
372.195010	0.995141
372.581875	0.995580
372.968678	0.995176
373.355418	0.994514
373.742096	0.994757
374.128710	0.995042
374.515262	0.994347
374.901751	0.995341
375.288177	0.995595
375.674540	0.995856
376.060841	0.993818
376.447079	0.995509
376.833254	0.994559
377.219367	0.995784
377.605417	0.995188
377.991404	0.995602
378.377329	0.994735
378.763191	0.995303
379.148991	0.995497
379.534727	0.996720
379.920402	0.994917
380.306013	0.994898
380.691563	0.995739
381.077049	0.994546
381.462474	0.995727
381.847835	0.996143
382.233134	0.995248
382.618371	0.995810
383.003545	0.995321
383.388657	0.995193
383.773706	0.995746
384.158693	0.996085
384.543618	0.995510
384.928480	0.996223
385.313280	0.996572
385.698017	0.995914
386.082692	0.995424
386.467305	0.994830
386.851856	0.995848
387.236344	0.995676
387.620770	0.995386
388.005133	0.996546
388.389435	0.996518
388.773674	0.995817
389.157851	0.996622
389.541965	0.995771
389.926018	0.995048
390.310008	0.996531
390.693936	0.996188
391.077802	0.995903
391.461606	0.996126
391.845348	0.996459
392.229027	0.996208
392.612645	0.996177
392.996200	0.997550
393.379694	0.995982
393.763125	0.996425
394.146494	0.996596
394.529801	0.995992
394.913047	0.996153
395.296230	0.995460
395.679351	0.996207
396.062410	0.996290
396.445408	0.995702
396.828343	0.996872
397.211217	0.996486
397.594028	0.996603
397.976778	0.995396
398.359466	0.995193
398.742092	0.995400
399.124656	0.995913
399.507158	0.996219
399.889598	0.996268
400.271977	0.994880
400.654294	0.995131
401.036549	0.996930
401.418742	0.996757
401.800874	0.996130
402.182944	0.995787
402.564952	0.995361
402.946898	0.996469
403.328783	0.995760
403.710606	0.995111
404.092367	0.996532
404.474067	0.996713
404.855705	0.995798
405.237282	0.995307
405.618797	0.995147
406.000250	0.994638
406.381642	0.996605
406.762972	0.995978
407.144240	0.996808
407.525447	0.995666
407.906593	0.995680
408.287677	0.995599
408.668700	0.995687
409.049661	0.994306
409.430560	0.995566
409.811399	0.994496
410.192176	0.994972
410.572891	0.995241
410.953545	0.995396
411.334138	0.993985
411.714669	0.995219
412.095139	0.994463
412.475547	0.995213
412.855894	0.994779
413.236180	0.994252
413.616405	0.994103
413.996568	0.994822
414.376670	0.993421
414.756711	0.992334
415.136691	0.991638
415.516609	0.991427
415.896466	0.990756
416.276262	0.988967
416.655997	0.988605
417.035670	0.986844
417.415283	0.985862
417.794834	0.983062
418.174324	0.982247
418.553753	0.982432
418.933121	0.978149
419.312428	0.976597
419.691674	0.974298
420.070859	0.971718
420.449983	0.969534
420.829045	0.966537
421.208047	0.964529
421.586988	0.960907
421.965867	0.957287
422.344686	0.953202
422.723444	0.950567
423.102141	0.948951
423.480777	0.942975
423.859352	0.939422
424.237866	0.932225
424.616319	0.928282
424.994712	0.922966
425.373044	0.919582
425.751314	0.912066
426.129524	0.908803
426.507673	0.901324
426.885762	0.895367
427.263789	0.888619
427.641756	0.884946
428.019662	0.877154
428.397508	0.869682
428.775292	0.862307
429.153016	0.854060
429.530679	0.849379
429.908282	0.840784
430.285824	0.835238
430.663305	0.820931
431.040726	0.819805
431.418086	0.813908
431.795385	0.801964
432.172624	0.792941
432.549802	0.786107
432.926920	0.776755
433.303977	0.767774
433.680974	0.758625
434.057910	0.749327
434.434786	0.740585
434.811601	0.732795
435.188355	0.715309
435.565050	0.712064
435.941683	0.704041
436.318257	0.686804
436.694770	0.678059
437.071222	0.668537
437.447614	0.662535
437.823946	0.657889
438.200218	0.643374
438.576429	0.640945
438.952580	0.627803
439.328670	0.616731
439.704700	0.613982
440.080670	0.607305
440.456580	0.585663
440.832429	0.583270
441.208218	0.583446
441.583947	0.569204
441.959616	0.561714
442.335224	0.558325
442.710773	0.545264
443.086261	0.535570
443.461689	0.541152
443.837057	0.526282
444.212365	0.512059
444.587612	0.512328
444.962800	0.498127
445.337927	0.494051
445.712995	0.511167
446.088002	0.472847
446.462949	0.477350
446.837837	0.476409
447.212664	0.462523
447.587431	0.450045
447.962139	0.419439
448.336786	0.379403
448.711374	0.385432
449.085901	0.421186
449.460369	0.420919
449.834776	0.420452
450.209124	0.398497
450.583412	0.388313
450.957640	0.379757
451.331808	0.387264
451.705917	0.407150
452.079965	0.408758
452.453954	0.395486
452.827883	0.400033
453.201752	0.393688
453.575562	0.403044
453.949311	0.390292
454.323001	0.394842
454.696632	0.389642
455.070202	0.381454
455.443713	0.372117
455.817164	0.365890
456.190556	0.360873
456.563888	0.356725
456.937160	0.354004
457.310373	0.369618
457.683526	0.367792
458.056619	0.372933
458.429653	0.373266
458.802628	0.375502
459.175542	0.369870
459.548398	0.352304
459.921194	0.344867
460.293930	0.344364
460.666607	0.321953
461.039224	0.310050
461.411782	0.305279
461.784280	0.304437
462.156719	0.308505
462.529099	0.312761
462.901419	0.328275
463.273680	0.332481
463.645882	0.331805
464.018024	0.338052
464.390106	0.330362
464.762130	0.315068
465.134094	0.297980
465.505999	0.267610
465.877845	0.238026
466.249631	0.225171
466.621358	0.232246
466.993026	0.246171
467.364634	0.251916
467.736184	0.260902
468.107674	0.269478
468.479105	0.268495
468.850477	0.274976
469.221790	0.281917
469.593043	0.292327
469.964238	0.296729
470.335373	0.296301
470.706449	0.294446
471.077467	0.294952
471.448425	0.257320
471.819324	0.233126
472.190164	0.232347
472.560945	0.261157
472.931667	0.283074
473.302330	0.287441
473.672934	0.298886
474.043479	0.287173
474.413965	0.289000
474.784393	0.292940
475.154761	0.287530
475.525070	0.284553
475.895321	0.290406
476.265513	0.284874
476.635645	0.279743
477.005719	0.280025
477.375734	0.276741
477.745691	0.270223
478.115588	0.266617
478.485427	0.260022
478.855207	0.246678
479.224928	0.229533
479.594591	0.217605
479.964194	0.221086
480.333739	0.222293
480.703226	0.223705
481.072653	0.222154
481.442022	0.217841
481.811333	0.214165
482.180584	0.217882
482.549777	0.223166
482.918912	0.226403
483.287988	0.226102
483.657005	0.225711
484.025964	0.232026
484.394864	0.229444
484.763706	0.230338
485.132489	0.235138
485.501213	0.235736
485.869879	0.234191
486.238487	0.237428
486.607036	0.235068
486.975527	0.239948
487.343959	0.235736
487.712333	0.234939
488.080648	0.236197
488.448905	0.235322
488.817104	0.236803
489.185244	0.231021
489.553326	0.228050
489.921350	0.217983
490.289315	0.200477
490.657222	0.195630
491.025070	0.196738
491.392861	0.198787
491.760593	0.204382
492.128267	0.210043
492.495883	0.215641
492.863440	0.221609
493.230939	0.228369
493.598380	0.229510
493.965763	0.231524
494.333088	0.233637
494.700354	0.235336
495.067563	0.234110
495.434713	0.237530
495.801805	0.235247
496.168839	0.236791
496.535815	0.238063
496.902733	0.238163
497.269593	0.239575
497.636395	0.237368
498.003139	0.237567
498.369825	0.240618
498.736453	0.237156
499.103023	0.238491
499.469535	0.238013
499.835989	0.238120
500.202385	0.239057
500.568723	0.242318
500.935003	0.237631
501.301226	0.241690
501.667390	0.236003
502.033497	0.234003
502.399546	0.237094
502.765537	0.238896
503.131470	0.237494
503.497345	0.233622
503.863163	0.242376
504.228923	0.235229
504.594625	0.234123
504.960269	0.239579
505.325856	0.234578
505.691385	0.239063
506.056856	0.235826
506.422270	0.235156
506.787625	0.237783
507.152924	0.234920
507.518164	0.235400
507.883347	0.237257
508.248472	0.238826
508.613540	0.233977
508.978550	0.236495
509.343503	0.236780
509.708398	0.234703
510.073236	0.232481
510.438016	0.232310
510.802738	0.233344
511.167403	0.232045
511.532010	0.234171
511.896561	0.229679
512.261053	0.228292
512.625488	0.230253
512.989866	0.230744
513.354186	0.230920
513.718449	0.232946
514.082655	0.229279
514.446803	0.231676
514.810894	0.229095
515.174927	0.231999
515.538904	0.231369
515.902822	0.228138
516.266684	0.230619
516.630488	0.231687
516.994235	0.230338
517.357925	0.229191
517.721558	0.227636
518.085133	0.227437
518.448651	0.227329
518.812112	0.229390
519.175516	0.229070
519.538863	0.226707
519.902152	0.228493
520.265385	0.225193
520.628560	0.227014
520.991678	0.227538
521.354739	0.226281
521.717743	0.227533
522.080690	0.227926
522.443580	0.225268
522.806413	0.226290
523.169189	0.225456
523.531908	0.224191
523.894569	0.227954
524.257174	0.228169
524.619722	0.225829
524.982213	0.226623
525.344647	0.225757
525.707025	0.226273
526.069345	0.224589
526.431608	0.226419
526.793815	0.224288
527.155964	0.228382
527.518057	0.227313
527.880093	0.228528
528.242072	0.227140
528.603995	0.228961
528.965860	0.230766
529.327669	0.229488
529.689421	0.230377
530.051117	0.231287
530.412755	0.228931
530.774337	0.231104
531.135862	0.231676
531.497331	0.230728
531.858743	0.233674
532.220098	0.230583
532.581396	0.232982
532.942638	0.233373
533.303824	0.234385
533.664953	0.234417
534.026025	0.235987
534.387040	0.234099
534.747999	0.234014
535.108902	0.232989
535.469748	0.237781
535.830537	0.235628
536.191270	0.235962
536.551947	0.235405
536.912567	0.235603
537.273131	0.237368
537.633638	0.237581
537.994089	0.237891
538.354483	0.238764
538.714821	0.235945
539.075103	0.235332
539.435328	0.236323
539.795497	0.240094
540.155609	0.236641
540.515665	0.234978
540.875665	0.240529
541.235609	0.239236
541.595496	0.238979
541.955328	0.236069
542.315102	0.238420
542.674821	0.239453
543.034483	0.239500
543.394090	0.239119
543.753640	0.241130
544.113134	0.236264
544.472571	0.239660
544.831953	0.236191
545.191278	0.240292
545.550548	0.239714
545.909761	0.236435
546.268918	0.237267
546.628019	0.235672
546.987064	0.238279
547.346053	0.240242
547.704986	0.237907
548.063863	0.238229
548.422684	0.238669
548.781449	0.240403
549.140158	0.237932
549.498811	0.240950
549.857408	0.243979
550.215949	0.238716
550.574434	0.241693
550.932864	0.239965
551.291237	0.238313
551.649555	0.239761
552.007817	0.239921
552.366022	0.240430
552.724173	0.240618
553.082267	0.240899
553.440305	0.237635
553.798288	0.242287
554.156215	0.238780
554.514086	0.239593
554.871902	0.242605
555.229661	0.242134
555.587365	0.242591
555.945014	0.245005
556.302606	0.241777
556.660143	0.244340
557.017625	0.240573
557.375050	0.243137
557.732421	0.240098
558.089735	0.242392
558.446994	0.242121
558.804197	0.241562
559.161345	0.241464
559.518437	0.244872
559.875474	0.242460
560.232455	0.242134
560.589381	0.243132
560.946251	0.243324
561.303065	0.240787
561.659825	0.242410
562.016528	0.243640
562.373177	0.246676
562.729770	0.243736
563.086307	0.245908
563.442789	0.243771
563.799216	0.246468
564.155587	0.245489
564.511904	0.246443
564.868164	0.246684
565.224370	0.246413
565.580520	0.248281
565.936615	0.248039
566.292654	0.251039
566.648638	0.248222
567.004567	0.248932
567.360441	0.249575
567.716260	0.251824
568.072023	0.249009
568.427732	0.249937
568.783385	0.252394
569.138982	0.250682
569.494525	0.250052
569.850013	0.253048
570.205445	0.251584
570.560823	0.254000
570.916145	0.255855
571.271412	0.254121
571.626625	0.255737
571.981782	0.256164
572.336884	0.257162
572.691931	0.256605
573.046923	0.257894
573.401860	0.259272
573.756743	0.260884
574.111570	0.259883
574.466342	0.260150
574.821059	0.259148
575.175722	0.262146
575.530330	0.262158
575.884882	0.262352
576.239380	0.264247
576.593823	0.264644
576.948211	0.264122
577.302544	0.267280
577.656823	0.267277
578.011047	0.267498
578.365216	0.267760
578.719330	0.269871
579.073389	0.269726
579.427394	0.271001
579.781344	0.271681
580.135239	0.273256
580.489080	0.272620
580.842866	0.275777
581.196597	0.275784
581.550273	0.274430
581.903895	0.275234
582.257463	0.273377
582.610975	0.277039
582.964434	0.276045
583.317837	0.278784
583.671186	0.279369
584.024481	0.279091
584.377721	0.281629
584.730906	0.282351
585.084037	0.281561
585.437113	0.283325
585.790135	0.282919
586.143103	0.285540
586.496016	0.286554
586.848874	0.284327
587.201679	0.284905
587.554428	0.288124
587.907124	0.286912
588.259765	0.287612
588.612352	0.288277
588.964884	0.291800
589.317362	0.291799
589.669786	0.291263
590.022155	0.290029
590.374470	0.289179
590.726731	0.291639
591.078937	0.296219
591.431090	0.292424
591.783188	0.296795
592.135232	0.297165
592.487222	0.296901
592.839157	0.295104
593.191038	0.297652
593.542866	0.299496
593.894639	0.303105
594.246358	0.300981
594.598022	0.300353
594.949633	0.303888
595.301190	0.304491
595.652692	0.304079
596.004141	0.300399
596.355535	0.308069
596.706876	0.308545
597.058162	0.311174
597.409395	0.308391
597.760573	0.306014
598.111698	0.309417
598.462768	0.309863
598.813785	0.311017
599.164748	0.312656
599.515657	0.312456
599.866511	0.316085
600.217312	0.311102
600.568060	0.316489
600.918753	0.313140
601.269392	0.313707
601.619978	0.317127
601.970510	0.314838
602.320988	0.315071
602.671412	0.312619
603.021783	0.315342
603.372100	0.316431
603.722363	0.315931
604.072572	0.317128
604.422728	0.316706
604.772830	0.318642
605.122878	0.318401
605.472872	0.319028
605.822813	0.317287
606.172701	0.319909
606.522534	0.317677
606.872314	0.317361
607.222041	0.318505
607.571714	0.316646
607.921333	0.317797
608.270899	0.317555
608.620411	0.314144
608.969870	0.317976
609.319276	0.318693
609.668627	0.318160
610.017926	0.316968
610.367171	0.315236
610.716362	0.316197
611.065500	0.316278
611.414585	0.315238
611.763616	0.315734
612.112594	0.315894
612.461518	0.315448
612.810389	0.313300
613.159207	0.315091
613.507971	0.317128
613.856682	0.313208
614.205340	0.314570
614.553945	0.311643
614.902496	0.315227
615.250994	0.313196
615.599439	0.314195
615.947830	0.312892
616.296169	0.314473
616.644454	0.313892
616.992686	0.314223
617.340864	0.311711
617.688990	0.315382
618.037063	0.311804
618.385082	0.313847
618.733048	0.310440
619.080961	0.313183
619.428821	0.312671
619.776628	0.312026
620.124382	0.313875
620.472083	0.314434
620.819731	0.313666
621.167326	0.316789
621.514868	0.317238
621.862357	0.321775
622.209793	0.320998
622.557176	0.323281
622.904506	0.324675
623.251783	0.326422
623.599007	0.328938
623.946179	0.328995
624.293297	0.330282
624.640363	0.334019
624.987376	0.334955
625.334336	0.337435
625.681243	0.339604
626.028097	0.339871
626.374899	0.341416
626.721647	0.341454
627.068343	0.344653
627.414987	0.345573
627.761577	0.348212
628.108115	0.346368
628.454600	0.351662
628.801032	0.348799
629.147412	0.351124
629.493739	0.351030
629.840014	0.354365
630.186236	0.352184
630.532405	0.357158
630.878521	0.354601
631.224585	0.356865
631.570597	0.360801
631.916556	0.358620
632.262462	0.359164
632.608316	0.360886
632.954117	0.362034
633.299866	0.363141
633.645562	0.363351
633.991206	0.367813
634.336797	0.370949
634.682336	0.372546
635.027823	0.374188
635.373257	0.374769
635.718639	0.378424
636.063968	0.377274
636.409245	0.383815
636.754470	0.384050
637.099642	0.386817
637.444762	0.389748
637.789829	0.389133
638.134845	0.392171
638.479808	0.392892
638.824719	0.392989
639.169577	0.397101
639.514383	0.396358
639.859137	0.399724
640.203839	0.399787
640.548489	0.400735
640.893086	0.402144
641.237632	0.403746
641.582125	0.401841
641.926566	0.403628
642.270955	0.403523
642.615292	0.404316
642.959576	0.403179
643.303809	0.403570
643.647990	0.403335
643.992118	0.403564
644.336195	0.407338
644.680219	0.405551
645.024192	0.406362
645.368112	0.399837
645.711981	0.399315
646.055797	0.394238
646.399562	0.396889
646.743274	0.388761
647.086935	0.386564
647.430544	0.386257
647.774101	0.385189
648.117606	0.384843
648.461059	0.385304
648.804460	0.387797
649.147810	0.392846
649.491108	0.394815
649.834354	0.396157
650.177548	0.401371
650.520690	0.407003
650.863781	0.408123
651.206820	0.407384
651.549807	0.412096
651.892742	0.415745
652.235626	0.415253
652.578458	0.416643
652.921238	0.422906
653.263967	0.420380
653.606644	0.424396
653.949269	0.424406
654.291843	0.428081
654.634365	0.424339
654.976836	0.427887
655.319255	0.428007
655.661622	0.429952
656.003938	0.429579
656.346203	0.432963
656.688416	0.430372
657.030577	0.434038
657.372687	0.435769
657.714746	0.436330
658.056753	0.433331
658.398708	0.437552
658.740612	0.438962
659.082465	0.434823
659.424266	0.435151
659.766016	0.434735
660.107715	0.437113
660.449362	0.436688
660.790958	0.436840
661.132503	0.436870
661.473996	0.435273
661.815438	0.436409
662.156829	0.436082
662.498168	0.437485
662.839456	0.438155
663.180693	0.436586
663.521879	0.435600
663.863013	0.436845
664.204097	0.435213
664.545129	0.432555
664.886110	0.433116
665.227040	0.430479
665.567918	0.432502
665.908746	0.430588
666.249522	0.430264
666.590248	0.431568
666.930922	0.429955
667.271545	0.428293
667.612118	0.428484
667.952639	0.429993
668.293109	0.429091
668.633528	0.431874
668.973896	0.431684
669.314213	0.432339
669.654480	0.433158
669.994695	0.434535
670.334859	0.434012
670.674973	0.434681
671.015035	0.435160
671.355047	0.435516
671.695008	0.436381
672.034918	0.437877
672.374777	0.437727
672.714585	0.438580
673.054342	0.438346
673.394049	0.438815
673.733705	0.436035
674.073310	0.437210
674.412864	0.440363
674.752368	0.441029
675.091820	0.441746
675.431223	0.445562
675.770574	0.445489
676.109875	0.448142
676.449125	0.448412
676.788324	0.450592
677.127473	0.456122
677.466571	0.456196
677.805619	0.457294
678.144616	0.458055
678.483562	0.460273
678.822458	0.462716
679.161303	0.464274
679.500098	0.464224
679.838842	0.465900
680.177535	0.465431
680.516179	0.463966
680.854771	0.463175
681.193314	0.456403
681.531805	0.447543
681.870247	0.436235
682.208638	0.428718
682.546978	0.427710
682.885268	0.429480
683.223508	0.435269
683.561697	0.439695
683.899836	0.441880
684.237925	0.445588
684.575963	0.447646
684.913951	0.451162
685.251889	0.446878
685.589776	0.449127
685.927614	0.451720
686.265401	0.445997
686.603137	0.447185
686.940824	0.440308
687.278460	0.439758
687.616046	0.438395
687.953582	0.433290
688.291068	0.434665
688.628504	0.430463
688.965889	0.432478
689.303224	0.437002
689.640510	0.440699
689.977745	0.446419
690.314930	0.454392
690.652065	0.458893
690.989150	0.466045
691.326185	0.473142
691.663170	0.477473
692.000105	0.484299
692.336990	0.491695
692.673825	0.493792
693.010610	0.500944
693.347345	0.506575
693.684030	0.508072
694.020665	0.512320
694.357251	0.521659
694.693786	0.521172
695.030272	0.525262
695.366707	0.528714
695.703093	0.531851
696.039429	0.530212
696.375716	0.531713
696.711952	0.534526
697.048139	0.535801
697.384276	0.539017
697.720363	0.536829
698.056400	0.535680
698.392388	0.541933
698.728326	0.544822
699.064214	0.546797
699.400053	0.547693
699.735842	0.551500
700.071581	0.553978
700.407270	0.557378
700.742910	0.560137
701.078501	0.566011
701.414042	0.566353
701.749533	0.569670
702.084974	0.578713
702.420366	0.570672
702.755709	0.578259
703.091002	0.586030
703.426246	0.579840
703.761440	0.585278
704.096584	0.590735
704.431679	0.587147
704.766725	0.588958
705.101721	0.591087
705.436668	0.586852
705.771565	0.594279
706.106413	0.591035
706.441212	0.586028
706.775961	0.585123
707.110661	0.588067
707.445311	0.583925
707.779913	0.580503
708.114465	0.579659
708.448967	0.576658
708.783421	0.568156
709.117825	0.562732
709.452180	0.563643
709.786485	0.556965
710.120742	0.546557
710.454949	0.548629
710.789107	0.541401
711.123216	0.532605
711.457275	0.533286
711.791286	0.524553
712.125247	0.522944
712.459159	0.533784
712.793023	0.527058
713.126837	0.530350
713.460602	0.531475
713.794318	0.540038
714.127985	0.538981
714.461602	0.549068
714.795171	0.552834
715.128691	0.560765
715.462162	0.567739
715.795584	0.573900
716.128957	0.576820
716.462281	0.583768
716.795556	0.586641
717.128782	0.591363
717.461960	0.602001
717.795088	0.599489
718.128167	0.606253
718.461198	0.615035
718.794180	0.614888
719.127113	0.618220
719.459997	0.622020
719.792833	0.627701
720.125619	0.629267
720.458357	0.635324
720.791046	0.634910
721.123686	0.638013
721.456278	0.644642
721.788821	0.641437
722.121315	0.645828
722.453761	0.650787
722.786158	0.648359
723.118506	0.644719
723.450805	0.652793
723.783056	0.648131
724.115259	0.645795
724.447412	0.645819
724.779518	0.647508
725.111574	0.645307
725.443582	0.641119
725.775542	0.643697
726.107453	0.635678
726.439315	0.635209
726.771129	0.634274
727.102895	0.627202
727.434612	0.619708
727.766281	0.617516
728.097901	0.617479
728.429473	0.617285
728.760996	0.615883
729.092471	0.615504
729.423897	0.619902
729.755276	0.618922
730.086606	0.618936
730.417887	0.613080
730.749120	0.604240
731.080305	0.594139
731.411442	0.591357
731.742530	0.596378
732.073570	0.594965
732.404562	0.587676
732.735506	0.588146
733.066401	0.593353
733.397249	0.602550
733.728048	0.613850
734.058798	0.626034
734.389501	0.637486
734.720156	0.647157
735.050762	0.654948
735.381320	0.656127
735.711831	0.665910
736.042293	0.670047
736.372707	0.666390
736.703073	0.670410
737.033391	0.672634
737.363661	0.669027
737.693883	0.664504
738.024056	0.663368
738.354182	0.664559
738.684260	0.653915
739.014290	0.649532
739.344272	0.649882
739.674207	0.644412
740.004093	0.643676
740.333931	0.643322
740.663722	0.643358
740.993464	0.644525
741.323159	0.648481
741.652806	0.652586
741.982405	0.657195
742.311956	0.662067
742.641460	0.663984
742.970915	0.668086
743.300323	0.675860
743.629683	0.682659
743.958996	0.684725
744.288260	0.687767
744.617477	0.694667
744.946647	0.696284
745.275768	0.701528
745.604842	0.700890
745.933869	0.711675
746.262847	0.711587
746.591778	0.705559
746.920662	0.711880
747.249498	0.717789
747.578286	0.709204
747.907027	0.705268
748.235720	0.706066
748.564365	0.700891
748.892963	0.701145
749.221514	0.703561
749.550017	0.708434
749.878473	0.708440
750.206881	0.714595
750.535242	0.716387
750.863555	0.715544
751.191821	0.716968
751.520039	0.719944
751.848210	0.725314
752.176334	0.717637
752.504411	0.716279
752.832440	0.723883
753.160421	0.729133
753.488356	0.726382
753.816243	0.724457
754.144082	0.732381
754.471875	0.736284
754.799620	0.732389
755.127318	0.732650
755.454969	0.733052
755.782572	0.732113
756.110129	0.738171
756.437638	0.739601
756.765100	0.737022
757.092515	0.734560
757.419882	0.733258
757.747203	0.738451
758.074477	0.737024
758.401703	0.735298
758.728882	0.729805
759.056014	0.729143
759.383099	0.727489
759.710138	0.729314
760.037129	0.725648
760.364073	0.720013
760.690970	0.721747
761.017820	0.727178
761.344623	0.723010
761.671379	0.714018
761.998088	0.702296
762.324751	0.680061
762.651366	0.638535
762.977935	0.571639
763.304456	0.518774
763.630931	0.510019
763.957359	0.549001
764.283740	0.593631
764.610074	0.621020
764.936362	0.652000
765.262602	0.678976
765.588796	0.700332
765.914943	0.717582
766.241044	0.735474
766.567097	0.742130
766.893104	0.752132
767.219064	0.757892
767.544978	0.764555
767.870845	0.778207
768.196665	0.781562
768.522438	0.780351
768.848165	0.782124
769.173846	0.790760
769.499479	0.794416
769.825066	0.798475
770.150607	0.803312
770.476101	0.798379
770.801548	0.799360
771.126949	0.810204
771.452303	0.814780
771.777611	0.813899
772.102872	0.812875
772.428087	0.818190
772.753256	0.822175
773.078378	0.823560
773.403453	0.831935
773.728482	0.836370
774.053465	0.829482
774.378401	0.834358
774.703291	0.842254
775.028135	0.842202
775.352932	0.843717
775.677683	0.846152
776.002388	0.847206
776.327046	0.845069
776.651658	0.850061
776.976224	0.853043
777.300743	0.852931
777.625216	0.855568
777.949643	0.857094
778.274024	0.856956
778.598359	0.859129
778.922647	0.858117
779.246889	0.857137
779.571086	0.861186
779.895236	0.864916
780.219339	0.862570
780.543397	0.858532
780.867409	0.857059
781.191374	0.859309
781.515294	0.860691
781.839167	0.859663
782.162995	0.862485
782.486776	0.859877
782.810511	0.860749
783.134201	0.864704
783.457844	0.861988
783.781441	0.864800
784.104993	0.871289
784.428498	0.871075
784.751958	0.866490
785.075372	0.868423
785.398739	0.873388
785.722061	0.868813
786.045337	0.865242
786.368568	0.870211
786.691752	0.872320
787.014891	0.858428
787.337983	0.848953
787.661030	0.841946
787.984031	0.824095
788.306987	0.811272
788.629897	0.813117
788.952760	0.817529
789.275579	0.821138
789.598351	0.836525
789.921078	0.849758
790.243759	0.851706
790.566395	0.856214
790.888984	0.864258
791.211529	0.868984
791.534027	0.873096
791.856480	0.874586
792.178888	0.879492
792.501249	0.882185
792.823566	0.883297
793.145836	0.883199
793.468062	0.885847
793.790241	0.885668
794.112375	0.884372
794.434464	0.878304
794.756507	0.878459
795.078505	0.878104
795.400457	0.872102
795.722364	0.860266
796.044226	0.853306
796.366042	0.852379
796.687812	0.855919
797.009538	0.852825
797.331218	0.854430
797.652852	0.860026
797.974442	0.865172
798.295986	0.864420
798.617484	0.867337
798.938938	0.872003
799.260346	0.875136
799.581709	0.878757
799.903026	0.881488
800.224299	0.880864
800.545526	0.885233
800.866708	0.889728
801.187845	0.892716
801.508936	0.892444
801.829983	0.890562
802.150984	0.893913
802.471940	0.898634
802.792851	0.897109
803.113717	0.897783
803.434538	0.896578
803.755314	0.897968
804.076045	0.900977
804.396731	0.899671
804.717372	0.900014
805.037967	0.902632
805.358518	0.899263
805.679024	0.897844
805.999485	0.897172
806.319901	0.897793
806.640272	0.898425
806.960598	0.896948
807.280879	0.894044
807.601115	0.892977
807.921306	0.897036
808.241453	0.896494
808.561554	0.894531
808.881611	0.894424
809.201623	0.897524
809.521590	0.896487
809.841513	0.898314
810.161390	0.896828
810.481223	0.898205
810.801011	0.902495
811.120755	0.902907
811.440453	0.902541
811.760107	0.900177
812.079716	0.901205
812.399281	0.903755
812.718801	0.906497
813.038276	0.907260
813.357707	0.906431
813.677093	0.903833
813.996434	0.907338
814.315731	0.909571
814.634983	0.909107
814.954191	0.908373
815.273354	0.905197
815.592473	0.902565
815.911547	0.902238
816.230577	0.899458
816.549562	0.896719
816.868502	0.896899
817.187399	0.894285
817.506250	0.887809
817.825058	0.891249
818.143821	0.887058
818.462539	0.881998
818.781213	0.874715
819.099843	0.862356
819.418429	0.846933
819.736970	0.829986
820.055466	0.810862
820.373919	0.784988
820.692327	0.752201
821.010691	0.717151
821.329011	0.639941
821.647286	0.525124
821.965517	0.411152
822.283704	0.368734
822.601847	0.370078
822.919945	0.405381
823.237999	0.438955
823.556010	0.485955
823.873976	0.541346
824.191897	0.592237
824.509775	0.633745
824.827609	0.679635
825.145398	0.702461
825.463144	0.705680
825.780845	0.688391
826.098502	0.669466
826.416116	0.623857
826.733685	0.579724
827.051210	0.571344
827.368692	0.586171
827.686129	0.623719
828.003522	0.676413
828.320872	0.723508
828.638177	0.767606
828.955439	0.801270
829.272656	0.821859
829.589830	0.839626
829.906960	0.855061
830.224046	0.866814
830.541088	0.877834
830.858086	0.882479
831.175041	0.888483
831.491952	0.887340
831.808819	0.883490
832.125642	0.877255
832.442421	0.863141
832.759157	0.841142
833.075849	0.795078
833.392497	0.731258
833.709101	0.689994
834.025662	0.699298
834.342179	0.731115
834.658653	0.770370
834.975083	0.806688
835.291469	0.833004
835.607811	0.854525
835.924110	0.871432
836.240366	0.887733
836.556578	0.902656
836.872746	0.909034
837.188871	0.914988
837.504952	0.920120
837.820990	0.924265
838.136984	0.927947
838.452935	0.932586
838.768842	0.931890
839.084706	0.925661
839.400526	0.900084
839.716303	0.859521
840.032037	0.837089
840.347727	0.841014
840.663373	0.858832
840.978977	0.880072
841.294537	0.902155
841.610054	0.918868
841.925527	0.925838
842.240957	0.933228
842.556344	0.941023
842.871687	0.946891
843.186987	0.951370
843.502244	0.951539
843.817458	0.953381
844.132629	0.955850
844.447756	0.960460
844.762840	0.961496
845.077881	0.960777
845.392879	0.960691
845.707833	0.962377
846.022745	0.964935
846.337613	0.965258
846.652438	0.966791
846.967221	0.964779
847.281960	0.965067
847.596656	0.968599
847.911309	0.966801
848.225919	0.968392
848.540485	0.968578
848.855009	0.969607
849.169490	0.969067
849.483928	0.970503
849.798323	0.970960
850.112675	0.970578
850.426984	0.970802
850.741251	0.970488
851.055474	0.970579
851.369654	0.968200
851.683792	0.970468
851.997887	0.970261
852.311938	0.971154
852.625947	0.969959
852.939914	0.967804
853.253837	0.969184
853.567718	0.971089
853.881555	0.970860
854.195350	0.969442
854.509103	0.971026
854.822812	0.970820
855.136479	0.970417
855.450103	0.970918
855.763685	0.969016
856.077224	0.969425
856.390720	0.971382
856.704173	0.970897
857.017584	0.969509
857.330953	0.967215
857.644278	0.969117
857.957561	0.967820
858.270802	0.967898
858.584000	0.969140
858.897155	0.966907
859.210268	0.968769
859.523339	0.968573
859.836367	0.970976
860.149352	0.971056
860.462295	0.970110
860.775195	0.970182
861.088054	0.971270
861.400869	0.969249
861.713642	0.972030
862.026373	0.971337
862.339062	0.971331
862.651708	0.968025
862.964312	0.968501
863.276873	0.970074
863.589392	0.969175
863.901869	0.966587
864.214303	0.967314
864.526696	0.964172
864.839045	0.964367
865.151353	0.963511
865.463619	0.963199
865.775842	0.963151
866.088023	0.963093
866.400162	0.963152
866.712258	0.962645
867.024313	0.963947
867.336325	0.963980
867.648296	0.963940
867.960224	0.962978
868.272110	0.962997
868.583954	0.964555
868.895755	0.965307
869.207515	0.962317
869.519233	0.960350
869.830909	0.961721
870.142542	0.963089
870.454134	0.961778
870.765684	0.961224
871.077191	0.958560
871.388657	0.960434
871.700081	0.959481
872.011463	0.960216
872.322803	0.959218
872.634101	0.957095
872.945357	0.955305
873.256571	0.954620
873.567744	0.952405
873.878874	0.953698
874.189963	0.952656
874.501010	0.952726
874.812015	0.950058
875.122979	0.951614
875.433900	0.952627
875.744780	0.952974
876.055618	0.952039
876.366415	0.951276
876.677169	0.950329
876.987882	0.951822
877.298554	0.952593
877.609183	0.948725
877.919771	0.946018
878.230317	0.943853
878.540822	0.940973
878.851285	0.934942
879.161707	0.928479
879.472087	0.916412
879.782425	0.899119
880.092722	0.865059
880.402977	0.813587
880.713191	0.753384
881.023363	0.694145
881.333494	0.660737
881.643583	0.632918
881.953631	0.632868
882.263637	0.661376
882.573602	0.700550
882.883526	0.725209
883.193408	0.749636
883.503248	0.772863
883.813048	0.798763
884.122806	0.828608
884.432522	0.852276
884.742197	0.871553
885.051831	0.882754
885.361424	0.891949
885.670975	0.904513
885.980485	0.914055
886.289954	0.920257
886.599382	0.925375
886.908768	0.929469
887.218113	0.934819
887.527417	0.939580
887.836680	0.942474
888.145901	0.944136
888.455082	0.947534
888.764221	0.951500
889.073319	0.953446
889.382376	0.953779
889.691392	0.953629
890.000366	0.953578
890.309300	0.955549
890.618193	0.954563
890.927044	0.952304
891.235855	0.952520
891.544625	0.952324
891.853353	0.953997
892.162041	0.950196
892.470687	0.942581
892.779293	0.939366
893.087858	0.934571
893.396381	0.927444
893.704864	0.913858
894.013306	0.891574
894.321707	0.863849
894.630068	0.849598
894.938387	0.844621
895.246665	0.845882
895.554903	0.858576
895.863100	0.870539
896.171256	0.888838
896.479371	0.907613
896.787446	0.919943
897.095480	0.926496
897.403473	0.929709
897.711425	0.933548
898.019336	0.940775
898.327207	0.943175
898.635038	0.945785
898.942827	0.946023
899.250576	0.949027
899.558284	0.953545
899.865952	0.953796
900.173579	0.956603
900.481165	0.955535
900.788711	0.961461
901.096216	0.962139
901.403681	0.961896
901.711105	0.963275
902.018489	0.963473
902.325832	0.963744
902.633135	0.962342
902.940397	0.956580
903.247619	0.945206
903.554800	0.919985
903.861941	0.880657
904.169041	0.845001
904.476101	0.827867
904.783121	0.828358
905.090100	0.845385
905.397039	0.866711
905.703938	0.887403
906.010796	0.907016
906.317614	0.925610
906.624391	0.935366
906.931129	0.945158
907.237826	0.952233
907.544483	0.959657
907.851099	0.963198
908.157675	0.967942
908.464211	0.970463
908.770707	0.973301
909.077163	0.974980
909.383578	0.974180
909.689954	0.975317
909.996289	0.976240
910.302584	0.978240
910.608839	0.979943
910.915054	0.979279
911.221229	0.978345
911.527363	0.977780
911.833458	0.978480
912.139513	0.978228
912.445527	0.975538
912.751502	0.974577
913.057436	0.973935
913.363331	0.970391
913.669186	0.966731
913.975000	0.961486
914.280775	0.956427
914.586510	0.948624
914.892205	0.936254
915.197859	0.915641
915.503475	0.887921
915.809050	0.869616
916.114585	0.862886
916.420081	0.860065
916.725536	0.857368
917.030952	0.865773
917.336328	0.876999
917.641665	0.893350
917.946961	0.908976
918.252218	0.919491
918.557435	0.928975
918.862612	0.937345
919.167750	0.942758
919.472848	0.947478
919.777906	0.953891
920.082925	0.959411
920.387904	0.962479
920.692843	0.962627
920.997743	0.964868
921.302603	0.967842
921.607423	0.969998
921.912204	0.973040
922.216946	0.972305
922.521647	0.974371
922.826310	0.975998
923.130932	0.978179
923.435516	0.978827
923.740059	0.980162
924.044564	0.979252
924.349028	0.981129
924.653454	0.982491
924.957840	0.985202
925.262186	0.984929
925.566493	0.983496
925.870761	0.986177
926.174989	0.987058
926.479178	0.989281
926.783328	0.989221
927.087438	0.988016
927.391509	0.988331
927.695541	0.991122
927.999533	0.990232
928.303486	0.990028
928.607400	0.993165
928.911275	0.990319
929.215110	0.990328
929.518906	0.991052
929.822663	0.990213
930.126381	0.992729
930.430060	0.991570
930.733699	0.990942
931.037299	0.989925
931.340861	0.991036
931.644383	0.990957
931.947866	0.990583
932.251309	0.992542
932.554714	0.991175
932.858080	0.992200
933.161407	0.990004
933.464694	0.992120
933.767943	0.990485
934.071153	0.990837
934.374323	0.993434
934.677455	0.991294
934.980548	0.992700
935.283602	0.991847
935.586617	0.992088
935.889593	0.991520
936.192530	0.990820
936.495428	0.991686
936.798287	0.991437
937.101108	0.991896
937.403890	0.989094
937.706632	0.989861
938.009336	0.988156
938.312002	0.986902
938.614628	0.984752
938.917216	0.983627
939.219765	0.982529
939.522275	0.983533
939.824747	0.983943
940.127179	0.983687
940.429573	0.985974
940.731929	0.983635
941.034246	0.984514
941.336524	0.985636
941.638763	0.987303
941.940964	0.986564
942.243126	0.987495
942.545250	0.987326
942.847335	0.990838
943.149381	0.988080
943.451389	0.988916
943.753359	0.989237
944.055290	0.992110
944.357182	0.991991
944.659036	0.988363
944.960851	0.989881
945.262628	0.990119
945.564367	0.992026
945.866067	0.990078
946.167729	0.990868
946.469352	0.990901
946.770937	0.989714
947.072484	0.991226
947.373992	0.991009
947.675462	0.990772
947.976893	0.990114
948.278286	0.990326
948.579641	0.992268
948.880958	0.991752
949.182236	0.991713
949.483476	0.991785
949.784678	0.991732
950.085841	0.991870
950.386967	0.991059
950.688054	0.991326
950.989103	0.992006
951.290114	0.989646
951.591087	0.990446
951.892021	0.990831
952.192917	0.989777
952.493776	0.988832
952.794596	0.989051
953.095378	0.988967
953.396122	0.988720
953.696828	0.986733
953.997496	0.989834
954.298126	0.991560
954.598718	0.992383
954.899272	0.991937
955.199788	0.990279
955.500266	0.992553
955.800706	0.994480
956.101108	0.993232
956.401472	0.993066
956.701798	0.994917
957.002087	0.994282
957.302337	0.994693
957.602550	0.996503
957.902724	0.995379
958.202861	0.996700
958.502960	0.995465
958.803022	0.994738
959.103045	0.996626
959.403031	0.997235
959.702979	0.995768
960.002889	0.996389
960.302762	0.995458
960.602596	0.996698
960.902393	0.995661
961.202153	0.997461
961.501875	0.997451
961.801559	0.996419
962.101205	0.995625
962.400814	0.996598
962.700385	0.997006
962.999918	0.996299
963.299414	0.996875
963.598873	0.996018
963.898293	0.996819
964.197677	0.996331
964.497022	0.997705
964.796331	0.997917
965.095601	0.998324
965.394835	0.997762
965.694030	0.997613
965.993189	0.998099
966.292309	0.997080
966.591393	0.997779
966.890439	0.997489
967.189447	0.998238
967.488419	0.997949
967.787353	0.997121
968.086249	0.997431
968.385108	0.997513
968.683930	0.997874
968.982714	0.998168
969.281462	0.998136
969.580172	0.996505
969.878844	0.998701
970.177480	0.996286
970.476078	0.997788
970.774639	0.996875
971.073162	0.997690
971.371649	0.997078
971.670098	0.996901
971.968510	0.998783
972.266885	0.995576
972.565223	0.997285
972.863524	0.995676
973.161788	0.995890
973.460014	0.998663
973.758204	0.997077
974.056356	0.997583
974.354471	0.996265
974.652550	0.997921
974.950591	0.996524
975.248595	0.996806
975.546563	0.997808
975.844493	0.997297
976.142386	0.997261
976.440243	0.998106
976.738062	0.997695
977.035845	0.998920
977.333590	0.998984
977.631299	0.999126
977.928971	0.996473
978.226606	0.997302
978.524204	0.997175
978.821765	0.998356
979.119290	0.996730
979.416777	0.996581
979.714228	0.998060
980.011642	0.996972
980.309020	0.997488
980.606360	0.997934
980.903664	0.998871
981.200931	0.997134
981.498162	0.995874
981.795356	0.995499
982.092513	0.995180
982.389633	0.995927
982.686717	0.991272
982.983764	0.992711
983.280775	0.991581
983.577749	0.991054
983.874686	0.993024
984.171587	0.992737
984.468451	0.994820
984.765279	0.995521
985.062070	0.995365
985.358824	0.995291
985.655543	0.996241
985.952224	0.996727
986.248869	0.997504
986.545478	0.996330
986.842050	0.998724
987.138586	0.996155
987.435086	0.998524
987.731549	0.999495
988.027975	0.998389
988.324366	0.998559
988.620719	0.997880
988.917037	0.996449
989.213318	0.998876
989.509563	0.998795
989.805772	0.999323
990.101944	0.999236
990.398080	0.997609
990.694180	0.997867
990.990244	0.999754
991.286271	0.998610
991.582262	0.998996
991.878217	0.998702
992.174136	0.998852
992.470019	0.999627
992.765865	0.998290
993.061676	0.998034
993.357450	0.998366
993.653188	0.997414
993.948890	0.997118
994.244556	0.997891
994.540186	0.997718
994.835780	0.996729
995.131337	0.998520
995.426859	0.997458
995.722345	0.998514
996.017795	0.996641
996.313208	0.997071
996.608586	0.996000
996.903928	0.997384
997.199234	0.995999
997.494504	0.996898
997.789738	0.996878
998.084936	0.997255
998.380099	0.998225
998.675225	0.997448
998.970316	0.997999
999.265371	0.998030
999.560390	0.998646
999.855373	0.999347
1000.150320	0.998588
1000.445232	1.000145
1000.740108	0.998781
1001.034948	0.999622
1001.329752	0.999107
1001.624521	1.000244
1001.919254	0.999530
1002.213951	0.999200
1002.508613	0.998488
1002.803239	0.999626
1003.097829	0.998072
1003.392384	0.999298
1003.686903	0.998364
1003.981386	0.999028
1004.275834	0.998828
1004.570246	0.998990
1004.864623	0.999536
1005.158964	1.000131
1005.453270	0.999888
1005.747540	0.997901
1006.041775	0.999635
1006.335974	1.000040
1006.630138	1.000267
1006.924266	1.000036
1007.218359	1.000463
1007.512416	1.000570
1007.806438	1.000052
1008.100425	0.999845
1008.394376	0.999160
1008.688292	0.998995
1008.982172	1.001565
1009.276017	1.000040
1009.569827	0.999085
1009.863602	0.999384
1010.157341	1.000027
1010.451045	1.000167
1010.744714	0.999161
1011.038347	0.999785
1011.331945	0.999435
1011.625508	0.997206
1011.919036	0.998571
1012.212528	0.998852
1012.505986	0.998589
1012.799408	0.999360
1013.092795	0.999776
1013.386147	0.999761
1013.679464	1.000584
1013.972745	0.998053
1014.265992	0.997226
1014.559204	0.999036
1014.852380	0.999768
1015.145521	1.000099
1015.438628	0.999284
1015.731699	0.999792
1016.024736	0.998474
1016.317737	0.998998
1016.610703	0.999724
1016.903635	1.000666
1017.196531	0.998862
1017.489393	1.001419
1017.782219	0.999109
1018.075011	0.998812
1018.367768	0.998030
1018.660490	0.999945
1018.953177	0.999945
1019.245829	0.999945
