Dividing Wavelength (nm)	Counts (n)	Blue Motor Position (mm): 0.000000	Red Motor Position (mm): 17.300000	
326.493990	1.001270
326.888308	1.001270
327.282561	1.001270
327.676750	0.999663
328.070874	1.000445
328.464933	1.000345
328.858929	1.000275
329.252859	1.000278
329.646726	1.000511
330.040528	1.001065
330.434265	1.000549
330.827938	1.000528
331.221547	1.000731
331.615091	0.999733
332.008571	1.000037
332.401986	0.999837
332.795338	1.000745
333.188625	0.999235
333.581847	1.001005
333.975006	1.000717
334.368100	1.000046
334.761129	1.000114
335.154095	1.000870
335.546996	0.998661
335.939833	0.994331
336.332606	0.993645
336.725315	0.995493
337.117960	0.996060
337.510540	0.994319
337.903056	0.994870
338.295508	0.993684
338.687896	0.994996
339.080220	0.994313
339.472480	0.994335
339.864676	0.994473
340.256807	0.995671
340.648875	0.995679
341.040879	0.994445
341.432818	0.994836
341.824694	0.994762
342.216506	0.995025
342.608253	0.994616
342.999937	0.993833
343.391557	0.994564
343.783113	0.994693
344.174605	0.995125
344.566033	0.995907
344.957397	0.992941
345.348697	0.993940
345.739934	0.994012
346.131106	0.993686
346.522215	0.993402
346.913260	0.994164
347.304241	0.993922
347.695159	0.994131
348.086012	0.993816
348.476802	0.994381
348.867528	0.994856
349.258191	0.992268
349.648789	0.994832
350.039324	0.994055
350.429796	0.995100
350.820203	0.994332
351.210548	0.994233
351.600828	0.994488
351.991045	0.993654
352.381198	0.993637
352.771288	0.994299
353.161314	0.994458
353.551276	0.994217
353.941175	0.993934
354.331010	0.994072
354.720782	0.995260
355.110490	0.994634
355.500135	0.995852
355.889717	0.993708
356.279235	0.995030
356.668689	0.994053
357.058080	0.994730
357.447408	0.996173
357.836672	0.995371
358.225873	0.995220
358.615010	0.994914
359.004084	0.995689
359.393095	0.995460
359.782043	0.993877
360.170927	0.996032
360.559748	0.994985
360.948505	0.993576
361.337199	0.993689
361.725830	0.994555
362.114398	0.993737
362.502903	0.995189
362.891344	0.995914
363.279722	0.994352
363.668037	0.993976
364.056289	0.994134
364.444478	0.995173
364.832603	0.993974
365.220665	0.994498
365.608665	0.993892
365.996601	0.995001
366.384474	0.994238
366.772284	0.994200
367.160031	0.993082
367.547715	0.993502
367.935336	0.994126
368.322893	0.994262
368.710388	0.993192
369.097820	0.993869
369.485189	0.994689
369.872495	0.994584
370.259738	0.992942
370.646918	0.994824
371.034035	0.994893
371.421090	0.994579
371.808081	0.994464
372.195010	0.995037
372.581875	0.994908
372.968678	0.994329
373.355418	0.993716
373.742096	0.994031
374.128710	0.994904
374.515262	0.993929
374.901751	0.995354
375.288177	0.995361
375.674540	0.995224
376.060841	0.993222
376.447079	0.994569
376.833254	0.994805
377.219367	0.995559
377.605417	0.994533
377.991404	0.994416
378.377329	0.993383
378.763191	0.994977
379.148991	0.995161
379.534727	0.995160
379.920402	0.995080
380.306013	0.994569
380.691563	0.994796
381.077049	0.994328
381.462474	0.995494
381.847835	0.995821
382.233134	0.995003
382.618371	0.994902
383.003545	0.994099
383.388657	0.994900
383.773706	0.995557
384.158693	0.995694
384.543618	0.994261
384.928480	0.995409
385.313280	0.994975
385.698017	0.995700
386.082692	0.996138
386.467305	0.995688
386.851856	0.994490
387.236344	0.993575
387.620770	0.994043
388.005133	0.994743
388.389435	0.995548
388.773674	0.994689
389.157851	0.994915
389.541965	0.995151
389.926018	0.994894
390.310008	0.995951
390.693936	0.995079
391.077802	0.994974
391.461606	0.994935
391.845348	0.994883
392.229027	0.996549
392.612645	0.994597
392.996200	0.996431
393.379694	0.995554
393.763125	0.996180
394.146494	0.995079
394.529801	0.994166
394.913047	0.995848
395.296230	0.994489
395.679351	0.994725
396.062410	0.994539
396.445408	0.994732
396.828343	0.994129
397.211217	0.993989
397.594028	0.994619
397.976778	0.994273
398.359466	0.993047
398.742092	0.992409
399.124656	0.992364
399.507158	0.993292
399.889598	0.992648
400.271977	0.992767
400.654294	0.992371
401.036549	0.991176
401.418742	0.990638
401.800874	0.988085
402.182944	0.987686
402.564952	0.985079
402.946898	0.984662
403.328783	0.982907
403.710606	0.980421
404.092367	0.977950
404.474067	0.976228
404.855705	0.972746
405.237282	0.970296
405.618797	0.965086
406.000250	0.961867
406.381642	0.957231
406.762972	0.953649
407.144240	0.949902
407.525447	0.945006
407.906593	0.939540
408.287677	0.933785
408.668700	0.930594
409.049661	0.923240
409.430560	0.917115
409.811399	0.911616
410.192176	0.901320
410.572891	0.898236
410.953545	0.888208
411.334138	0.883980
411.714669	0.875965
412.095139	0.871572
412.475547	0.860336
412.855894	0.852844
413.236180	0.845876
413.616405	0.839473
413.996568	0.828638
414.376670	0.821927
414.756711	0.815690
415.136691	0.806195
415.516609	0.794290
415.896466	0.784357
416.276262	0.773348
416.655997	0.766405
417.035670	0.747905
417.415283	0.735977
417.794834	0.728864
418.174324	0.722916
418.553753	0.719548
418.933121	0.700758
419.312428	0.687164
419.691674	0.681587
420.070859	0.666005
420.449983	0.663224
420.829045	0.647619
421.208047	0.646507
421.586988	0.632701
421.965867	0.623643
422.344686	0.606992
422.723444	0.608923
423.102141	0.615052
423.480777	0.587526
423.859352	0.596447
424.237866	0.570675
424.616319	0.565941
424.994712	0.551800
425.373044	0.554299
425.751314	0.538040
426.129524	0.545751
426.507673	0.526553
426.885762	0.516799
427.263789	0.515561
427.641756	0.520511
428.019662	0.506795
428.397508	0.501558
428.775292	0.501252
429.153016	0.489920
429.530679	0.492592
429.908282	0.483234
430.285824	0.489929
430.663305	0.465897
431.040726	0.483540
431.418086	0.481364
431.795385	0.471220
432.172624	0.467500
432.549802	0.466117
432.926920	0.463241
433.303977	0.460680
433.680974	0.456774
434.057910	0.453586
434.434786	0.452401
434.811601	0.453738
435.188355	0.434951
435.565050	0.443225
435.941683	0.443923
436.318257	0.428436
436.694770	0.427834
437.071222	0.425131
437.447614	0.429064
437.823946	0.435071
438.200218	0.424603
438.576429	0.433598
438.952580	0.426291
439.328670	0.422693
439.704700	0.428962
440.080670	0.430307
440.456580	0.410963
440.832429	0.418873
441.208218	0.429797
441.583947	0.418828
441.959616	0.418384
442.335224	0.423221
442.710773	0.413994
443.086261	0.411670
443.461689	0.426179
443.837057	0.415318
444.212365	0.405407
444.587612	0.412145
444.962800	0.402138
445.337927	0.403588
445.712995	0.429963
446.088002	0.392026
446.462949	0.402212
446.837837	0.406507
447.212664	0.395805
447.587431	0.387352
447.962139	0.358299
448.336786	0.317399
448.711374	0.327587
449.085901	0.371148
449.460369	0.375766
449.834776	0.378769
450.209124	0.358970
450.583412	0.351303
450.957640	0.344432
451.331808	0.355216
451.705917	0.379097
452.079965	0.383247
452.453954	0.371726
452.827883	0.378023
453.201752	0.373242
453.575562	0.384602
453.949311	0.372723
454.323001	0.379210
454.696632	0.375212
455.070202	0.367820
455.443713	0.359468
455.817164	0.354582
456.190556	0.350636
456.563888	0.346907
456.937160	0.344375
457.310373	0.361527
457.683526	0.360362
458.056619	0.366141
458.429653	0.367087
458.802628	0.370197
459.175542	0.364424
459.548398	0.347268
459.921194	0.339740
460.293930	0.339964
460.666607	0.317128
461.039224	0.305731
461.411782	0.301115
461.784280	0.300571
462.156719	0.304664
462.529099	0.309242
462.901419	0.325392
463.273680	0.329734
463.645882	0.329437
464.018024	0.334710
464.390106	0.328204
464.762130	0.313178
465.134094	0.295675
465.505999	0.265091
465.877845	0.235777
466.249631	0.222719
466.621358	0.230065
466.993026	0.243886
467.364634	0.250171
467.736184	0.259019
468.107674	0.267765
468.479105	0.266802
468.850477	0.273465
469.221790	0.280216
469.593043	0.290643
469.964238	0.295408
470.335373	0.294771
470.706449	0.292911
471.077467	0.293715
471.448425	0.256013
471.819324	0.231409
472.190164	0.231029
472.560945	0.259656
472.931667	0.282012
473.302330	0.285844
473.672934	0.298279
474.043479	0.285746
474.413965	0.287915
474.784393	0.291014
475.154761	0.286437
475.525070	0.283294
475.895321	0.289259
476.265513	0.283472
476.635645	0.278595
477.005719	0.278561
477.375734	0.275174
477.745691	0.268525
478.115588	0.265285
478.485427	0.258439
478.855207	0.245718
479.224928	0.227966
479.594591	0.216362
479.964194	0.219582
480.333739	0.220790
480.703226	0.222554
481.072653	0.220936
481.442022	0.216623
481.811333	0.213148
482.180584	0.216487
482.549777	0.221733
482.918912	0.225130
483.287988	0.224966
483.657005	0.224441
484.025964	0.231075
484.394864	0.228293
484.763706	0.228937
485.132489	0.233634
485.501213	0.234382
485.869879	0.232942
486.238487	0.235916
486.607036	0.233644
486.975527	0.238464
487.343959	0.234482
487.712333	0.233254
488.080648	0.234699
488.448905	0.234025
488.817104	0.235410
489.185244	0.229739
489.553326	0.226610
489.921350	0.216617
490.289315	0.198952
490.657222	0.194156
491.025070	0.195233
491.392861	0.197172
491.760593	0.203015
492.128267	0.208565
492.495883	0.214001
492.863440	0.220365
493.230939	0.226604
493.598380	0.227801
493.965763	0.229839
494.333088	0.232522
494.700354	0.234055
495.067563	0.233019
495.434713	0.235693
495.801805	0.234096
496.168839	0.235407
496.535815	0.236802
496.902733	0.236795
497.269593	0.238329
497.636395	0.236197
498.003139	0.236386
498.369825	0.239575
498.736453	0.235885
499.103023	0.237499
499.469535	0.236811
499.835989	0.237077
500.202385	0.238283
500.568723	0.241201
500.935003	0.236533
501.301226	0.240448
501.667390	0.235021
502.033497	0.233050
502.399546	0.236070
502.765537	0.237924
503.131470	0.236285
503.497345	0.232846
503.863163	0.241148
504.228923	0.234443
504.594625	0.233253
504.960269	0.238543
505.325856	0.233741
505.691385	0.238052
506.056856	0.234848
506.422270	0.234302
506.787625	0.236605
507.152924	0.234060
507.518164	0.234487
507.883347	0.236141
508.248472	0.237761
508.613540	0.232961
508.978550	0.235619
509.343503	0.235571
509.708398	0.233318
510.073236	0.231212
510.438016	0.231294
510.802738	0.232131
511.167403	0.231165
511.532010	0.233133
511.896561	0.228552
512.261053	0.227267
512.625488	0.229408
512.989866	0.229741
513.354186	0.230133
513.718449	0.232092
514.082655	0.228309
514.446803	0.230587
514.810894	0.227932
515.174927	0.230915
515.538904	0.230103
515.902822	0.227144
516.266684	0.229730
516.630488	0.230790
516.994235	0.229401
517.357925	0.228150
517.721558	0.226580
518.085133	0.226070
518.448651	0.226172
518.812112	0.228346
519.175516	0.227983
519.538863	0.225729
519.902152	0.227264
520.265385	0.224201
520.628560	0.225863
520.991678	0.226419
521.354739	0.224955
521.717743	0.226196
522.080690	0.227070
522.443580	0.224042
522.806413	0.224847
523.169189	0.224501
523.531908	0.223125
523.894569	0.227073
524.257174	0.227073
524.619722	0.224537
524.982213	0.225746
525.344647	0.224664
525.707025	0.225471
526.069345	0.223553
526.431608	0.225033
526.793815	0.223017
527.155964	0.227230
527.518057	0.226303
527.880093	0.227223
528.242072	0.225732
528.603995	0.227560
528.965860	0.229560
529.327669	0.228090
529.689421	0.229032
530.051117	0.230024
530.412755	0.227960
530.774337	0.230110
531.135862	0.230514
531.497331	0.229756
531.858743	0.232430
532.220098	0.229204
532.581396	0.231645
532.942638	0.232403
533.303824	0.233044
533.664953	0.233172
534.026025	0.234537
534.387040	0.232626
534.747999	0.232242
535.108902	0.231561
535.469748	0.236432
535.830537	0.234551
536.191270	0.234886
536.551947	0.234285
536.912567	0.234238
537.273131	0.236100
537.633638	0.236169
537.994089	0.236725
538.354483	0.237652
538.714821	0.234589
539.075103	0.234566
539.435328	0.235047
539.795497	0.238756
540.155609	0.235564
540.515665	0.233703
540.875665	0.239324
541.235609	0.237620
541.595496	0.237807
541.955328	0.234403
542.315102	0.237320
542.674821	0.238162
543.034483	0.238103
543.394090	0.237950
543.753640	0.239638
544.113134	0.234389
544.472571	0.237978
544.831953	0.234692
545.191278	0.239072
545.550548	0.238464
545.909761	0.235235
546.268918	0.235875
546.628019	0.234375
546.987064	0.237044
547.346053	0.238979
547.704986	0.236626
548.063863	0.236938
548.422684	0.237327
548.781449	0.238952
549.140158	0.236544
549.498811	0.239543
549.857408	0.242760
550.215949	0.237344
550.574434	0.240593
550.932864	0.238328
551.291237	0.237112
551.649555	0.238253
552.007817	0.238042
552.366022	0.238940
552.724173	0.239118
553.082267	0.239433
553.440305	0.236295
553.798288	0.241114
554.156215	0.237348
554.514086	0.238196
554.871902	0.241357
555.229661	0.240511
555.587365	0.240870
555.945014	0.243509
556.302606	0.240342
556.660143	0.242948
557.017625	0.239567
557.375050	0.241926
557.732421	0.238663
558.089735	0.240642
558.446994	0.240620
558.804197	0.239858
559.161345	0.240046
559.518437	0.243492
559.875474	0.241330
560.232455	0.240607
560.589381	0.241757
560.946251	0.241937
561.303065	0.239268
561.659825	0.240847
562.016528	0.242243
562.373177	0.245117
562.729770	0.242522
563.086307	0.244726
563.442789	0.242266
563.799216	0.244881
564.155587	0.244134
564.511904	0.244957
564.868164	0.245399
565.224370	0.245004
565.580520	0.246611
565.936615	0.246484
566.292654	0.249710
566.648638	0.246596
567.004567	0.247624
567.360441	0.247972
567.716260	0.250072
568.072023	0.247996
568.427732	0.248253
568.783385	0.251224
569.138982	0.249189
569.494525	0.248812
569.850013	0.251557
570.205445	0.250016
570.560823	0.252715
570.916145	0.254711
571.271412	0.252856
571.626625	0.254547
571.981782	0.254800
572.336884	0.255709
572.691931	0.255305
573.046923	0.256522
573.401860	0.257458
573.756743	0.259570
574.111570	0.258514
574.466342	0.258777
574.821059	0.258077
575.175722	0.260924
575.530330	0.260795
575.884882	0.260876
576.239380	0.262834
576.593823	0.263743
576.948211	0.262593
577.302544	0.265992
577.656823	0.265508
578.011047	0.266094
578.365216	0.266435
578.719330	0.268480
579.073389	0.268026
579.427394	0.269514
579.781344	0.270209
580.135239	0.272022
580.489080	0.271596
580.842866	0.274303
581.196597	0.274442
581.550273	0.272775
581.903895	0.273764
582.257463	0.272027
582.610975	0.275578
582.964434	0.274907
583.317837	0.277142
583.671186	0.277483
584.024481	0.277281
584.377721	0.280268
584.730906	0.280786
585.084037	0.279926
585.437113	0.281912
585.790135	0.281286
586.143103	0.283936
586.496016	0.285606
586.848874	0.282783
587.201679	0.283564
587.554428	0.286791
587.907124	0.285769
588.259765	0.286101
588.612352	0.286756
588.964884	0.290460
589.317362	0.289949
589.669786	0.290016
590.022155	0.288753
590.374470	0.288085
590.726731	0.290245
591.078937	0.294496
591.431090	0.291070
591.783188	0.295436
592.135232	0.295694
592.487222	0.295652
592.839157	0.293891
593.191038	0.296072
593.542866	0.297992
593.894639	0.301858
594.246358	0.299467
594.598022	0.299259
594.949633	0.302680
595.301190	0.303186
595.652692	0.302880
596.004141	0.299023
596.355535	0.306923
596.706876	0.307549
597.058162	0.309900
597.409395	0.306903
597.760573	0.304953
598.111698	0.307771
598.462768	0.308488
598.813785	0.309897
599.164748	0.310962
599.515657	0.311607
599.866511	0.314827
600.217312	0.309989
600.568060	0.315375
600.918753	0.311329
601.269392	0.312689
601.619978	0.316009
601.970510	0.313643
602.320988	0.313623
602.671412	0.311556
603.021783	0.313569
603.372100	0.315282
603.722363	0.314871
604.072572	0.315854
604.422728	0.315711
604.772830	0.317772
605.122878	0.317279
605.472872	0.317746
605.822813	0.316142
606.172701	0.318776
606.522534	0.316264
606.872314	0.316237
607.222041	0.316932
607.571714	0.315730
607.921333	0.316445
608.270899	0.316384
608.620411	0.312857
608.969870	0.317113
609.319276	0.317255
609.668627	0.317241
610.017926	0.315471
610.367171	0.314316
610.716362	0.314789
611.065500	0.315073
611.414585	0.313684
611.763616	0.314315
612.112594	0.315005
612.461518	0.314121
612.810389	0.311464
613.159207	0.314236
613.507971	0.315785
613.856682	0.311802
614.205340	0.313492
614.553945	0.310069
614.902496	0.314042
615.250994	0.312049
615.599439	0.312854
615.947830	0.312241
616.296169	0.313208
616.644454	0.312477
616.992686	0.312808
617.340864	0.310748
617.688990	0.314554
618.037063	0.310520
618.385082	0.312912
618.733048	0.309428
619.080961	0.311894
619.428821	0.311210
619.776628	0.310635
620.124382	0.313089
620.472083	0.312888
620.819731	0.312271
621.167326	0.316497
621.514868	0.316017
621.862357	0.320394
622.209793	0.320062
622.557176	0.322087
622.904506	0.323199
623.251783	0.325715
623.599007	0.327934
623.946179	0.327767
624.293297	0.329440
624.640363	0.333057
624.987376	0.334101
625.334336	0.336416
625.681243	0.338736
626.028097	0.339002
626.374899	0.339856
626.721647	0.340153
627.068343	0.343919
627.414987	0.344794
627.761577	0.346907
628.108115	0.345186
628.454600	0.350083
628.801032	0.347464
629.147412	0.349602
629.493739	0.350169
629.840014	0.353505
630.186236	0.350703
630.532405	0.356042
630.878521	0.353482
631.224585	0.355712
631.570597	0.359837
631.916556	0.357674
632.262462	0.358108
632.608316	0.360099
632.954117	0.360905
633.299866	0.361770
633.645562	0.362492
633.991206	0.366521
634.336797	0.369720
634.682336	0.371545
635.027823	0.373032
635.373257	0.374135
635.718639	0.377550
636.063968	0.376902
636.409245	0.382509
636.754470	0.382726
637.099642	0.385370
637.444762	0.388824
637.789829	0.388083
638.134845	0.391476
638.479808	0.392022
638.824719	0.391536
639.169577	0.396169
639.514383	0.394552
639.859137	0.398874
640.203839	0.399161
640.548489	0.399633
640.893086	0.400754
641.237632	0.402550
641.582125	0.400873
641.926566	0.402466
642.270955	0.402576
642.615292	0.402871
642.959576	0.402125
643.303809	0.402847
643.647990	0.402189
643.992118	0.402675
644.336195	0.406207
644.680219	0.404686
645.024192	0.405542
645.368112	0.398903
645.711981	0.397960
646.055797	0.392993
646.399562	0.395416
646.743274	0.387997
647.086935	0.385163
647.430544	0.385192
647.774101	0.384340
648.117606	0.383993
648.461059	0.384028
648.804460	0.386636
649.147810	0.391668
649.491108	0.394245
649.834354	0.395412
650.177548	0.400379
650.520690	0.406078
650.863781	0.407254
651.206820	0.406170
651.549807	0.411115
651.892742	0.414917
652.235626	0.415118
652.578458	0.415027
652.921238	0.421503
653.263967	0.419817
653.606644	0.423343
653.949269	0.423014
654.291843	0.427062
654.634365	0.423726
654.976836	0.426832
655.319255	0.427090
655.661622	0.429145
656.003938	0.428835
656.346203	0.431524
656.688416	0.429398
657.030577	0.432724
657.372687	0.434957
657.714746	0.435698
658.056753	0.432949
658.398708	0.436200
658.740612	0.437594
659.082465	0.433454
659.424266	0.434011
659.766016	0.433635
660.107715	0.436182
660.449362	0.435205
660.790958	0.435984
661.132503	0.436703
661.473996	0.434355
661.815438	0.435279
662.156829	0.435096
662.498168	0.435740
662.839456	0.437316
663.180693	0.435138
663.521879	0.435023
663.863013	0.435868
664.204097	0.434729
664.545129	0.431178
664.886110	0.431559
665.227040	0.428923
665.567918	0.431559
665.908746	0.429595
666.249522	0.429414
666.590248	0.430344
666.930922	0.428225
667.271545	0.427728
667.612118	0.428047
667.952639	0.429367
668.293109	0.427872
668.633528	0.430446
668.973896	0.430831
669.314213	0.431128
669.654480	0.432648
669.994695	0.433429
670.334859	0.433773
670.674973	0.433721
671.015035	0.434094
671.355047	0.434005
671.695008	0.435066
672.034918	0.436880
672.374777	0.436266
672.714585	0.437669
673.054342	0.437677
673.394049	0.437107
673.733705	0.435373
674.073310	0.436504
674.412864	0.439686
674.752368	0.439587
675.091820	0.439943
675.431223	0.444724
675.770574	0.444450
676.109875	0.447377
676.449125	0.447600
676.788324	0.450035
677.127473	0.454629
677.466571	0.454984
677.805619	0.456461
678.144616	0.457442
678.483562	0.459142
678.822458	0.461638
679.161303	0.462374
679.500098	0.463054
679.838842	0.465075
680.177535	0.464299
680.516179	0.463156
680.854771	0.461728
681.193314	0.455169
681.531805	0.446426
681.870247	0.435225
682.208638	0.428194
682.546978	0.427079
682.885268	0.428018
683.223508	0.434742
683.561697	0.438365
683.899836	0.441087
684.237925	0.443956
684.575963	0.446988
684.913951	0.450013
685.251889	0.445806
685.589776	0.448184
685.927614	0.450409
686.265401	0.444612
686.603137	0.445935
686.940824	0.440039
687.278460	0.438373
687.616046	0.437509
687.953582	0.432374
688.291068	0.433991
688.628504	0.429227
688.965889	0.431937
689.303224	0.436088
689.640510	0.439798
689.977745	0.444927
690.314930	0.453385
690.652065	0.458332
690.989150	0.465472
691.326185	0.472519
691.663170	0.476729
692.000105	0.484348
692.336990	0.490547
692.673825	0.493010
693.010610	0.500460
693.347345	0.505895
693.684030	0.507058
694.020665	0.512150
694.357251	0.520691
694.693786	0.520152
695.030272	0.525083
695.366707	0.527913
695.703093	0.531256
696.039429	0.528874
696.375716	0.530350
696.711952	0.533190
697.048139	0.535222
697.384276	0.537308
697.720363	0.535277
698.056400	0.535000
698.392388	0.540537
698.728326	0.543725
699.064214	0.546281
699.400053	0.546999
699.735842	0.550273
700.071581	0.553806
700.407270	0.555973
700.742910	0.559111
701.078501	0.565389
701.414042	0.565981
701.749533	0.568604
702.084974	0.577836
702.420366	0.569470
702.755709	0.578192
703.091002	0.584953
703.426246	0.578855
703.761440	0.584921
704.096584	0.589296
704.431679	0.586124
704.766725	0.588956
705.101721	0.590422
705.436668	0.586524
705.771565	0.593556
706.106413	0.589813
706.441212	0.585565
706.775961	0.583658
707.110661	0.586735
707.445311	0.583465
707.779913	0.579900
708.114465	0.578631
708.448967	0.575399
708.783421	0.567368
709.117825	0.563024
709.452180	0.562019
709.786485	0.555814
710.120742	0.546123
710.454949	0.548308
710.789107	0.540133
711.123216	0.531178
711.457275	0.532412
711.791286	0.523986
712.125247	0.522314
712.459159	0.533560
712.793023	0.525523
713.126837	0.530246
713.460602	0.530294
713.794318	0.539982
714.127985	0.539129
714.461602	0.548631
714.795171	0.551896
715.128691	0.559667
715.462162	0.566472
715.795584	0.572690
716.128957	0.575800
716.462281	0.582366
716.795556	0.586084
717.128782	0.591394
717.461960	0.600390
717.795088	0.598663
718.128167	0.605064
718.461198	0.614137
718.794180	0.614471
719.127113	0.616492
719.459997	0.621033
719.792833	0.626487
720.125619	0.628397
720.458357	0.634160
720.791046	0.633129
721.123686	0.636619
721.456278	0.643707
721.788821	0.641168
722.121315	0.646186
722.453761	0.649629
722.786158	0.647756
723.118506	0.643814
723.450805	0.652274
723.783056	0.647370
724.115259	0.645092
724.447412	0.644587
724.779518	0.645664
725.111574	0.645854
725.443582	0.640465
725.775542	0.642898
726.107453	0.635064
726.439315	0.634171
726.771129	0.633886
727.102895	0.626466
727.434612	0.619864
727.766281	0.617481
728.097901	0.616618
728.429473	0.616852
728.760996	0.614038
729.092471	0.614672
729.423897	0.618768
729.755276	0.617795
730.086606	0.617522
730.417887	0.612875
730.749120	0.603702
731.080305	0.594196
731.411442	0.590178
731.742530	0.595023
732.073570	0.594781
732.404562	0.586580
732.735506	0.588317
733.066401	0.592810
733.397249	0.601472
733.728048	0.613224
734.058798	0.624916
734.389501	0.636807
734.720156	0.645823
735.050762	0.654998
735.381320	0.655062
735.711831	0.664425
736.042293	0.669517
736.372707	0.664914
736.703073	0.668891
737.033391	0.672472
737.363661	0.668520
737.693883	0.664286
738.024056	0.663587
738.354182	0.663376
738.684260	0.652495
739.014290	0.648948
739.344272	0.649901
739.674207	0.643024
740.004093	0.642309
740.333931	0.642514
740.663722	0.642523
740.993464	0.643392
741.323159	0.647337
741.652806	0.651982
741.982405	0.657615
742.311956	0.660720
742.641460	0.664030
742.970915	0.667669
743.300323	0.675064
743.629683	0.681739
743.958996	0.683198
744.288260	0.687313
744.617477	0.694267
744.946647	0.694676
745.275768	0.700135
745.604842	0.700178
745.933869	0.710995
746.262847	0.710204
746.591778	0.705625
746.920662	0.711298
747.249498	0.716978
747.578286	0.708368
747.907027	0.704365
748.235720	0.705501
748.564365	0.699278
748.892963	0.699590
749.221514	0.702122
749.550017	0.707358
749.878473	0.708189
750.206881	0.713916
750.535242	0.715396
750.863555	0.715431
751.191821	0.716344
751.520039	0.718797
751.848210	0.724255
752.176334	0.716587
752.504411	0.715798
752.832440	0.723884
753.160421	0.728093
753.488356	0.726209
753.816243	0.723571
754.144082	0.731784
754.471875	0.735951
754.799620	0.730939
755.127318	0.732615
755.454969	0.732018
755.782572	0.731761
756.110129	0.736791
756.437638	0.738813
756.765100	0.735805
757.092515	0.734290
757.419882	0.732306
757.747203	0.738001
758.074477	0.736978
758.401703	0.734787
758.728882	0.729620
759.056014	0.728953
759.383099	0.727772
759.710138	0.727685
760.037129	0.724937
760.364073	0.718588
760.690970	0.722105
761.017820	0.727207
761.344623	0.722406
761.671379	0.713917
761.998088	0.702398
762.324751	0.679334
762.651366	0.637511
762.977935	0.570101
763.304456	0.518049
763.630931	0.508912
763.957359	0.548038
764.283740	0.592284
764.610074	0.619969
764.936362	0.651090
765.262602	0.676664
765.588796	0.698925
765.914943	0.717467
766.241044	0.734812
766.567097	0.742096
766.893104	0.751182
767.219064	0.756883
767.544978	0.763762
767.870845	0.778009
768.196665	0.780598
768.522438	0.779966
768.848165	0.780286
769.173846	0.789994
769.499479	0.793946
769.825066	0.798014
770.150607	0.802071
770.476101	0.796943
770.801548	0.798590
771.126949	0.809953
771.452303	0.814179
771.777611	0.812808
772.102872	0.811632
772.428087	0.818125
772.753256	0.819866
773.078378	0.822778
773.403453	0.832025
773.728482	0.836322
774.053465	0.830174
774.378401	0.832747
774.703291	0.842715
775.028135	0.840877
775.352932	0.842883
775.677683	0.845547
776.002388	0.846331
776.327046	0.845075
776.651658	0.849060
776.976224	0.852167
777.300743	0.852931
777.625216	0.854897
777.949643	0.856951
778.274024	0.855978
778.598359	0.857716
778.922647	0.856864
779.246889	0.857419
779.571086	0.861048
779.895236	0.864172
780.219339	0.860753
780.543397	0.858556
780.867409	0.856111
781.191374	0.858823
781.515294	0.859972
781.839167	0.859328
782.162995	0.862940
782.486776	0.859916
782.810511	0.859657
783.134201	0.864606
783.457844	0.862476
783.781441	0.864415
784.104993	0.870019
784.428498	0.870418
784.751958	0.865896
785.075372	0.868657
785.398739	0.872625
785.722061	0.868044
786.045337	0.864165
786.368568	0.868334
786.691752	0.871564
787.014891	0.857127
787.337983	0.848121
787.661030	0.840121
787.984031	0.823292
788.306987	0.811045
788.629897	0.812314
788.952760	0.816297
789.275579	0.821090
789.598351	0.835731
789.921078	0.849169
790.243759	0.851284
790.566395	0.855925
790.888984	0.863918
791.211529	0.869974
791.534027	0.871627
791.856480	0.873978
792.178888	0.879424
792.501249	0.881799
792.823566	0.881974
793.145836	0.882642
793.468062	0.884806
793.790241	0.885366
794.112375	0.882723
794.434464	0.877925
794.756507	0.878249
795.078505	0.877606
795.400457	0.871884
795.722364	0.859579
796.044226	0.852636
796.366042	0.851832
796.687812	0.854190
797.009538	0.852364
797.331218	0.854773
797.652852	0.859260
797.974442	0.865170
798.295986	0.864388
798.617484	0.867268
798.938938	0.870604
799.260346	0.875025
799.581709	0.878148
799.903026	0.880100
800.224299	0.880163
800.545526	0.884774
800.866708	0.888261
801.187845	0.892232
801.508936	0.892397
801.829983	0.890334
802.150984	0.893184
802.471940	0.897565
802.792851	0.896320
803.113717	0.898362
803.434538	0.896698
803.755314	0.898882
804.076045	0.900704
804.396731	0.900123
804.717372	0.899489
805.037967	0.901872
805.358518	0.898553
805.679024	0.896857
805.999485	0.897017
806.319901	0.897281
806.640272	0.898849
806.960598	0.896083
807.280879	0.893327
807.601115	0.890979
807.921306	0.896113
808.241453	0.895644
808.561554	0.893620
808.881611	0.895205
809.201623	0.896167
809.521590	0.896285
809.841513	0.896446
810.161390	0.896566
810.481223	0.898171
810.801011	0.901954
811.120755	0.903613
811.440453	0.901703
811.760107	0.900310
812.079716	0.900366
812.399281	0.903254
812.718801	0.906345
813.038276	0.907143
813.357707	0.904997
813.677093	0.904867
813.996434	0.907456
814.315731	0.908562
814.634983	0.909300
814.954191	0.907133
815.273354	0.905212
815.592473	0.900817
815.911547	0.901459
816.230577	0.898734
816.549562	0.896341
816.868502	0.896706
817.187399	0.892933
817.506250	0.887279
817.825058	0.889628
818.143821	0.886556
818.462539	0.881768
818.781213	0.873671
819.099843	0.861652
819.418429	0.847466
819.736970	0.829085
820.055466	0.810180
820.373919	0.783776
820.692327	0.750533
821.010691	0.716092
821.329011	0.638421
821.647286	0.522291
821.965517	0.408605
822.283704	0.365905
822.601847	0.367030
822.919945	0.402799
823.237999	0.436794
823.556010	0.483212
823.873976	0.539999
824.191897	0.590651
824.509775	0.633313
824.827609	0.678429
825.145398	0.701121
825.463144	0.704480
825.780845	0.686793
826.098502	0.668301
826.416116	0.622142
826.733685	0.577933
827.051210	0.569527
827.368692	0.584716
827.686129	0.621717
828.003522	0.674400
828.320872	0.721514
828.638177	0.766700
828.955439	0.799597
829.272656	0.820951
829.589830	0.838025
829.906960	0.854767
830.224046	0.866438
830.541088	0.877193
830.858086	0.880837
831.175041	0.887213
831.491952	0.886068
831.808819	0.883630
832.125642	0.876830
832.442421	0.861884
832.759157	0.839253
833.075849	0.794117
833.392497	0.730346
833.709101	0.687827
834.025662	0.699216
834.342179	0.729666
834.658653	0.768753
834.975083	0.804873
835.291469	0.829848
835.607811	0.854604
835.924110	0.869724
836.240366	0.887077
836.556578	0.901270
836.872746	0.908497
837.188871	0.914788
837.504952	0.920252
837.820990	0.923966
838.136984	0.927766
838.452935	0.930443
838.768842	0.930914
839.084706	0.924459
839.400526	0.899942
839.716303	0.859285
840.032037	0.836857
840.347727	0.839494
840.663373	0.858236
840.978977	0.879528
841.294537	0.902238
841.610054	0.917685
841.925527	0.925846
842.240957	0.933495
842.556344	0.939671
842.871687	0.946086
843.186987	0.949947
843.502244	0.949780
843.817458	0.952808
844.132629	0.956663
844.447756	0.960156
844.762840	0.961471
845.077881	0.959466
845.392879	0.960723
845.707833	0.962649
846.022745	0.964989
846.337613	0.965715
846.652438	0.967321
846.967221	0.965628
847.281960	0.965333
847.596656	0.968498
847.911309	0.966698
848.225919	0.968744
848.540485	0.968851
848.855009	0.969319
849.169490	0.969398
849.483928	0.970558
849.798323	0.968580
850.112675	0.971045
850.426984	0.969444
850.741251	0.969369
851.055474	0.971479
851.369654	0.968535
851.683792	0.970059
851.997887	0.969840
852.311938	0.971287
852.625947	0.969703
852.939914	0.968452
853.253837	0.969053
853.567718	0.971915
853.881555	0.970139
854.195350	0.968720
854.509103	0.970479
854.822812	0.971294
855.136479	0.971003
855.450103	0.970297
855.763685	0.968692
856.077224	0.968701
856.390720	0.970928
856.704173	0.971202
857.017584	0.968041
857.330953	0.967492
857.644278	0.968670
857.957561	0.968226
858.270802	0.968821
858.584000	0.967232
858.897155	0.966639
859.210268	0.967725
859.523339	0.968659
859.836367	0.969748
860.149352	0.969972
860.462295	0.968162
860.775195	0.971050
861.088054	0.969041
861.400869	0.970396
861.713642	0.970280
862.026373	0.970587
862.339062	0.971372
862.651708	0.967304
862.964312	0.969002
863.276873	0.969804
863.589392	0.968319
863.901869	0.966905
864.214303	0.965100
864.526696	0.963149
864.839045	0.964242
865.151353	0.961917
865.463619	0.962563
865.775842	0.962490
866.088023	0.961828
866.400162	0.962890
866.712258	0.962800
867.024313	0.962076
867.336325	0.963512
867.648296	0.963505
867.960224	0.962697
868.272110	0.961749
868.583954	0.963974
868.895755	0.964544
869.207515	0.961658
869.519233	0.960207
869.830909	0.960869
870.142542	0.963604
870.454134	0.961953
870.765684	0.961056
871.077191	0.958869
871.388657	0.960030
871.700081	0.957970
872.011463	0.958902
872.322803	0.958478
872.634101	0.957658
872.945357	0.953453
873.256571	0.952175
873.567744	0.952365
873.878874	0.953399
874.189963	0.952000
874.501010	0.951063
874.812015	0.949329
875.122979	0.951720
875.433900	0.953806
875.744780	0.953234
876.055618	0.952023
876.366415	0.949625
876.677169	0.950058
876.987882	0.952063
877.298554	0.951884
877.609183	0.949061
877.919771	0.944997
878.230317	0.943005
878.540822	0.940133
878.851285	0.934593
879.161707	0.927188
879.472087	0.914834
879.782425	0.898727
880.092722	0.864282
880.402977	0.812670
880.713191	0.750681
881.023363	0.691515
881.333494	0.658459
881.643583	0.631072
881.953631	0.629884
882.263637	0.658400
882.573602	0.697153
882.883526	0.723165
883.193408	0.747318
883.503248	0.769948
883.813048	0.797522
884.122806	0.827072
884.432522	0.850480
884.742197	0.870794
885.051831	0.880783
885.361424	0.891256
885.670975	0.903139
885.980485	0.913924
886.289954	0.919509
886.599382	0.924042
886.908768	0.928654
887.218113	0.934584
887.527417	0.938910
887.836680	0.941276
888.145901	0.943930
888.455082	0.946483
888.764221	0.950478
889.073319	0.952843
889.382376	0.953275
889.691392	0.952153
890.000366	0.952195
890.309300	0.953167
890.618193	0.953627
890.927044	0.951448
891.235855	0.951503
891.544625	0.951168
891.853353	0.952046
892.162041	0.948256
892.470687	0.943372
892.779293	0.937409
893.087858	0.933987
893.396381	0.925687
893.704864	0.913185
894.013306	0.889725
894.321707	0.862699
894.630068	0.847130
894.938387	0.843138
895.246665	0.844114
895.554903	0.856619
895.863100	0.869326
896.171256	0.887475
896.479371	0.906484
896.787446	0.918877
897.095480	0.926589
897.403473	0.928060
897.711425	0.932673
898.019336	0.940375
898.327207	0.942521
898.635038	0.946217
898.942827	0.945566
899.250576	0.948235
899.558284	0.952011
899.865952	0.953935
900.173579	0.955851
900.481165	0.956247
900.788711	0.960664
901.096216	0.961459
901.403681	0.961918
901.711105	0.963495
902.018489	0.963329
902.325832	0.963481
902.633135	0.960668
902.940397	0.956643
903.247619	0.943643
903.554800	0.917913
903.861941	0.878732
904.169041	0.841934
904.476101	0.824919
904.783121	0.825906
905.090100	0.841925
905.397039	0.863017
905.703938	0.886269
906.010796	0.905956
906.317614	0.922447
906.624391	0.933949
906.931129	0.943566
907.237826	0.951524
907.544483	0.960048
907.851099	0.964181
908.157675	0.967671
908.464211	0.970824
908.770707	0.972849
909.077163	0.974338
909.383578	0.973803
909.689954	0.975768
909.996289	0.976231
910.302584	0.978503
910.608839	0.980388
910.915054	0.978865
911.221229	0.978597
911.527363	0.976982
911.833458	0.976823
912.139513	0.977761
912.445527	0.975522
912.751502	0.974499
913.057436	0.972775
913.363331	0.970409
913.669186	0.967028
913.975000	0.961447
914.280775	0.955145
914.586510	0.948103
914.892205	0.934846
915.197859	0.913888
915.503475	0.886998
915.809050	0.866980
916.114585	0.861772
916.420081	0.858867
916.725536	0.854867
917.030952	0.862686
917.336328	0.876789
917.641665	0.891318
917.946961	0.906960
918.252218	0.919535
918.557435	0.927285
918.862612	0.936378
919.167750	0.941210
919.472848	0.947614
919.777906	0.952996
920.082925	0.958489
920.387904	0.962575
920.692843	0.962649
920.997743	0.964267
921.302603	0.968858
921.607423	0.968526
921.912204	0.972003
922.216946	0.972644
922.521647	0.973150
922.826310	0.976496
923.130932	0.976564
923.435516	0.978968
923.740059	0.980073
924.044564	0.979047
924.349028	0.981645
924.653454	0.982869
924.957840	0.984874
925.262186	0.985117
925.566493	0.984583
925.870761	0.984410
926.174989	0.986546
926.479178	0.988497
926.783328	0.989359
927.087438	0.988989
927.391509	0.989291
927.695541	0.988879
927.999533	0.989656
928.303486	0.989883
928.607400	0.991610
928.911275	0.989427
929.215110	0.991082
929.518906	0.991438
929.822663	0.990710
930.126381	0.991566
930.430060	0.991350
930.733699	0.990536
931.037299	0.990131
931.340861	0.991186
931.644383	0.990149
931.947866	0.989765
932.251309	0.990548
932.554714	0.990681
932.858080	0.991477
933.161407	0.990561
933.464694	0.991023
933.767943	0.990344
934.071153	0.992018
934.374323	0.991841
934.677455	0.991628
934.980548	0.991371
935.283602	0.991757
935.586617	0.991874
935.889593	0.991177
936.192530	0.990967
936.495428	0.991081
936.798287	0.990350
937.101108	0.991266
937.403890	0.988434
937.706632	0.988711
938.009336	0.987478
938.312002	0.986248
938.614628	0.984643
938.917216	0.983774
939.219765	0.981935
939.522275	0.984564
939.824747	0.982828
940.127179	0.983110
940.429573	0.985477
940.731929	0.984582
941.034246	0.984422
941.336524	0.985040
941.638763	0.986151
941.940964	0.986275
942.243126	0.987018
942.545250	0.987577
942.847335	0.988277
943.149381	0.988129
943.451389	0.988410
943.753359	0.987893
944.055290	0.991136
944.357182	0.991090
944.659036	0.988798
944.960851	0.989751
945.262628	0.990475
945.564367	0.990268
945.866067	0.990331
946.167729	0.990574
946.469352	0.990235
946.770937	0.989234
947.072484	0.990901
947.373992	0.990575
947.675462	0.990018
947.976893	0.989883
948.278286	0.990404
948.579641	0.991567
948.880958	0.990677
949.182236	0.992111
949.483476	0.991546
949.784678	0.990874
950.085841	0.993216
950.386967	0.990663
950.688054	0.990450
950.989103	0.990765
951.290114	0.990754
951.591087	0.989170
951.892021	0.990553
952.192917	0.989128
952.493776	0.987602
952.794596	0.988735
953.095378	0.988211
953.396122	0.988255
953.696828	0.987928
953.997496	0.989898
954.298126	0.990453
954.598718	0.991364
954.899272	0.991118
955.199788	0.990715
955.500266	0.991727
955.800706	0.993911
956.101108	0.994032
956.401472	0.994330
956.701798	0.993994
957.002087	0.993854
957.302337	0.994164
957.602550	0.994507
957.902724	0.994608
958.202861	0.996172
958.502960	0.995446
958.803022	0.995421
959.103045	0.996616
959.403031	0.996233
959.702979	0.995911
960.002889	0.995717
960.302762	0.995180
960.602596	0.997062
960.902393	0.994273
961.202153	0.997207
961.501875	0.997115
961.801559	0.995943
962.101205	0.996000
962.400814	0.996820
962.700385	0.997147
962.999918	0.996436
963.299414	0.995925
963.598873	0.996009
963.898293	0.996313
964.197677	0.996717
964.497022	0.997202
964.796331	0.998200
965.095601	0.997539
965.394835	0.996368
965.694030	0.996851
965.993189	0.996683
966.292309	0.997323
966.591393	0.998246
966.890439	0.998000
967.189447	0.997885
967.488419	0.997350
967.787353	0.995671
968.086249	0.997259
968.385108	0.997073
968.683930	0.997743
968.982714	0.997809
969.281462	0.999490
969.580172	0.997032
969.878844	0.996719
970.177480	0.996214
970.476078	0.997176
970.774639	0.997843
971.073162	0.997408
971.371649	0.996717
971.670098	0.997054
971.968510	0.997354
972.266885	0.996690
972.565223	0.996127
972.863524	0.996303
973.161788	0.996662
973.460014	0.998867
973.758204	0.996372
974.056356	0.996797
974.354471	0.994517
974.652550	0.997462
974.950591	0.995867
975.248595	0.996839
975.546563	0.996291
975.844493	0.998339
976.142386	0.996857
976.440243	0.998643
976.738062	0.997814
977.035845	0.997726
977.333590	0.997179
977.631299	0.998220
977.928971	0.998093
978.226606	0.996951
978.524204	0.996166
978.821765	0.998359
979.119290	0.997666
979.416777	0.998634
979.714228	0.997755
980.011642	0.996552
980.309020	0.998269
980.606360	0.998094
980.903664	0.998784
981.200931	0.995616
981.498162	0.995784
981.795356	0.995047
982.092513	0.993682
982.389633	0.994051
982.686717	0.992102
982.983764	0.991528
983.280775	0.990458
983.577749	0.991057
983.874686	0.991892
984.171587	0.992393
984.468451	0.995032
984.765279	0.994277
985.062070	0.994998
985.358824	0.995779
985.655543	0.995029
985.952224	0.996993
986.248869	0.997432
986.545478	0.997693
986.842050	0.998088
987.138586	0.997030
987.435086	0.997385
987.731549	0.998708
988.027975	0.998334
988.324366	0.998393
988.620719	0.998454
988.917037	0.997624
989.213318	0.998335
989.509563	0.999002
989.805772	0.998542
990.101944	0.998398
990.398080	0.999264
990.694180	0.998944
990.990244	0.997339
991.286271	0.999421
991.582262	0.997899
991.878217	0.997984
992.174136	0.999088
992.470019	0.998822
992.765865	0.997843
993.061676	0.998380
993.357450	0.998312
993.653188	0.997128
993.948890	0.998477
994.244556	0.998818
994.540186	0.998420
994.835780	0.997338
995.131337	0.998317
995.426859	0.998147
995.722345	0.998545
996.017795	0.997385
996.313208	0.996221
996.608586	0.995670
996.903928	0.996870
997.199234	0.995934
997.494504	0.996653
997.789738	0.997369
998.084936	0.996049
998.380099	0.996868
998.675225	0.998002
998.970316	0.998510
999.265371	0.997067
999.560390	0.997584
999.855373	0.998115
1000.150320	0.997837
1000.445232	0.998433
1000.740108	0.997517
1001.034948	0.997579
1001.329752	1.000449
1001.624521	0.999580
1001.919254	0.999816
1002.213951	0.998430
1002.508613	0.998868
1002.803239	0.999655
1003.097829	0.999639
1003.392384	0.999069
1003.686903	0.998991
1003.981386	0.998542
1004.275834	0.999796
1004.570246	0.998058
1004.864623	1.000384
1005.158964	1.000388
1005.453270	0.998757
1005.747540	0.998313
1006.041775	0.997971
1006.335974	0.999617
1006.630138	0.999671
1006.924266	1.000780
1007.218359	1.001456
1007.512416	0.999742
1007.806438	0.999912
1008.100425	0.999804
1008.394376	0.999060
1008.688292	0.998576
1008.982172	1.000157
1009.276017	0.998805
1009.569827	0.998791
1009.863602	0.999846
1010.157341	1.000121
1010.451045	0.999021
1010.744714	0.999329
1011.038347	1.000677
1011.331945	0.999349
1011.625508	0.996954
1011.919036	0.999178
1012.212528	0.998515
1012.505986	0.998792
1012.799408	0.998835
1013.092795	1.000248
1013.386147	0.999188
1013.679464	0.999072
1013.972745	0.998276
1014.265992	0.998421
1014.559204	0.998557
1014.852380	0.999980
1015.145521	0.999640
1015.438628	0.998947
1015.731699	0.999068
1016.024736	0.999270
1016.317737	0.999631
1016.610703	0.998743
1016.903635	0.999076
1017.196531	0.998814
1017.489393	0.999858
1017.782219	0.998974
1018.075011	0.999231
1018.367768	0.998971
1018.660490	1.000155
1018.953177	1.000155
1019.245829	1.000155
