Dividing Wavelength (nm)	Counts (n)	Blue Motor Position (mm): 0.000000	Red Motor Position (mm): 40.000000	
326.493990	0.999633
326.888308	0.999633
327.282561	0.999633
327.676750	1.000182
328.070874	0.999657
328.464933	1.000640
328.858929	0.999381
329.252859	1.000260
329.646726	0.999675
330.040528	1.000854
330.434265	0.999003
330.827938	1.000098
331.221547	1.001166
331.615091	1.000816
332.008571	1.000509
332.401986	1.000318
332.795338	1.000874
333.188625	0.998648
333.581847	1.000713
333.975006	0.999388
334.368100	1.000227
334.761129	1.001436
335.154095	1.000601
335.546996	0.998971
335.939833	0.996349
336.332606	0.997475
336.725315	0.998179
337.117960	0.998889
337.510540	0.997084
337.903056	0.998734
338.295508	0.996488
338.687896	0.997968
339.080220	0.998497
339.472480	0.998470
339.864676	0.998090
340.256807	0.997826
340.648875	0.999046
341.040879	0.997611
341.432818	0.998389
341.824694	0.998088
342.216506	0.998603
342.608253	0.998261
342.999937	0.997494
343.391557	0.997467
343.783113	0.998867
344.174605	0.998060
344.566033	0.999598
344.957397	0.997021
345.348697	0.997946
345.739934	0.997380
346.131106	0.996541
346.522215	0.997993
346.913260	0.998820
347.304241	0.997129
347.695159	0.997120
348.086012	0.996613
348.476802	0.997119
348.867528	0.998022
349.258191	0.996466
349.648789	0.998763
350.039324	0.996681
350.429796	0.998319
350.820203	0.998574
351.210548	0.997170
351.600828	0.997237
351.991045	0.997389
352.381198	0.997511
352.771288	0.997436
353.161314	0.997388
353.551276	0.998912
353.941175	0.997730
354.331010	0.996798
354.720782	0.999101
355.110490	0.996984
355.500135	0.998250
355.889717	0.997380
356.279235	0.997264
356.668689	0.998343
357.058080	0.998140
357.447408	0.999362
357.836672	0.998518
358.225873	0.998343
358.615010	0.998036
359.004084	0.998934
359.393095	0.997989
359.782043	0.997316
360.170927	0.998345
360.559748	0.997930
360.948505	0.997153
361.337199	0.998289
361.725830	0.999112
362.114398	0.998360
362.502903	0.998438
362.891344	0.999228
363.279722	0.998254
363.668037	0.998915
364.056289	0.997370
364.444478	0.998289
364.832603	0.999062
365.220665	0.997668
365.608665	0.997143
365.996601	0.997558
366.384474	0.998588
366.772284	0.997278
367.160031	0.996826
367.547715	0.997187
367.935336	0.997392
368.322893	0.998094
368.710388	0.996568
369.097820	0.998502
369.485189	0.998226
369.872495	0.997801
370.259738	0.996292
370.646918	0.998784
371.034035	0.997183
371.421090	0.998269
371.808081	0.998285
372.195010	0.998596
372.581875	0.997037
372.968678	0.997947
373.355418	0.998399
373.742096	0.997192
374.128710	0.998961
374.515262	0.998625
374.901751	0.997878
375.288177	0.998631
375.674540	0.998015
376.060841	0.997558
376.447079	0.998218
376.833254	0.997289
377.219367	0.998298
377.605417	0.997760
377.991404	0.998213
378.377329	0.997962
378.763191	0.997389
379.148991	0.998917
379.534727	0.998712
379.920402	0.998344
380.306013	0.998386
380.691563	0.999222
381.077049	0.997753
381.462474	0.998604
381.847835	0.998515
382.233134	0.997616
382.618371	0.997871
383.003545	0.998711
383.388657	0.998279
383.773706	0.999057
384.158693	0.998895
384.543618	0.998014
384.928480	0.999010
385.313280	0.997962
385.698017	0.999211
386.082692	0.998456
386.467305	0.998790
386.851856	0.998285
387.236344	0.997138
387.620770	0.998280
388.005133	0.999047
388.389435	0.999379
388.773674	0.999451
389.157851	0.999320
389.541965	0.998221
389.926018	0.998021
390.310008	0.999841
390.693936	0.997104
391.077802	0.999081
391.461606	0.998811
391.845348	0.998636
392.229027	0.999698
392.612645	0.998734
392.996200	0.999412
393.379694	0.998137
393.763125	0.999619
394.146494	0.998986
394.529801	0.997948
394.913047	0.998940
395.296230	0.999375
395.679351	0.998842
396.062410	0.998497
396.445408	0.998635
396.828343	0.997960
397.211217	0.998711
397.594028	0.999015
397.976778	0.999177
398.359466	0.998408
398.742092	0.997653
399.124656	0.998963
399.507158	0.999583
399.889598	0.999349
400.271977	0.998379
400.654294	0.999906
401.036549	0.999157
401.418742	0.999824
401.800874	0.997954
402.182944	0.999486
402.564952	0.998144
402.946898	0.999806
403.328783	0.998730
403.710606	0.999312
404.092367	0.999192
404.474067	0.999356
404.855705	0.998357
405.237282	0.999540
405.618797	0.999138
406.000250	0.998645
406.381642	0.998844
406.762972	0.999007
407.144240	0.999794
407.525447	0.998865
407.906593	0.998936
408.287677	0.999323
408.668700	0.999571
409.049661	0.999148
409.430560	0.999011
409.811399	0.998959
410.192176	0.998468
410.572891	0.999033
410.953545	0.998305
411.334138	0.998070
411.714669	0.999487
412.095139	0.998428
412.475547	0.999073
412.855894	0.999009
413.236180	0.999677
413.616405	0.998697
413.996568	0.999817
414.376670	0.999738
414.756711	0.998614
415.136691	0.998461
415.516609	0.999051
415.896466	0.998778
416.276262	0.997983
416.655997	0.999073
417.035670	0.998853
417.415283	0.999644
417.794834	0.998830
418.174324	0.999796
418.553753	0.999456
418.933121	0.998749
419.312428	0.998397
419.691674	0.998936
420.070859	0.999221
420.449983	0.999639
420.829045	0.998764
421.208047	0.998897
421.586988	0.999664
421.965867	0.999290
422.344686	1.000243
422.723444	0.999256
423.102141	0.998762
423.480777	0.999218
423.859352	0.998963
424.237866	0.998563
424.616319	0.999382
424.994712	0.999437
425.373044	0.999248
425.751314	0.998818
426.129524	0.999117
426.507673	0.999344
426.885762	1.000127
427.263789	0.998848
427.641756	0.999217
428.019662	0.999633
428.397508	0.999394
428.775292	0.998672
429.153016	0.999437
429.530679	0.999489
429.908282	1.000129
430.285824	0.999108
430.663305	0.998438
431.040726	0.998625
431.418086	1.000291
431.795385	0.999810
432.172624	0.998389
432.549802	0.999526
432.926920	1.000266
433.303977	0.998747
433.680974	0.999913
434.057910	0.999470
434.434786	0.998996
434.811601	1.000030
435.188355	0.998214
435.565050	0.998352
435.941683	0.999762
436.318257	1.000056
436.694770	0.999169
437.071222	1.000143
437.447614	0.999706
437.823946	0.999529
438.200218	0.999654
438.576429	0.999783
438.952580	0.999500
439.328670	0.998488
439.704700	0.998935
440.080670	0.999422
440.456580	0.999452
440.832429	0.999006
441.208218	0.999569
441.583947	0.999586
441.959616	0.999230
442.335224	0.998111
442.710773	1.000511
443.086261	0.999763
443.461689	0.998601
443.837057	0.998949
444.212365	0.999504
444.587612	0.999460
444.962800	0.999352
445.337927	0.999572
445.712995	0.999091
446.088002	1.000302
446.462949	0.999614
446.837837	0.999530
447.212664	0.999002
447.587431	0.999440
447.962139	0.999059
448.336786	0.998948
448.711374	0.999463
449.085901	0.999040
449.460369	0.999822
449.834776	0.999485
450.209124	0.999638
450.583412	0.999580
450.957640	0.999478
451.331808	0.999183
451.705917	0.999165
452.079965	0.998378
452.453954	0.999478
452.827883	0.998669
453.201752	1.000011
453.575562	1.000372
453.949311	1.000341
454.323001	0.999511
454.696632	0.999090
455.070202	0.999420
455.443713	0.999311
455.817164	0.998999
456.190556	0.999226
456.563888	0.998750
456.937160	0.999497
457.310373	0.999373
457.683526	0.998317
458.056619	0.999193
458.429653	0.999442
458.802628	0.999134
459.175542	0.999162
459.548398	0.999007
459.921194	0.999394
460.293930	0.999070
460.666607	0.998922
461.039224	0.999054
461.411782	0.999314
461.784280	0.999171
462.156719	0.999728
462.529099	0.999340
462.901419	0.998912
463.273680	0.999574
463.645882	0.999451
464.018024	0.999568
464.390106	0.998968
464.762130	1.000382
465.134094	0.998821
465.505999	0.999400
465.877845	0.999173
466.249631	0.999644
466.621358	0.999263
466.993026	0.999007
467.364634	0.999256
467.736184	1.000442
468.107674	0.999181
468.479105	0.998610
468.850477	0.999468
469.221790	0.999515
469.593043	0.999422
469.964238	1.000318
470.335373	0.998987
470.706449	0.999242
471.077467	1.000027
471.448425	0.999233
471.819324	0.999523
472.190164	0.998672
472.560945	0.999455
472.931667	0.998841
473.302330	0.998769
473.672934	0.999464
474.043479	0.999409
474.413965	0.999602
474.784393	0.999864
475.154761	0.999026
475.525070	0.998735
475.895321	0.999689
476.265513	0.999433
476.635645	0.999357
477.005719	0.999706
477.375734	0.998629
477.745691	0.999397
478.115588	0.999077
478.485427	0.999482
478.855207	0.998948
479.224928	0.998654
479.594591	0.999361
479.964194	0.999859
480.333739	0.999113
480.703226	0.999296
481.072653	0.999957
481.442022	1.000556
481.811333	0.998949
482.180584	0.999622
482.549777	0.998469
482.918912	0.998925
483.287988	0.999754
483.657005	0.998879
484.025964	0.999428
484.394864	0.999617
484.763706	0.999848
485.132489	0.999193
485.501213	0.999697
485.869879	0.999414
486.238487	0.999449
486.607036	0.999258
486.975527	0.999267
487.343959	0.999135
487.712333	0.998881
488.080648	0.999561
488.448905	0.998698
488.817104	1.000007
489.185244	0.999230
489.553326	0.999549
489.921350	0.999159
490.289315	0.998953
490.657222	0.999897
491.025070	0.999840
491.392861	0.999345
491.760593	0.999342
492.128267	0.998833
492.495883	0.998706
492.863440	0.998708
493.230939	0.999945
493.598380	0.998887
493.965763	0.998837
494.333088	0.999420
494.700354	0.999093
495.067563	0.999419
495.434713	0.998745
495.801805	1.000180
496.168839	0.999543
496.535815	0.998627
496.902733	0.998560
497.269593	0.999070
497.636395	0.999446
498.003139	0.999064
498.369825	0.999369
498.736453	0.998995
499.103023	0.998784
499.469535	0.998326
499.835989	0.998528
500.202385	0.999288
500.568723	0.999080
500.935003	0.998917
501.301226	0.999669
501.667390	0.998705
502.033497	0.999255
502.399546	0.999638
502.765537	0.998218
503.131470	0.998347
503.497345	0.998540
503.863163	0.999830
504.228923	0.999734
504.594625	0.999032
504.960269	0.999518
505.325856	0.998979
505.691385	0.999076
506.056856	0.999490
506.422270	0.999191
506.787625	0.999531
507.152924	0.999282
507.518164	0.999051
507.883347	0.999243
508.248472	0.998359
508.613540	0.999243
508.978550	0.999434
509.343503	0.998393
509.708398	0.998657
510.073236	0.998853
510.438016	0.999122
510.802738	0.999163
511.167403	0.999443
511.532010	0.999163
511.896561	0.998820
512.261053	0.999992
512.625488	0.998306
512.989866	0.998879
513.354186	0.998235
513.718449	0.999003
514.082655	0.999070
514.446803	0.999271
514.810894	0.998854
515.174927	0.999208
515.538904	0.998262
515.902822	0.998323
516.266684	0.998594
516.630488	0.999129
516.994235	0.998368
517.357925	0.998555
517.721558	0.998866
518.085133	0.998087
518.448651	0.998754
518.812112	0.999205
519.175516	0.998192
519.538863	0.999014
519.902152	0.998082
520.265385	0.998066
520.628560	0.998402
520.991678	0.998237
521.354739	0.999225
521.717743	0.998475
522.080690	0.998453
522.443580	0.997706
522.806413	0.998300
523.169189	0.998022
523.531908	0.997960
523.894569	0.998463
524.257174	0.998790
524.619722	0.998579
524.982213	0.998316
525.344647	0.998499
525.707025	0.997716
526.069345	0.997499
526.431608	0.997682
526.793815	0.998619
527.155964	0.997851
527.518057	0.998047
527.880093	0.998224
528.242072	0.998170
528.603995	0.997798
528.965860	0.998673
529.327669	0.997395
529.689421	0.997598
530.051117	0.998739
530.412755	0.998316
530.774337	0.998562
531.135862	0.998291
531.497331	0.998089
531.858743	0.998117
532.220098	0.997865
532.581396	0.997837
532.942638	0.998372
533.303824	0.997704
533.664953	0.997692
534.026025	0.997540
534.387040	0.997212
534.747999	0.998402
535.108902	0.997971
535.469748	0.997715
535.830537	0.996776
536.191270	0.997608
536.551947	0.996939
536.912567	0.997891
537.273131	0.997941
537.633638	0.997231
537.994089	0.997762
538.354483	0.997059
538.714821	0.997341
539.075103	0.997366
539.435328	0.997361
539.795497	0.997026
540.155609	0.997114
540.515665	0.997410
540.875665	0.996832
541.235609	0.997016
541.595496	0.997129
541.955328	0.996214
542.315102	0.997061
542.674821	0.996686
543.034483	0.997002
543.394090	0.996376
543.753640	0.996784
544.113134	0.996906
544.472571	0.997436
544.831953	0.997369
545.191278	0.996840
545.550548	0.997632
545.909761	0.996090
546.268918	0.997011
546.628019	0.996982
546.987064	0.996539
547.346053	0.996977
547.704986	0.997178
548.063863	0.997133
548.422684	0.997662
548.781449	0.997044
549.140158	0.996518
549.498811	0.996842
549.857408	0.996471
550.215949	0.996795
550.574434	0.996578
550.932864	0.996824
551.291237	0.996539
551.649555	0.995907
552.007817	0.996485
552.366022	0.996643
552.724173	0.997345
553.082267	0.996783
553.440305	0.995662
553.798288	0.996164
554.156215	0.996462
554.514086	0.996521
554.871902	0.996359
555.229661	0.995919
555.587365	0.996275
555.945014	0.996567
556.302606	0.995608
556.660143	0.996228
557.017625	0.995365
557.375050	0.995665
557.732421	0.995375
558.089735	0.995444
558.446994	0.996349
558.804197	0.995673
559.161345	0.996462
559.518437	0.996328
559.875474	0.994965
560.232455	0.995211
560.589381	0.995379
560.946251	0.993814
561.303065	0.994254
561.659825	0.995070
562.016528	0.994138
562.373177	0.994431
562.729770	0.994089
563.086307	0.994410
563.442789	0.994472
563.799216	0.993908
564.155587	0.993325
564.511904	0.993328
564.868164	0.993218
565.224370	0.993594
565.580520	0.992840
565.936615	0.992953
566.292654	0.992834
566.648638	0.993065
567.004567	0.992061
567.360441	0.991824
567.716260	0.992153
568.072023	0.991462
568.427732	0.991197
568.783385	0.991790
569.138982	0.990962
569.494525	0.990325
569.850013	0.991410
570.205445	0.990297
570.560823	0.989869
570.916145	0.989217
571.271412	0.989539
571.626625	0.988564
571.981782	0.988608
572.336884	0.988605
572.691931	0.988520
573.046923	0.987447
573.401860	0.987962
573.756743	0.987439
574.111570	0.986612
574.466342	0.987240
574.821059	0.986064
575.175722	0.985234
575.530330	0.985832
575.884882	0.984986
576.239380	0.985080
576.593823	0.983893
576.948211	0.983363
577.302544	0.982977
577.656823	0.982754
578.011047	0.982540
578.365216	0.981474
578.719330	0.980472
579.073389	0.981060
579.427394	0.979821
579.781344	0.980112
580.135239	0.979482
580.489080	0.978280
580.842866	0.978000
581.196597	0.976731
581.550273	0.975609
581.903895	0.975481
582.257463	0.974706
582.610975	0.974010
582.964434	0.973364
583.317837	0.973506
583.671186	0.971704
584.024481	0.971091
584.377721	0.970146
584.730906	0.969000
585.084037	0.968691
585.437113	0.968045
585.790135	0.966658
586.143103	0.965482
586.496016	0.965953
586.848874	0.963570
587.201679	0.962852
587.554428	0.961979
587.907124	0.960689
588.259765	0.960218
588.612352	0.958861
588.964884	0.958099
589.317362	0.956952
589.669786	0.954978
590.022155	0.954330
590.374470	0.952293
590.726731	0.951852
591.078937	0.950285
591.431090	0.948171
591.783188	0.948586
592.135232	0.947212
592.487222	0.946503
592.839157	0.944886
593.191038	0.944409
593.542866	0.942519
593.894639	0.941540
594.246358	0.939281
594.598022	0.938481
594.949633	0.937128
595.301190	0.935832
595.652692	0.934727
596.004141	0.933620
596.355535	0.932547
596.706876	0.929984
597.058162	0.928641
597.409395	0.927216
597.760573	0.925849
598.111698	0.924040
598.462768	0.921762
598.813785	0.920923
599.164748	0.918427
599.515657	0.918203
599.866511	0.915991
600.217312	0.913746
600.568060	0.913536
600.918753	0.910858
601.269392	0.908834
601.619978	0.907540
601.970510	0.905217
602.320988	0.904695
602.671412	0.900942
603.021783	0.899890
603.372100	0.899098
603.722363	0.896652
604.072572	0.894270
604.422728	0.891993
604.772830	0.890251
605.122878	0.887611
605.472872	0.886978
605.822813	0.884201
606.172701	0.882724
606.522534	0.880510
606.872314	0.878150
607.222041	0.876227
607.571714	0.874240
607.921333	0.872034
608.270899	0.869578
608.620411	0.867705
608.969870	0.865799
609.319276	0.863330
609.668627	0.861220
610.017926	0.858012
610.367171	0.855142
610.716362	0.853658
611.065500	0.851173
611.414585	0.847783
611.763616	0.847083
612.112594	0.843773
612.461518	0.840869
612.810389	0.838053
613.159207	0.836333
613.507971	0.834392
613.856682	0.830386
614.205340	0.828668
614.553945	0.824016
614.902496	0.823455
615.250994	0.820459
615.599439	0.818350
615.947830	0.815386
616.296169	0.812498
616.644454	0.810253
616.992686	0.807806
617.340864	0.803745
617.688990	0.803022
618.037063	0.799573
618.385082	0.796909
618.733048	0.792136
619.080961	0.791667
619.428821	0.789256
619.776628	0.785612
620.124382	0.783589
620.472083	0.780543
620.819731	0.778705
621.167326	0.777047
621.514868	0.774971
621.862357	0.774562
622.209793	0.772747
622.557176	0.769357
622.904506	0.768003
623.251783	0.766964
623.599007	0.764554
623.946179	0.762958
624.293297	0.760583
624.640363	0.759184
624.987376	0.756904
625.334336	0.756436
625.681243	0.753914
626.028097	0.751956
626.374899	0.749304
626.721647	0.747246
627.068343	0.746275
627.414987	0.743649
627.761577	0.742094
628.108115	0.738958
628.454600	0.739031
628.801032	0.734504
629.147412	0.734186
629.493739	0.730699
629.840014	0.729096
630.186236	0.726597
630.532405	0.726407
630.878521	0.722936
631.224585	0.720901
631.570597	0.721109
631.916556	0.716911
632.262462	0.715013
632.608316	0.713320
632.954117	0.711323
633.299866	0.709295
633.645562	0.706709
633.991206	0.706788
634.336797	0.706162
634.682336	0.703344
635.027823	0.702280
635.373257	0.700661
635.718639	0.699834
636.063968	0.696575
636.409245	0.697261
636.754470	0.695388
637.099642	0.694647
637.444762	0.693888
637.789829	0.690954
638.134845	0.690807
638.479808	0.688529
638.824719	0.686290
639.169577	0.686415
639.514383	0.682941
639.859137	0.682894
640.203839	0.681017
640.548489	0.678586
640.893086	0.677452
641.237632	0.676136
641.582125	0.673141
641.926566	0.671257
642.270955	0.670201
642.615292	0.667885
642.959576	0.664266
643.303809	0.663363
643.647990	0.660501
643.992118	0.659126
644.336195	0.659886
644.680219	0.655373
645.024192	0.654778
645.368112	0.648746
645.711981	0.646511
646.055797	0.641768
646.399562	0.641060
646.743274	0.633609
647.086935	0.630987
647.430544	0.629120
647.774101	0.625739
648.117606	0.624744
648.461059	0.622124
648.804460	0.620956
649.147810	0.623058
649.491108	0.621915
649.834354	0.620321
650.177548	0.622410
650.520690	0.622866
650.863781	0.621501
651.206820	0.619174
651.549807	0.620045
651.892742	0.620913
652.235626	0.618534
652.578458	0.617932
652.921238	0.619411
653.263967	0.617058
653.606644	0.617780
653.949269	0.614931
654.291843	0.616434
654.634365	0.612273
654.976836	0.612444
655.319255	0.611290
655.661622	0.610421
656.003938	0.608041
656.346203	0.609165
656.688416	0.605167
657.030577	0.606175
657.372687	0.605960
657.714746	0.604675
658.056753	0.601331
658.398708	0.601924
658.740612	0.601658
659.082465	0.596634
659.424266	0.596178
659.766016	0.593279
660.107715	0.593318
660.449362	0.591376
660.790958	0.590338
661.132503	0.588985
661.473996	0.585291
661.815438	0.585313
662.156829	0.583405
662.498168	0.582558
662.839456	0.582551
663.180693	0.578932
663.521879	0.578060
663.863013	0.577005
664.204097	0.573805
664.545129	0.570767
664.886110	0.569662
665.227040	0.565341
665.567918	0.566830
665.908746	0.563854
666.249522	0.562164
666.590248	0.561890
666.930922	0.558983
667.271545	0.556412
667.612118	0.555569
667.952639	0.555358
668.293109	0.552124
668.633528	0.554175
668.973896	0.551691
669.314213	0.550837
669.654480	0.550840
669.994695	0.549673
670.334859	0.548770
670.674973	0.548210
671.015035	0.547344
671.355047	0.545555
671.695008	0.545434
672.034918	0.546002
672.374777	0.544430
672.714585	0.544674
673.054342	0.543634
673.394049	0.542551
673.733705	0.538644
674.073310	0.538591
674.412864	0.540712
674.752368	0.539645
675.091820	0.538509
675.431223	0.541120
675.770574	0.540107
676.109875	0.541658
676.449125	0.539707
676.788324	0.539736
677.127473	0.544399
677.466571	0.542646
677.805619	0.542701
678.144616	0.542558
678.483562	0.542568
678.822458	0.543432
679.161303	0.543931
679.500098	0.542552
679.838842	0.543890
680.177535	0.542617
680.516179	0.540177
680.854771	0.538336
681.193314	0.532208
681.531805	0.524596
681.870247	0.514827
682.208638	0.507209
682.546978	0.505383
682.885268	0.505561
683.223508	0.510537
683.561697	0.512460
683.899836	0.513826
684.237925	0.516596
684.575963	0.518046
684.913951	0.520643
685.251889	0.515639
685.589776	0.517509
685.927614	0.518976
686.265401	0.513564
686.603137	0.513850
686.940824	0.508020
687.278460	0.506881
687.616046	0.505839
687.953582	0.501139
688.291068	0.501987
688.628504	0.497538
688.965889	0.499195
689.303224	0.501919
689.640510	0.504083
689.977745	0.508489
690.314930	0.514379
690.652065	0.517245
690.989150	0.523106
691.326185	0.528400
691.663170	0.530683
692.000105	0.536798
692.336990	0.542218
692.673825	0.542990
693.010610	0.549300
693.347345	0.553199
693.684030	0.554166
694.020665	0.558297
694.357251	0.564781
694.693786	0.563667
695.030272	0.567586
695.366707	0.569599
695.703093	0.572561
696.039429	0.569874
696.375716	0.571269
696.711952	0.573268
697.048139	0.574781
697.384276	0.576395
697.720363	0.573956
698.056400	0.572461
698.392388	0.577978
698.728326	0.580627
699.064214	0.582806
699.400053	0.582466
699.735842	0.585475
700.071581	0.587043
700.407270	0.589148
700.742910	0.590834
701.078501	0.597438
701.414042	0.596658
701.749533	0.598553
702.084974	0.606904
702.420366	0.598926
702.755709	0.606213
703.091002	0.613546
703.426246	0.606448
703.761440	0.611582
704.096584	0.615513
704.431679	0.612902
704.766725	0.614046
705.101721	0.615813
705.436668	0.611620
705.771565	0.618271
706.106413	0.614916
706.441212	0.609420
706.775961	0.607980
707.110661	0.610572
707.445311	0.607977
707.779913	0.604674
708.114465	0.602873
708.448967	0.599606
708.783421	0.592336
709.117825	0.586636
709.452180	0.586724
709.786485	0.580577
710.120742	0.570603
710.454949	0.573016
710.789107	0.565394
711.123216	0.557132
711.457275	0.559205
711.791286	0.550626
712.125247	0.549131
712.459159	0.559630
712.793023	0.552873
713.126837	0.555232
713.460602	0.555812
713.794318	0.563866
714.127985	0.562306
714.461602	0.571642
714.795171	0.573991
715.128691	0.581085
715.462162	0.588178
715.795584	0.592569
716.128957	0.595934
716.462281	0.600870
716.795556	0.604514
717.128782	0.609094
717.461960	0.617967
717.795088	0.616550
718.128167	0.621498
718.461198	0.630430
718.794180	0.630576
719.127113	0.633458
719.459997	0.635910
719.792833	0.642105
720.125619	0.642758
720.458357	0.648923
720.791046	0.648779
721.123686	0.651510
721.456278	0.658203
721.788821	0.655489
722.121315	0.659406
722.453761	0.663598
722.786158	0.660787
723.118506	0.657680
723.450805	0.665272
723.783056	0.661537
724.115259	0.658197
724.447412	0.657379
724.779518	0.659232
725.111574	0.657793
725.443582	0.654552
725.775542	0.656003
726.107453	0.648494
726.439315	0.647801
726.771129	0.647206
727.102895	0.640413
727.434612	0.632899
727.766281	0.631245
728.097901	0.630362
728.429473	0.630791
728.760996	0.628369
729.092471	0.628364
729.423897	0.631714
729.755276	0.631391
730.086606	0.630717
730.417887	0.625251
730.749120	0.616219
731.080305	0.607196
731.411442	0.603241
731.742530	0.608056
732.073570	0.606678
732.404562	0.600304
732.735506	0.600923
733.066401	0.605147
733.397249	0.613528
733.728048	0.624891
734.058798	0.636583
734.389501	0.647072
734.720156	0.656968
735.050762	0.664484
735.381320	0.664681
735.711831	0.674643
736.042293	0.678688
736.372707	0.674726
736.703073	0.678799
737.033391	0.681402
737.363661	0.678103
737.693883	0.673364
738.024056	0.672845
738.354182	0.673416
738.684260	0.662302
739.014290	0.658753
739.344272	0.659047
739.674207	0.653264
740.004093	0.652675
740.333931	0.653069
740.663722	0.653529
740.993464	0.653671
741.323159	0.655901
741.652806	0.661329
741.982405	0.666525
742.311956	0.671141
742.641460	0.673096
742.970915	0.676293
743.300323	0.683542
743.629683	0.690405
743.958996	0.692123
744.288260	0.695924
744.617477	0.701514
744.946647	0.703427
745.275768	0.708771
745.604842	0.708205
745.933869	0.718193
746.262847	0.718780
746.591778	0.712106
746.920662	0.718160
747.249498	0.725126
747.578286	0.716015
747.907027	0.712607
748.235720	0.713563
748.564365	0.707289
748.892963	0.707066
749.221514	0.710339
749.550017	0.715308
749.878473	0.715455
750.206881	0.721751
750.535242	0.723869
750.863555	0.722488
751.191821	0.723898
751.520039	0.727062
751.848210	0.732059
752.176334	0.724275
752.504411	0.723350
752.832440	0.730515
753.160421	0.735057
753.488356	0.733475
753.816243	0.730604
754.144082	0.738887
754.471875	0.742488
754.799620	0.737922
755.127318	0.739138
755.454969	0.739558
755.782572	0.738286
756.110129	0.743319
756.437638	0.745812
756.765100	0.743210
757.092515	0.740811
757.419882	0.739229
757.747203	0.744928
758.074477	0.744156
758.401703	0.741753
758.728882	0.736581
759.056014	0.736475
759.383099	0.734593
759.710138	0.734663
760.037129	0.731902
760.364073	0.725945
760.690970	0.727921
761.017820	0.734604
761.344623	0.729786
761.671379	0.720932
761.998088	0.707945
762.324751	0.686634
762.651366	0.645917
762.977935	0.580822
763.304456	0.529389
763.630931	0.519843
763.957359	0.558535
764.283740	0.602064
764.610074	0.628551
764.936362	0.658683
765.262602	0.684847
765.588796	0.705996
765.914943	0.723657
766.241044	0.741397
766.567097	0.748344
766.893104	0.756901
767.219064	0.763538
767.544978	0.769624
767.870845	0.782805
768.196665	0.786789
768.522438	0.784821
768.848165	0.786207
769.173846	0.794499
769.499479	0.798881
769.825066	0.803077
770.150607	0.807579
770.476101	0.802660
770.801548	0.803795
771.126949	0.815205
771.452303	0.818891
771.777611	0.818816
772.102872	0.817491
772.428087	0.822909
772.753256	0.826630
773.078378	0.828134
773.403453	0.836304
773.728482	0.840597
774.053465	0.833813
774.378401	0.838604
774.703291	0.846859
775.028135	0.846362
775.352932	0.846859
775.677683	0.850704
776.002388	0.851102
776.327046	0.849341
776.651658	0.853565
776.976224	0.856899
777.300743	0.857934
777.625216	0.858947
777.949643	0.861073
778.274024	0.860572
778.598359	0.862450
778.922647	0.860647
779.246889	0.861912
779.571086	0.865259
779.895236	0.867584
780.219339	0.865301
780.543397	0.861458
780.867409	0.860134
781.191374	0.861656
781.515294	0.864462
781.839167	0.863885
782.162995	0.866911
782.486776	0.864290
782.810511	0.863976
783.134201	0.867700
783.457844	0.866001
783.781441	0.868488
784.104993	0.874042
784.428498	0.874662
784.751958	0.870525
785.075372	0.872753
785.398739	0.876544
785.722061	0.872858
786.045337	0.868336
786.368568	0.873312
786.691752	0.875227
787.014891	0.861122
787.337983	0.852636
787.661030	0.845618
787.984031	0.827443
788.306987	0.815377
788.629897	0.816939
788.952760	0.821815
789.275579	0.825428
789.598351	0.840757
789.921078	0.854065
790.243759	0.856479
790.566395	0.859762
790.888984	0.867614
791.211529	0.872611
791.534027	0.875444
791.856480	0.877393
792.178888	0.882478
792.501249	0.885225
792.823566	0.887089
793.145836	0.886863
793.468062	0.888442
793.790241	0.889334
794.112375	0.886171
794.434464	0.881406
794.756507	0.880830
795.078505	0.881629
795.400457	0.876637
795.722364	0.865100
796.044226	0.857304
796.366042	0.856331
796.687812	0.859757
797.009538	0.856495
797.331218	0.858430
797.652852	0.864261
797.974442	0.868331
798.295986	0.868048
798.617484	0.871512
798.938938	0.875068
799.260346	0.879047
799.581709	0.881818
799.903026	0.884217
800.224299	0.884163
800.545526	0.888760
800.866708	0.892212
801.187845	0.895416
801.508936	0.895206
801.829983	0.894295
802.150984	0.896655
802.471940	0.901781
802.792851	0.901879
803.113717	0.901226
803.434538	0.900613
803.755314	0.901617
804.076045	0.904372
804.396731	0.903451
804.717372	0.903153
805.037967	0.906207
805.358518	0.903543
805.679024	0.900172
805.999485	0.900678
806.319901	0.901147
806.640272	0.902211
806.960598	0.900467
807.280879	0.897322
807.601115	0.895137
807.921306	0.900257
808.241453	0.900564
808.561554	0.897135
808.881611	0.897543
809.201623	0.899080
809.521590	0.900096
809.841513	0.899955
810.161390	0.901213
810.481223	0.900902
810.801011	0.905002
811.120755	0.907166
811.440453	0.905922
811.760107	0.903524
812.079716	0.904000
812.399281	0.907622
812.718801	0.909638
813.038276	0.910302
813.357707	0.909737
813.677093	0.907833
813.996434	0.910815
814.315731	0.911669
814.634983	0.913443
814.954191	0.911451
815.273354	0.908362
815.592473	0.905693
815.911547	0.905338
816.230577	0.902590
816.549562	0.900347
816.868502	0.901087
817.187399	0.897609
817.506250	0.891866
817.825058	0.894232
818.143821	0.890368
818.462539	0.884987
818.781213	0.877039
819.099843	0.867307
819.418429	0.851669
819.736970	0.835080
820.055466	0.816425
820.373919	0.791278
820.692327	0.759177
821.010691	0.724977
821.329011	0.650074
821.647286	0.537612
821.965517	0.425676
822.283704	0.383963
822.601847	0.385684
822.919945	0.421356
823.237999	0.453546
823.556010	0.498893
823.873976	0.553885
824.191897	0.602468
824.509775	0.644567
824.827609	0.688940
825.145398	0.710770
825.463144	0.713926
825.780845	0.697162
826.098502	0.678771
826.416116	0.634289
826.733685	0.591430
827.051210	0.583328
827.368692	0.596773
827.686129	0.633437
828.003522	0.684998
828.320872	0.732217
828.638177	0.775815
828.955439	0.806411
829.272656	0.828362
829.589830	0.844274
829.906960	0.860017
830.224046	0.872925
830.541088	0.882438
830.858086	0.886143
831.175041	0.892074
831.491952	0.891856
831.808819	0.888129
832.125642	0.880915
832.442421	0.867933
832.759157	0.846568
833.075849	0.801838
833.392497	0.738546
833.709101	0.698628
834.025662	0.708394
834.342179	0.738193
834.658653	0.777372
834.975083	0.813210
835.291469	0.839303
835.607811	0.860130
835.924110	0.875430
836.240366	0.892210
836.556578	0.906592
836.872746	0.913032
837.188871	0.919926
837.504952	0.925075
837.820990	0.927927
838.136984	0.931336
838.452935	0.933326
838.768842	0.935935
839.084706	0.928917
839.400526	0.904105
839.716303	0.865070
840.032037	0.842416
840.347727	0.846728
840.663373	0.864023
840.978977	0.885560
841.294537	0.906765
841.610054	0.922789
841.925527	0.929428
842.240957	0.936854
842.556344	0.944614
842.871687	0.948720
843.186987	0.953312
843.502244	0.952746
843.817458	0.955253
844.132629	0.959043
844.447756	0.964312
844.762840	0.962523
845.077881	0.962580
845.392879	0.963997
845.707833	0.964926
846.022745	0.967511
846.337613	0.968384
846.652438	0.969585
846.967221	0.966617
847.281960	0.968064
847.596656	0.970825
847.911309	0.969831
848.225919	0.970895
848.540485	0.971479
848.855009	0.972183
849.169490	0.970753
849.483928	0.971327
849.798323	0.971261
850.112675	0.971740
850.426984	0.972694
850.741251	0.972864
851.055474	0.973526
851.369654	0.971155
851.683792	0.972462
851.997887	0.972229
852.311938	0.973065
852.625947	0.973302
852.939914	0.970923
853.253837	0.971896
853.567718	0.973093
853.881555	0.973681
854.195350	0.970571
854.509103	0.972070
854.822812	0.972309
855.136479	0.972511
855.450103	0.972190
855.763685	0.971801
856.077224	0.971398
856.390720	0.973549
856.704173	0.973322
857.017584	0.971884
857.330953	0.970116
857.644278	0.970558
857.957561	0.972253
858.270802	0.971340
858.584000	0.971728
858.897155	0.969814
859.210268	0.970036
859.523339	0.971935
859.836367	0.973231
860.149352	0.973177
860.462295	0.970590
860.775195	0.972505
861.088054	0.972151
861.400869	0.972512
861.713642	0.973763
862.026373	0.973853
862.339062	0.973839
862.651708	0.970620
862.964312	0.970404
863.276873	0.972321
863.589392	0.971280
863.901869	0.969912
864.214303	0.968397
864.526696	0.967692
864.839045	0.966934
865.151353	0.964357
865.463619	0.965461
865.775842	0.965396
866.088023	0.964472
866.400162	0.965464
866.712258	0.965089
867.024313	0.966183
867.336325	0.966647
867.648296	0.966589
867.960224	0.964981
868.272110	0.965844
868.583954	0.966475
868.895755	0.966427
869.207515	0.965100
869.519233	0.961917
869.830909	0.965818
870.142542	0.965495
870.454134	0.965782
870.765684	0.964191
871.077191	0.961978
871.388657	0.962291
871.700081	0.962842
872.011463	0.962251
872.322803	0.961786
872.634101	0.960154
872.945357	0.958229
873.256571	0.956957
873.567744	0.956291
873.878874	0.957666
874.189963	0.956265
874.501010	0.955633
874.812015	0.952926
875.122979	0.954866
875.433900	0.957259
875.744780	0.957201
876.055618	0.955156
876.366415	0.954189
876.677169	0.954091
876.987882	0.956445
877.298554	0.954700
877.609183	0.953079
877.919771	0.949002
878.230317	0.946927
878.540822	0.945188
878.851285	0.940217
879.161707	0.932587
879.472087	0.921741
879.782425	0.905965
880.092722	0.873350
880.402977	0.823232
880.713191	0.764966
881.023363	0.709594
881.333494	0.677554
881.643583	0.649074
881.953631	0.647660
882.263637	0.676788
882.573602	0.715452
882.883526	0.740622
883.193408	0.762268
883.503248	0.783519
883.813048	0.810337
884.122806	0.838141
884.432522	0.860363
884.742197	0.879329
885.051831	0.889835
885.361424	0.899337
885.670975	0.909403
885.980485	0.919862
886.289954	0.924723
886.599382	0.930893
886.908768	0.934097
887.218113	0.938927
887.527417	0.944959
887.836680	0.946652
888.145901	0.948333
888.455082	0.951115
888.764221	0.955327
889.073319	0.957143
889.382376	0.957823
889.691392	0.956833
890.000366	0.956355
890.309300	0.958880
890.618193	0.958092
890.927044	0.955619
891.235855	0.956210
891.544625	0.955588
891.853353	0.956569
892.162041	0.953942
892.470687	0.947696
892.779293	0.943785
893.087858	0.940054
893.396381	0.932072
893.704864	0.920267
894.013306	0.897099
894.321707	0.870558
894.630068	0.859211
894.938387	0.853664
895.246665	0.855202
895.554903	0.866471
895.863100	0.879217
896.171256	0.895199
896.479371	0.913617
896.787446	0.925982
897.095480	0.931980
897.403473	0.934935
897.711425	0.937839
898.019336	0.945919
898.327207	0.948602
898.635038	0.950945
898.942827	0.950775
899.250576	0.953793
899.558284	0.957500
899.865952	0.958499
900.173579	0.958781
900.481165	0.959684
900.788711	0.964255
901.096216	0.965322
901.403681	0.965336
901.711105	0.967296
902.018489	0.969112
902.325832	0.965882
902.633135	0.965724
902.940397	0.960764
903.247619	0.948640
903.554800	0.925756
903.861941	0.887422
904.169041	0.854134
904.476101	0.838826
904.783121	0.839166
905.090100	0.854598
905.397039	0.875200
905.703938	0.894964
906.010796	0.913593
906.317614	0.929576
906.624391	0.940858
906.931129	0.949868
907.237826	0.956501
907.544483	0.963314
907.851099	0.967912
908.157675	0.971369
908.464211	0.973241
908.770707	0.976001
909.077163	0.978386
909.383578	0.978409
909.689954	0.978513
909.996289	0.980087
910.302584	0.981422
910.608839	0.982192
910.915054	0.981787
911.221229	0.981924
911.527363	0.980367
911.833458	0.979956
912.139513	0.980947
912.445527	0.979233
912.751502	0.977705
913.057436	0.975928
913.363331	0.974297
913.669186	0.969832
913.975000	0.965270
914.280775	0.960479
914.586510	0.954432
914.892205	0.942079
915.197859	0.922628
915.503475	0.896488
915.809050	0.877818
916.114585	0.873591
916.420081	0.872117
916.725536	0.867338
917.030952	0.875435
917.336328	0.886688
917.641665	0.901244
917.946961	0.916434
918.252218	0.926467
918.557435	0.935178
918.862612	0.942534
919.167750	0.948794
919.472848	0.952202
919.777906	0.957664
920.082925	0.963460
920.387904	0.967370
920.692843	0.968327
920.997743	0.968059
921.302603	0.971654
921.607423	0.974164
921.912204	0.976120
922.216946	0.975197
922.521647	0.977572
922.826310	0.977364
923.130932	0.980230
923.435516	0.981191
923.740059	0.983623
924.044564	0.981432
924.349028	0.984140
924.653454	0.985512
924.957840	0.988581
925.262186	0.987052
925.566493	0.986276
925.870761	0.987577
926.174989	0.989092
926.479178	0.991555
926.783328	0.990276
927.087438	0.992037
927.391509	0.990702
927.695541	0.992532
927.999533	0.992228
928.303486	0.992911
928.607400	0.994915
928.911275	0.992331
929.215110	0.992965
929.518906	0.993552
929.822663	0.993772
930.126381	0.994706
930.430060	0.992501
930.733699	0.992326
931.037299	0.992208
931.340861	0.993382
931.644383	0.992455
931.947866	0.991828
932.251309	0.992963
932.554714	0.992051
932.858080	0.991965
933.161407	0.992769
933.464694	0.994583
933.767943	0.992167
934.071153	0.994254
934.374323	0.992958
934.677455	0.993950
934.980548	0.993297
935.283602	0.994505
935.586617	0.992447
935.889593	0.992579
936.192530	0.993512
936.495428	0.992106
936.798287	0.992920
937.101108	0.993359
937.403890	0.992824
937.706632	0.991379
938.009336	0.989751
938.312002	0.988587
938.614628	0.987169
938.917216	0.986354
939.219765	0.984408
939.522275	0.985986
939.824747	0.985779
940.127179	0.986151
940.429573	0.987671
940.731929	0.987015
941.034246	0.987803
941.336524	0.988260
941.638763	0.988864
941.940964	0.990097
942.243126	0.989108
942.545250	0.990308
942.847335	0.990417
943.149381	0.991230
943.451389	0.991490
943.753359	0.990736
944.055290	0.993427
944.357182	0.992467
944.659036	0.990569
944.960851	0.991166
945.262628	0.991620
945.564367	0.993424
945.866067	0.993736
946.167729	0.991641
946.469352	0.993249
946.770937	0.991140
947.072484	0.993573
947.373992	0.992424
947.675462	0.992531
947.976893	0.992417
948.278286	0.993307
948.579641	0.993596
948.880958	0.993904
949.182236	0.993179
949.483476	0.993419
949.784678	0.992970
950.085841	0.993619
950.386967	0.992809
950.688054	0.993998
950.989103	0.993231
951.290114	0.992359
951.591087	0.992392
951.892021	0.993124
952.192917	0.991453
952.493776	0.990473
952.794596	0.990949
953.095378	0.989997
953.396122	0.990780
953.696828	0.990721
953.997496	0.992162
954.298126	0.993729
954.598718	0.992041
954.899272	0.993779
955.199788	0.991248
955.500266	0.994495
955.800706	0.995404
956.101108	0.994349
956.401472	0.995238
956.701798	0.996349
957.002087	0.994380
957.302337	0.995352
957.602550	0.996676
957.902724	0.997393
958.202861	0.996481
958.502960	0.996563
958.803022	0.995849
959.103045	0.997406
959.403031	0.997439
959.702979	0.997454
960.002889	0.998030
960.302762	0.997399
960.602596	0.996027
960.902393	0.996228
961.202153	0.998129
961.501875	0.999246
961.801559	0.997523
962.101205	0.997701
962.400814	0.997100
962.700385	0.997324
962.999918	0.998175
963.299414	0.997164
963.598873	0.997506
963.898293	0.998128
964.197677	0.997450
964.497022	0.997674
964.796331	0.999196
965.095601	0.998568
965.394835	0.997470
965.694030	0.997555
965.993189	0.998133
966.292309	0.997652
966.591393	0.998068
966.890439	0.999175
967.189447	0.998256
967.488419	0.999023
967.787353	0.998396
968.086249	0.999067
968.385108	0.999051
968.683930	0.998736
968.982714	0.998983
969.281462	0.997821
969.580172	0.998515
969.878844	0.998893
970.177480	0.998534
970.476078	0.998020
970.774639	0.996847
971.073162	0.999117
971.371649	0.998438
971.670098	0.997583
971.968510	0.999601
972.266885	0.997245
972.565223	0.997426
972.863524	0.997686
973.161788	0.997156
973.460014	0.998375
973.758204	0.996922
974.056356	0.998026
974.354471	0.996095
974.652550	0.997868
974.950591	0.997724
975.248595	0.998373
975.546563	0.998962
975.844493	0.999404
976.142386	0.998896
976.440243	0.998824
976.738062	0.998382
977.035845	0.999473
977.333590	0.997743
977.631299	0.998864
977.928971	0.997792
978.226606	0.997123
978.524204	0.998064
978.821765	0.999814
979.119290	0.997951
979.416777	0.998612
979.714228	0.999616
980.011642	0.997342
980.309020	0.998975
980.606360	0.998462
980.903664	0.999807
981.200931	0.996936
981.498162	0.996799
981.795356	0.995820
982.092513	0.995325
982.389633	0.996597
982.686717	0.993232
982.983764	0.994888
983.280775	0.993127
983.577749	0.993268
983.874686	0.993165
984.171587	0.992771
984.468451	0.996804
984.765279	0.996424
985.062070	0.994963
985.358824	0.996204
985.655543	0.996438
985.952224	0.997680
986.248869	0.998200
986.545478	0.998707
986.842050	0.999325
987.138586	0.997092
987.435086	0.999527
987.731549	0.999567
988.027975	0.998826
988.324366	0.999275
988.620719	0.998993
988.917037	0.997454
989.213318	0.999713
989.509563	0.999330
989.805772	0.998434
990.101944	1.000211
990.398080	0.997711
990.694180	0.999634
990.990244	0.997682
991.286271	0.999486
991.582262	0.998984
991.878217	0.998387
992.174136	1.001211
992.470019	1.000555
992.765865	0.998751
993.061676	0.999148
993.357450	0.998738
993.653188	0.999009
993.948890	0.998363
994.244556	0.999435
994.540186	0.999195
994.835780	0.998126
995.131337	0.999321
995.426859	0.996833
995.722345	0.998527
996.017795	0.997669
996.313208	0.995975
996.608586	0.996793
996.903928	0.997849
997.199234	0.996794
997.494504	0.998260
997.789738	0.998288
998.084936	0.997177
998.380099	0.999207
998.675225	0.998632
998.970316	1.000132
999.265371	0.998908
999.560390	0.998931
999.855373	1.000099
1000.150320	0.999435
1000.445232	0.998297
1000.740108	0.998378
1001.034948	0.999021
1001.329752	1.000365
1001.624521	1.001749
1001.919254	0.998082
1002.213951	0.998952
1002.508613	0.997961
1002.803239	0.999278
1003.097829	1.000038
1003.392384	0.999613
1003.686903	0.998853
1003.981386	0.998721
1004.275834	0.999160
1004.570246	0.998986
1004.864623	0.999833
1005.158964	1.000733
1005.453270	0.999754
1005.747540	0.999332
1006.041775	0.998875
1006.335974	1.000257
1006.630138	0.999731
1006.924266	0.999980
1007.218359	1.000319
1007.512416	0.999854
1007.806438	1.000066
1008.100425	1.000114
1008.394376	1.000065
1008.688292	1.000017
1008.982172	1.002187
1009.276017	1.000281
1009.569827	0.999090
1009.863602	0.998660
1010.157341	1.001382
1010.451045	1.000253
1010.744714	0.999341
1011.038347	0.999487
1011.331945	0.999131
1011.625508	0.998121
1011.919036	1.000141
1012.212528	0.999210
1012.505986	0.999378
1012.799408	1.000354
1013.092795	1.000336
1013.386147	1.000027
1013.679464	0.999613
1013.972745	0.999376
1014.265992	0.998146
1014.559204	0.999858
1014.852380	0.999668
1015.145521	0.999736
1015.438628	1.000002
1015.731699	0.999337
1016.024736	0.999807
1016.317737	0.999150
1016.610703	0.999172
1016.903635	1.000876
1017.196531	0.999243
1017.489393	1.000461
1017.782219	0.999748
1018.075011	0.998180
1018.367768	0.999864
1018.660490	1.000021
1018.953177	1.000021
1019.245829	1.000021
