Dividing Wavelength (nm)	Counts (n)	Blue Motor Position (mm): 0.000000	Red Motor Position (mm): 29.900000	
326.493990	1.000318
326.888308	1.000318
327.282561	1.000318
327.676750	1.000469
328.070874	0.998883
328.464933	0.999994
328.858929	0.999201
329.252859	0.998935
329.646726	1.000185
330.040528	0.999159
330.434265	0.998596
330.827938	1.000670
331.221547	1.001181
331.615091	0.999403
332.008571	0.999299
332.401986	0.999714
332.795338	1.000513
333.188625	0.998002
333.581847	1.001478
333.975006	0.999404
334.368100	0.999100
334.761129	0.999715
335.154095	1.000433
335.546996	0.997292
335.939833	0.995353
336.332606	0.994539
336.725315	0.995854
337.117960	0.996017
337.510540	0.995678
337.903056	0.995446
338.295508	0.995184
338.687896	0.995939
339.080220	0.996180
339.472480	0.995830
339.864676	0.994731
340.256807	0.995751
340.648875	0.995221
341.040879	0.996057
341.432818	0.994983
341.824694	0.995030
342.216506	0.995464
342.608253	0.994283
342.999937	0.994734
343.391557	0.994795
343.783113	0.995776
344.174605	0.994863
344.566033	0.996746
344.957397	0.994979
345.348697	0.994969
345.739934	0.995489
346.131106	0.994099
346.522215	0.993864
346.913260	0.995485
347.304241	0.995328
347.695159	0.994537
348.086012	0.994661
348.476802	0.996153
348.867528	0.994403
349.258191	0.993183
349.648789	0.995956
350.039324	0.994621
350.429796	0.994993
350.820203	0.996162
351.210548	0.995296
351.600828	0.995703
351.991045	0.995389
352.381198	0.995021
352.771288	0.995699
353.161314	0.995167
353.551276	0.995450
353.941175	0.995427
354.331010	0.994897
354.720782	0.995722
355.110490	0.995459
355.500135	0.995405
355.889717	0.995561
356.279235	0.995563
356.668689	0.994979
357.058080	0.995326
357.447408	0.994702
357.836672	0.996072
358.225873	0.996085
358.615010	0.995871
359.004084	0.995844
359.393095	0.996107
359.782043	0.996114
360.170927	0.995564
360.559748	0.997067
360.948505	0.995178
361.337199	0.995202
361.725830	0.995183
362.114398	0.995940
362.502903	0.994629
362.891344	0.996352
363.279722	0.994621
363.668037	0.995685
364.056289	0.995147
364.444478	0.995360
364.832603	0.995130
365.220665	0.994940
365.608665	0.995425
365.996601	0.995197
366.384474	0.995329
366.772284	0.995166
367.160031	0.994482
367.547715	0.994336
367.935336	0.995944
368.322893	0.995460
368.710388	0.993822
369.097820	0.995155
369.485189	0.994385
369.872495	0.994452
370.259738	0.993947
370.646918	0.995177
371.034035	0.996332
371.421090	0.995512
371.808081	0.994681
372.195010	0.995735
372.581875	0.995389
372.968678	0.995977
373.355418	0.996127
373.742096	0.994620
374.128710	0.997007
374.515262	0.994788
374.901751	0.996953
375.288177	0.996544
375.674540	0.996092
376.060841	0.996020
376.447079	0.996031
376.833254	0.995649
377.219367	0.996177
377.605417	0.995917
377.991404	0.996094
378.377329	0.994619
378.763191	0.996568
379.148991	0.996563
379.534727	0.996058
379.920402	0.995635
380.306013	0.995709
380.691563	0.996467
381.077049	0.996241
381.462474	0.996096
381.847835	0.996535
382.233134	0.996264
382.618371	0.995581
383.003545	0.996083
383.388657	0.996270
383.773706	0.996916
384.158693	0.996512
384.543618	0.996481
384.928480	0.996601
385.313280	0.996659
385.698017	0.997461
386.082692	0.998147
386.467305	0.996864
386.851856	0.996955
387.236344	0.995976
387.620770	0.996494
388.005133	0.996980
388.389435	0.998059
388.773674	0.996613
389.157851	0.998136
389.541965	0.998314
389.926018	0.997095
390.310008	0.998112
390.693936	0.996403
391.077802	0.997092
391.461606	0.996764
391.845348	0.998037
392.229027	0.997839
392.612645	0.997633
392.996200	0.997941
393.379694	0.996823
393.763125	0.997395
394.146494	0.997973
394.529801	0.997351
394.913047	0.999020
395.296230	0.997277
395.679351	0.996977
396.062410	0.998093
396.445408	0.997445
396.828343	0.997492
397.211217	0.997247
397.594028	0.997703
397.976778	0.997566
398.359466	0.997496
398.742092	0.997442
399.124656	0.997317
399.507158	0.997776
399.889598	0.997594
400.271977	0.997134
400.654294	0.997952
401.036549	0.998062
401.418742	0.998003
401.800874	0.996505
402.182944	0.997101
402.564952	0.997155
402.946898	0.998515
403.328783	0.997202
403.710606	0.998139
404.092367	0.997178
404.474067	0.996923
404.855705	0.997263
405.237282	0.997844
405.618797	0.997731
406.000250	0.996752
406.381642	0.997313
406.762972	0.998001
407.144240	0.998410
407.525447	0.997583
407.906593	0.997636
408.287677	0.997891
408.668700	0.998187
409.049661	0.996629
409.430560	0.998207
409.811399	0.997270
410.192176	0.997735
410.572891	0.997511
410.953545	0.997315
411.334138	0.997365
411.714669	0.998333
412.095139	0.997265
412.475547	0.998373
412.855894	0.998133
413.236180	0.997329
413.616405	0.997883
413.996568	0.998283
414.376670	0.998140
414.756711	0.997845
415.136691	0.998150
415.516609	0.997398
415.896466	0.996937
416.276262	0.996274
416.655997	0.997880
417.035670	0.996991
417.415283	0.997299
417.794834	0.997754
418.174324	0.997895
418.553753	0.997680
418.933121	0.997277
419.312428	0.997967
419.691674	0.997211
420.070859	0.997200
420.449983	0.998082
420.829045	0.997444
421.208047	0.998571
421.586988	0.998730
421.965867	0.997519
422.344686	0.998571
422.723444	0.998295
423.102141	0.997660
423.480777	0.998546
423.859352	0.997680
424.237866	0.997402
424.616319	0.997998
424.994712	0.998493
425.373044	0.998519
425.751314	0.998058
426.129524	0.997676
426.507673	0.998221
426.885762	0.998689
427.263789	0.998191
427.641756	0.998737
428.019662	0.998745
428.397508	0.997318
428.775292	0.997232
429.153016	0.997850
429.530679	0.997928
429.908282	0.998522
430.285824	0.997660
430.663305	0.997971
431.040726	0.997189
431.418086	0.998787
431.795385	0.997848
432.172624	0.997243
432.549802	0.998007
432.926920	0.997294
433.303977	0.997333
433.680974	0.997750
434.057910	0.997429
434.434786	0.998404
434.811601	0.997870
435.188355	0.997878
435.565050	0.997526
435.941683	0.997454
436.318257	0.998244
436.694770	0.996886
437.071222	0.998455
437.447614	0.998892
437.823946	0.998741
438.200218	0.998525
438.576429	0.997659
438.952580	0.998682
439.328670	0.997383
439.704700	0.998512
440.080670	0.997309
440.456580	0.997761
440.832429	0.997531
441.208218	0.998066
441.583947	0.998081
441.959616	0.997770
442.335224	0.997841
442.710773	0.998576
443.086261	0.997605
443.461689	0.996960
443.837057	0.997185
444.212365	0.998351
444.587612	0.997724
444.962800	0.997874
445.337927	0.997869
445.712995	0.998317
446.088002	0.998165
446.462949	0.997906
446.837837	0.998386
447.212664	0.997973
447.587431	0.997988
447.962139	0.998065
448.336786	0.998422
448.711374	0.998275
449.085901	0.997846
449.460369	0.998790
449.834776	0.998022
450.209124	0.997978
450.583412	0.997209
450.957640	0.998226
451.331808	0.998049
451.705917	0.997416
452.079965	0.997752
452.453954	0.997841
452.827883	0.997781
453.201752	0.998146
453.575562	0.998222
453.949311	0.997900
454.323001	0.997815
454.696632	0.997416
455.070202	0.997251
455.443713	0.997565
455.817164	0.997120
456.190556	0.996932
456.563888	0.997514
456.937160	0.997901
457.310373	0.995925
457.683526	0.997466
458.056619	0.997165
458.429653	0.997109
458.802628	0.995866
459.175542	0.996397
459.548398	0.996824
459.921194	0.995924
460.293930	0.996083
460.666607	0.995176
461.039224	0.994888
461.411782	0.994694
461.784280	0.994296
462.156719	0.995586
462.529099	0.994632
462.901419	0.994375
463.273680	0.993473
463.645882	0.992967
464.018024	0.992725
464.390106	0.992422
464.762130	0.992260
465.134094	0.990365
465.505999	0.988975
465.877845	0.987554
466.249631	0.987870
466.621358	0.986385
466.993026	0.986012
467.364634	0.985901
467.736184	0.984867
468.107674	0.983373
468.479105	0.981731
468.850477	0.981793
469.221790	0.980321
469.593043	0.980271
469.964238	0.978520
470.335373	0.976779
470.706449	0.975313
471.077467	0.974237
471.448425	0.970035
471.819324	0.967539
472.190164	0.965547
472.560945	0.965659
472.931667	0.964046
473.302330	0.962182
473.672934	0.961384
474.043479	0.958863
474.413965	0.956364
474.784393	0.953856
475.154761	0.950759
475.525070	0.947838
475.895321	0.946527
476.265513	0.942698
476.635645	0.939657
477.005719	0.936907
477.375734	0.932792
477.745691	0.929302
478.115588	0.925663
478.485427	0.920861
478.855207	0.914578
479.224928	0.906559
479.594591	0.902186
479.964194	0.899239
480.333739	0.896374
480.703226	0.891623
481.072653	0.887328
481.442022	0.880268
481.811333	0.873794
482.180584	0.871318
482.549777	0.865984
482.918912	0.861570
483.287988	0.856251
483.657005	0.851054
484.025964	0.847396
484.394864	0.841430
484.763706	0.835126
485.132489	0.831162
485.501213	0.825164
485.869879	0.819569
486.238487	0.813182
486.607036	0.808595
486.975527	0.800908
487.343959	0.794628
487.712333	0.786966
488.080648	0.782721
488.448905	0.774629
488.817104	0.768841
489.185244	0.760857
489.553326	0.751851
489.921350	0.740880
490.289315	0.725981
490.657222	0.717884
491.025070	0.710502
491.392861	0.705398
491.760593	0.701253
492.128267	0.696337
492.495883	0.691646
492.863440	0.686514
493.230939	0.681450
493.598380	0.674301
493.965763	0.666685
494.333088	0.662022
494.700354	0.653657
495.067563	0.647581
495.434713	0.640818
495.801805	0.633260
496.168839	0.626613
496.535815	0.619015
496.902733	0.612870
497.269593	0.605172
497.636395	0.598332
498.003139	0.589651
498.369825	0.585679
498.736453	0.575526
499.103023	0.569740
499.469535	0.561654
499.835989	0.555416
500.202385	0.548083
500.568723	0.543584
500.935003	0.534563
501.301226	0.527891
501.667390	0.519749
502.033497	0.510997
502.399546	0.506977
502.765537	0.500997
503.131470	0.492922
503.497345	0.483844
503.863163	0.484715
504.228923	0.472004
504.594625	0.465945
504.960269	0.463739
505.325856	0.453715
505.691385	0.450561
506.056856	0.442513
506.422270	0.435987
506.787625	0.433343
507.152924	0.424854
507.518164	0.420099
507.883347	0.415737
508.248472	0.412024
508.613540	0.402755
508.978550	0.399264
509.343503	0.394698
509.708398	0.387858
510.073236	0.380791
510.438016	0.375800
510.802738	0.371737
511.167403	0.366751
511.532010	0.363250
511.896561	0.355716
512.261053	0.350146
512.625488	0.347486
512.989866	0.343451
513.354186	0.339808
513.718449	0.337277
514.082655	0.330490
514.446803	0.328664
514.810894	0.322871
515.174927	0.321738
515.538904	0.318059
515.902822	0.311541
516.266684	0.310523
516.630488	0.308317
516.994235	0.304546
517.357925	0.300065
517.721558	0.295874
518.085133	0.292298
518.448651	0.290001
518.812112	0.289811
519.175516	0.286241
519.538863	0.281665
519.902152	0.281128
520.265385	0.275246
520.628560	0.275324
520.991678	0.273481
521.354739	0.270463
521.717743	0.269649
522.080690	0.268207
522.443580	0.263509
522.806413	0.262583
523.169189	0.260334
523.531908	0.257660
523.894569	0.259503
524.257174	0.258047
524.619722	0.253990
524.982213	0.254289
525.344647	0.251681
525.707025	0.251165
526.069345	0.248263
526.431608	0.248759
526.793815	0.245722
527.155964	0.248411
527.518057	0.246808
527.880093	0.246838
528.242072	0.244581
528.603995	0.245631
528.965860	0.246912
529.327669	0.244687
529.689421	0.244972
530.051117	0.245197
530.412755	0.242123
530.774337	0.244070
531.135862	0.243744
531.497331	0.242558
531.858743	0.244769
532.220098	0.241288
532.581396	0.243314
532.942638	0.243313
533.303824	0.243839
533.664953	0.243191
534.026025	0.244310
534.387040	0.242313
534.747999	0.241864
535.108902	0.240698
535.469748	0.245263
535.830537	0.242957
536.191270	0.242942
536.551947	0.242269
536.912567	0.242102
537.273131	0.243776
537.633638	0.243653
537.994089	0.244275
538.354483	0.244877
538.714821	0.241761
539.075103	0.241435
539.435328	0.242019
539.795497	0.245362
540.155609	0.241800
540.515665	0.239980
540.875665	0.245547
541.235609	0.243785
541.595496	0.243791
541.955328	0.240383
542.315102	0.242958
542.674821	0.243886
543.034483	0.243648
543.394090	0.243339
543.753640	0.245216
544.113134	0.240269
544.472571	0.243348
544.831953	0.240169
545.191278	0.243963
545.550548	0.243661
545.909761	0.240075
546.268918	0.240869
546.628019	0.239258
546.987064	0.241899
547.346053	0.243650
547.704986	0.241791
548.063863	0.241819
548.422684	0.242068
548.781449	0.243518
549.140158	0.241054
549.498811	0.244053
549.857408	0.247178
550.215949	0.242193
550.574434	0.245031
550.932864	0.242882
551.291237	0.241437
551.649555	0.242604
552.007817	0.242588
552.366022	0.243360
552.724173	0.243621
553.082267	0.243788
553.440305	0.240713
553.798288	0.244971
554.156215	0.241443
554.514086	0.242249
554.871902	0.245208
555.229661	0.244914
555.587365	0.244976
555.945014	0.247784
556.302606	0.244638
556.660143	0.247068
557.017625	0.243308
557.375050	0.245622
557.732421	0.242868
558.089735	0.244862
558.446994	0.244882
558.804197	0.244177
559.161345	0.244123
559.518437	0.247729
559.875474	0.245387
560.232455	0.244622
560.589381	0.245547
560.946251	0.245552
561.303065	0.243295
561.659825	0.244929
562.016528	0.246280
562.373177	0.249211
562.729770	0.246291
563.086307	0.248551
563.442789	0.246041
563.799216	0.249109
564.155587	0.247634
564.511904	0.248883
564.868164	0.249202
565.224370	0.248903
565.580520	0.250612
565.936615	0.250328
566.292654	0.253455
566.648638	0.250255
567.004567	0.251209
567.360441	0.251835
567.716260	0.254018
568.072023	0.251943
568.427732	0.252562
568.783385	0.254706
569.138982	0.252898
569.494525	0.252721
569.850013	0.255794
570.205445	0.254010
570.560823	0.256369
570.916145	0.258287
571.271412	0.256877
571.626625	0.258205
571.981782	0.258490
572.336884	0.259317
572.691931	0.259169
573.046923	0.260300
573.401860	0.261535
573.756743	0.263328
574.111570	0.262315
574.466342	0.262766
574.821059	0.261459
575.175722	0.264489
575.530330	0.264554
575.884882	0.264570
576.239380	0.266640
576.593823	0.267058
576.948211	0.266591
577.302544	0.269794
577.656823	0.269505
578.011047	0.269529
578.365216	0.269876
578.719330	0.271881
579.073389	0.272013
579.427394	0.273228
579.781344	0.273985
580.135239	0.275550
580.489080	0.275108
580.842866	0.277876
581.196597	0.277727
581.550273	0.276648
581.903895	0.277686
582.257463	0.275673
582.610975	0.279171
582.964434	0.278452
583.317837	0.281127
583.671186	0.281407
584.024481	0.281561
584.377721	0.283934
584.730906	0.284515
585.084037	0.283890
585.437113	0.285829
585.790135	0.285034
586.143103	0.287662
586.496016	0.289170
586.848874	0.286357
587.201679	0.286999
587.554428	0.290669
587.907124	0.289214
588.259765	0.289987
588.612352	0.290358
588.964884	0.294280
589.317362	0.293785
589.669786	0.293741
590.022155	0.292337
590.374470	0.291668
590.726731	0.293737
591.078937	0.298893
591.431090	0.294869
591.783188	0.299099
592.135232	0.299749
592.487222	0.299594
592.839157	0.297759
593.191038	0.299894
593.542866	0.301963
593.894639	0.305274
594.246358	0.303015
594.598022	0.302981
594.949633	0.306298
595.301190	0.307181
595.652692	0.306228
596.004141	0.302482
596.355535	0.310365
596.706876	0.311034
597.058162	0.313493
597.409395	0.310873
597.760573	0.308642
598.111698	0.311424
598.462768	0.312067
598.813785	0.313347
599.164748	0.314506
599.515657	0.314994
599.866511	0.318342
600.217312	0.313684
600.568060	0.319135
600.918753	0.315269
601.269392	0.316166
601.619978	0.319786
601.970510	0.317013
602.320988	0.317185
602.671412	0.315177
603.021783	0.317590
603.372100	0.318915
603.722363	0.318663
604.072572	0.319343
604.422728	0.319129
604.772830	0.321381
605.122878	0.320728
605.472872	0.321278
605.822813	0.319806
606.172701	0.322137
606.522534	0.319750
606.872314	0.319681
607.222041	0.320725
607.571714	0.318919
607.921333	0.320272
608.270899	0.319805
608.620411	0.316923
608.969870	0.320626
609.319276	0.320817
609.668627	0.320493
610.017926	0.319213
610.367171	0.317965
610.716362	0.318550
611.065500	0.318638
611.414585	0.317754
611.763616	0.318013
612.112594	0.318331
612.461518	0.317787
612.810389	0.315357
613.159207	0.317719
613.507971	0.319638
613.856682	0.315398
614.205340	0.317131
614.553945	0.314132
614.902496	0.317924
615.250994	0.315890
615.599439	0.316399
615.947830	0.316057
616.296169	0.317109
616.644454	0.316371
616.992686	0.316834
617.340864	0.313991
617.688990	0.317513
618.037063	0.314783
618.385082	0.316442
618.733048	0.313163
619.080961	0.315614
619.428821	0.315021
619.776628	0.314429
620.124382	0.316370
620.472083	0.316646
620.819731	0.315953
621.167326	0.320194
621.514868	0.319672
621.862357	0.324504
622.209793	0.323986
622.557176	0.325739
622.904506	0.326847
623.251783	0.329006
623.599007	0.331316
623.946179	0.331538
624.293297	0.332930
624.640363	0.336604
624.987376	0.337219
625.334336	0.340121
625.681243	0.341806
626.028097	0.342683
626.374899	0.344012
626.721647	0.343920
627.068343	0.347195
627.414987	0.348449
627.761577	0.350748
628.108115	0.348407
628.454600	0.353995
628.801032	0.351406
629.147412	0.353297
629.493739	0.353619
629.840014	0.356549
630.186236	0.354534
630.532405	0.360159
630.878521	0.357018
631.224585	0.359283
631.570597	0.362981
631.916556	0.361648
632.262462	0.361968
632.608316	0.363384
632.954117	0.364403
633.299866	0.365651
633.645562	0.366009
633.991206	0.370313
634.336797	0.372478
634.682336	0.375355
635.027823	0.376831
635.373257	0.377260
635.718639	0.381214
636.063968	0.380125
636.409245	0.386497
636.754470	0.386233
637.099642	0.389023
637.444762	0.392197
637.789829	0.391163
638.134845	0.395045
638.479808	0.395540
638.824719	0.395470
639.169577	0.399402
639.514383	0.398504
639.859137	0.402562
640.203839	0.402399
640.548489	0.402723
640.893086	0.404763
641.237632	0.405957
641.582125	0.404333
641.926566	0.405661
642.270955	0.406085
642.615292	0.406775
642.959576	0.405300
643.303809	0.405772
643.647990	0.405706
643.992118	0.405908
644.336195	0.410215
644.680219	0.408006
645.024192	0.409108
645.368112	0.402777
645.711981	0.401621
646.055797	0.396503
646.399562	0.399408
646.743274	0.391233
647.086935	0.388748
647.430544	0.389028
647.774101	0.387827
648.117606	0.387139
648.461059	0.387763
648.804460	0.390253
649.147810	0.395239
649.491108	0.397285
649.834354	0.398333
650.177548	0.403872
650.520690	0.409262
650.863781	0.410685
651.206820	0.409829
651.549807	0.414632
651.892742	0.417959
652.235626	0.417864
652.578458	0.418448
652.921238	0.424671
653.263967	0.422898
653.606644	0.426485
653.949269	0.426102
654.291843	0.430376
654.634365	0.426719
654.976836	0.430119
655.319255	0.430333
655.661622	0.432229
656.003938	0.431882
656.346203	0.435261
656.688416	0.432867
657.030577	0.436173
657.372687	0.438096
657.714746	0.439233
658.056753	0.436505
658.398708	0.439765
658.740612	0.440982
659.082465	0.437090
659.424266	0.438100
659.766016	0.437156
660.107715	0.439392
660.449362	0.438844
660.790958	0.439486
661.132503	0.439660
661.473996	0.437484
661.815438	0.438423
662.156829	0.438737
662.498168	0.439472
662.839456	0.441404
663.180693	0.438538
663.521879	0.438563
663.863013	0.439048
664.204097	0.437674
664.545129	0.434426
664.886110	0.435360
665.227040	0.432623
665.567918	0.435262
665.908746	0.433009
666.249522	0.432794
666.590248	0.433771
666.930922	0.432442
667.271545	0.430918
667.612118	0.430623
667.952639	0.432673
668.293109	0.431154
668.633528	0.434152
668.973896	0.433922
669.314213	0.434695
669.654480	0.435852
669.994695	0.436687
670.334859	0.437218
670.674973	0.437593
671.015035	0.437383
671.355047	0.437169
671.695008	0.438623
672.034918	0.439728
672.374777	0.439733
672.714585	0.441158
673.054342	0.440786
673.394049	0.441136
673.733705	0.438861
674.073310	0.439684
674.412864	0.442269
674.752368	0.443334
675.091820	0.443484
675.431223	0.447886
675.770574	0.447988
676.109875	0.450906
676.449125	0.450796
676.788324	0.453242
677.127473	0.458044
677.466571	0.458191
677.805619	0.459756
678.144616	0.460877
678.483562	0.462318
678.822458	0.465164
679.161303	0.465389
679.500098	0.466253
679.838842	0.468493
680.177535	0.467008
680.516179	0.466715
680.854771	0.465517
681.193314	0.458590
681.531805	0.450383
681.870247	0.438879
682.208638	0.431331
682.546978	0.430455
682.885268	0.432233
683.223508	0.438071
683.561697	0.441720
683.899836	0.444334
684.237925	0.447973
684.575963	0.450384
684.913951	0.453077
685.251889	0.449399
685.589776	0.451287
685.927614	0.453906
686.265401	0.448089
686.603137	0.449258
686.940824	0.443285
687.278460	0.441288
687.616046	0.441034
687.953582	0.435552
688.291068	0.437176
688.628504	0.433090
688.965889	0.435376
689.303224	0.439428
689.640510	0.442754
689.977745	0.448694
690.314930	0.456860
690.652065	0.461479
690.989150	0.468845
691.326185	0.474889
691.663170	0.479829
692.000105	0.486739
692.336990	0.493762
692.673825	0.496318
693.010610	0.503099
693.347345	0.509234
693.684030	0.510303
694.020665	0.515045
694.357251	0.523821
694.693786	0.523027
695.030272	0.527708
695.366707	0.531024
695.703093	0.534491
696.039429	0.532628
696.375716	0.534349
696.711952	0.536805
697.048139	0.538925
697.384276	0.540320
697.720363	0.538598
698.056400	0.538200
698.392388	0.543143
698.728326	0.546414
699.064214	0.549159
699.400053	0.550412
699.735842	0.553250
700.071581	0.556007
700.407270	0.559662
700.742910	0.561896
701.078501	0.568094
701.414042	0.568574
701.749533	0.571581
702.084974	0.580842
702.420366	0.572682
702.755709	0.580345
703.091002	0.587824
703.426246	0.581332
703.761440	0.587529
704.096584	0.591760
704.431679	0.589128
704.766725	0.591735
705.101721	0.593059
705.436668	0.588832
705.771565	0.596318
706.106413	0.592708
706.441212	0.588565
706.775961	0.587051
707.110661	0.589642
707.445311	0.586065
707.779913	0.583290
708.114465	0.582090
708.448967	0.578092
708.783421	0.570466
709.117825	0.564731
709.452180	0.565379
709.786485	0.558967
710.120742	0.548903
710.454949	0.550666
710.789107	0.543760
711.123216	0.534606
711.457275	0.536059
711.791286	0.526994
712.125247	0.525754
712.459159	0.536242
712.793023	0.529769
713.126837	0.533141
713.460602	0.533808
713.794318	0.543030
714.127985	0.541709
714.461602	0.551837
714.795171	0.555200
715.128691	0.562892
715.462162	0.569609
715.795584	0.575799
716.128957	0.578875
716.462281	0.585134
716.795556	0.589207
717.128782	0.594008
717.461960	0.603151
717.795088	0.601944
718.128167	0.607559
718.461198	0.616523
718.794180	0.617205
719.127113	0.619957
719.459997	0.623616
719.792833	0.629729
720.125619	0.631846
720.458357	0.636443
720.791046	0.635857
721.123686	0.639864
721.456278	0.646729
721.788821	0.643877
722.121315	0.648096
722.453761	0.652108
722.786158	0.649585
723.118506	0.646859
723.450805	0.654172
723.783056	0.651057
724.115259	0.646659
724.447412	0.647744
724.779518	0.649219
725.111574	0.647841
725.443582	0.643227
725.775542	0.645502
726.107453	0.637622
726.439315	0.637225
726.771129	0.635939
727.102895	0.629480
727.434612	0.622597
727.766281	0.620197
728.097901	0.619849
728.429473	0.618861
728.760996	0.617593
729.092471	0.617867
729.423897	0.622033
729.755276	0.621415
730.086606	0.620995
730.417887	0.614622
730.749120	0.606112
731.080305	0.597356
731.411442	0.593287
731.742530	0.598836
732.073570	0.597807
732.404562	0.589088
732.735506	0.590821
733.066401	0.595700
733.397249	0.604743
733.728048	0.616770
734.058798	0.629171
734.389501	0.639610
734.720156	0.648773
735.050762	0.656771
735.381320	0.657617
735.711831	0.667107
736.042293	0.671930
736.372707	0.667572
736.703073	0.671934
737.033391	0.674725
737.363661	0.671657
737.693883	0.666463
738.024056	0.666249
738.354182	0.666221
738.684260	0.655359
739.014290	0.651379
739.344272	0.651812
739.674207	0.644667
740.004093	0.645343
740.333931	0.645084
740.663722	0.645652
740.993464	0.646182
741.323159	0.649740
741.652806	0.655427
741.982405	0.659745
742.311956	0.663761
742.641460	0.666930
742.970915	0.670658
743.300323	0.677357
743.629683	0.683910
743.958996	0.685452
744.288260	0.690096
744.617477	0.696286
744.946647	0.697934
745.275768	0.702977
745.604842	0.703177
745.933869	0.712691
746.262847	0.712960
746.591778	0.707256
746.920662	0.713712
747.249498	0.719370
747.578286	0.711079
747.907027	0.707528
748.235720	0.708395
748.564365	0.702314
748.892963	0.702458
749.221514	0.704745
749.550017	0.710810
749.878473	0.710008
750.206881	0.716727
750.535242	0.717686
750.863555	0.717065
751.191821	0.718703
751.520039	0.721744
751.848210	0.727234
752.176334	0.718525
752.504411	0.718249
752.832440	0.726535
753.160421	0.730216
753.488356	0.727700
753.816243	0.726255
754.144082	0.734080
754.471875	0.737652
754.799620	0.733709
755.127318	0.734949
755.454969	0.734284
755.782572	0.733277
756.110129	0.739325
756.437638	0.740901
756.765100	0.737943
757.092515	0.735905
757.419882	0.735072
757.747203	0.740238
758.074477	0.739263
758.401703	0.736990
758.728882	0.731841
759.056014	0.730083
759.383099	0.729491
759.710138	0.731255
760.037129	0.727559
760.364073	0.721705
760.690970	0.724454
761.017820	0.730185
761.344623	0.724445
761.671379	0.716403
761.998088	0.704884
762.324751	0.681867
762.651366	0.641214
762.977935	0.574965
763.304456	0.522670
763.630931	0.513295
763.957359	0.551999
764.283740	0.596870
764.610074	0.622726
764.936362	0.653635
765.262602	0.680577
765.588796	0.701810
765.914943	0.719236
766.241044	0.737369
766.567097	0.744375
766.893104	0.753237
767.219064	0.759431
767.544978	0.767039
767.870845	0.779793
768.196665	0.783406
768.522438	0.780551
768.848165	0.782552
769.173846	0.791008
769.499479	0.796223
769.825066	0.799451
770.150607	0.804957
770.476101	0.800105
770.801548	0.800433
771.126949	0.812051
771.452303	0.815181
771.777611	0.815458
772.102872	0.814845
772.428087	0.818859
772.753256	0.822217
773.078378	0.823356
773.403453	0.834630
773.728482	0.838217
774.053465	0.832029
774.378401	0.834740
774.703291	0.843180
775.028135	0.842679
775.352932	0.845024
775.677683	0.847316
776.002388	0.848047
776.327046	0.846801
776.651658	0.850564
776.976224	0.854547
777.300743	0.854000
777.625216	0.856748
777.949643	0.857672
778.274024	0.858283
778.598359	0.860456
778.922647	0.858721
779.246889	0.857963
779.571086	0.863209
779.895236	0.865564
780.219339	0.862663
780.543397	0.859222
780.867409	0.857770
781.191374	0.859669
781.515294	0.861990
781.839167	0.860889
782.162995	0.863326
782.486776	0.860786
782.810511	0.861278
783.134201	0.865493
783.457844	0.862778
783.781441	0.865454
784.104993	0.872111
784.428498	0.872169
784.751958	0.867534
785.075372	0.870615
785.398739	0.873947
785.722061	0.870314
786.045337	0.865725
786.368568	0.871036
786.691752	0.873017
787.014891	0.858564
787.337983	0.850316
787.661030	0.842052
787.984031	0.825904
788.306987	0.812362
788.629897	0.815312
788.952760	0.818649
789.275579	0.823025
789.598351	0.838144
789.921078	0.851603
790.243759	0.852594
790.566395	0.858986
790.888984	0.864509
791.211529	0.869610
791.534027	0.872240
791.856480	0.875506
792.178888	0.880112
792.501249	0.883260
792.823566	0.884596
793.145836	0.884212
793.468062	0.886626
793.790241	0.886440
794.112375	0.883389
794.434464	0.879959
794.756507	0.878783
795.078505	0.878868
795.400457	0.873341
795.722364	0.861171
796.044226	0.853497
796.366042	0.854405
796.687812	0.857017
797.009538	0.853979
797.331218	0.855905
797.652852	0.859992
797.974442	0.865859
798.295986	0.864559
798.617484	0.868730
798.938938	0.872368
799.260346	0.877125
799.581709	0.879711
799.903026	0.881539
800.224299	0.880872
800.545526	0.886388
800.866708	0.889639
801.187845	0.893803
801.508936	0.893263
801.829983	0.891447
802.150984	0.892692
802.471940	0.899539
802.792851	0.897856
803.113717	0.899452
803.434538	0.897181
803.755314	0.899821
804.076045	0.901808
804.396731	0.901083
804.717372	0.901344
805.037967	0.903431
805.358518	0.899981
805.679024	0.896820
805.999485	0.898700
806.319901	0.898646
806.640272	0.899100
806.960598	0.897819
807.280879	0.895505
807.601115	0.892380
807.921306	0.897228
808.241453	0.897456
808.561554	0.895236
808.881611	0.894468
809.201623	0.897150
809.521590	0.897475
809.841513	0.897519
810.161390	0.897721
810.481223	0.898519
810.801011	0.903071
811.120755	0.903391
811.440453	0.903933
811.760107	0.901951
812.079716	0.901219
812.399281	0.904837
812.718801	0.907639
813.038276	0.908544
813.357707	0.907864
813.677093	0.905111
813.996434	0.908132
814.315731	0.910226
814.634983	0.910449
814.954191	0.909286
815.273354	0.906428
815.592473	0.903775
815.911547	0.903376
816.230577	0.900271
816.549562	0.896260
816.868502	0.898529
817.187399	0.894901
817.506250	0.889749
817.825058	0.891828
818.143821	0.888424
818.462539	0.882743
818.781213	0.874851
819.099843	0.864173
819.418429	0.848594
819.736970	0.831284
820.055466	0.812211
820.373919	0.786816
820.692327	0.754239
821.010691	0.720268
821.329011	0.644611
821.647286	0.531315
821.965517	0.418036
822.283704	0.375963
822.601847	0.378106
822.919945	0.413329
823.237999	0.446171
823.556010	0.491757
823.873976	0.547399
824.191897	0.597447
824.509775	0.638938
824.827609	0.683996
825.145398	0.705656
825.463144	0.709455
825.780845	0.691534
826.098502	0.673627
826.416116	0.628518
826.733685	0.584766
827.051210	0.576830
827.368692	0.591206
827.686129	0.628655
828.003522	0.680483
828.320872	0.726664
828.638177	0.770056
828.955439	0.803209
829.272656	0.824851
829.589830	0.842277
829.906960	0.855957
830.224046	0.868867
830.541088	0.878666
830.858086	0.882842
831.175041	0.888411
831.491952	0.888756
831.808819	0.885334
832.125642	0.878726
832.442421	0.863786
832.759157	0.842797
833.075849	0.797464
833.392497	0.734282
833.709101	0.693824
834.025662	0.703958
834.342179	0.734754
834.658653	0.773400
834.975083	0.809370
835.291469	0.836149
835.607811	0.857104
835.924110	0.872030
836.240366	0.889968
836.556578	0.902716
836.872746	0.909513
837.188871	0.916715
837.504952	0.921862
837.820990	0.924359
838.136984	0.927507
838.452935	0.931889
838.768842	0.933700
839.084706	0.926050
839.400526	0.900909
839.716303	0.860830
840.032037	0.839329
840.347727	0.843451
840.663373	0.860368
840.978977	0.881764
841.294537	0.903396
841.610054	0.920190
841.925527	0.926341
842.240957	0.934671
842.556344	0.942097
842.871687	0.947050
843.186987	0.951201
843.502244	0.951450
843.817458	0.952060
844.132629	0.956796
844.447756	0.961216
844.762840	0.961771
845.077881	0.959312
845.392879	0.960204
845.707833	0.963311
846.022745	0.965137
846.337613	0.966346
846.652438	0.966865
846.967221	0.964807
847.281960	0.966712
847.596656	0.968542
847.911309	0.966679
848.225919	0.968546
848.540485	0.968787
848.855009	0.969478
849.169490	0.968865
849.483928	0.969913
849.798323	0.969835
850.112675	0.970956
850.426984	0.971349
850.741251	0.970608
851.055474	0.970956
851.369654	0.968261
851.683792	0.969519
851.997887	0.969991
852.311938	0.971611
852.625947	0.969592
852.939914	0.969250
853.253837	0.968810
853.567718	0.971188
853.881555	0.971389
854.195350	0.967697
854.509103	0.970943
854.822812	0.970688
855.136479	0.970552
855.450103	0.970225
855.763685	0.968343
856.077224	0.970420
856.390720	0.970998
856.704173	0.971056
857.017584	0.969675
857.330953	0.966780
857.644278	0.968077
857.957561	0.969896
858.270802	0.970372
858.584000	0.968965
858.897155	0.967362
859.210268	0.968150
859.523339	0.968579
859.836367	0.971415
860.149352	0.972184
860.462295	0.970300
860.775195	0.970762
861.088054	0.969754
861.400869	0.970143
861.713642	0.969853
862.026373	0.971002
862.339062	0.971845
862.651708	0.968524
862.964312	0.967952
863.276873	0.969667
863.589392	0.969834
863.901869	0.966953
864.214303	0.966610
864.526696	0.965268
864.839045	0.964354
865.151353	0.962767
865.463619	0.962486
865.775842	0.963051
866.088023	0.962289
866.400162	0.962756
866.712258	0.963099
867.024313	0.963790
867.336325	0.964629
867.648296	0.964399
867.960224	0.963628
868.272110	0.962280
868.583954	0.965115
868.895755	0.963973
869.207515	0.962589
869.519233	0.960458
869.830909	0.962491
870.142542	0.962550
870.454134	0.962389
870.765684	0.962381
871.077191	0.958243
871.388657	0.959995
871.700081	0.959155
872.011463	0.958941
872.322803	0.959130
872.634101	0.957685
872.945357	0.955038
873.256571	0.954200
873.567744	0.953887
873.878874	0.954804
874.189963	0.952633
874.501010	0.952171
874.812015	0.950402
875.122979	0.952329
875.433900	0.954635
875.744780	0.954672
876.055618	0.952697
876.366415	0.951013
876.677169	0.950806
876.987882	0.952629
877.298554	0.952486
877.609183	0.948988
877.919771	0.946513
878.230317	0.944653
878.540822	0.942411
878.851285	0.936512
879.161707	0.928707
879.472087	0.917766
879.782425	0.901313
880.092722	0.868688
880.402977	0.817847
880.713191	0.758788
881.023363	0.701413
881.333494	0.669136
881.643583	0.640473
881.953631	0.640395
882.263637	0.669033
882.573602	0.707102
882.883526	0.732897
883.193408	0.756029
883.503248	0.776563
883.813048	0.803507
884.122806	0.833507
884.432522	0.855596
884.742197	0.874370
885.051831	0.885714
885.361424	0.894272
885.670975	0.906337
885.980485	0.916982
886.289954	0.921896
886.599382	0.927030
886.908768	0.930162
887.218113	0.936427
887.527417	0.940628
887.836680	0.943636
888.145901	0.944984
888.455082	0.947520
888.764221	0.952277
889.073319	0.955032
889.382376	0.954439
889.691392	0.954759
890.000366	0.953797
890.309300	0.954722
890.618193	0.954776
890.927044	0.952105
891.235855	0.953439
891.544625	0.952725
891.853353	0.953362
892.162041	0.951007
892.470687	0.944481
892.779293	0.939546
893.087858	0.936660
893.396381	0.929969
893.704864	0.916308
894.013306	0.892722
894.321707	0.866642
894.630068	0.852295
894.938387	0.849054
895.246665	0.849898
895.554903	0.861202
895.863100	0.873824
896.171256	0.890628
896.479371	0.909910
896.787446	0.921851
897.095480	0.928460
897.403473	0.929728
897.711425	0.934663
898.019336	0.942350
898.327207	0.945500
898.635038	0.946513
898.942827	0.946598
899.250576	0.950229
899.558284	0.953902
899.865952	0.955262
900.173579	0.956380
900.481165	0.956674
900.788711	0.961573
901.096216	0.962476
901.403681	0.962151
901.711105	0.963847
902.018489	0.965012
902.325832	0.964925
902.633135	0.962756
902.940397	0.958117
903.247619	0.946057
903.554800	0.921309
903.861941	0.882960
904.169041	0.849283
904.476101	0.833221
904.783121	0.833157
905.090100	0.848928
905.397039	0.869470
905.703938	0.890614
906.010796	0.908774
906.317614	0.925399
906.624391	0.936499
906.931129	0.946280
907.237826	0.953732
907.544483	0.960095
907.851099	0.964105
908.157675	0.969700
908.464211	0.971271
908.770707	0.973734
909.077163	0.975289
909.383578	0.975399
909.689954	0.975462
909.996289	0.976683
910.302584	0.979102
910.608839	0.979269
910.915054	0.980148
911.221229	0.979041
911.527363	0.978183
911.833458	0.977372
912.139513	0.977573
912.445527	0.975345
912.751502	0.975109
913.057436	0.973436
913.363331	0.971118
913.669186	0.967853
913.975000	0.962997
914.280775	0.957265
914.586510	0.951358
914.892205	0.938770
915.197859	0.916966
915.503475	0.891896
915.809050	0.872195
916.114585	0.868440
916.420081	0.865694
916.725536	0.861890
917.030952	0.870113
917.336328	0.881257
917.641665	0.896084
917.946961	0.911348
918.252218	0.921939
918.557435	0.931132
918.862612	0.939289
919.167750	0.943856
919.472848	0.949012
919.777906	0.954357
920.082925	0.959737
920.387904	0.963445
920.692843	0.964439
920.997743	0.965325
921.302603	0.968536
921.607423	0.970542
921.912204	0.973259
922.216946	0.972383
922.521647	0.973762
922.826310	0.975489
923.130932	0.977677
923.435516	0.979964
923.740059	0.981073
924.044564	0.979352
924.349028	0.980900
924.653454	0.984413
924.957840	0.984554
925.262186	0.985057
925.566493	0.984096
925.870761	0.986192
926.174989	0.986554
926.479178	0.988710
926.783328	0.989850
927.087438	0.988414
927.391509	0.989176
927.695541	0.990986
927.999533	0.988945
928.303486	0.990092
928.607400	0.991303
928.911275	0.989843
929.215110	0.990698
929.518906	0.991335
929.822663	0.988934
930.126381	0.991610
930.430060	0.990925
930.733699	0.991111
931.037299	0.989611
931.340861	0.991760
931.644383	0.990657
931.947866	0.989636
932.251309	0.991391
932.554714	0.990755
932.858080	0.990656
933.161407	0.990718
933.464694	0.992199
933.767943	0.990739
934.071153	0.991307
934.374323	0.992555
934.677455	0.991521
934.980548	0.992423
935.283602	0.990443
935.586617	0.992007
935.889593	0.991221
936.192530	0.991058
936.495428	0.990756
936.798287	0.990903
937.101108	0.990908
937.403890	0.988891
937.706632	0.989120
938.009336	0.986629
938.312002	0.986741
938.614628	0.985622
938.917216	0.983541
939.219765	0.981718
939.522275	0.983068
939.824747	0.984550
940.127179	0.983583
940.429573	0.985193
940.731929	0.984944
941.034246	0.984849
941.336524	0.986266
941.638763	0.988074
941.940964	0.986955
942.243126	0.985946
942.545250	0.988393
942.847335	0.988024
943.149381	0.989085
943.451389	0.988005
943.753359	0.989261
944.055290	0.991952
944.357182	0.989466
944.659036	0.988436
944.960851	0.989690
945.262628	0.991597
945.564367	0.990441
945.866067	0.990243
946.167729	0.990121
946.469352	0.990548
946.770937	0.988676
947.072484	0.992573
947.373992	0.991350
947.675462	0.990139
947.976893	0.990615
948.278286	0.990401
948.579641	0.990489
948.880958	0.991445
949.182236	0.991285
949.483476	0.991631
949.784678	0.991667
950.085841	0.991871
950.386967	0.991248
950.688054	0.991000
950.989103	0.991692
951.290114	0.989043
951.591087	0.990331
951.892021	0.990326
952.192917	0.989327
952.493776	0.989221
952.794596	0.988730
953.095378	0.988172
953.396122	0.988271
953.696828	0.987795
953.997496	0.990643
954.298126	0.990720
954.598718	0.990530
954.899272	0.991048
955.199788	0.991356
955.500266	0.991856
955.800706	0.993240
956.101108	0.993048
956.401472	0.993557
956.701798	0.993730
957.002087	0.993869
957.302337	0.993694
957.602550	0.994805
957.902724	0.996309
958.202861	0.994489
958.502960	0.995951
958.803022	0.993712
959.103045	0.995548
959.403031	0.995035
959.702979	0.994778
960.002889	0.995794
960.302762	0.995410
960.602596	0.996064
960.902393	0.994203
961.202153	0.996654
961.501875	0.996668
961.801559	0.995747
962.101205	0.996368
962.400814	0.996820
962.700385	0.996257
962.999918	0.996036
963.299414	0.996256
963.598873	0.995494
963.898293	0.996189
964.197677	0.996422
964.497022	0.996826
964.796331	0.998132
965.095601	0.997571
965.394835	0.995495
965.694030	0.997081
965.993189	0.997097
966.292309	0.995702
966.591393	0.997547
966.890439	0.997089
967.189447	0.996745
967.488419	0.997424
967.787353	0.996784
968.086249	0.996467
968.385108	0.996412
968.683930	0.997984
968.982714	0.996798
969.281462	0.996192
969.580172	0.996132
969.878844	0.997852
970.177480	0.996160
970.476078	0.998185
970.774639	0.997460
971.073162	0.996937
971.371649	0.997171
971.670098	0.996895
971.968510	0.997498
972.266885	0.995097
972.565223	0.997755
972.863524	0.996716
973.161788	0.996292
973.460014	0.997570
973.758204	0.996363
974.056356	0.996048
974.354471	0.994591
974.652550	0.996011
974.950591	0.996711
975.248595	0.996778
975.546563	0.995837
975.844493	0.998098
976.142386	0.997050
976.440243	0.997106
976.738062	0.997336
977.035845	0.997471
977.333590	0.997968
977.631299	0.998515
977.928971	0.996063
978.226606	0.996779
978.524204	0.996452
978.821765	0.997535
979.119290	0.996902
979.416777	0.996428
979.714228	0.996803
980.011642	0.996378
980.309020	0.997837
980.606360	0.997407
980.903664	0.998896
981.200931	0.995976
981.498162	0.995294
981.795356	0.994642
982.092513	0.994216
982.389633	0.994864
982.686717	0.991533
982.983764	0.991352
983.280775	0.991184
983.577749	0.990483
983.874686	0.991661
984.171587	0.992155
984.468451	0.994258
984.765279	0.994882
985.062070	0.993993
985.358824	0.994485
985.655543	0.994803
985.952224	0.995747
986.248869	0.997113
986.545478	0.997362
986.842050	0.998272
987.138586	0.995439
987.435086	0.997876
987.731549	0.998823
988.027975	0.997918
988.324366	0.997975
988.620719	0.997002
988.917037	0.996326
989.213318	0.997220
989.509563	0.999228
989.805772	0.998591
990.101944	0.998839
990.398080	0.996310
990.694180	0.997787
990.990244	0.998201
991.286271	0.997667
991.582262	0.997378
991.878217	0.997715
992.174136	0.998257
992.470019	0.998613
992.765865	0.998084
993.061676	0.998842
993.357450	0.997836
993.653188	0.996460
993.948890	0.997405
994.244556	0.998187
994.540186	0.996745
994.835780	0.996580
995.131337	0.997425
995.426859	0.996594
995.722345	0.998308
996.017795	0.995614
996.313208	0.996273
996.608586	0.995387
996.903928	0.996201
997.199234	0.995916
997.494504	0.996396
997.789738	0.996514
998.084936	0.996460
998.380099	0.997617
998.675225	0.996837
998.970316	0.998557
999.265371	0.997887
999.560390	0.997383
999.855373	0.998048
1000.150320	0.997978
1000.445232	0.998463
1000.740108	0.998641
1001.034948	0.998932
1001.329752	0.999484
1001.624521	0.998538
1001.919254	0.997900
1002.213951	0.997745
1002.508613	0.998027
1002.803239	0.998702
1003.097829	0.998729
1003.392384	0.998290
1003.686903	0.997865
1003.981386	0.998000
1004.275834	0.998718
1004.570246	0.997994
1004.864623	0.999448
1005.158964	1.000135
1005.453270	0.999024
1005.747540	0.997453
1006.041775	0.998059
1006.335974	0.999558
1006.630138	0.999140
1006.924266	0.998751
1007.218359	1.000650
1007.512416	0.998550
1007.806438	0.998077
1008.100425	0.999324
1008.394376	0.998396
1008.688292	0.999129
1008.982172	0.999775
1009.276017	0.999844
1009.569827	0.999200
1009.863602	0.998495
1010.157341	0.999356
1010.451045	0.999562
1010.744714	0.998173
1011.038347	0.998446
1011.331945	0.999669
1011.625508	0.997982
1011.919036	0.998245
1012.212528	0.999028
1012.505986	0.997391
1012.799408	0.997967
1013.092795	0.999570
1013.386147	1.000675
1013.679464	0.999388
1013.972745	0.997783
1014.265992	0.998158
1014.559204	0.998919
1014.852380	0.999833
1015.145521	0.998187
1015.438628	0.998240
1015.731699	0.998972
1016.024736	0.998498
1016.317737	0.999217
1016.610703	0.998400
1016.903635	0.999864
1017.196531	0.997776
1017.489393	1.000584
1017.782219	0.998248
1018.075011	0.998869
1018.367768	0.999408
1018.660490	0.999227
1018.953177	0.999227
1019.245829	0.999227
