Dividing Wavelength (nm)	Counts (n)	Blue Motor Position (mm): 0.000000	Red Motor Position (mm): 44.500000	
326.493990	1.000290
326.888308	1.000290
327.282561	1.000290
327.676750	0.999827
328.070874	0.998356
328.464933	1.000048
328.858929	0.999964
329.252859	1.000283
329.646726	1.000379
330.040528	1.000338
330.434265	0.998318
330.827938	1.001004
331.221547	1.000745
331.615091	0.999699
332.008571	0.999889
332.401986	0.999750
332.795338	1.000088
333.188625	0.998144
333.581847	1.000845
333.975006	0.999217
334.368100	0.999137
334.761129	1.000757
335.154095	1.000536
335.546996	0.999057
335.939833	0.998015
336.332606	0.998201
336.725315	0.999031
337.117960	1.000833
337.510540	0.998711
337.903056	0.999138
338.295508	0.998651
338.687896	0.999403
339.080220	0.999094
339.472480	0.999496
339.864676	0.998675
340.256807	0.999306
340.648875	0.999736
341.040879	0.999083
341.432818	0.999368
341.824694	0.998419
342.216506	0.999937
342.608253	0.999714
342.999937	0.999368
343.391557	0.999564
343.783113	0.998892
344.174605	0.998754
344.566033	1.000025
344.957397	0.998429
345.348697	0.998574
345.739934	0.999066
346.131106	0.998516
346.522215	0.998327
346.913260	0.998188
347.304241	0.998974
347.695159	0.999049
348.086012	0.997833
348.476802	0.998960
348.867528	0.999410
349.258191	0.996802
349.648789	0.998957
350.039324	0.998749
350.429796	0.999968
350.820203	0.998700
351.210548	0.999246
351.600828	0.999132
351.991045	0.999209
352.381198	0.997832
352.771288	0.998594
353.161314	0.997943
353.551276	1.000508
353.941175	0.998500
354.331010	0.999289
354.720782	0.999183
355.110490	0.998590
355.500135	1.000186
355.889717	0.999166
356.279235	0.999477
356.668689	0.998499
357.058080	0.999379
357.447408	1.000106
357.836672	0.998957
358.225873	1.000395
358.615010	0.999813
359.004084	1.000652
359.393095	0.998920
359.782043	1.000214
360.170927	1.000373
360.559748	1.000027
360.948505	0.997907
361.337199	0.999053
361.725830	0.998860
362.114398	0.998935
362.502903	0.998986
362.891344	1.000031
363.279722	0.998406
363.668037	0.999170
364.056289	0.999271
364.444478	1.000675
364.832603	1.000035
365.220665	0.999066
365.608665	0.999460
365.996601	0.999863
366.384474	0.999476
366.772284	1.000488
367.160031	0.997559
367.547715	0.998334
367.935336	0.999352
368.322893	0.998467
368.710388	0.999400
369.097820	0.998340
369.485189	0.998865
369.872495	0.998653
370.259738	0.996228
370.646918	1.000402
371.034035	1.000195
371.421090	0.999115
371.808081	0.998439
372.195010	0.999636
372.581875	0.999936
372.968678	0.999479
373.355418	0.999363
373.742096	0.999005
374.128710	0.999394
374.515262	0.998575
374.901751	0.999511
375.288177	0.999686
375.674540	0.999363
376.060841	0.998143
376.447079	0.999736
376.833254	0.999536
377.219367	0.999281
377.605417	0.998574
377.991404	0.999930
378.377329	0.998282
378.763191	0.998901
379.148991	0.998848
379.534727	0.999688
379.920402	0.999066
380.306013	0.998542
380.691563	1.000264
381.077049	0.998884
381.462474	1.000284
381.847835	0.999692
382.233134	0.998393
382.618371	0.998854
383.003545	0.998769
383.388657	0.998382
383.773706	0.999627
384.158693	0.999865
384.543618	0.998585
384.928480	0.999279
385.313280	0.999654
385.698017	1.000118
386.082692	0.999697
386.467305	0.999413
386.851856	0.999339
387.236344	0.998268
387.620770	0.997525
388.005133	0.998803
388.389435	0.999614
388.773674	0.998962
389.157851	1.000264
389.541965	0.999350
389.926018	0.998758
390.310008	1.000191
390.693936	0.999399
391.077802	0.998841
391.461606	0.999245
391.845348	0.999024
392.229027	1.000145
392.612645	0.999481
392.996200	0.999602
393.379694	1.000188
393.763125	0.999506
394.146494	0.999884
394.529801	0.998871
394.913047	0.999821
395.296230	0.999134
395.679351	0.999287
396.062410	0.999518
396.445408	1.000381
396.828343	0.998780
397.211217	0.999118
397.594028	0.999728
397.976778	0.998650
398.359466	0.999688
398.742092	0.998800
399.124656	0.999175
399.507158	0.999258
399.889598	0.999646
400.271977	0.999755
400.654294	0.999240
401.036549	1.000370
401.418742	1.000606
401.800874	0.999193
402.182944	0.999258
402.564952	0.998049
402.946898	0.999422
403.328783	0.998840
403.710606	0.998975
404.092367	0.999760
404.474067	0.999800
404.855705	1.000002
405.237282	0.999282
405.618797	0.998713
406.000250	0.998233
406.381642	0.999612
406.762972	0.999263
407.144240	1.000119
407.525447	0.999281
407.906593	0.999342
408.287677	0.999968
408.668700	0.999747
409.049661	0.998481
409.430560	1.000331
409.811399	0.998985
410.192176	0.999785
410.572891	0.998806
410.953545	0.998967
411.334138	0.998439
411.714669	0.998875
412.095139	0.999277
412.475547	0.999531
412.855894	0.999008
413.236180	0.999896
413.616405	0.999846
413.996568	0.999920
414.376670	0.999445
414.756711	0.999394
415.136691	0.999932
415.516609	0.999333
415.896466	0.999141
416.276262	0.998423
416.655997	0.999639
417.035670	0.999239
417.415283	0.999192
417.794834	0.999106
418.174324	0.998459
418.553753	0.999427
418.933121	0.998595
419.312428	0.999227
419.691674	0.998967
420.070859	0.999315
420.449983	0.999410
420.829045	0.999549
421.208047	0.999460
421.586988	1.000429
421.965867	0.999540
422.344686	1.000246
422.723444	1.000307
423.102141	0.998852
423.480777	1.000073
423.859352	0.998383
424.237866	0.999148
424.616319	0.999153
424.994712	0.999211
425.373044	0.999502
425.751314	0.999889
426.129524	0.999256
426.507673	0.999743
426.885762	0.999946
427.263789	1.000416
427.641756	0.999164
428.019662	1.000338
428.397508	0.998733
428.775292	0.998047
429.153016	0.999484
429.530679	1.000078
429.908282	0.999902
430.285824	0.999113
430.663305	0.998911
431.040726	0.999120
431.418086	0.999760
431.795385	0.999761
432.172624	0.998717
432.549802	1.000515
432.926920	1.000473
433.303977	0.998573
433.680974	0.999621
434.057910	0.999734
434.434786	1.000189
434.811601	0.999170
435.188355	0.998888
435.565050	0.998915
435.941683	1.000369
436.318257	0.999789
436.694770	0.999423
437.071222	0.999773
437.447614	0.998878
437.823946	0.999913
438.200218	0.999577
438.576429	0.999138
438.952580	1.000147
439.328670	0.998384
439.704700	0.999924
440.080670	1.000027
440.456580	0.999773
440.832429	0.999436
441.208218	1.000347
441.583947	0.999092
441.959616	0.999549
442.335224	0.998960
442.710773	0.999859
443.086261	0.999581
443.461689	0.999357
443.837057	0.998745
444.212365	0.999818
444.587612	0.999555
444.962800	0.998990
445.337927	0.999721
445.712995	0.999928
446.088002	0.999503
446.462949	0.999654
446.837837	0.999768
447.212664	0.999980
447.587431	0.999765
447.962139	0.999313
448.336786	1.000245
448.711374	0.999558
449.085901	0.999551
449.460369	1.000152
449.834776	0.999423
450.209124	1.000353
450.583412	0.999961
450.957640	0.999549
451.331808	0.999051
451.705917	0.999201
452.079965	0.998694
452.453954	0.998978
452.827883	0.999383
453.201752	0.999561
453.575562	0.999929
453.949311	0.999738
454.323001	0.999507
454.696632	0.999556
455.070202	0.999193
455.443713	0.998809
455.817164	0.999846
456.190556	0.999282
456.563888	0.999492
456.937160	0.999938
457.310373	0.998985
457.683526	0.999904
458.056619	0.999824
458.429653	0.999426
458.802628	0.998200
459.175542	0.999243
459.548398	0.999867
459.921194	0.999382
460.293930	0.999231
460.666607	0.998772
461.039224	0.998966
461.411782	0.999815
461.784280	0.999473
462.156719	1.000251
462.529099	1.000383
462.901419	1.000221
463.273680	0.999005
463.645882	0.999301
464.018024	0.999235
464.390106	0.999416
464.762130	1.000477
465.134094	0.999496
465.505999	1.000377
465.877845	1.000199
466.249631	1.000289
466.621358	0.999350
466.993026	0.999172
467.364634	0.998886
467.736184	0.999666
468.107674	0.998837
468.479105	0.999087
468.850477	0.999200
469.221790	0.999688
469.593043	0.999627
469.964238	1.000210
470.335373	0.999116
470.706449	0.999368
471.077467	0.999814
471.448425	0.999778
471.819324	1.000360
472.190164	0.999210
472.560945	0.999561
472.931667	0.999494
473.302330	0.999372
473.672934	0.999640
474.043479	0.999798
474.413965	0.999513
474.784393	0.999661
475.154761	0.998941
475.525070	0.998900
475.895321	0.999350
476.265513	0.998928
476.635645	0.999255
477.005719	0.999925
477.375734	0.999198
477.745691	0.999285
478.115588	0.999390
478.485427	0.999453
478.855207	0.999702
479.224928	1.000695
479.594591	0.999463
479.964194	0.999943
480.333739	0.999080
480.703226	0.999519
481.072653	1.000221
481.442022	1.000506
481.811333	0.999295
482.180584	1.000029
482.549777	0.999527
482.918912	0.999519
483.287988	0.999606
483.657005	0.999793
484.025964	1.000003
484.394864	0.999696
484.763706	1.000029
485.132489	0.999857
485.501213	1.000030
485.869879	0.999683
486.238487	0.999732
486.607036	0.999952
486.975527	0.998683
487.343959	0.999088
487.712333	0.999711
488.080648	0.999498
488.448905	0.999652
488.817104	0.999739
489.185244	0.999905
489.553326	0.999097
489.921350	0.999357
490.289315	0.999594
490.657222	0.999800
491.025070	1.000006
491.392861	1.000170
491.760593	1.000046
492.128267	0.999267
492.495883	0.999208
492.863440	0.999615
493.230939	0.999578
493.598380	0.999321
493.965763	0.999508
494.333088	1.000204
494.700354	0.999009
495.067563	0.999364
495.434713	0.999480
495.801805	0.999989
496.168839	0.999608
496.535815	0.999432
496.902733	0.999482
497.269593	0.999671
497.636395	0.999614
498.003139	0.999423
498.369825	1.000115
498.736453	0.999046
499.103023	0.999020
499.469535	0.999252
499.835989	0.999335
500.202385	0.999591
500.568723	0.998984
500.935003	0.999927
501.301226	0.999157
501.667390	0.999442
502.033497	0.999783
502.399546	0.999863
502.765537	0.999375
503.131470	0.999352
503.497345	0.999459
503.863163	1.000294
504.228923	0.999424
504.594625	0.999612
504.960269	0.999915
505.325856	1.000079
505.691385	0.999345
506.056856	0.999944
506.422270	0.999801
506.787625	0.999645
507.152924	0.999956
507.518164	0.998983
507.883347	0.999921
508.248472	0.999225
508.613540	1.000040
508.978550	0.999818
509.343503	0.999171
509.708398	0.999788
510.073236	0.999900
510.438016	1.000017
510.802738	0.998950
511.167403	0.999644
511.532010	0.999553
511.896561	0.998758
512.261053	1.000687
512.625488	0.999159
512.989866	0.999364
513.354186	0.999089
513.718449	0.999797
514.082655	0.999811
514.446803	0.999776
514.810894	0.999229
515.174927	0.999431
515.538904	0.999630
515.902822	0.999174
516.266684	0.999229
516.630488	1.000182
516.994235	0.999222
517.357925	0.999637
517.721558	0.999559
518.085133	0.998982
518.448651	1.000155
518.812112	0.999370
519.175516	0.999365
519.538863	0.999291
519.902152	0.999138
520.265385	0.999284
520.628560	0.999428
520.991678	0.999126
521.354739	0.999656
521.717743	1.000099
522.080690	1.000064
522.443580	0.999317
522.806413	0.999631
523.169189	0.999699
523.531908	0.999050
523.894569	0.999726
524.257174	0.999567
524.619722	0.999480
524.982213	0.999421
525.344647	0.999998
525.707025	0.998908
526.069345	0.998578
526.431608	0.999409
526.793815	0.999653
527.155964	0.999551
527.518057	0.999315
527.880093	1.000070
528.242072	0.998772
528.603995	0.999638
528.965860	1.000006
529.327669	0.999538
529.689421	0.999598
530.051117	0.999678
530.412755	0.998968
530.774337	0.999351
531.135862	0.999229
531.497331	0.999442
531.858743	0.999587
532.220098	0.999149
532.581396	0.999746
532.942638	1.000203
533.303824	0.999048
533.664953	0.999881
534.026025	0.998984
534.387040	0.998987
534.747999	0.999516
535.108902	0.999613
535.469748	0.999245
535.830537	0.999506
536.191270	0.999613
536.551947	0.999688
536.912567	0.998914
537.273131	0.999959
537.633638	0.998728
537.994089	0.999327
538.354483	0.999110
538.714821	0.999725
539.075103	0.998847
539.435328	0.999033
539.795497	0.998967
540.155609	0.999272
540.515665	0.999004
540.875665	0.998698
541.235609	0.998990
541.595496	0.998743
541.955328	0.998449
542.315102	0.999475
542.674821	0.999174
543.034483	0.998664
543.394090	0.998666
543.753640	0.999540
544.113134	0.998951
544.472571	0.999850
544.831953	0.999242
545.191278	0.998514
545.550548	0.999547
545.909761	0.998061
546.268918	0.999083
546.628019	0.999107
546.987064	0.998688
547.346053	0.999020
547.704986	0.998858
548.063863	0.999160
548.422684	0.998683
548.781449	0.999273
549.140158	0.998808
549.498811	0.999314
549.857408	0.998804
550.215949	0.999167
550.574434	0.999005
550.932864	0.998916
551.291237	0.998926
551.649555	0.999117
552.007817	0.998610
552.366022	0.998102
552.724173	0.998811
553.082267	0.999038
553.440305	0.998287
553.798288	0.998800
554.156215	0.998706
554.514086	0.999270
554.871902	0.998758
555.229661	0.998380
555.587365	0.998820
555.945014	0.999603
556.302606	0.998414
556.660143	0.998593
557.017625	0.998713
557.375050	0.998891
557.732421	0.998315
558.089735	0.998961
558.446994	0.999835
558.804197	0.998849
559.161345	0.999132
559.518437	0.999395
559.875474	0.998094
560.232455	0.998934
560.589381	0.999069
560.946251	0.998283
561.303065	0.998439
561.659825	0.999133
562.016528	0.998248
562.373177	0.998742
562.729770	0.998913
563.086307	0.999160
563.442789	0.998375
563.799216	0.998633
564.155587	0.998303
564.511904	0.998083
564.868164	0.998891
565.224370	0.998738
565.580520	0.999314
565.936615	0.998158
566.292654	0.998699
566.648638	0.998784
567.004567	0.998213
567.360441	0.999207
567.716260	0.999361
568.072023	0.998452
568.427732	0.998480
568.783385	0.998811
569.138982	0.998993
569.494525	0.997924
569.850013	0.999143
570.205445	0.998397
570.560823	0.999188
570.916145	0.998984
571.271412	0.999142
571.626625	0.998447
571.981782	0.998133
572.336884	1.000022
572.691931	0.998714
573.046923	0.998287
573.401860	0.998554
573.756743	0.998373
574.111570	0.998970
574.466342	0.999221
574.821059	0.998421
575.175722	0.999391
575.530330	0.998939
575.884882	0.998466
576.239380	0.999169
576.593823	0.998799
576.948211	0.998805
577.302544	0.998671
577.656823	0.998817
578.011047	0.999090
578.365216	0.998420
578.719330	0.997885
579.073389	0.999047
579.427394	0.998206
579.781344	0.999660
580.135239	0.998724
580.489080	0.997839
580.842866	0.998956
581.196597	0.998220
581.550273	0.998646
581.903895	0.998039
582.257463	0.998934
582.610975	0.998586
582.964434	0.999126
583.317837	0.999727
583.671186	0.998509
584.024481	0.999428
584.377721	0.998684
584.730906	0.998414
585.084037	0.998656
585.437113	0.999075
585.790135	0.998668
586.143103	0.998586
586.496016	0.999361
586.848874	0.998935
587.201679	0.998768
587.554428	0.999309
587.907124	0.998159
588.259765	0.998565
588.612352	0.999168
588.964884	0.999194
589.317362	0.999363
589.669786	0.999103
590.022155	0.999254
590.374470	0.998590
590.726731	0.998962
591.078937	0.998462
591.431090	0.998308
591.783188	0.998491
592.135232	0.998895
592.487222	0.998388
592.839157	0.999355
593.191038	0.998505
593.542866	0.998349
593.894639	0.999159
594.246358	0.998590
594.598022	0.998660
594.949633	0.998342
595.301190	0.998252
595.652692	0.998364
596.004141	0.999598
596.355535	0.998988
596.706876	0.998959
597.058162	0.998319
597.409395	0.999412
597.760573	0.999387
598.111698	0.998937
598.462768	0.998458
598.813785	0.998327
599.164748	0.999216
599.515657	0.997853
599.866511	0.998420
600.217312	0.998090
600.568060	0.998206
600.918753	0.998790
601.269392	0.998572
601.619978	0.998172
601.970510	0.998540
602.320988	0.998795
602.671412	0.998460
603.021783	0.998898
603.372100	0.999269
603.722363	0.999465
604.072572	0.998346
604.422728	0.998568
604.772830	0.997901
605.122878	0.998548
605.472872	0.998764
605.822813	0.997869
606.172701	0.998556
606.522534	0.998728
606.872314	0.998803
607.222041	0.998042
607.571714	0.999507
607.921333	0.998232
608.270899	0.998351
608.620411	0.998519
608.969870	0.999132
609.319276	0.998728
609.668627	0.998999
610.017926	0.997677
610.367171	0.997705
610.716362	0.997759
611.065500	0.997859
611.414585	0.998285
611.763616	0.997924
612.112594	0.998274
612.461518	0.998480
612.810389	0.998544
613.159207	0.998166
613.507971	0.997941
613.856682	0.998781
614.205340	0.998679
614.553945	0.997524
614.902496	0.998285
615.250994	0.998329
615.599439	0.998618
615.947830	0.998033
616.296169	0.998580
616.644454	0.997509
616.992686	0.998875
617.340864	0.998112
617.688990	0.998189
618.037063	0.998875
618.385082	0.998178
618.733048	0.997373
619.080961	0.998254
619.428821	0.999228
619.776628	0.998222
620.124382	0.997929
620.472083	0.996738
620.819731	0.998257
621.167326	0.998217
621.514868	0.997726
621.862357	0.997660
622.209793	0.998494
622.557176	0.996907
622.904506	0.997129
623.251783	0.997760
623.599007	0.998166
623.946179	0.998044
624.293297	0.997876
624.640363	0.997507
624.987376	0.997207
625.334336	0.997687
625.681243	0.998023
626.028097	0.997648
626.374899	0.998453
626.721647	0.997657
627.068343	0.998032
627.414987	0.997040
627.761577	0.998331
628.108115	0.997710
628.454600	0.997901
628.801032	0.997203
629.147412	0.997372
629.493739	0.997433
629.840014	0.997498
630.186236	0.997504
630.532405	0.997401
630.878521	0.997768
631.224585	0.997616
631.570597	0.997095
631.916556	0.997264
632.262462	0.997424
632.608316	0.997472
632.954117	0.997304
633.299866	0.997060
633.645562	0.996709
633.991206	0.997610
634.336797	0.997134
634.682336	0.996473
635.027823	0.996658
635.373257	0.997603
635.718639	0.996765
636.063968	0.997100
636.409245	0.996743
636.754470	0.997492
637.099642	0.997732
637.444762	0.996375
637.789829	0.996184
638.134845	0.996556
638.479808	0.996271
638.824719	0.997123
639.169577	0.996257
639.514383	0.996653
639.859137	0.996354
640.203839	0.996337
640.548489	0.995898
640.893086	0.996514
641.237632	0.996602
641.582125	0.995767
641.926566	0.994694
642.270955	0.995982
642.615292	0.996335
642.959576	0.995467
643.303809	0.996603
643.647990	0.994773
643.992118	0.995581
644.336195	0.996481
644.680219	0.995814
645.024192	0.995589
645.368112	0.994731
645.711981	0.995039
646.055797	0.994431
646.399562	0.994196
646.743274	0.992956
647.086935	0.994585
647.430544	0.993881
647.774101	0.993615
648.117606	0.993512
648.461059	0.993943
648.804460	0.993129
649.147810	0.993786
649.491108	0.993741
649.834354	0.993133
650.177548	0.993448
650.520690	0.993415
650.863781	0.992687
651.206820	0.993759
651.549807	0.993089
651.892742	0.992345
652.235626	0.992563
652.578458	0.992381
652.921238	0.991601
653.263967	0.992998
653.606644	0.992949
653.949269	0.992513
654.291843	0.991750
654.634365	0.991664
654.976836	0.991315
655.319255	0.990512
655.661622	0.990750
656.003938	0.989856
656.346203	0.990642
656.688416	0.990914
657.030577	0.990669
657.372687	0.989531
657.714746	0.989596
658.056753	0.989556
658.398708	0.989156
658.740612	0.990199
659.082465	0.989173
659.424266	0.988389
659.766016	0.987289
660.107715	0.987887
660.449362	0.986531
660.790958	0.987297
661.132503	0.985663
661.473996	0.985843
661.815438	0.986742
662.156829	0.985955
662.498168	0.987394
662.839456	0.984947
663.180693	0.985790
663.521879	0.985643
663.863013	0.985529
664.204097	0.985039
664.545129	0.984699
664.886110	0.983810
665.227040	0.982267
665.567918	0.982439
665.908746	0.982873
666.249522	0.981551
666.590248	0.982318
666.930922	0.982255
667.271545	0.980482
667.612118	0.980298
667.952639	0.980557
668.293109	0.979700
668.633528	0.979644
668.973896	0.979519
669.314213	0.978758
669.654480	0.979213
669.994695	0.978864
670.334859	0.978534
670.674973	0.977351
671.015035	0.977673
671.355047	0.976883
671.695008	0.976045
672.034918	0.976248
672.374777	0.975495
672.714585	0.974641
673.054342	0.974149
673.394049	0.973290
673.733705	0.972389
674.073310	0.971499
674.412864	0.973530
674.752368	0.971856
675.091820	0.971814
675.431223	0.971729
675.770574	0.971547
676.109875	0.970623
676.449125	0.970174
676.788324	0.970298
677.127473	0.971242
677.466571	0.970155
677.805619	0.968973
678.144616	0.967785
678.483562	0.968107
678.822458	0.968188
679.161303	0.969151
679.500098	0.967337
679.838842	0.967969
680.177535	0.966847
680.516179	0.966630
680.854771	0.966065
681.193314	0.964738
681.531805	0.963538
681.870247	0.961228
682.208638	0.959549
682.546978	0.958298
682.885268	0.958424
683.223508	0.958746
683.561697	0.958213
683.899836	0.958059
684.237925	0.958111
684.575963	0.957217
684.913951	0.956919
685.251889	0.955856
685.589776	0.955651
685.927614	0.955103
686.265401	0.953083
686.603137	0.953235
686.940824	0.951269
687.278460	0.950429
687.616046	0.948686
687.953582	0.947090
688.291068	0.947151
688.628504	0.945926
688.965889	0.945512
689.303224	0.945275
689.640510	0.946231
689.977745	0.945403
690.314930	0.946461
690.652065	0.946489
690.989150	0.946761
691.326185	0.946664
691.663170	0.946735
692.000105	0.947258
692.336990	0.948225
692.673825	0.946399
693.010610	0.947369
693.347345	0.947757
693.684030	0.945943
694.020665	0.947054
694.357251	0.947847
694.693786	0.947745
695.030272	0.947658
695.366707	0.946438
695.703093	0.947874
696.039429	0.945968
696.375716	0.943848
696.711952	0.944110
697.048139	0.946024
697.384276	0.944587
697.720363	0.942644
698.056400	0.941142
698.392388	0.942007
698.728326	0.943251
699.064214	0.944675
699.400053	0.942951
699.735842	0.941681
700.071581	0.941460
700.407270	0.941798
700.742910	0.941425
701.078501	0.942611
701.414042	0.940802
701.749533	0.939073
702.084974	0.942301
702.420366	0.938902
702.755709	0.940214
703.091002	0.942228
703.426246	0.938400
703.761440	0.940847
704.096584	0.940765
704.431679	0.938017
704.766725	0.937497
705.101721	0.937945
705.436668	0.936791
705.771565	0.938964
706.106413	0.938708
706.441212	0.934683
706.775961	0.932891
707.110661	0.934969
707.445311	0.934537
707.779913	0.929470
708.114465	0.931112
708.448967	0.931203
708.783421	0.927930
709.117825	0.925922
709.452180	0.927062
709.786485	0.924917
710.120742	0.921366
710.454949	0.922384
710.789107	0.919774
711.123216	0.916850
711.457275	0.917060
711.791286	0.913799
712.125247	0.912026
712.459159	0.916478
712.793023	0.916722
713.126837	0.911082
713.460602	0.910616
713.794318	0.915422
714.127985	0.912689
714.461602	0.912565
714.795171	0.915354
715.128691	0.915817
715.462162	0.916502
715.795584	0.914892
716.128957	0.915929
716.462281	0.918993
716.795556	0.917821
717.128782	0.917381
717.461960	0.918819
717.795088	0.917399
718.128167	0.919480
718.461198	0.922251
718.794180	0.921607
719.127113	0.920497
719.459997	0.920308
719.792833	0.921721
720.125619	0.922488
720.458357	0.922774
720.791046	0.921570
721.123686	0.921120
721.456278	0.922913
721.788821	0.922029
722.121315	0.921910
722.453761	0.923869
722.786158	0.920327
723.118506	0.919299
723.450805	0.923181
723.783056	0.922131
724.115259	0.917338
724.447412	0.916842
724.779518	0.919480
725.111574	0.918283
725.443582	0.915949
725.775542	0.915419
726.107453	0.913342
726.439315	0.912182
726.771129	0.912652
727.102895	0.910696
727.434612	0.906981
727.766281	0.907045
728.097901	0.907458
728.429473	0.907637
728.760996	0.905241
729.092471	0.905199
729.423897	0.904870
729.755276	0.903723
730.086606	0.904346
730.417887	0.903122
730.749120	0.899327
731.080305	0.893486
731.411442	0.893009
731.742530	0.896234
732.073570	0.894485
732.404562	0.890794
732.735506	0.890788
733.066401	0.892537
733.397249	0.894507
733.728048	0.898207
734.058798	0.898146
734.389501	0.898757
734.720156	0.903920
735.050762	0.905926
735.381320	0.902552
735.711831	0.907722
736.042293	0.908292
736.372707	0.904293
736.703073	0.905500
737.033391	0.908836
737.363661	0.906386
737.693883	0.902671
738.024056	0.903193
738.354182	0.905347
738.684260	0.900295
739.014290	0.898263
739.344272	0.899185
739.674207	0.895943
740.004093	0.896205
740.333931	0.896342
740.663722	0.894197
740.993464	0.893396
741.323159	0.895707
741.652806	0.896108
741.982405	0.896830
742.311956	0.897072
742.641460	0.897514
742.970915	0.897049
743.300323	0.900657
743.629683	0.902762
743.958996	0.901702
744.288260	0.902299
744.617477	0.902712
744.946647	0.902760
745.275768	0.903713
745.604842	0.902347
745.933869	0.908255
746.262847	0.907112
746.591778	0.900734
746.920662	0.904530
747.249498	0.908423
747.578286	0.903275
747.907027	0.902484
748.235720	0.905481
748.564365	0.900867
748.892963	0.898132
749.221514	0.899448
749.550017	0.903347
749.878473	0.901090
750.206881	0.903305
750.535242	0.903376
750.863555	0.902864
751.191821	0.902383
751.520039	0.904370
751.848210	0.906661
752.176334	0.900312
752.504411	0.899280
752.832440	0.903156
753.160421	0.906678
753.488356	0.904419
753.816243	0.900873
754.144082	0.905327
754.471875	0.907349
754.799620	0.903714
755.127318	0.904807
755.454969	0.903920
755.782572	0.902670
756.110129	0.906225
756.437638	0.906678
756.765100	0.903260
757.092515	0.902273
757.419882	0.901718
757.747203	0.903764
758.074477	0.904165
758.401703	0.902432
758.728882	0.899682
759.056014	0.898432
759.383099	0.898359
759.710138	0.900902
760.037129	0.900236
760.364073	0.894092
760.690970	0.894115
761.017820	0.899437
761.344623	0.896460
761.671379	0.892172
761.998088	0.885766
762.324751	0.876664
762.651366	0.864569
762.977935	0.843564
763.304456	0.820661
763.630931	0.810917
763.957359	0.825630
764.283740	0.844399
764.610074	0.849790
764.936362	0.859874
765.262602	0.870772
765.588796	0.878488
765.914943	0.886787
766.241044	0.895046
766.567097	0.895430
766.893104	0.899064
767.219064	0.901894
767.544978	0.903722
767.870845	0.910436
768.196665	0.911743
768.522438	0.908674
768.848165	0.908321
769.173846	0.913401
769.499479	0.915182
769.825066	0.916027
770.150607	0.918577
770.476101	0.913481
770.801548	0.913581
771.126949	0.920142
771.452303	0.921968
771.777611	0.920315
772.102872	0.918059
772.428087	0.920461
772.753256	0.921711
773.078378	0.923304
773.403453	0.926297
773.728482	0.928674
774.053465	0.923627
774.378401	0.925814
774.703291	0.930749
775.028135	0.928730
775.352932	0.931239
775.677683	0.932142
776.002388	0.930767
776.327046	0.929783
776.651658	0.931127
776.976224	0.933573
777.300743	0.932506
777.625216	0.933474
777.949643	0.935100
778.274024	0.935093
778.598359	0.934981
778.922647	0.934296
779.246889	0.932844
779.571086	0.936960
779.895236	0.937953
780.219339	0.935600
780.543397	0.934305
780.867409	0.932078
781.191374	0.934804
781.515294	0.935670
781.839167	0.933075
782.162995	0.935736
782.486776	0.934285
782.810511	0.934540
783.134201	0.935629
783.457844	0.933465
783.781441	0.934747
784.104993	0.938795
784.428498	0.939295
784.751958	0.935136
785.075372	0.936586
785.398739	0.938252
785.722061	0.935843
786.045337	0.932970
786.368568	0.938115
786.691752	0.938507
787.014891	0.930343
787.337983	0.926060
787.661030	0.925536
787.984031	0.917413
788.306987	0.909074
788.629897	0.910464
788.952760	0.910886
789.275579	0.910968
789.598351	0.918286
789.921078	0.925816
790.243759	0.925147
790.566395	0.928157
790.888984	0.930802
791.211529	0.933489
791.534027	0.934896
791.856480	0.934966
792.178888	0.938479
792.501249	0.939849
792.823566	0.939718
793.145836	0.939816
793.468062	0.941083
793.790241	0.940502
794.112375	0.939267
794.434464	0.935789
794.756507	0.935898
795.078505	0.936864
795.400457	0.934982
795.722364	0.928109
796.044226	0.925394
796.366042	0.927204
796.687812	0.927299
797.009538	0.923622
797.331218	0.923847
797.652852	0.927151
797.974442	0.930262
798.295986	0.928791
798.617484	0.930037
798.938938	0.932223
799.260346	0.935321
799.581709	0.935468
799.903026	0.936645
800.224299	0.935970
800.545526	0.938597
800.866708	0.940174
801.187845	0.942425
801.508936	0.943006
801.829983	0.939589
802.150984	0.940797
802.471940	0.945471
802.792851	0.945006
803.113717	0.944741
803.434538	0.943666
803.755314	0.943947
804.076045	0.945000
804.396731	0.946575
804.717372	0.945671
805.037967	0.947574
805.358518	0.946039
805.679024	0.944974
805.999485	0.944740
806.319901	0.945260
806.640272	0.945639
806.960598	0.943698
807.280879	0.942613
807.601115	0.941035
807.921306	0.944679
808.241453	0.943468
808.561554	0.940783
808.881611	0.941993
809.201623	0.942944
809.521590	0.942734
809.841513	0.942481
810.161390	0.942063
810.481223	0.942322
810.801011	0.945032
811.120755	0.946699
811.440453	0.943748
811.760107	0.942395
812.079716	0.942434
812.399281	0.944302
812.718801	0.946170
813.038276	0.947129
813.357707	0.946100
813.677093	0.943128
813.996434	0.945401
814.315731	0.946097
814.634983	0.947924
814.954191	0.945417
815.273354	0.944171
815.592473	0.940571
815.911547	0.941813
816.230577	0.940948
816.549562	0.938994
816.868502	0.939831
817.187399	0.936923
817.506250	0.933026
817.825058	0.933314
818.143821	0.931554
818.462539	0.927783
818.781213	0.923078
819.099843	0.915283
819.418429	0.907263
819.736970	0.897964
820.055466	0.885820
820.373919	0.867379
820.692327	0.845090
821.010691	0.826819
821.329011	0.790653
821.647286	0.745510
821.965517	0.697926
822.283704	0.679053
822.601847	0.675497
822.919945	0.681015
823.237999	0.680993
823.556010	0.695997
823.873976	0.723517
824.191897	0.749856
824.509775	0.772983
824.827609	0.800329
825.145398	0.814040
825.463144	0.815604
825.780845	0.804497
826.098502	0.795695
826.416116	0.773264
826.733685	0.751184
827.051210	0.745021
827.368692	0.748153
827.686129	0.764236
828.003522	0.793980
828.320872	0.822150
828.638177	0.850488
828.955439	0.872682
829.272656	0.885608
829.589830	0.895853
829.906960	0.906263
830.224046	0.913928
830.541088	0.920320
830.858086	0.922337
831.175041	0.927779
831.491952	0.926117
831.808819	0.923332
832.125642	0.917918
832.442421	0.908348
832.759157	0.896878
833.075849	0.869236
833.392497	0.829804
833.709101	0.801910
834.025662	0.808008
834.342179	0.826118
834.658653	0.849053
834.975083	0.871422
835.291469	0.887210
835.607811	0.902599
835.924110	0.912682
836.240366	0.924321
836.556578	0.934820
836.872746	0.939919
837.188871	0.942751
837.504952	0.947102
837.820990	0.949804
838.136984	0.952233
838.452935	0.953551
838.768842	0.954463
839.084706	0.950714
839.400526	0.933747
839.716303	0.909779
840.032037	0.895107
840.347727	0.896769
840.663373	0.906301
840.978977	0.919470
841.294537	0.935394
841.610054	0.945193
841.925527	0.951542
842.240957	0.955254
842.556344	0.959889
842.871687	0.964689
843.186987	0.966666
843.502244	0.966481
843.817458	0.967337
844.132629	0.969869
844.447756	0.975084
844.762840	0.974178
845.077881	0.972938
845.392879	0.971303
845.707833	0.975557
846.022745	0.977473
846.337613	0.976018
846.652438	0.977589
846.967221	0.976773
847.281960	0.977121
847.596656	0.977475
847.911309	0.975988
848.225919	0.977983
848.540485	0.978669
848.855009	0.980002
849.169490	0.978443
849.483928	0.979761
849.798323	0.979095
850.112675	0.980379
850.426984	0.979094
850.741251	0.980037
851.055474	0.981580
851.369654	0.978737
851.683792	0.980546
851.997887	0.980059
852.311938	0.980987
852.625947	0.980859
852.939914	0.977709
853.253837	0.980348
853.567718	0.980887
853.881555	0.980405
854.195350	0.977261
854.509103	0.979736
854.822812	0.980540
855.136479	0.979914
855.450103	0.979888
855.763685	0.978865
856.077224	0.978541
856.390720	0.980491
856.704173	0.980159
857.017584	0.979397
857.330953	0.975925
857.644278	0.978786
857.957561	0.978589
858.270802	0.977644
858.584000	0.978851
858.897155	0.977226
859.210268	0.978687
859.523339	0.977794
859.836367	0.979605
860.149352	0.980445
860.462295	0.979208
860.775195	0.978691
861.088054	0.978156
861.400869	0.978692
861.713642	0.979887
862.026373	0.979343
862.339062	0.979801
862.651708	0.977829
862.964312	0.977903
863.276873	0.979659
863.589392	0.978663
863.901869	0.976560
864.214303	0.975744
864.526696	0.974654
864.839045	0.974659
865.151353	0.974013
865.463619	0.973774
865.775842	0.973157
866.088023	0.973859
866.400162	0.973466
866.712258	0.973319
867.024313	0.973396
867.336325	0.974033
867.648296	0.974823
867.960224	0.973345
868.272110	0.973163
868.583954	0.974747
868.895755	0.974682
869.207515	0.973006
869.519233	0.970475
869.830909	0.972846
870.142542	0.973882
870.454134	0.973814
870.765684	0.971608
871.077191	0.969602
871.388657	0.971053
871.700081	0.971600
872.011463	0.970875
872.322803	0.971610
872.634101	0.970257
872.945357	0.968013
873.256571	0.966838
873.567744	0.966573
873.878874	0.967848
874.189963	0.966458
874.501010	0.965676
874.812015	0.964406
875.122979	0.966499
875.433900	0.966292
875.744780	0.967201
876.055618	0.965193
876.366415	0.963638
876.677169	0.964432
876.987882	0.965378
877.298554	0.964921
877.609183	0.961122
877.919771	0.960115
878.230317	0.958189
878.540822	0.955352
878.851285	0.952480
879.161707	0.945894
879.472087	0.936463
879.782425	0.925589
880.092722	0.899871
880.402977	0.863233
880.713191	0.828856
881.023363	0.799443
881.333494	0.782629
881.643583	0.760184
881.953631	0.752521
882.263637	0.768023
882.573602	0.793097
882.883526	0.806720
883.193408	0.820217
883.503248	0.834060
883.813048	0.852861
884.122806	0.874701
884.432522	0.891719
884.742197	0.906628
885.051831	0.912100
885.361424	0.920906
885.670975	0.928445
885.980485	0.936936
886.289954	0.941140
886.599382	0.945464
886.908768	0.947819
887.218113	0.952970
887.527417	0.956911
887.836680	0.958217
888.145901	0.959199
888.455082	0.960230
888.764221	0.964169
889.073319	0.965096
889.382376	0.965180
889.691392	0.965165
890.000366	0.965361
890.309300	0.967537
890.618193	0.965286
890.927044	0.964311
891.235855	0.964689
891.544625	0.965258
891.853353	0.965532
892.162041	0.962722
892.470687	0.958264
892.779293	0.954944
893.087858	0.951683
893.396381	0.946912
893.704864	0.936692
894.013306	0.920334
894.321707	0.899950
894.630068	0.889303
894.938387	0.887002
895.246665	0.886820
895.554903	0.894387
895.863100	0.903749
896.171256	0.915059
896.479371	0.932066
896.787446	0.940832
897.095480	0.945192
897.403473	0.947136
897.711425	0.950179
898.019336	0.956241
898.327207	0.957583
898.635038	0.959564
898.942827	0.960188
899.250576	0.962332
899.558284	0.965691
899.865952	0.966119
900.173579	0.967611
900.481165	0.967247
900.788711	0.971134
901.096216	0.972256
901.403681	0.972305
901.711105	0.974201
902.018489	0.973724
902.325832	0.973046
902.633135	0.973322
902.940397	0.968236
903.247619	0.959970
903.554800	0.940728
903.861941	0.913095
904.169041	0.888181
904.476101	0.875477
904.783121	0.874793
905.090100	0.886226
905.397039	0.902123
905.703938	0.916705
906.010796	0.930632
906.317614	0.944909
906.624391	0.952104
906.931129	0.959340
907.237826	0.965385
907.544483	0.970532
907.851099	0.973516
908.157675	0.976355
908.464211	0.979034
908.770707	0.982191
909.077163	0.982642
909.383578	0.982366
909.689954	0.982945
909.996289	0.983072
910.302584	0.985299
910.608839	0.986294
910.915054	0.985054
911.221229	0.985389
911.527363	0.985133
911.833458	0.984894
912.139513	0.984761
912.445527	0.982959
912.751502	0.981827
913.057436	0.980738
913.363331	0.979165
913.669186	0.976747
913.975000	0.972362
914.280775	0.968634
914.586510	0.964210
914.892205	0.954317
915.197859	0.939042
915.503475	0.917655
915.809050	0.903743
916.114585	0.900456
916.420081	0.898096
916.725536	0.895410
917.030952	0.899985
917.336328	0.909453
917.641665	0.920529
917.946961	0.932399
918.252218	0.941360
918.557435	0.947729
918.862612	0.954050
919.167750	0.959175
919.472848	0.961768
919.777906	0.966347
920.082925	0.971075
920.387904	0.973749
920.692843	0.973129
920.997743	0.974994
921.302603	0.977619
921.607423	0.978844
921.912204	0.980211
922.216946	0.980013
922.521647	0.981956
922.826310	0.982753
923.130932	0.984010
923.435516	0.984575
923.740059	0.985728
924.044564	0.986402
924.349028	0.987365
924.653454	0.990901
924.957840	0.991154
925.262186	0.990869
925.566493	0.989103
925.870761	0.990483
926.174989	0.992236
926.479178	0.992117
926.783328	0.993062
927.087438	0.993856
927.391509	0.992440
927.695541	0.994585
927.999533	0.994048
928.303486	0.995119
928.607400	0.994952
928.911275	0.994225
929.215110	0.995172
929.518906	0.995738
929.822663	0.994359
930.126381	0.995944
930.430060	0.993827
930.733699	0.995429
931.037299	0.994239
931.340861	0.994893
931.644383	0.995154
931.947866	0.993886
932.251309	0.995400
932.554714	0.994733
932.858080	0.995072
933.161407	0.993781
933.464694	0.996068
933.767943	0.993960
934.071153	0.996240
934.374323	0.995691
934.677455	0.996156
934.980548	0.994972
935.283602	0.993882
935.586617	0.994651
935.889593	0.995202
936.192530	0.994888
936.495428	0.995098
936.798287	0.995458
937.101108	0.994790
937.403890	0.993748
937.706632	0.993294
938.009336	0.992306
938.312002	0.992065
938.614628	0.990722
938.917216	0.988562
939.219765	0.986704
939.522275	0.989679
939.824747	0.989024
940.127179	0.988833
940.429573	0.990182
940.731929	0.989709
941.034246	0.990601
941.336524	0.991913
941.638763	0.991566
941.940964	0.992015
942.243126	0.991163
942.545250	0.991637
942.847335	0.993683
943.149381	0.993121
943.451389	0.992686
943.753359	0.993633
944.055290	0.993855
944.357182	0.994126
944.659036	0.992338
944.960851	0.993898
945.262628	0.994980
945.564367	0.994960
945.866067	0.994313
946.167729	0.995802
946.469352	0.993787
946.770937	0.992906
947.072484	0.994587
947.373992	0.993965
947.675462	0.995115
947.976893	0.993853
948.278286	0.994243
948.579641	0.995747
948.880958	0.994618
949.182236	0.994342
949.483476	0.994961
949.784678	0.994847
950.085841	0.995489
950.386967	0.994896
950.688054	0.993724
950.989103	0.994729
951.290114	0.993884
951.591087	0.994156
951.892021	0.994286
952.192917	0.993029
952.493776	0.992647
952.794596	0.991813
953.095378	0.991539
953.396122	0.992198
953.696828	0.992242
953.997496	0.994584
954.298126	0.995340
954.598718	0.994179
954.899272	0.995300
955.199788	0.994777
955.500266	0.995179
955.800706	0.997002
956.101108	0.996350
956.401472	0.997320
956.701798	0.997300
957.002087	0.996915
957.302337	0.996540
957.602550	0.997448
957.902724	0.998842
958.202861	0.997821
958.502960	0.998028
958.803022	0.996369
959.103045	0.998687
959.403031	0.997734
959.702979	0.998339
960.002889	0.998134
960.302762	0.996850
960.602596	0.998277
960.902393	0.996961
961.202153	0.998618
961.501875	0.999340
961.801559	0.997374
962.101205	0.998279
962.400814	0.998637
962.700385	0.998870
962.999918	0.998598
963.299414	0.998691
963.598873	0.997576
963.898293	0.998157
964.197677	0.998496
964.497022	0.998892
964.796331	0.999793
965.095601	0.998854
965.394835	0.997878
965.694030	0.999596
965.993189	0.998699
966.292309	0.998754
966.591393	1.000161
966.890439	0.999567
967.189447	0.998832
967.488419	0.999197
967.787353	0.999794
968.086249	0.999323
968.385108	0.999821
968.683930	1.000154
968.982714	0.999324
969.281462	0.999904
969.580172	0.998917
969.878844	0.999084
970.177480	0.999424
970.476078	0.999751
970.774639	0.999965
971.073162	0.999179
971.371649	0.998811
971.670098	0.997887
971.968510	1.000001
972.266885	0.997964
972.565223	0.998605
972.863524	0.998340
973.161788	0.998718
973.460014	0.999895
973.758204	0.997458
974.056356	0.998651
974.354471	0.997812
974.652550	0.998016
974.950591	0.998789
975.248595	0.998682
975.546563	0.999496
975.844493	0.999447
976.142386	0.999639
976.440243	0.999141
976.738062	0.999516
977.035845	0.999321
977.333590	0.999244
977.631299	1.000707
977.928971	0.998741
978.226606	0.998751
978.524204	0.996885
978.821765	1.000429
979.119290	0.998116
979.416777	0.999885
979.714228	0.998944
980.011642	0.998434
980.309020	0.999923
980.606360	0.998827
980.903664	0.999869
981.200931	0.996840
981.498162	0.996879
981.795356	0.996719
982.092513	0.995759
982.389633	0.997527
982.686717	0.994872
982.983764	0.995613
983.280775	0.993811
983.577749	0.993398
983.874686	0.994716
984.171587	0.994214
984.468451	0.997622
984.765279	0.997031
985.062070	0.996565
985.358824	0.997774
985.655543	0.996361
985.952224	0.997921
986.248869	0.997420
986.545478	0.999057
986.842050	0.999989
987.138586	0.998183
987.435086	0.998321
987.731549	0.999997
988.027975	0.999599
988.324366	0.999490
988.620719	0.998282
988.917037	0.998349
989.213318	0.999657
989.509563	1.000746
989.805772	0.999331
990.101944	0.999657
990.398080	0.998457
990.694180	0.999124
990.990244	0.998748
991.286271	0.999308
991.582262	0.999959
991.878217	0.998611
992.174136	0.999684
992.470019	1.000518
992.765865	0.999479
993.061676	0.999042
993.357450	1.000365
993.653188	0.998580
993.948890	0.999058
994.244556	1.000223
994.540186	0.999109
994.835780	0.998274
995.131337	0.999393
995.426859	0.998580
995.722345	0.999380
996.017795	0.998662
996.313208	0.997744
996.608586	0.997992
996.903928	0.998234
997.199234	0.997885
997.494504	0.998970
997.789738	0.999523
998.084936	0.998417
998.380099	0.999475
998.675225	0.999202
998.970316	0.999694
999.265371	0.999697
999.560390	0.998866
999.855373	0.999668
1000.150320	0.999698
1000.445232	0.999921
1000.740108	0.999788
1001.034948	0.998757
1001.329752	1.000842
1001.624521	0.999703
1001.919254	1.000565
1002.213951	0.998946
1002.508613	1.000138
1002.803239	1.000035
1003.097829	0.999736
1003.392384	0.998971
1003.686903	0.999355
1003.981386	0.999654
1004.275834	0.999964
1004.570246	0.999583
1004.864623	0.999522
1005.158964	0.999998
1005.453270	1.000022
1005.747540	0.998375
1006.041775	1.000461
1006.335974	0.999888
1006.630138	1.001054
1006.924266	1.000158
1007.218359	1.001773
1007.512416	1.000410
1007.806438	0.999862
1008.100425	1.000298
1008.394376	1.001085
1008.688292	0.999010
1008.982172	1.000989
1009.276017	1.000827
1009.569827	0.999899
1009.863602	0.999223
1010.157341	1.000676
1010.451045	1.000031
1010.744714	0.999745
1011.038347	1.000038
1011.331945	0.999825
1011.625508	0.998499
1011.919036	1.000412
1012.212528	1.000381
1012.505986	0.998722
1012.799408	0.999996
1013.092795	0.999896
1013.386147	0.999471
1013.679464	0.999107
1013.972745	0.997964
1014.265992	0.997836
1014.559204	0.999668
1014.852380	0.999090
1015.145521	1.000353
1015.438628	1.000111
1015.731699	0.999497
1016.024736	0.999339
1016.317737	0.999244
1016.610703	0.999887
1016.903635	1.000925
1017.196531	0.999345
1017.489393	1.000729
1017.782219	1.000552
1018.075011	0.999266
1018.367768	0.999281
1018.660490	1.000385
1018.953177	1.000385
1019.245829	1.000385
