Dividing Wavelength (nm)	Counts (n)	Blue Motor Position (mm): 0.000000	Red Motor Position (mm): 24.600000	
326.493990	1.001008
326.888308	1.001008
327.282561	1.001008
327.676750	0.999763
328.070874	0.999069
328.464933	1.000151
328.858929	0.999344
329.252859	0.999089
329.646726	1.000191
330.040528	0.999833
330.434265	0.999602
330.827938	1.001476
331.221547	1.000965
331.615091	1.000186
332.008571	1.000790
332.401986	1.000692
332.795338	1.000652
333.188625	0.999214
333.581847	1.001785
333.975006	1.000007
334.368100	0.999515
334.761129	0.999025
335.154095	1.000122
335.546996	0.998707
335.939833	0.993978
336.332606	0.994462
336.725315	0.995188
337.117960	0.996005
337.510540	0.994222
337.903056	0.995192
338.295508	0.994105
338.687896	0.994821
339.080220	0.993752
339.472480	0.995582
339.864676	0.994621
340.256807	0.995143
340.648875	0.995848
341.040879	0.994394
341.432818	0.995366
341.824694	0.995362
342.216506	0.994974
342.608253	0.996124
342.999937	0.995036
343.391557	0.994780
343.783113	0.995553
344.174605	0.996229
344.566033	0.996186
344.957397	0.993907
345.348697	0.995077
345.739934	0.995336
346.131106	0.994840
346.522215	0.993409
346.913260	0.995000
347.304241	0.993756
347.695159	0.995299
348.086012	0.994513
348.476802	0.995041
348.867528	0.995665
349.258191	0.993142
349.648789	0.995059
350.039324	0.995107
350.429796	0.995973
350.820203	0.994459
351.210548	0.995494
351.600828	0.994618
351.991045	0.995369
352.381198	0.993387
352.771288	0.995448
353.161314	0.994589
353.551276	0.995501
353.941175	0.995606
354.331010	0.993922
354.720782	0.995786
355.110490	0.994049
355.500135	0.996192
355.889717	0.994375
356.279235	0.994988
356.668689	0.993637
357.058080	0.995019
357.447408	0.996931
357.836672	0.995340
358.225873	0.994214
358.615010	0.995391
359.004084	0.995001
359.393095	0.995275
359.782043	0.995205
360.170927	0.995290
360.559748	0.996061
360.948505	0.994665
361.337199	0.994705
361.725830	0.994613
362.114398	0.995255
362.502903	0.995721
362.891344	0.995720
363.279722	0.994880
363.668037	0.995317
364.056289	0.995311
364.444478	0.995997
364.832603	0.994818
365.220665	0.994993
365.608665	0.994163
365.996601	0.994972
366.384474	0.995437
366.772284	0.994347
367.160031	0.994532
367.547715	0.994398
367.935336	0.995049
368.322893	0.995219
368.710388	0.994208
369.097820	0.995257
369.485189	0.995563
369.872495	0.993952
370.259738	0.993645
370.646918	0.996163
371.034035	0.994177
371.421090	0.994872
371.808081	0.994383
372.195010	0.995097
372.581875	0.995082
372.968678	0.995505
373.355418	0.996125
373.742096	0.994440
374.128710	0.995482
374.515262	0.995987
374.901751	0.995858
375.288177	0.995802
375.674540	0.996184
376.060841	0.994990
376.447079	0.995590
376.833254	0.995391
377.219367	0.995536
377.605417	0.996059
377.991404	0.996142
378.377329	0.994088
378.763191	0.994943
379.148991	0.995538
379.534727	0.996467
379.920402	0.995203
380.306013	0.996305
380.691563	0.996587
381.077049	0.995456
381.462474	0.995987
381.847835	0.996191
382.233134	0.995824
382.618371	0.995691
383.003545	0.996535
383.388657	0.995903
383.773706	0.996831
384.158693	0.995603
384.543618	0.996217
384.928480	0.996002
385.313280	0.996245
385.698017	0.996099
386.082692	0.997043
386.467305	0.996049
386.851856	0.995791
387.236344	0.995995
387.620770	0.995216
388.005133	0.997107
388.389435	0.997078
388.773674	0.996767
389.157851	0.996585
389.541965	0.996885
389.926018	0.996733
390.310008	0.997213
390.693936	0.996215
391.077802	0.996734
391.461606	0.997491
391.845348	0.995697
392.229027	0.997564
392.612645	0.996579
392.996200	0.997238
393.379694	0.996734
393.763125	0.997722
394.146494	0.996731
394.529801	0.997071
394.913047	0.996785
395.296230	0.997272
395.679351	0.996745
396.062410	0.995884
396.445408	0.996960
396.828343	0.996698
397.211217	0.997571
397.594028	0.996086
397.976778	0.996169
398.359466	0.995725
398.742092	0.996154
399.124656	0.996658
399.507158	0.996796
399.889598	0.996389
400.271977	0.997558
400.654294	0.997089
401.036549	0.997309
401.418742	0.997461
401.800874	0.995688
402.182944	0.996047
402.564952	0.996775
402.946898	0.996391
403.328783	0.996494
403.710606	0.996430
404.092367	0.997007
404.474067	0.997065
404.855705	0.996870
405.237282	0.996544
405.618797	0.996907
406.000250	0.996078
406.381642	0.997128
406.762972	0.996860
407.144240	0.997403
407.525447	0.997046
407.906593	0.996950
408.287677	0.997145
408.668700	0.997207
409.049661	0.996780
409.430560	0.996995
409.811399	0.996795
410.192176	0.996468
410.572891	0.995651
410.953545	0.996482
411.334138	0.996098
411.714669	0.996690
412.095139	0.996494
412.475547	0.997766
412.855894	0.997009
413.236180	0.996872
413.616405	0.997250
413.996568	0.997301
414.376670	0.996519
414.756711	0.996436
415.136691	0.996572
415.516609	0.997012
415.896466	0.996153
416.276262	0.995704
416.655997	0.997444
417.035670	0.996880
417.415283	0.996999
417.794834	0.995895
418.174324	0.995906
418.553753	0.997036
418.933121	0.996667
419.312428	0.996448
419.691674	0.996197
420.070859	0.997503
420.449983	0.996052
420.829045	0.996568
421.208047	0.997180
421.586988	0.997784
421.965867	0.996118
422.344686	0.997542
422.723444	0.996217
423.102141	0.996214
423.480777	0.996515
423.859352	0.996810
424.237866	0.995358
424.616319	0.995792
424.994712	0.996405
425.373044	0.997084
425.751314	0.996617
426.129524	0.996374
426.507673	0.997530
426.885762	0.996759
427.263789	0.996488
427.641756	0.995823
428.019662	0.997343
428.397508	0.995256
428.775292	0.994045
429.153016	0.994377
429.530679	0.995415
429.908282	0.996185
430.285824	0.994386
430.663305	0.993681
431.040726	0.992784
431.418086	0.994433
431.795385	0.992889
432.172624	0.991637
432.549802	0.991883
432.926920	0.990608
433.303977	0.989077
433.680974	0.989543
434.057910	0.987011
434.434786	0.986832
434.811601	0.984998
435.188355	0.982302
435.565050	0.981396
435.941683	0.980915
436.318257	0.979018
436.694770	0.976037
437.071222	0.974753
437.447614	0.972804
437.823946	0.971416
438.200218	0.968922
438.576429	0.966116
438.952580	0.963154
439.328670	0.959778
439.704700	0.957899
440.080670	0.955026
440.456580	0.950147
440.832429	0.946878
441.208218	0.945256
441.583947	0.941366
441.959616	0.937665
442.335224	0.933359
442.710773	0.929558
443.086261	0.922923
443.461689	0.921328
443.837057	0.916228
444.212365	0.910262
444.587612	0.906489
444.962800	0.898775
445.337927	0.894763
445.712995	0.893753
446.088002	0.881155
446.462949	0.876847
446.837837	0.871643
447.212664	0.865195
447.587431	0.855416
447.962139	0.840733
448.336786	0.822626
448.711374	0.820250
449.085901	0.825538
449.460369	0.820100
449.834776	0.812631
450.209124	0.798746
450.583412	0.787429
450.957640	0.780072
451.331808	0.774933
451.705917	0.775463
452.079965	0.768750
452.453954	0.755728
452.827883	0.751034
453.201752	0.741513
453.575562	0.738249
453.949311	0.724055
454.323001	0.719784
454.696632	0.709852
455.070202	0.697204
455.443713	0.685964
455.817164	0.675206
456.190556	0.664545
456.563888	0.654093
456.937160	0.644936
457.310373	0.646159
457.683526	0.637038
458.056619	0.631619
458.429653	0.623962
458.802628	0.617804
459.175542	0.607023
459.548398	0.588423
459.921194	0.576573
460.293930	0.569699
460.666607	0.546276
461.039224	0.532170
461.411782	0.522136
461.784280	0.512597
462.156719	0.507938
462.529099	0.502273
462.901419	0.505678
463.273680	0.501318
463.645882	0.494214
464.018024	0.490586
464.390106	0.478943
464.762130	0.461331
465.134094	0.443382
465.505999	0.415732
465.877845	0.388167
466.249631	0.371617
466.621358	0.368409
466.993026	0.371017
467.364634	0.368904
467.736184	0.370158
468.107674	0.372127
468.479105	0.365292
468.850477	0.367383
469.221790	0.367432
469.593043	0.371578
469.964238	0.371065
470.335373	0.365813
470.706449	0.360404
471.077467	0.357603
471.448425	0.319673
471.819324	0.294020
472.190164	0.290367
472.560945	0.313235
472.931667	0.330066
473.302330	0.331085
473.672934	0.339902
474.043479	0.325495
474.413965	0.324868
474.784393	0.325690
475.154761	0.318800
475.525070	0.313770
475.895321	0.317481
476.265513	0.310057
476.635645	0.303709
477.005719	0.301933
477.375734	0.297118
477.745691	0.289321
478.115588	0.284221
478.485427	0.276955
478.855207	0.263055
479.224928	0.244887
479.594591	0.232199
479.964194	0.234211
480.333739	0.234477
480.703226	0.234876
481.072653	0.232782
481.442022	0.227867
481.811333	0.223693
482.180584	0.226489
482.549777	0.231035
482.918912	0.234015
483.287988	0.233452
483.657005	0.232433
484.025964	0.238714
484.394864	0.235392
484.763706	0.235662
485.132489	0.240296
485.501213	0.240817
485.869879	0.238942
486.238487	0.241762
486.607036	0.239687
486.975527	0.243960
487.343959	0.239335
487.712333	0.238536
488.080648	0.239806
488.448905	0.238721
488.817104	0.239986
489.185244	0.234230
489.553326	0.231111
489.921350	0.220992
490.289315	0.203524
490.657222	0.198453
491.025070	0.199412
491.392861	0.201317
491.760593	0.206926
492.128267	0.212369
492.495883	0.217674
492.863440	0.224051
493.230939	0.230147
493.598380	0.231495
493.965763	0.233438
494.333088	0.235951
494.700354	0.237240
495.067563	0.236405
495.434713	0.239358
495.801805	0.237094
496.168839	0.238720
496.535815	0.239721
496.902733	0.239974
497.269593	0.241238
497.636395	0.239146
498.003139	0.239551
498.369825	0.242250
498.736453	0.238763
499.103023	0.240079
499.469535	0.239638
499.835989	0.239907
500.202385	0.240676
500.568723	0.243808
500.935003	0.239092
501.301226	0.242965
501.667390	0.237720
502.033497	0.235894
502.399546	0.238732
502.765537	0.240246
503.131470	0.238892
503.497345	0.235103
503.863163	0.243811
504.228923	0.236591
504.594625	0.235156
504.960269	0.240446
505.325856	0.236058
505.691385	0.240169
506.056856	0.236785
506.422270	0.236360
506.787625	0.238780
507.152924	0.236074
507.518164	0.236575
507.883347	0.238314
508.248472	0.239954
508.613540	0.234914
508.978550	0.237640
509.343503	0.237947
509.708398	0.235614
510.073236	0.233358
510.438016	0.233382
510.802738	0.234179
511.167403	0.233153
511.532010	0.234955
511.896561	0.230497
512.261053	0.229286
512.625488	0.231365
512.989866	0.231611
513.354186	0.231980
513.718449	0.233649
514.082655	0.230220
514.446803	0.232522
514.810894	0.230122
515.174927	0.232651
515.538904	0.231979
515.902822	0.228949
516.266684	0.231506
516.630488	0.232855
516.994235	0.231472
517.357925	0.230260
517.721558	0.228621
518.085133	0.227923
518.448651	0.228139
518.812112	0.230321
519.175516	0.229841
519.538863	0.227598
519.902152	0.228999
520.265385	0.226175
520.628560	0.227873
520.991678	0.228482
521.354739	0.227017
521.717743	0.228107
522.080690	0.228690
522.443580	0.225938
522.806413	0.227034
523.169189	0.226278
523.531908	0.225230
523.894569	0.228613
524.257174	0.228820
524.619722	0.226438
524.982213	0.227619
525.344647	0.226549
525.707025	0.227387
526.069345	0.225509
526.431608	0.227298
526.793815	0.224967
527.155964	0.229303
527.518057	0.228173
527.880093	0.229168
528.242072	0.227844
528.603995	0.229652
528.965860	0.231466
529.327669	0.230199
529.689421	0.230982
530.051117	0.232208
530.412755	0.229593
530.774337	0.232197
531.135862	0.232125
531.497331	0.231582
531.858743	0.234551
532.220098	0.231228
532.581396	0.234028
532.942638	0.234336
533.303824	0.235158
533.664953	0.234805
534.026025	0.236881
534.387040	0.234666
534.747999	0.234705
535.108902	0.233502
535.469748	0.238698
535.830537	0.236425
536.191270	0.236810
536.551947	0.236131
536.912567	0.236347
537.273131	0.238043
537.633638	0.238167
537.994089	0.238530
538.354483	0.239867
538.714821	0.236766
539.075103	0.236376
539.435328	0.237360
539.795497	0.240699
540.155609	0.237519
540.515665	0.235862
540.875665	0.241207
541.235609	0.239917
541.595496	0.240105
541.955328	0.236279
542.315102	0.239304
542.674821	0.240064
543.034483	0.240071
543.394090	0.240319
543.753640	0.241961
544.113134	0.236780
544.472571	0.240005
544.831953	0.237294
545.191278	0.241127
545.550548	0.240751
545.909761	0.237756
546.268918	0.238317
546.628019	0.236448
546.987064	0.239042
547.346053	0.240930
547.704986	0.238690
548.063863	0.239361
548.422684	0.239204
548.781449	0.241378
549.140158	0.238679
549.498811	0.241658
549.857408	0.244876
550.215949	0.239798
550.574434	0.242612
550.932864	0.240605
551.291237	0.239186
551.649555	0.240704
552.007817	0.240399
552.366022	0.241227
552.724173	0.241531
553.082267	0.241792
553.440305	0.238765
553.798288	0.243371
554.156215	0.239736
554.514086	0.240350
554.871902	0.243212
555.229661	0.242725
555.587365	0.243298
555.945014	0.245970
556.302606	0.242808
556.660143	0.245248
557.017625	0.241492
557.375050	0.244090
557.732421	0.241308
558.089735	0.243051
558.446994	0.242955
558.804197	0.242056
559.161345	0.242301
559.518437	0.245790
559.875474	0.243528
560.232455	0.242905
560.589381	0.243813
560.946251	0.243904
561.303065	0.241769
561.659825	0.243140
562.016528	0.244736
562.373177	0.247588
562.729770	0.244588
563.086307	0.247047
563.442789	0.244581
563.799216	0.247346
564.155587	0.246261
564.511904	0.247315
564.868164	0.247850
565.224370	0.247299
565.580520	0.249081
565.936615	0.248732
566.292654	0.252036
566.648638	0.249114
567.004567	0.249857
567.360441	0.250517
567.716260	0.252641
568.072023	0.250132
568.427732	0.250706
568.783385	0.253513
569.138982	0.251525
569.494525	0.251257
569.850013	0.254110
570.205445	0.252607
570.560823	0.255063
570.916145	0.256928
571.271412	0.255076
571.626625	0.256435
571.981782	0.257260
572.336884	0.258121
572.691931	0.257742
573.046923	0.259155
573.401860	0.260250
573.756743	0.262059
574.111570	0.260685
574.466342	0.261259
574.821059	0.260437
575.175722	0.263394
575.530330	0.263236
575.884882	0.263193
576.239380	0.265073
576.593823	0.265696
576.948211	0.265277
577.302544	0.268410
577.656823	0.268017
578.011047	0.268427
578.365216	0.268851
578.719330	0.270772
579.073389	0.270646
579.427394	0.271913
579.781344	0.272602
580.135239	0.274403
580.489080	0.273945
580.842866	0.276687
581.196597	0.276499
581.550273	0.275374
581.903895	0.276394
582.257463	0.274370
582.610975	0.277966
582.964434	0.277317
583.317837	0.279965
583.671186	0.279910
584.024481	0.280147
584.377721	0.282348
584.730906	0.283106
585.084037	0.282361
585.437113	0.284550
585.790135	0.283680
586.143103	0.286954
586.496016	0.287664
586.848874	0.285101
587.201679	0.285936
587.554428	0.289466
587.907124	0.288019
588.259765	0.288852
588.612352	0.289160
588.964884	0.293109
589.317362	0.292692
589.669786	0.292499
590.022155	0.291307
590.374470	0.290329
590.726731	0.292673
591.078937	0.297363
591.431090	0.293377
591.783188	0.297608
592.135232	0.298084
592.487222	0.298162
592.839157	0.296589
593.191038	0.298979
593.542866	0.300484
593.894639	0.304204
594.246358	0.302242
594.598022	0.301450
594.949633	0.305203
595.301190	0.305936
595.652692	0.305374
596.004141	0.301446
596.355535	0.309388
596.706876	0.309610
597.058162	0.312136
597.409395	0.309355
597.760573	0.307354
598.111698	0.310757
598.462768	0.311016
598.813785	0.312043
599.164748	0.313537
599.515657	0.313918
599.866511	0.317354
600.217312	0.312291
600.568060	0.317849
600.918753	0.314149
601.269392	0.315106
601.619978	0.318350
601.970510	0.316156
602.320988	0.315953
602.671412	0.314072
603.021783	0.316229
603.372100	0.317858
603.722363	0.317181
604.072572	0.318200
604.422728	0.318061
604.772830	0.319940
605.122878	0.319871
605.472872	0.320072
605.822813	0.318477
606.172701	0.321085
606.522534	0.318547
606.872314	0.318493
607.222041	0.319561
607.571714	0.317912
607.921333	0.319088
608.270899	0.318590
608.620411	0.315234
608.969870	0.319287
609.319276	0.319550
609.668627	0.319508
610.017926	0.318067
610.367171	0.316589
610.716362	0.317213
611.065500	0.317389
611.414585	0.316503
611.763616	0.317109
612.112594	0.316877
612.461518	0.316669
612.810389	0.314440
613.159207	0.316719
613.507971	0.318393
613.856682	0.314304
614.205340	0.315812
614.553945	0.312472
614.902496	0.316531
615.250994	0.314244
615.599439	0.315160
615.947830	0.314432
616.296169	0.315660
616.644454	0.315320
616.992686	0.315501
617.340864	0.313144
617.688990	0.316457
618.037063	0.313232
618.385082	0.314864
618.733048	0.311984
619.080961	0.314107
619.428821	0.313643
619.776628	0.313110
620.124382	0.315364
620.472083	0.315427
620.819731	0.314750
621.167326	0.318683
621.514868	0.318269
621.862357	0.323063
622.209793	0.322320
622.557176	0.324716
622.904506	0.325819
623.251783	0.327593
623.599007	0.330292
623.946179	0.329812
624.293297	0.331677
624.640363	0.335496
624.987376	0.336091
625.334336	0.338840
625.681243	0.341071
626.028097	0.341464
626.374899	0.343197
626.721647	0.343303
627.068343	0.345893
627.414987	0.347311
627.761577	0.349539
628.108115	0.347738
628.454600	0.353129
628.801032	0.349796
629.147412	0.352201
629.493739	0.352479
629.840014	0.355449
630.186236	0.352869
630.532405	0.358935
630.878521	0.355951
631.224585	0.358052
631.570597	0.361874
631.916556	0.359880
632.262462	0.360122
632.608316	0.362391
632.954117	0.363324
633.299866	0.363858
633.645562	0.364512
633.991206	0.368768
634.336797	0.371640
634.682336	0.373962
635.027823	0.375757
635.373257	0.376491
635.718639	0.379606
636.063968	0.379352
636.409245	0.384605
636.754470	0.384912
637.099642	0.387563
637.444762	0.390427
637.789829	0.390029
638.134845	0.393523
638.479808	0.394315
638.824719	0.394340
639.169577	0.398294
639.514383	0.397018
639.859137	0.401334
640.203839	0.401189
640.548489	0.401426
640.893086	0.402797
641.237632	0.404691
641.582125	0.402914
641.926566	0.404791
642.270955	0.404751
642.615292	0.405408
642.959576	0.404305
643.303809	0.405215
643.647990	0.404721
643.992118	0.405008
644.336195	0.408711
644.680219	0.406709
645.024192	0.407734
645.368112	0.400550
645.711981	0.400177
646.055797	0.395181
646.399562	0.398181
646.743274	0.389779
647.086935	0.387406
647.430544	0.387523
647.774101	0.386501
648.117606	0.385564
648.461059	0.386424
648.804460	0.388932
649.147810	0.394045
649.491108	0.395893
649.834354	0.397273
650.177548	0.402838
650.520690	0.408031
650.863781	0.409347
651.206820	0.408665
651.549807	0.413191
651.892742	0.417063
652.235626	0.416580
652.578458	0.417208
652.921238	0.423702
653.263967	0.421395
653.606644	0.425453
653.949269	0.425134
654.291843	0.428993
654.634365	0.425612
654.976836	0.428883
655.319255	0.429323
655.661622	0.430877
656.003938	0.430362
656.346203	0.433811
656.688416	0.431803
657.030577	0.434441
657.372687	0.436748
657.714746	0.437686
658.056753	0.435051
658.398708	0.438123
658.740612	0.440031
659.082465	0.435835
659.424266	0.436474
659.766016	0.435712
660.107715	0.438724
660.449362	0.437373
660.790958	0.438124
661.132503	0.438665
661.473996	0.436030
661.815438	0.437035
662.156829	0.437006
662.498168	0.438197
662.839456	0.439439
663.180693	0.437094
663.521879	0.436723
663.863013	0.437997
664.204097	0.436640
664.545129	0.433649
664.886110	0.433952
665.227040	0.431060
665.567918	0.433410
665.908746	0.432047
666.249522	0.431270
666.590248	0.432455
666.930922	0.430371
667.271545	0.429490
667.612118	0.429437
667.952639	0.431874
668.293109	0.429730
668.633528	0.433071
668.973896	0.432951
669.314213	0.433047
669.654480	0.434805
669.994695	0.434831
670.334859	0.435853
670.674973	0.435769
671.015035	0.436053
671.355047	0.436327
671.695008	0.437311
672.034918	0.439178
672.374777	0.438465
672.714585	0.439588
673.054342	0.439406
673.394049	0.439678
673.733705	0.436777
674.073310	0.438510
674.412864	0.441302
674.752368	0.441953
675.091820	0.441451
675.431223	0.446833
675.770574	0.446582
676.109875	0.449301
676.449125	0.449141
676.788324	0.451792
677.127473	0.456289
677.466571	0.456521
677.805619	0.458495
678.144616	0.459546
678.483562	0.461369
678.822458	0.464056
679.161303	0.464763
679.500098	0.465067
679.838842	0.467232
680.177535	0.465778
680.516179	0.465295
680.854771	0.463864
681.193314	0.457264
681.531805	0.448651
681.870247	0.437112
682.208638	0.429508
682.546978	0.428144
682.885268	0.430702
683.223508	0.436853
683.561697	0.440559
683.899836	0.443038
684.237925	0.446458
684.575963	0.448873
684.913951	0.452366
685.251889	0.447571
685.589776	0.450064
685.927614	0.452402
686.265401	0.446376
686.603137	0.447694
686.940824	0.442082
687.278460	0.440300
687.616046	0.439704
687.953582	0.434411
688.291068	0.436266
688.628504	0.431335
688.965889	0.433979
689.303224	0.437936
689.640510	0.441919
689.977745	0.447448
690.314930	0.455319
690.652065	0.459500
690.989150	0.467373
691.326185	0.473730
691.663170	0.478207
692.000105	0.485437
692.336990	0.493162
692.673825	0.494872
693.010610	0.502040
693.347345	0.507415
693.684030	0.509019
694.020665	0.513679
694.357251	0.522496
694.693786	0.522478
695.030272	0.526434
695.366707	0.529449
695.703093	0.533271
696.039429	0.530830
696.375716	0.532610
696.711952	0.535304
697.048139	0.537323
697.384276	0.538995
697.720363	0.537733
698.056400	0.536637
698.392388	0.541924
698.728326	0.544919
699.064214	0.548167
699.400053	0.548117
699.735842	0.552243
700.071581	0.554888
700.407270	0.558155
700.742910	0.560369
701.078501	0.567249
701.414042	0.567397
701.749533	0.570262
702.084974	0.578499
702.420366	0.571355
702.755709	0.578935
703.091002	0.586834
703.426246	0.579661
703.761440	0.586460
704.096584	0.591468
704.431679	0.588302
704.766725	0.589623
705.101721	0.592625
705.436668	0.587872
705.771565	0.595185
706.106413	0.591796
706.441212	0.586581
706.775961	0.584866
707.110661	0.588215
707.445311	0.584649
707.779913	0.581700
708.114465	0.580392
708.448967	0.577117
708.783421	0.568479
709.117825	0.563632
709.452180	0.564084
709.786485	0.557902
710.120742	0.547301
710.454949	0.549875
710.789107	0.542121
711.123216	0.533204
711.457275	0.534987
711.791286	0.525170
712.125247	0.524473
712.459159	0.535356
712.793023	0.527633
713.126837	0.531533
713.460602	0.532256
713.794318	0.541869
714.127985	0.540593
714.461602	0.550825
714.795171	0.553455
715.128691	0.561561
715.462162	0.568890
715.795584	0.573793
716.128957	0.577686
716.462281	0.583645
716.795556	0.587365
717.128782	0.592074
717.461960	0.602378
717.795088	0.599844
718.128167	0.605762
718.461198	0.615450
718.794180	0.615789
719.127113	0.618531
719.459997	0.622309
719.792833	0.628127
720.125619	0.629857
720.458357	0.635631
720.791046	0.635163
721.123686	0.638588
721.456278	0.645520
721.788821	0.642750
722.121315	0.646531
722.453761	0.651152
722.786158	0.648404
723.118506	0.645417
723.450805	0.653569
723.783056	0.649301
724.115259	0.646777
724.447412	0.646560
724.779518	0.647531
725.111574	0.646823
725.443582	0.641489
725.775542	0.643894
726.107453	0.636398
726.439315	0.636120
726.771129	0.634690
727.102895	0.627702
727.434612	0.620444
727.766281	0.618811
728.097901	0.618395
728.429473	0.618193
728.760996	0.616342
729.092471	0.617047
729.423897	0.619867
729.755276	0.619160
730.086606	0.619768
730.417887	0.613889
730.749120	0.604042
731.080305	0.595295
731.411442	0.591855
731.742530	0.596719
732.073570	0.595858
732.404562	0.587824
732.735506	0.589261
733.066401	0.594028
733.397249	0.603342
733.728048	0.614703
734.058798	0.627033
734.389501	0.637595
734.720156	0.647939
735.050762	0.655517
735.381320	0.656420
735.711831	0.665502
736.042293	0.670191
736.372707	0.666483
736.703073	0.670330
737.033391	0.673249
737.363661	0.669720
737.693883	0.665268
738.024056	0.664455
738.354182	0.664516
738.684260	0.653833
739.014290	0.650246
739.344272	0.651074
739.674207	0.644317
740.004093	0.643843
740.333931	0.643939
740.663722	0.643608
740.993464	0.644922
741.323159	0.649249
741.652806	0.653409
741.982405	0.658601
742.311956	0.662709
742.641460	0.665206
742.970915	0.668125
743.300323	0.676450
743.629683	0.682615
743.958996	0.684515
744.288260	0.688308
744.617477	0.695643
744.946647	0.696187
745.275768	0.701446
745.604842	0.701234
745.933869	0.712590
746.262847	0.712475
746.591778	0.705996
746.920662	0.712236
747.249498	0.718327
747.578286	0.709158
747.907027	0.705759
748.235720	0.706818
748.564365	0.702128
748.892963	0.701750
749.221514	0.703946
749.550017	0.708909
749.878473	0.708622
750.206881	0.715680
750.535242	0.716768
750.863555	0.716153
751.191821	0.717242
751.520039	0.719836
751.848210	0.726182
752.176334	0.717925
752.504411	0.717124
752.832440	0.725629
753.160421	0.729156
753.488356	0.726867
753.816243	0.724691
754.144082	0.732970
754.471875	0.736749
754.799620	0.731580
755.127318	0.733165
755.454969	0.733828
755.782572	0.732164
756.110129	0.737901
756.437638	0.740643
756.765100	0.736369
757.092515	0.735208
757.419882	0.734094
757.747203	0.739315
758.074477	0.737811
758.401703	0.735634
758.728882	0.730435
759.056014	0.729471
759.383099	0.728267
759.710138	0.729876
760.037129	0.726263
760.364073	0.719724
760.690970	0.722645
761.017820	0.728726
761.344623	0.724312
761.671379	0.715188
761.998088	0.703091
762.324751	0.681167
762.651366	0.639166
762.977935	0.572696
763.304456	0.520506
763.630931	0.510956
763.957359	0.549414
764.283740	0.594880
764.610074	0.621514
764.936362	0.651424
765.262602	0.678413
765.588796	0.699958
765.914943	0.718370
766.241044	0.735401
766.567097	0.742714
766.893104	0.751571
767.219064	0.758530
767.544978	0.764911
767.870845	0.778960
768.196665	0.781899
768.522438	0.780356
768.848165	0.781581
769.173846	0.791112
769.499479	0.794463
769.825066	0.797536
770.150607	0.803346
770.476101	0.799162
770.801548	0.800009
771.126949	0.811098
771.452303	0.815228
771.777611	0.813763
772.102872	0.813112
772.428087	0.818241
772.753256	0.822017
773.078378	0.823494
773.403453	0.832533
773.728482	0.836217
774.053465	0.830370
774.378401	0.835160
774.703291	0.842560
775.028135	0.841609
775.352932	0.844145
775.677683	0.846475
776.002388	0.846629
776.327046	0.846000
776.651658	0.850004
776.976224	0.852616
777.300743	0.853424
777.625216	0.854970
777.949643	0.857647
778.274024	0.857550
778.598359	0.859072
778.922647	0.857131
779.246889	0.858628
779.571086	0.861951
779.895236	0.864083
780.219339	0.862111
780.543397	0.858723
780.867409	0.856789
781.191374	0.859214
781.515294	0.860980
781.839167	0.860032
782.162995	0.863423
782.486776	0.859997
782.810511	0.861293
783.134201	0.863700
783.457844	0.861233
783.781441	0.865343
784.104993	0.870621
784.428498	0.871147
784.751958	0.867298
785.075372	0.868985
785.398739	0.872337
785.722061	0.869654
786.045337	0.864511
786.368568	0.870031
786.691752	0.873133
787.014891	0.857545
787.337983	0.848348
787.661030	0.842179
787.984031	0.824049
788.306987	0.811275
788.629897	0.813145
788.952760	0.817803
789.275579	0.821586
789.598351	0.835933
789.921078	0.850583
790.243759	0.853224
790.566395	0.857078
790.888984	0.863525
791.211529	0.868668
791.534027	0.873393
791.856480	0.874469
792.178888	0.879414
792.501249	0.881630
792.823566	0.883504
793.145836	0.882602
793.468062	0.885296
793.790241	0.886099
794.112375	0.883535
794.434464	0.878913
794.756507	0.878454
795.078505	0.877880
795.400457	0.871739
795.722364	0.861899
796.044226	0.853494
796.366042	0.853237
796.687812	0.856390
797.009538	0.852273
797.331218	0.854479
797.652852	0.860380
797.974442	0.864744
798.295986	0.864364
798.617484	0.866880
798.938938	0.871464
799.260346	0.876158
799.581709	0.877567
799.903026	0.880952
800.224299	0.880988
800.545526	0.885678
800.866708	0.889810
801.187845	0.893022
801.508936	0.891825
801.829983	0.891193
802.150984	0.893152
802.471940	0.898168
802.792851	0.898484
803.113717	0.898053
803.434538	0.896543
803.755314	0.899217
804.076045	0.901399
804.396731	0.901434
804.717372	0.901078
805.037967	0.901714
805.358518	0.899619
805.679024	0.897385
805.999485	0.897046
806.319901	0.897689
806.640272	0.898607
806.960598	0.896880
807.280879	0.894116
807.601115	0.892527
807.921306	0.897442
808.241453	0.896893
808.561554	0.893573
808.881611	0.894548
809.201623	0.896212
809.521590	0.896063
809.841513	0.897726
810.161390	0.897300
810.481223	0.898659
810.801011	0.903006
811.120755	0.903318
811.440453	0.902960
811.760107	0.901158
812.079716	0.901074
812.399281	0.904223
812.718801	0.907585
813.038276	0.907703
813.357707	0.907596
813.677093	0.904061
813.996434	0.907798
814.315731	0.908545
814.634983	0.910571
814.954191	0.908654
815.273354	0.904898
815.592473	0.902268
815.911547	0.901694
816.230577	0.899430
816.549562	0.896541
816.868502	0.898731
817.187399	0.893463
817.506250	0.889451
817.825058	0.891332
818.143821	0.886377
818.462539	0.882108
818.781213	0.873881
819.099843	0.862622
819.418429	0.847447
819.736970	0.830278
820.055466	0.811526
820.373919	0.786035
820.692327	0.752529
821.010691	0.718462
821.329011	0.641514
821.647286	0.526374
821.965517	0.413027
822.283704	0.370650
822.601847	0.372139
822.919945	0.407605
823.237999	0.440828
823.556010	0.487850
823.873976	0.543012
824.191897	0.593181
824.509775	0.635933
824.827609	0.680972
825.145398	0.703442
825.463144	0.706635
825.780845	0.689984
826.098502	0.671354
826.416116	0.625452
826.733685	0.581504
827.051210	0.573353
827.368692	0.587151
827.686129	0.624383
828.003522	0.677298
828.320872	0.724620
828.638177	0.767509
828.955439	0.802287
829.272656	0.823405
829.589830	0.839292
829.906960	0.855845
830.224046	0.867991
830.541088	0.878194
830.858086	0.882231
831.175041	0.889002
831.491952	0.886921
831.808819	0.883890
832.125642	0.878258
832.442421	0.862977
832.759157	0.841428
833.075849	0.796597
833.392497	0.731861
833.709101	0.691581
834.025662	0.700518
834.342179	0.732705
834.658653	0.770376
834.975083	0.806773
835.291469	0.832686
835.607811	0.856107
835.924110	0.871652
836.240366	0.888932
836.556578	0.901899
836.872746	0.909040
837.188871	0.915870
837.504952	0.920560
837.820990	0.924969
838.136984	0.927768
838.452935	0.930644
838.768842	0.933028
839.084706	0.925456
839.400526	0.899999
839.716303	0.860376
840.032037	0.837615
840.347727	0.841095
840.663373	0.859015
840.978977	0.881830
841.294537	0.902829
841.610054	0.919332
841.925527	0.927968
842.240957	0.933712
842.556344	0.940713
842.871687	0.946980
843.186987	0.950026
843.502244	0.951130
843.817458	0.952527
844.132629	0.955274
844.447756	0.960218
844.762840	0.961070
845.077881	0.960963
845.392879	0.961383
845.707833	0.962323
846.022745	0.965384
846.337613	0.965098
846.652438	0.967184
846.967221	0.964426
847.281960	0.965679
847.596656	0.967764
847.911309	0.966437
848.225919	0.967353
848.540485	0.968826
848.855009	0.969659
849.169490	0.968807
849.483928	0.969287
849.798323	0.969391
850.112675	0.969793
850.426984	0.969615
850.741251	0.970639
851.055474	0.970586
851.369654	0.968478
851.683792	0.970028
851.997887	0.970695
852.311938	0.971226
852.625947	0.970470
852.939914	0.968585
853.253837	0.969306
853.567718	0.971813
853.881555	0.970939
854.195350	0.968908
854.509103	0.970628
854.822812	0.970264
855.136479	0.970091
855.450103	0.971111
855.763685	0.968867
856.077224	0.969840
856.390720	0.970270
856.704173	0.971574
857.017584	0.968656
857.330953	0.968001
857.644278	0.968814
857.957561	0.969640
858.270802	0.968975
858.584000	0.968216
858.897155	0.965705
859.210268	0.968440
859.523339	0.968407
859.836367	0.969995
860.149352	0.972069
860.462295	0.969499
860.775195	0.971523
861.088054	0.969321
861.400869	0.970137
861.713642	0.971219
862.026373	0.971538
862.339062	0.971549
862.651708	0.968344
862.964312	0.968330
863.276873	0.971208
863.589392	0.968486
863.901869	0.966930
864.214303	0.965384
864.526696	0.965109
864.839045	0.963703
865.151353	0.962635
865.463619	0.961940
865.775842	0.963152
866.088023	0.963265
866.400162	0.963361
866.712258	0.962573
867.024313	0.963197
867.336325	0.963140
867.648296	0.964358
867.960224	0.963671
868.272110	0.961834
868.583954	0.965006
868.895755	0.964982
869.207515	0.962125
869.519233	0.960618
869.830909	0.962540
870.142542	0.962883
870.454134	0.963472
870.765684	0.961167
871.077191	0.958281
871.388657	0.959091
871.700081	0.958523
872.011463	0.958819
872.322803	0.958890
872.634101	0.958030
872.945357	0.955440
873.256571	0.954525
873.567744	0.952688
873.878874	0.954329
874.189963	0.952335
874.501010	0.951652
874.812015	0.949477
875.122979	0.952338
875.433900	0.953529
875.744780	0.953835
876.055618	0.952473
876.366415	0.951717
876.677169	0.950121
876.987882	0.953555
877.298554	0.950510
877.609183	0.948353
877.919771	0.945653
878.230317	0.943761
878.540822	0.940229
878.851285	0.935604
879.161707	0.928517
879.472087	0.917286
879.782425	0.901134
880.092722	0.866168
880.402977	0.814640
880.713191	0.754978
881.023363	0.696560
881.333494	0.662874
881.643583	0.635324
881.953631	0.634227
882.263637	0.663249
882.573602	0.702813
882.883526	0.728248
883.193408	0.751393
883.503248	0.773350
883.813048	0.800655
884.122806	0.830570
884.432522	0.852696
884.742197	0.872393
885.051831	0.883199
885.361424	0.892826
885.670975	0.905194
885.980485	0.914054
886.289954	0.921342
886.599382	0.926000
886.908768	0.930230
887.218113	0.935611
887.527417	0.939325
887.836680	0.942196
888.145901	0.945340
888.455082	0.947953
888.764221	0.951257
889.073319	0.952845
889.382376	0.954184
889.691392	0.954808
890.000366	0.952869
890.309300	0.954587
890.618193	0.953866
890.927044	0.951448
891.235855	0.952092
891.544625	0.952367
891.853353	0.952506
892.162041	0.949603
892.470687	0.944179
892.779293	0.939006
893.087858	0.935016
893.396381	0.927498
893.704864	0.913814
894.013306	0.891268
894.321707	0.864752
894.630068	0.849836
894.938387	0.845744
895.246665	0.846516
895.554903	0.858869
895.863100	0.871837
896.171256	0.888375
896.479371	0.908084
896.787446	0.921086
897.095480	0.926097
897.403473	0.929988
897.711425	0.932485
898.019336	0.941287
898.327207	0.943331
898.635038	0.946505
898.942827	0.945560
899.250576	0.950005
899.558284	0.953133
899.865952	0.954775
900.173579	0.957074
900.481165	0.957457
900.788711	0.961018
901.096216	0.961387
901.403681	0.962708
901.711105	0.963802
902.018489	0.964978
902.325832	0.962767
902.633135	0.961980
902.940397	0.956572
903.247619	0.944966
903.554800	0.918706
903.861941	0.881037
904.169041	0.845733
904.476101	0.828803
904.783121	0.829191
905.090100	0.845867
905.397039	0.867076
905.703938	0.888278
906.010796	0.907454
906.317614	0.924160
906.624391	0.936413
906.931129	0.944732
907.237826	0.953085
907.544483	0.960390
907.851099	0.963103
908.157675	0.968817
908.464211	0.971285
908.770707	0.972449
909.077163	0.975123
909.383578	0.975541
909.689954	0.975574
909.996289	0.976844
910.302584	0.977827
910.608839	0.980793
910.915054	0.978382
911.221229	0.978979
911.527363	0.977650
911.833458	0.977611
912.139513	0.978189
912.445527	0.975882
912.751502	0.974000
913.057436	0.973362
913.363331	0.971407
913.669186	0.967149
913.975000	0.961414
914.280775	0.956505
914.586510	0.950175
914.892205	0.935870
915.197859	0.915588
915.503475	0.888839
915.809050	0.869567
916.114585	0.864488
916.420081	0.862474
916.725536	0.858222
917.030952	0.866070
917.336328	0.878875
917.641665	0.893906
917.946961	0.909375
918.252218	0.921056
918.557435	0.930455
918.862612	0.938245
919.167750	0.943273
919.472848	0.947875
919.777906	0.953297
920.082925	0.959832
920.387904	0.962601
920.692843	0.964763
920.997743	0.964352
921.302603	0.968264
921.607423	0.968981
921.912204	0.971763
922.216946	0.972223
922.521647	0.974959
922.826310	0.975847
923.130932	0.977354
923.435516	0.978429
923.740059	0.979777
924.044564	0.979645
924.349028	0.981357
924.653454	0.984056
924.957840	0.985128
925.262186	0.984247
925.566493	0.984696
925.870761	0.985080
926.174989	0.986940
926.479178	0.988565
926.783328	0.988929
927.087438	0.989586
927.391509	0.988017
927.695541	0.991884
927.999533	0.988463
928.303486	0.989699
928.607400	0.990829
928.911275	0.990064
929.215110	0.989816
929.518906	0.992005
929.822663	0.990608
930.126381	0.990672
930.430060	0.991497
930.733699	0.990219
931.037299	0.990606
931.340861	0.990304
931.644383	0.990361
931.947866	0.990021
932.251309	0.991129
932.554714	0.990224
932.858080	0.991030
933.161407	0.990447
933.464694	0.991665
933.767943	0.990096
934.071153	0.991450
934.374323	0.993398
934.677455	0.992031
934.980548	0.991954
935.283602	0.991195
935.586617	0.992034
935.889593	0.990917
936.192530	0.992603
936.495428	0.991941
936.798287	0.991322
937.101108	0.990686
937.403890	0.989669
937.706632	0.988773
938.009336	0.987134
938.312002	0.987250
938.614628	0.984992
938.917216	0.984243
939.219765	0.981827
939.522275	0.984310
939.824747	0.981964
940.127179	0.983631
940.429573	0.984844
940.731929	0.985274
941.034246	0.985354
941.336524	0.985972
941.638763	0.985999
941.940964	0.987075
942.243126	0.987521
942.545250	0.987921
942.847335	0.988888
943.149381	0.989671
943.451389	0.988619
943.753359	0.989074
944.055290	0.991437
944.357182	0.989896
944.659036	0.989481
944.960851	0.989715
945.262628	0.989995
945.564367	0.989983
945.866067	0.990138
946.167729	0.990550
946.469352	0.990672
946.770937	0.988486
947.072484	0.991990
947.373992	0.989972
947.675462	0.990300
947.976893	0.990328
948.278286	0.991424
948.579641	0.992704
948.880958	0.991328
949.182236	0.991450
949.483476	0.992771
949.784678	0.990839
950.085841	0.990171
950.386967	0.991686
950.688054	0.990961
950.989103	0.990758
951.290114	0.990124
951.591087	0.989846
951.892021	0.990040
952.192917	0.989300
952.493776	0.988743
952.794596	0.988114
953.095378	0.988201
953.396122	0.987957
953.696828	0.988351
953.997496	0.989346
954.298126	0.992569
954.598718	0.990196
954.899272	0.991392
955.199788	0.990071
955.500266	0.992423
955.800706	0.993573
956.101108	0.993501
956.401472	0.994695
956.701798	0.994489
957.002087	0.993823
957.302337	0.994169
957.602550	0.994976
957.902724	0.994702
958.202861	0.995913
958.502960	0.996259
958.803022	0.994352
959.103045	0.995048
959.403031	0.996130
959.702979	0.995651
960.002889	0.995492
960.302762	0.995154
960.602596	0.995873
960.902393	0.994841
961.202153	0.997312
961.501875	0.997949
961.801559	0.996775
962.101205	0.995801
962.400814	0.996764
962.700385	0.996813
962.999918	0.996645
963.299414	0.996126
963.598873	0.995444
963.898293	0.996624
964.197677	0.994835
964.497022	0.995895
964.796331	0.999103
965.095601	0.997720
965.394835	0.997200
965.694030	0.997197
965.993189	0.997768
966.292309	0.997298
966.591393	0.998837
966.890439	0.997970
967.189447	0.997270
967.488419	0.997383
967.787353	0.996941
968.086249	0.997337
968.385108	0.997632
968.683930	0.998214
968.982714	0.997683
969.281462	0.999044
969.580172	0.996303
969.878844	0.997095
970.177480	0.997616
970.476078	0.997008
970.774639	0.997285
971.073162	0.997329
971.371649	0.996539
971.670098	0.997981
971.968510	0.998154
972.266885	0.995092
972.565223	0.997430
972.863524	0.996109
973.161788	0.996100
973.460014	0.998197
973.758204	0.995841
974.056356	0.996426
974.354471	0.995318
974.652550	0.996632
974.950591	0.995971
975.248595	0.995966
975.546563	0.996204
975.844493	0.998275
976.142386	0.997459
976.440243	0.997442
976.738062	0.998078
977.035845	0.997583
977.333590	0.997080
977.631299	0.998335
977.928971	0.997266
978.226606	0.996712
978.524204	0.996769
978.821765	0.998127
979.119290	0.996856
979.416777	0.997355
979.714228	0.997825
980.011642	0.996497
980.309020	0.996885
980.606360	0.997482
980.903664	0.998654
981.200931	0.997741
981.498162	0.995256
981.795356	0.994910
982.092513	0.995336
982.389633	0.995407
982.686717	0.991098
982.983764	0.992829
983.280775	0.991411
983.577749	0.991153
983.874686	0.993026
984.171587	0.991447
984.468451	0.995122
984.765279	0.995835
985.062070	0.993949
985.358824	0.995889
985.655543	0.994955
985.952224	0.995506
986.248869	0.996813
986.545478	0.997485
986.842050	0.998973
987.138586	0.996702
987.435086	0.997362
987.731549	0.998574
988.027975	0.997626
988.324366	0.997855
988.620719	0.997692
988.917037	0.997074
989.213318	0.998919
989.509563	0.999247
989.805772	0.998323
990.101944	0.997901
990.398080	0.997988
990.694180	0.996065
990.990244	0.997190
991.286271	0.999096
991.582262	0.999500
991.878217	0.998697
992.174136	0.998930
992.470019	0.998738
992.765865	0.998384
993.061676	0.998816
993.357450	0.997694
993.653188	0.996589
993.948890	0.996654
994.244556	0.997355
994.540186	0.997686
994.835780	0.997963
995.131337	0.996854
995.426859	0.997532
995.722345	0.998141
996.017795	0.996323
996.313208	0.995834
996.608586	0.996699
996.903928	0.996866
997.199234	0.996605
997.494504	0.995817
997.789738	0.996984
998.084936	0.996006
998.380099	0.999059
998.675225	0.998862
998.970316	0.998312
999.265371	0.997829
999.560390	0.998129
999.855373	0.999155
1000.150320	0.998140
1000.445232	0.997931
1000.740108	0.998578
1001.034948	0.998025
1001.329752	0.998850
1001.624521	0.999254
1001.919254	0.998210
1002.213951	0.997849
1002.508613	0.997302
1002.803239	0.999103
1003.097829	0.999663
1003.392384	0.999353
1003.686903	0.998831
1003.981386	0.998400
1004.275834	1.000548
1004.570246	0.997516
1004.864623	0.999509
1005.158964	0.999635
1005.453270	0.998831
1005.747540	0.998120
1006.041775	0.997620
1006.335974	1.000585
1006.630138	0.999511
1006.924266	1.000218
1007.218359	1.001946
1007.512416	0.999664
1007.806438	0.999412
1008.100425	0.999355
1008.394376	0.997902
1008.688292	0.998894
1008.982172	1.001118
1009.276017	1.000250
1009.569827	0.999131
1009.863602	0.999540
1010.157341	0.999856
1010.451045	0.998315
1010.744714	0.999437
1011.038347	0.999748
1011.331945	0.998788
1011.625508	0.997374
1011.919036	0.998799
1012.212528	0.999086
1012.505986	0.998136
1012.799408	0.998940
1013.092795	0.999544
1013.386147	0.999769
1013.679464	0.999822
1013.972745	0.998622
1014.265992	0.998348
1014.559204	0.999284
1014.852380	1.000915
1015.145521	0.998128
1015.438628	0.999441
1015.731699	0.999669
1016.024736	0.998955
1016.317737	0.998339
1016.610703	0.998369
1016.903635	0.999545
1017.196531	0.999412
1017.489393	0.999995
1017.782219	0.998087
1018.075011	0.999283
1018.367768	0.999220
1018.660490	0.999570
1018.953177	0.999570
1019.245829	0.999570
