Dividing Wavelength (nm)	Counts (n)	Blue Motor Position (mm): 0.000000	Red Motor Position (mm): 38.400000	
326.493990	0.999325
326.888308	0.999325
327.282561	0.999325
327.676750	0.999495
328.070874	0.998843
328.464933	0.999453
328.858929	0.998878
329.252859	0.998991
329.646726	0.999389
330.040528	1.000191
330.434265	0.999313
330.827938	0.999530
331.221547	0.999940
331.615091	1.000431
332.008571	0.999427
332.401986	0.999096
332.795338	1.000320
333.188625	0.998504
333.581847	1.000058
333.975006	0.998847
334.368100	0.998856
334.761129	0.999014
335.154095	0.999229
335.546996	0.999220
335.939833	0.995405
336.332606	0.996524
336.725315	0.996942
337.117960	0.999456
337.510540	0.996223
337.903056	0.996711
338.295508	0.995311
338.687896	0.997493
339.080220	0.995949
339.472480	0.996661
339.864676	0.996132
340.256807	0.997908
340.648875	0.997286
341.040879	0.997367
341.432818	0.997302
341.824694	0.996298
342.216506	0.998915
342.608253	0.996693
342.999937	0.997927
343.391557	0.997015
343.783113	0.997478
344.174605	0.997800
344.566033	0.997965
344.957397	0.996531
345.348697	0.996350
345.739934	0.997283
346.131106	0.996287
346.522215	0.995779
346.913260	0.996075
347.304241	0.996055
347.695159	0.996554
348.086012	0.997035
348.476802	0.996335
348.867528	0.997339
349.258191	0.995902
349.648789	0.997263
350.039324	0.997393
350.429796	0.997736
350.820203	0.996631
351.210548	0.996486
351.600828	0.996412
351.991045	0.997025
352.381198	0.995661
352.771288	0.996551
353.161314	0.998001
353.551276	0.998200
353.941175	0.996981
354.331010	0.996332
354.720782	0.996318
355.110490	0.995767
355.500135	0.997192
355.889717	0.997503
356.279235	0.996248
356.668689	0.996374
357.058080	0.996553
357.447408	0.998344
357.836672	0.996605
358.225873	0.996634
358.615010	0.997627
359.004084	0.997638
359.393095	0.997536
359.782043	0.997329
360.170927	0.998061
360.559748	0.997537
360.948505	0.996584
361.337199	0.996806
361.725830	0.996603
362.114398	0.997427
362.502903	0.997953
362.891344	0.997101
363.279722	0.996533
363.668037	0.997503
364.056289	0.996529
364.444478	0.999004
364.832603	0.996931
365.220665	0.997147
365.608665	0.997804
365.996601	0.996902
366.384474	0.997302
366.772284	0.996509
367.160031	0.995693
367.547715	0.995377
367.935336	0.996546
368.322893	0.996581
368.710388	0.997533
369.097820	0.997239
369.485189	0.997537
369.872495	0.996552
370.259738	0.994882
370.646918	0.996681
371.034035	0.997638
371.421090	0.996932
371.808081	0.997668
372.195010	0.997168
372.581875	0.997849
372.968678	0.996319
373.355418	0.997391
373.742096	0.997659
374.128710	0.998135
374.515262	0.996977
374.901751	0.996966
375.288177	0.998674
375.674540	0.997361
376.060841	0.996279
376.447079	0.997527
376.833254	0.997017
377.219367	0.996316
377.605417	0.997597
377.991404	0.997551
378.377329	0.996544
378.763191	0.998061
379.148991	0.997893
379.534727	0.997523
379.920402	0.996835
380.306013	0.998037
380.691563	0.998697
381.077049	0.996962
381.462474	0.996573
381.847835	0.997433
382.233134	0.998124
382.618371	0.998156
383.003545	0.997862
383.388657	0.998270
383.773706	0.998473
384.158693	0.997941
384.543618	0.997574
384.928480	0.997798
385.313280	0.998756
385.698017	0.998647
386.082692	0.998075
386.467305	0.998302
386.851856	0.997744
387.236344	0.997882
387.620770	0.997011
388.005133	0.997714
388.389435	0.998754
388.773674	0.997867
389.157851	0.998772
389.541965	0.998278
389.926018	0.998782
390.310008	0.998024
390.693936	0.997157
391.077802	0.997742
391.461606	0.996933
391.845348	0.998316
392.229027	0.999116
392.612645	0.998416
392.996200	0.999395
393.379694	0.996871
393.763125	0.999473
394.146494	0.999011
394.529801	0.997890
394.913047	0.998448
395.296230	0.998639
395.679351	0.997659
396.062410	0.997074
396.445408	0.998487
396.828343	0.998262
397.211217	0.998647
397.594028	0.998419
397.976778	0.997776
398.359466	0.997860
398.742092	0.997397
399.124656	0.998287
399.507158	0.997938
399.889598	0.997501
400.271977	0.998428
400.654294	0.999388
401.036549	0.999144
401.418742	0.999030
401.800874	0.997290
402.182944	0.998174
402.564952	0.997143
402.946898	0.999263
403.328783	0.998573
403.710606	0.997924
404.092367	0.998998
404.474067	0.998180
404.855705	0.998565
405.237282	0.998306
405.618797	0.998366
406.000250	0.997718
406.381642	0.998819
406.762972	0.997780
407.144240	0.998666
407.525447	0.998555
407.906593	0.997909
408.287677	0.998234
408.668700	0.998596
409.049661	0.997513
409.430560	0.998715
409.811399	0.998341
410.192176	0.998441
410.572891	0.998718
410.953545	0.998136
411.334138	0.997235
411.714669	0.997633
412.095139	0.998198
412.475547	0.997897
412.855894	0.998337
413.236180	0.998898
413.616405	0.998415
413.996568	0.999396
414.376670	0.998387
414.756711	0.997872
415.136691	0.998701
415.516609	0.998999
415.896466	0.998010
416.276262	0.997048
416.655997	0.998760
417.035670	0.997755
417.415283	0.999013
417.794834	0.998373
418.174324	0.999024
418.553753	0.998854
418.933121	0.998600
419.312428	0.997924
419.691674	0.998001
420.070859	0.998312
420.449983	0.998426
420.829045	0.997850
421.208047	0.998829
421.586988	0.999342
421.965867	0.998352
422.344686	0.998454
422.723444	0.998278
423.102141	0.998774
423.480777	0.999486
423.859352	0.997577
424.237866	0.998250
424.616319	0.997801
424.994712	0.998633
425.373044	0.999007
425.751314	0.999421
426.129524	0.998907
426.507673	0.998782
426.885762	0.999719
427.263789	0.998937
427.641756	0.999726
428.019662	0.999592
428.397508	0.998593
428.775292	0.998450
429.153016	0.998774
429.530679	0.998815
429.908282	0.998406
430.285824	0.998719
430.663305	0.998125
431.040726	0.998081
431.418086	0.999045
431.795385	0.999991
432.172624	0.997827
432.549802	0.998774
432.926920	0.999015
433.303977	0.998450
433.680974	0.999615
434.057910	0.998591
434.434786	0.998853
434.811601	0.997962
435.188355	0.997879
435.565050	0.998000
435.941683	0.998678
436.318257	0.999560
436.694770	0.998166
437.071222	0.998433
437.447614	0.998894
437.823946	0.999438
438.200218	0.999464
438.576429	0.998189
438.952580	0.999361
439.328670	0.999167
439.704700	0.998893
440.080670	0.999729
440.456580	0.999253
440.832429	0.997907
441.208218	0.998681
441.583947	0.999175
441.959616	0.999032
442.335224	0.998604
442.710773	0.999879
443.086261	0.997751
443.461689	0.998187
443.837057	0.998589
444.212365	0.998793
444.587612	0.998565
444.962800	0.997692
445.337927	0.998540
445.712995	0.999715
446.088002	0.999890
446.462949	0.998641
446.837837	0.999310
447.212664	0.999056
447.587431	0.998968
447.962139	0.998450
448.336786	0.999212
448.711374	0.999417
449.085901	0.998304
449.460369	0.999319
449.834776	0.999209
450.209124	0.998744
450.583412	0.998831
450.957640	0.998847
451.331808	0.998532
451.705917	0.998767
452.079965	0.998065
452.453954	0.998950
452.827883	0.998662
453.201752	0.998719
453.575562	0.999464
453.949311	0.999764
454.323001	0.998695
454.696632	0.998991
455.070202	0.999336
455.443713	0.998389
455.817164	0.999310
456.190556	0.998230
456.563888	0.999190
456.937160	0.999627
457.310373	0.998844
457.683526	0.998599
458.056619	0.998830
458.429653	0.999165
458.802628	0.998868
459.175542	0.998328
459.548398	0.999130
459.921194	0.998792
460.293930	0.998277
460.666607	0.997973
461.039224	0.998291
461.411782	0.998843
461.784280	0.998776
462.156719	0.999603
462.529099	0.998633
462.901419	0.999336
463.273680	0.999195
463.645882	0.999484
464.018024	0.998900
464.390106	0.999011
464.762130	0.999560
465.134094	0.998645
465.505999	0.999683
465.877845	0.998684
466.249631	0.999479
466.621358	0.999278
466.993026	0.999152
467.364634	0.999178
467.736184	0.999549
468.107674	0.998710
468.479105	0.998513
468.850477	0.999672
469.221790	0.998427
469.593043	0.999675
469.964238	0.999998
470.335373	0.999011
470.706449	0.999193
471.077467	0.999714
471.448425	0.998750
471.819324	0.999693
472.190164	0.999195
472.560945	0.999084
472.931667	0.998013
473.302330	0.998289
473.672934	0.999789
474.043479	0.999032
474.413965	0.998731
474.784393	0.999567
475.154761	0.999318
475.525070	0.998332
475.895321	0.998464
476.265513	0.999025
476.635645	0.999096
477.005719	0.999286
477.375734	0.998487
477.745691	0.998970
478.115588	0.999232
478.485427	0.998792
478.855207	0.999138
479.224928	0.998852
479.594591	0.999548
479.964194	0.999308
480.333739	0.999534
480.703226	0.999722
481.072653	0.999557
481.442022	1.000195
481.811333	0.998685
482.180584	0.999570
482.549777	0.998504
482.918912	0.999294
483.287988	0.999468
483.657005	0.998889
484.025964	0.999635
484.394864	0.999571
484.763706	0.999057
485.132489	0.999483
485.501213	0.999197
485.869879	0.998576
486.238487	0.999487
486.607036	0.999863
486.975527	0.998901
487.343959	0.998445
487.712333	0.998174
488.080648	0.998657
488.448905	0.999104
488.817104	0.999707
489.185244	0.999731
489.553326	0.999494
489.921350	0.998725
490.289315	0.999264
490.657222	0.999219
491.025070	0.999558
491.392861	0.999603
491.760593	0.999134
492.128267	0.998882
492.495883	0.999299
492.863440	0.999259
493.230939	0.998977
493.598380	0.999245
493.965763	0.999045
494.333088	0.999296
494.700354	0.998930
495.067563	0.998891
495.434713	0.998610
495.801805	0.998951
496.168839	0.998912
496.535815	0.998500
496.902733	0.998599
497.269593	0.999004
497.636395	0.999551
498.003139	0.999298
498.369825	0.999660
498.736453	0.998905
499.103023	0.998538
499.469535	0.998181
499.835989	0.998359
500.202385	0.999026
500.568723	0.998712
500.935003	0.998558
501.301226	0.999750
501.667390	0.998942
502.033497	0.999129
502.399546	0.999605
502.765537	0.998470
503.131470	0.998824
503.497345	0.998569
503.863163	0.999675
504.228923	0.999327
504.594625	0.999128
504.960269	0.999116
505.325856	0.999015
505.691385	0.998735
506.056856	0.998954
506.422270	0.999015
506.787625	0.998621
507.152924	0.999498
507.518164	0.998255
507.883347	0.998810
508.248472	0.998227
508.613540	0.998524
508.978550	0.999502
509.343503	0.998373
509.708398	0.998813
510.073236	0.998993
510.438016	0.998335
510.802738	0.998002
511.167403	0.998184
511.532010	0.998502
511.896561	0.998364
512.261053	0.999297
512.625488	0.998298
512.989866	0.998424
513.354186	0.997743
513.718449	0.998479
514.082655	0.998667
514.446803	0.997700
514.810894	0.997755
515.174927	0.998175
515.538904	0.998476
515.902822	0.998289
516.266684	0.998399
516.630488	0.998724
516.994235	0.997740
517.357925	0.997803
517.721558	0.998832
518.085133	0.997618
518.448651	0.998409
518.812112	0.998445
519.175516	0.998007
519.538863	0.998616
519.902152	0.997287
520.265385	0.997736
520.628560	0.997853
520.991678	0.997829
521.354739	0.998314
521.717743	0.998106
522.080690	0.998487
522.443580	0.997266
522.806413	0.997861
523.169189	0.997280
523.531908	0.997513
523.894569	0.997848
524.257174	0.997899
524.619722	0.997495
524.982213	0.997667
525.344647	0.997476
525.707025	0.996522
526.069345	0.996777
526.431608	0.997499
526.793815	0.998079
527.155964	0.996761
527.518057	0.998123
527.880093	0.997419
528.242072	0.997578
528.603995	0.997108
528.965860	0.998023
529.327669	0.996781
529.689421	0.997287
530.051117	0.997433
530.412755	0.998027
530.774337	0.997323
531.135862	0.996790
531.497331	0.996619
531.858743	0.996824
532.220098	0.996649
532.581396	0.997187
532.942638	0.997372
533.303824	0.995944
533.664953	0.996693
534.026025	0.996802
534.387040	0.996529
534.747999	0.996138
535.108902	0.996863
535.469748	0.996139
535.830537	0.995994
536.191270	0.996281
536.551947	0.995517
536.912567	0.996148
537.273131	0.996317
537.633638	0.995131
537.994089	0.994757
538.354483	0.994953
538.714821	0.995740
539.075103	0.994893
539.435328	0.994586
539.795497	0.994977
540.155609	0.994053
540.515665	0.994168
540.875665	0.994633
541.235609	0.994198
541.595496	0.993713
541.955328	0.992966
542.315102	0.993817
542.674821	0.993463
543.034483	0.993031
543.394090	0.992647
543.753640	0.993092
544.113134	0.992613
544.472571	0.992717
544.831953	0.992026
545.191278	0.992274
545.550548	0.991869
545.909761	0.990831
546.268918	0.991171
546.628019	0.991030
546.987064	0.989927
547.346053	0.989853
547.704986	0.989909
548.063863	0.989925
548.422684	0.990093
548.781449	0.989402
549.140158	0.988684
549.498811	0.988525
549.857408	0.988024
550.215949	0.987877
550.574434	0.986625
550.932864	0.986154
551.291237	0.986512
551.649555	0.985126
552.007817	0.984550
552.366022	0.984729
552.724173	0.984163
553.082267	0.984140
553.440305	0.982424
553.798288	0.982379
554.156215	0.981801
554.514086	0.981465
554.871902	0.980103
555.229661	0.979741
555.587365	0.979168
555.945014	0.979381
556.302606	0.976580
556.660143	0.976727
557.017625	0.975986
557.375050	0.974712
557.732421	0.974065
558.089735	0.973730
558.446994	0.972869
558.804197	0.972060
559.161345	0.970792
559.518437	0.971240
559.875474	0.968399
560.232455	0.967763
560.589381	0.967714
560.946251	0.964460
561.303065	0.964783
561.659825	0.963573
562.016528	0.962541
562.373177	0.962747
562.729770	0.960427
563.086307	0.959562
563.442789	0.958922
563.799216	0.956601
564.155587	0.955399
564.511904	0.953873
564.868164	0.952388
565.224370	0.951537
565.580520	0.950775
565.936615	0.949678
566.292654	0.947226
566.648638	0.946486
567.004567	0.943563
567.360441	0.943299
567.716260	0.941619
568.072023	0.940052
568.427732	0.937471
568.783385	0.937012
569.138982	0.934684
569.494525	0.933077
569.850013	0.931819
570.205445	0.928957
570.560823	0.928646
570.916145	0.925781
571.271412	0.923197
571.626625	0.921585
571.981782	0.920187
572.336884	0.918404
572.691931	0.917497
573.046923	0.913579
573.401860	0.912077
573.756743	0.910060
574.111570	0.907684
574.466342	0.906630
574.821059	0.903161
575.175722	0.901794
575.530330	0.899304
575.884882	0.897197
576.239380	0.895670
576.593823	0.893463
576.948211	0.889993
577.302544	0.889343
577.656823	0.886030
578.011047	0.884072
578.365216	0.880950
578.719330	0.879221
579.073389	0.875922
579.427394	0.874536
579.781344	0.872288
580.135239	0.869894
580.489080	0.866552
580.842866	0.864782
581.196597	0.861396
581.550273	0.858474
581.903895	0.855467
582.257463	0.852679
582.610975	0.849878
582.964434	0.847733
583.317837	0.845329
583.671186	0.842643
584.024481	0.839159
584.377721	0.836609
584.730906	0.833919
585.084037	0.830437
585.437113	0.829394
585.790135	0.825321
586.143103	0.822833
586.496016	0.821636
586.848874	0.816606
587.201679	0.813860
587.554428	0.811186
587.907124	0.808476
588.259765	0.806231
588.612352	0.802512
588.964884	0.801298
589.317362	0.797213
589.669786	0.794477
590.022155	0.791580
590.374470	0.787102
590.726731	0.786536
591.078937	0.783626
591.431090	0.778983
591.783188	0.778266
592.135232	0.775222
592.487222	0.773230
592.839157	0.768118
593.191038	0.766687
593.542866	0.764138
593.894639	0.762201
594.246358	0.757928
594.598022	0.754783
594.949633	0.753564
595.301190	0.749735
595.652692	0.747189
596.004141	0.742065
596.355535	0.743292
596.706876	0.739515
597.058162	0.736820
597.409395	0.732710
597.760573	0.728729
598.111698	0.727210
598.462768	0.722973
598.813785	0.721667
599.164748	0.718113
599.515657	0.715601
599.866511	0.712987
600.217312	0.708734
600.568060	0.708279
600.918753	0.703415
601.269392	0.700679
601.619978	0.699047
601.970510	0.693755
602.320988	0.692367
602.671412	0.686784
603.021783	0.685688
603.372100	0.683283
603.722363	0.679438
604.072572	0.676696
604.422728	0.674368
604.772830	0.671372
605.122878	0.667549
605.472872	0.666052
605.822813	0.661406
606.172701	0.660134
606.522534	0.655811
606.872314	0.653017
607.222041	0.649751
607.571714	0.646399
607.921333	0.643616
608.270899	0.639994
608.620411	0.635554
608.969870	0.634848
609.319276	0.631736
609.668627	0.628665
610.017926	0.624618
610.367171	0.619998
610.716362	0.618118
611.065500	0.615369
611.414585	0.611077
611.763616	0.609919
612.112594	0.606079
612.461518	0.602613
612.810389	0.599176
613.159207	0.597459
613.507971	0.595444
613.856682	0.589904
614.205340	0.588618
614.553945	0.583350
614.902496	0.582882
615.250994	0.579069
615.599439	0.577486
615.947830	0.574101
616.296169	0.572536
616.644454	0.569434
616.992686	0.567214
617.340864	0.562742
617.688990	0.562625
618.037063	0.558418
618.385082	0.556700
618.733048	0.551275
619.080961	0.551265
619.428821	0.548303
619.776628	0.544903
620.124382	0.543927
620.472083	0.540578
620.819731	0.538283
621.167326	0.538194
621.514868	0.535370
621.862357	0.536052
622.209793	0.533284
622.557176	0.531234
622.904506	0.529164
623.251783	0.528858
623.599007	0.527393
623.946179	0.524389
624.293297	0.522879
624.640363	0.523907
624.987376	0.521290
625.334336	0.521291
625.681243	0.520292
626.028097	0.518913
626.374899	0.517691
626.721647	0.514475
627.068343	0.515674
627.414987	0.513530
627.761577	0.513424
628.108115	0.510607
628.454600	0.512475
628.801032	0.507119
629.147412	0.508213
629.493739	0.506132
629.840014	0.506270
630.186236	0.502626
630.532405	0.504947
630.878521	0.501416
631.224585	0.501302
631.570597	0.502231
631.916556	0.499194
632.262462	0.497534
632.608316	0.497368
632.954117	0.496175
633.299866	0.494812
633.645562	0.493329
633.991206	0.495077
634.336797	0.495905
634.682336	0.495086
635.027823	0.494556
635.373257	0.493222
635.718639	0.494123
636.063968	0.491335
636.409245	0.494792
636.754470	0.492930
637.099642	0.493657
637.444762	0.494361
637.789829	0.492192
638.134845	0.493325
638.479808	0.492527
638.824719	0.490825
639.169577	0.493368
639.514383	0.490623
639.859137	0.492414
640.203839	0.491587
640.548489	0.490653
640.893086	0.490306
641.237632	0.490738
641.582125	0.487679
641.926566	0.487470
642.270955	0.486770
642.615292	0.485084
642.959576	0.483167
643.303809	0.482911
643.647990	0.480563
643.992118	0.480355
644.336195	0.482276
644.680219	0.479418
645.024192	0.479203
645.368112	0.472215
645.711981	0.470522
646.055797	0.465822
646.399562	0.467140
646.743274	0.458930
647.086935	0.456370
647.430544	0.455797
647.774101	0.453838
648.117606	0.452356
648.461059	0.451676
648.804460	0.452552
649.147810	0.456597
649.491108	0.456557
649.834354	0.456529
650.177548	0.460437
650.520690	0.464225
650.863781	0.464250
651.206820	0.462027
651.549807	0.466091
651.892742	0.468338
652.235626	0.466686
652.578458	0.467187
652.921238	0.471298
653.263967	0.469013
653.606644	0.472209
653.949269	0.470996
654.291843	0.474175
654.634365	0.470072
654.976836	0.472052
655.319255	0.471889
655.661622	0.472710
656.003938	0.471682
656.346203	0.473803
656.688416	0.471282
657.030577	0.473930
657.372687	0.474816
657.714746	0.474256
658.056753	0.471750
658.398708	0.474399
658.740612	0.475063
659.082465	0.470661
659.424266	0.470840
659.766016	0.469336
660.107715	0.471464
660.449362	0.470119
660.790958	0.470374
661.132503	0.470446
661.473996	0.467517
661.815438	0.467286
662.156829	0.467082
662.498168	0.467653
662.839456	0.468275
663.180693	0.465787
663.521879	0.465325
663.863013	0.465922
664.204097	0.463711
664.545129	0.460370
664.886110	0.460009
665.227040	0.457431
665.567918	0.459340
665.908746	0.457365
666.249522	0.456349
666.590248	0.457071
666.930922	0.455030
667.271545	0.453638
667.612118	0.453461
667.952639	0.454962
668.293109	0.452501
668.633528	0.455012
668.973896	0.454376
669.314213	0.454578
669.654480	0.455418
669.994695	0.455975
670.334859	0.456306
670.674973	0.455885
671.015035	0.455914
671.355047	0.455016
671.695008	0.456036
672.034918	0.457220
672.374777	0.456649
672.714585	0.457820
673.054342	0.457065
673.394049	0.457468
673.733705	0.454522
674.073310	0.455687
674.412864	0.458228
674.752368	0.458530
675.091820	0.458635
675.431223	0.462581
675.770574	0.461787
676.109875	0.464223
676.449125	0.463973
676.788324	0.466303
677.127473	0.471322
677.466571	0.470609
677.805619	0.471944
678.144616	0.472667
678.483562	0.474149
678.822458	0.476406
679.161303	0.477830
679.500098	0.477593
679.838842	0.479368
680.177535	0.478951
680.516179	0.477162
680.854771	0.475253
681.193314	0.469171
681.531805	0.461117
681.870247	0.449961
682.208638	0.442029
682.546978	0.440830
682.885268	0.442017
683.223508	0.448259
683.561697	0.451539
683.899836	0.453822
684.237925	0.457316
684.575963	0.459842
684.913951	0.462656
685.251889	0.458139
685.589776	0.460442
685.927614	0.463134
686.265401	0.457320
686.603137	0.458198
686.940824	0.452262
687.278460	0.450561
687.616046	0.449636
687.953582	0.444692
688.291068	0.446144
688.628504	0.441764
688.965889	0.443908
689.303224	0.447636
689.640510	0.451459
689.977745	0.457025
690.314930	0.464293
690.652065	0.468685
690.989150	0.476225
691.326185	0.482012
691.663170	0.486250
692.000105	0.493366
692.336990	0.500495
692.673825	0.502614
693.010610	0.509750
693.347345	0.515129
693.684030	0.516213
694.020665	0.521419
694.357251	0.529714
694.693786	0.528890
695.030272	0.533052
695.366707	0.536186
695.703093	0.539383
696.039429	0.537116
696.375716	0.539032
696.711952	0.541701
697.048139	0.544113
697.384276	0.545498
697.720363	0.543911
698.056400	0.542809
698.392388	0.548159
698.728326	0.551532
699.064214	0.553940
699.400053	0.554628
699.735842	0.558217
700.071581	0.561142
700.407270	0.563338
700.742910	0.566110
701.078501	0.572293
701.414042	0.572888
701.749533	0.576276
702.084974	0.584675
702.420366	0.576928
702.755709	0.584124
703.091002	0.591742
703.426246	0.585076
703.761440	0.591551
704.096584	0.595554
704.431679	0.592997
704.766725	0.594160
705.101721	0.596591
705.436668	0.592307
705.771565	0.600035
706.106413	0.596299
706.441212	0.590939
706.775961	0.589869
707.110661	0.592742
707.445311	0.589595
707.779913	0.586759
708.114465	0.584850
708.448967	0.581922
708.783421	0.573613
709.117825	0.568663
709.452180	0.568769
709.786485	0.562842
710.120742	0.552416
710.454949	0.554153
710.789107	0.546093
711.123216	0.537383
711.457275	0.539802
711.791286	0.530785
712.125247	0.529222
712.459159	0.540205
712.793023	0.533199
713.126837	0.536549
713.460602	0.536822
713.794318	0.546416
714.127985	0.545166
714.461602	0.554965
714.795171	0.558313
715.128691	0.565841
715.462162	0.573327
715.795584	0.578810
716.128957	0.582027
716.462281	0.588251
716.795556	0.591933
717.128782	0.596821
717.461960	0.606616
717.795088	0.604230
718.128167	0.610610
718.461198	0.618599
718.794180	0.619573
719.127113	0.622277
719.459997	0.625659
719.792833	0.632462
720.125619	0.633823
720.458357	0.639884
720.791046	0.639139
721.123686	0.642564
721.456278	0.648956
721.788821	0.646169
722.121315	0.650635
722.453761	0.654971
722.786158	0.652152
723.118506	0.649512
723.450805	0.657277
723.783056	0.652669
724.115259	0.650248
724.447412	0.649921
724.779518	0.651600
725.111574	0.649527
725.443582	0.646045
725.775542	0.647972
726.107453	0.640630
726.439315	0.639864
726.771129	0.638583
727.102895	0.632185
727.434612	0.624267
727.766281	0.622773
728.097901	0.621990
728.429473	0.621763
728.760996	0.619926
729.092471	0.619992
729.423897	0.624542
729.755276	0.623414
730.086606	0.622880
730.417887	0.618174
730.749120	0.608631
731.080305	0.599237
731.411442	0.595575
731.742530	0.600954
732.073570	0.599713
732.404562	0.592582
732.735506	0.593575
733.066401	0.598341
733.397249	0.607806
733.728048	0.618676
734.058798	0.631160
734.389501	0.640869
734.720156	0.651629
735.050762	0.659090
735.381320	0.659661
735.711831	0.669412
736.042293	0.673828
736.372707	0.669809
736.703073	0.674327
737.033391	0.676601
737.363661	0.673557
737.693883	0.668378
738.024056	0.668253
738.354182	0.668798
738.684260	0.658131
739.014290	0.652951
739.344272	0.654289
739.674207	0.648107
740.004093	0.647357
740.333931	0.647899
740.663722	0.647850
740.993464	0.648330
741.323159	0.651931
741.652806	0.657234
741.982405	0.661406
742.311956	0.666140
742.641460	0.668755
742.970915	0.671838
743.300323	0.679893
743.629683	0.685361
743.958996	0.687653
744.288260	0.691896
744.617477	0.697503
744.946647	0.700027
745.275768	0.705261
745.604842	0.704369
745.933869	0.714557
746.262847	0.715068
746.591778	0.708389
746.920662	0.715197
747.249498	0.722056
747.578286	0.712565
747.907027	0.708360
748.235720	0.709219
748.564365	0.704859
748.892963	0.704228
749.221514	0.707135
749.550017	0.712401
749.878473	0.712093
750.206881	0.718629
750.535242	0.719762
750.863555	0.719220
751.191821	0.720470
751.520039	0.724093
751.848210	0.728616
752.176334	0.721544
752.504411	0.720090
752.832440	0.727854
753.160421	0.731979
753.488356	0.730983
753.816243	0.728345
754.144082	0.736460
754.471875	0.739859
754.799620	0.735009
755.127318	0.736121
755.454969	0.735495
755.782572	0.735417
756.110129	0.741000
756.437638	0.743652
756.765100	0.740165
757.092515	0.737647
757.419882	0.736841
757.747203	0.741808
758.074477	0.742089
758.401703	0.738295
758.728882	0.733711
759.056014	0.732349
759.383099	0.731787
759.710138	0.732879
760.037129	0.729454
760.364073	0.723367
760.690970	0.726210
761.017820	0.731539
761.344623	0.727351
761.671379	0.717832
761.998088	0.706088
762.324751	0.683982
762.651366	0.642800
762.977935	0.577575
763.304456	0.525541
763.630931	0.516146
763.957359	0.554289
764.283740	0.598950
764.610074	0.625680
764.936362	0.655752
765.262602	0.682249
765.588796	0.703803
765.914943	0.720633
766.241044	0.739029
766.567097	0.745776
766.893104	0.755499
767.219064	0.761107
767.544978	0.767730
767.870845	0.780861
768.196665	0.784775
768.522438	0.783109
768.848165	0.783823
769.173846	0.793086
769.499479	0.797732
769.825066	0.800438
770.150607	0.806385
770.476101	0.800134
770.801548	0.802822
771.126949	0.813034
771.452303	0.817673
771.777611	0.816451
772.102872	0.814608
772.428087	0.820483
772.753256	0.824506
773.078378	0.825469
773.403453	0.834533
773.728482	0.838642
774.053465	0.832573
774.378401	0.836326
774.703291	0.844555
775.028135	0.844359
775.352932	0.846545
775.677683	0.849611
776.002388	0.849132
776.327046	0.848589
776.651658	0.851214
776.976224	0.854995
777.300743	0.855910
777.625216	0.858211
777.949643	0.859238
778.274024	0.859488
778.598359	0.860632
778.922647	0.860214
779.246889	0.859996
779.571086	0.863532
779.895236	0.866434
780.219339	0.863579
780.543397	0.860247
780.867409	0.860133
781.191374	0.861044
781.515294	0.863122
781.839167	0.861418
782.162995	0.865832
782.486776	0.861285
782.810511	0.863117
783.134201	0.866873
783.457844	0.864541
783.781441	0.867087
784.104993	0.873815
784.428498	0.872982
784.751958	0.868500
785.075372	0.870645
785.398739	0.874407
785.722061	0.871601
786.045337	0.866866
786.368568	0.872711
786.691752	0.874737
787.014891	0.859623
787.337983	0.852209
787.661030	0.844351
787.984031	0.825744
788.306987	0.814081
788.629897	0.816274
788.952760	0.819460
789.275579	0.824914
789.598351	0.839827
789.921078	0.852123
790.243759	0.855267
790.566395	0.859206
790.888984	0.865679
791.211529	0.872063
791.534027	0.874640
791.856480	0.876695
792.178888	0.882468
792.501249	0.884172
792.823566	0.885624
793.145836	0.885950
793.468062	0.887945
793.790241	0.887984
794.112375	0.886331
794.434464	0.881342
794.756507	0.880341
795.078505	0.880879
795.400457	0.874814
795.722364	0.862642
796.044226	0.855737
796.366042	0.855427
796.687812	0.859120
797.009538	0.854444
797.331218	0.857540
797.652852	0.864133
797.974442	0.867596
798.295986	0.867430
798.617484	0.868994
798.938938	0.874045
799.260346	0.878362
799.581709	0.880394
799.903026	0.882514
800.224299	0.883504
800.545526	0.886536
800.866708	0.891631
801.187845	0.894422
801.508936	0.894594
801.829983	0.892085
802.150984	0.894426
802.471940	0.900681
802.792851	0.899340
803.113717	0.900087
803.434538	0.898530
803.755314	0.901738
804.076045	0.903006
804.396731	0.903261
804.717372	0.901874
805.037967	0.904188
805.358518	0.902529
805.679024	0.899480
805.999485	0.898762
806.319901	0.899223
806.640272	0.900580
806.960598	0.898747
807.280879	0.896853
807.601115	0.895957
807.921306	0.898748
808.241453	0.899103
808.561554	0.895652
808.881611	0.897268
809.201623	0.899766
809.521590	0.899537
809.841513	0.899463
810.161390	0.899146
810.481223	0.901204
810.801011	0.903547
811.120755	0.905573
811.440453	0.904040
811.760107	0.903031
812.079716	0.901590
812.399281	0.905715
812.718801	0.908593
813.038276	0.909605
813.357707	0.909821
813.677093	0.906612
813.996434	0.910375
814.315731	0.911685
814.634983	0.911962
814.954191	0.910827
815.273354	0.907634
815.592473	0.903256
815.911547	0.904816
816.230577	0.901352
816.549562	0.898445
816.868502	0.900050
817.187399	0.896526
817.506250	0.892433
817.825058	0.893511
818.143821	0.889508
818.462539	0.884829
818.781213	0.876661
819.099843	0.866010
819.418429	0.850421
819.736970	0.833067
820.055466	0.814464
820.373919	0.789954
820.692327	0.756851
821.010691	0.723516
821.329011	0.647992
821.647286	0.535556
821.965517	0.423233
822.283704	0.381346
822.601847	0.383096
822.919945	0.418422
823.237999	0.451288
823.556010	0.497110
823.873976	0.551746
824.191897	0.601227
824.509775	0.643150
824.827609	0.687272
825.145398	0.709558
825.463144	0.711648
825.780845	0.694823
826.098502	0.677133
826.416116	0.632199
826.733685	0.588980
827.051210	0.580955
827.368692	0.595305
827.686129	0.632259
828.003522	0.684462
828.320872	0.730829
828.638177	0.772400
828.955439	0.805950
829.272656	0.827058
829.589830	0.842992
829.906960	0.858678
830.224046	0.869789
830.541088	0.880418
830.858086	0.884800
831.175041	0.889899
831.491952	0.890680
831.808819	0.887525
832.125642	0.880553
832.442421	0.866420
832.759157	0.844582
833.075849	0.800062
833.392497	0.737131
833.709101	0.696908
834.025662	0.707362
834.342179	0.737058
834.658653	0.776384
834.975083	0.811345
835.291469	0.837174
835.607811	0.858039
835.924110	0.874859
836.240366	0.890311
836.556578	0.903834
836.872746	0.912024
837.188871	0.917032
837.504952	0.922861
837.820990	0.926785
838.136984	0.929766
838.452935	0.932749
838.768842	0.933979
839.084706	0.927257
839.400526	0.902501
839.716303	0.862677
840.032037	0.841522
840.347727	0.846122
840.663373	0.863398
840.978977	0.883328
841.294537	0.905710
841.610054	0.920384
841.925527	0.928854
842.240957	0.935664
842.556344	0.942625
842.871687	0.948426
843.186987	0.951754
843.502244	0.951824
843.817458	0.953966
844.132629	0.957356
844.447756	0.963181
844.762840	0.963149
845.077881	0.961800
845.392879	0.962090
845.707833	0.964572
846.022745	0.966604
846.337613	0.965715
846.652438	0.967575
846.967221	0.966046
847.281960	0.967253
847.596656	0.968272
847.911309	0.967304
848.225919	0.968631
848.540485	0.970172
848.855009	0.969890
849.169490	0.970638
849.483928	0.970616
849.798323	0.971241
850.112675	0.971545
850.426984	0.971156
850.741251	0.971531
851.055474	0.972212
851.369654	0.969234
851.683792	0.972135
851.997887	0.970698
852.311938	0.972198
852.625947	0.971154
852.939914	0.969935
853.253837	0.971628
853.567718	0.971432
853.881555	0.972454
854.195350	0.969750
854.509103	0.971190
854.822812	0.972179
855.136479	0.971413
855.450103	0.970240
855.763685	0.970458
856.077224	0.970116
856.390720	0.972363
856.704173	0.972280
857.017584	0.970162
857.330953	0.969237
857.644278	0.969837
857.957561	0.970136
858.270802	0.969711
858.584000	0.970633
858.897155	0.967919
859.210268	0.970007
859.523339	0.969264
859.836367	0.971876
860.149352	0.972391
860.462295	0.969815
860.775195	0.972021
861.088054	0.971258
861.400869	0.971621
861.713642	0.972526
862.026373	0.972473
862.339062	0.972815
862.651708	0.969170
862.964312	0.969647
863.276873	0.971479
863.589392	0.969880
863.901869	0.968473
864.214303	0.966314
864.526696	0.966029
864.839045	0.965643
865.151353	0.965026
865.463619	0.965455
865.775842	0.964965
866.088023	0.964312
866.400162	0.965646
866.712258	0.964130
867.024313	0.965019
867.336325	0.964927
867.648296	0.965020
867.960224	0.964282
868.272110	0.963898
868.583954	0.966350
868.895755	0.965665
869.207515	0.964081
869.519233	0.961347
869.830909	0.962898
870.142542	0.964999
870.454134	0.964188
870.765684	0.963743
871.077191	0.959684
871.388657	0.961603
871.700081	0.960309
872.011463	0.961616
872.322803	0.960929
872.634101	0.959659
872.945357	0.956940
873.256571	0.955779
873.567744	0.955222
873.878874	0.956278
874.189963	0.954608
874.501010	0.955011
874.812015	0.952634
875.122979	0.954313
875.433900	0.955434
875.744780	0.956329
876.055618	0.954508
876.366415	0.952444
876.677169	0.953839
876.987882	0.953549
877.298554	0.953780
877.609183	0.950191
877.919771	0.948430
878.230317	0.945645
878.540822	0.944550
878.851285	0.939450
879.161707	0.931049
879.472087	0.920258
879.782425	0.904715
880.092722	0.871308
880.402977	0.821394
880.713191	0.763801
881.023363	0.706911
881.333494	0.674616
881.643583	0.646198
881.953631	0.645927
882.263637	0.674647
882.573602	0.713361
882.883526	0.737722
883.193408	0.759525
883.503248	0.781706
883.813048	0.808406
884.122806	0.837440
884.432522	0.858699
884.742197	0.877383
885.051831	0.888930
885.361424	0.896811
885.670975	0.908876
885.980485	0.918060
886.289954	0.924226
886.599382	0.929054
886.908768	0.932432
887.218113	0.938046
887.527417	0.943059
887.836680	0.945520
888.145901	0.947301
888.455082	0.949559
888.764221	0.954585
889.073319	0.955736
889.382376	0.956294
889.691392	0.956064
890.000366	0.955207
890.309300	0.957088
890.618193	0.956154
890.927044	0.953639
891.235855	0.954292
891.544625	0.955833
891.853353	0.956605
892.162041	0.952832
892.470687	0.947113
892.779293	0.943454
893.087858	0.937788
893.396381	0.931463
893.704864	0.919870
894.013306	0.895088
894.321707	0.870910
894.630068	0.857098
894.938387	0.852552
895.246665	0.853453
895.554903	0.865399
895.863100	0.876413
896.171256	0.894777
896.479371	0.912267
896.787446	0.924703
897.095480	0.929730
897.403473	0.933106
897.711425	0.936183
898.019336	0.944130
898.327207	0.947075
898.635038	0.949584
898.942827	0.949258
899.250576	0.951948
899.558284	0.955527
899.865952	0.957651
900.173579	0.959576
900.481165	0.957899
900.788711	0.963503
901.096216	0.964716
901.403681	0.965457
901.711105	0.966073
902.018489	0.966660
902.325832	0.965502
902.633135	0.964853
902.940397	0.959398
903.247619	0.948924
903.554800	0.922907
903.861941	0.886775
904.169041	0.853573
904.476101	0.837267
904.783121	0.836968
905.090100	0.853231
905.397039	0.872301
905.703938	0.893896
906.010796	0.913109
906.317614	0.928227
906.624391	0.938767
906.931129	0.948919
907.237826	0.955515
907.544483	0.962029
907.851099	0.965654
908.157675	0.970722
908.464211	0.972821
908.770707	0.974389
909.077163	0.976446
909.383578	0.976675
909.689954	0.977371
909.996289	0.977678
910.302584	0.979340
910.608839	0.982160
910.915054	0.980150
911.221229	0.979530
911.527363	0.979394
911.833458	0.979606
912.139513	0.979258
912.445527	0.978426
912.751502	0.977671
913.057436	0.974825
913.363331	0.973259
913.669186	0.969277
913.975000	0.964792
914.280775	0.959363
914.586510	0.953383
914.892205	0.940106
915.197859	0.920424
915.503475	0.894398
915.809050	0.876984
916.114585	0.871818
916.420081	0.869483
916.725536	0.867729
917.030952	0.874337
917.336328	0.885012
917.641665	0.899872
917.946961	0.915105
918.252218	0.926443
918.557435	0.933232
918.862612	0.941987
919.167750	0.946742
919.472848	0.951210
919.777906	0.956457
920.082925	0.962453
920.387904	0.965182
920.692843	0.966521
920.997743	0.966989
921.302603	0.970279
921.607423	0.972754
921.912204	0.973838
922.216946	0.974036
922.521647	0.975609
922.826310	0.977719
923.130932	0.979569
923.435516	0.980272
923.740059	0.982570
924.044564	0.979874
924.349028	0.983260
924.653454	0.984368
924.957840	0.987829
925.262186	0.986925
925.566493	0.985029
925.870761	0.986231
926.174989	0.987234
926.479178	0.988393
926.783328	0.990190
927.087438	0.990316
927.391509	0.988980
927.695541	0.991561
927.999533	0.990762
928.303486	0.991303
928.607400	0.993246
928.911275	0.992135
929.215110	0.992593
929.518906	0.992354
929.822663	0.991671
930.126381	0.992400
930.430060	0.991897
930.733699	0.992391
931.037299	0.989768
931.340861	0.992442
931.644383	0.990996
931.947866	0.990531
932.251309	0.992670
932.554714	0.991602
932.858080	0.991129
933.161407	0.992125
933.464694	0.991015
933.767943	0.992370
934.071153	0.991247
934.374323	0.993008
934.677455	0.993626
934.980548	0.993628
935.283602	0.992000
935.586617	0.993192
935.889593	0.991979
936.192530	0.991669
936.495428	0.991526
936.798287	0.991753
937.101108	0.991508
937.403890	0.989950
937.706632	0.990263
938.009336	0.989484
938.312002	0.988148
938.614628	0.986372
938.917216	0.985440
939.219765	0.983271
939.522275	0.985489
939.824747	0.984154
940.127179	0.985662
940.429573	0.986804
940.731929	0.985923
941.034246	0.986619
941.336524	0.986436
941.638763	0.988144
941.940964	0.988471
942.243126	0.988752
942.545250	0.988774
942.847335	0.989269
943.149381	0.990951
943.451389	0.988929
943.753359	0.990475
944.055290	0.991718
944.357182	0.991115
944.659036	0.990186
944.960851	0.990266
945.262628	0.991259
945.564367	0.991335
945.866067	0.990976
946.167729	0.991501
946.469352	0.990663
946.770937	0.989260
947.072484	0.991838
947.373992	0.990569
947.675462	0.990984
947.976893	0.991916
948.278286	0.991216
948.579641	0.992883
948.880958	0.990215
949.182236	0.993002
949.483476	0.992748
949.784678	0.992977
950.085841	0.993094
950.386967	0.991997
950.688054	0.992244
950.989103	0.992349
951.290114	0.990791
951.591087	0.990583
951.892021	0.990592
952.192917	0.990685
952.493776	0.989798
952.794596	0.989235
953.095378	0.988338
953.396122	0.989537
953.696828	0.989332
953.997496	0.990703
954.298126	0.991978
954.598718	0.992454
954.899272	0.992297
955.199788	0.991131
955.500266	0.993973
955.800706	0.994307
956.101108	0.994405
956.401472	0.994535
956.701798	0.995228
957.002087	0.994943
957.302337	0.995047
957.602550	0.996308
957.902724	0.995182
958.202861	0.995145
958.502960	0.995438
958.803022	0.995256
959.103045	0.996601
959.403031	0.997242
959.702979	0.995594
960.002889	0.996689
960.302762	0.994835
960.602596	0.996732
960.902393	0.995535
961.202153	0.997171
961.501875	0.996675
961.801559	0.995837
962.101205	0.995724
962.400814	0.996596
962.700385	0.996849
962.999918	0.995995
963.299414	0.996417
963.598873	0.996528
963.898293	0.996960
964.197677	0.997035
964.497022	0.997033
964.796331	0.997005
965.095601	0.997358
965.394835	0.997132
965.694030	0.997032
965.993189	0.997827
966.292309	0.997212
966.591393	0.998210
966.890439	0.997679
967.189447	0.997479
967.488419	0.998278
967.787353	0.997074
968.086249	0.996688
968.385108	0.996432
968.683930	0.996970
968.982714	0.996623
969.281462	0.997955
969.580172	0.997186
969.878844	0.998197
970.177480	0.996014
970.476078	0.997183
970.774639	0.996989
971.073162	0.996409
971.371649	0.996062
971.670098	0.996672
971.968510	0.999022
972.266885	0.996395
972.565223	0.996062
972.863524	0.996731
973.161788	0.997465
973.460014	0.998214
973.758204	0.997089
974.056356	0.996744
974.354471	0.994814
974.652550	0.996741
974.950591	0.995618
975.248595	0.997065
975.546563	0.996985
975.844493	0.998315
976.142386	0.996962
976.440243	0.997513
976.738062	0.997675
977.035845	0.998245
977.333590	0.997452
977.631299	0.998236
977.928971	0.998112
978.226606	0.997433
978.524204	0.997197
978.821765	0.999302
979.119290	0.996574
979.416777	0.996852
979.714228	0.997332
980.011642	0.997139
980.309020	0.996880
980.606360	0.997289
980.903664	0.997918
981.200931	0.997061
981.498162	0.995767
981.795356	0.995366
982.092513	0.994495
982.389633	0.994568
982.686717	0.991939
982.983764	0.993039
983.280775	0.991771
983.577749	0.990905
983.874686	0.991696
984.171587	0.992158
984.468451	0.995820
984.765279	0.995943
985.062070	0.994753
985.358824	0.996267
985.655543	0.995764
985.952224	0.996107
986.248869	0.997498
986.545478	0.997632
986.842050	0.998060
987.138586	0.996496
987.435086	0.997708
987.731549	0.999248
988.027975	0.998095
988.324366	0.997520
988.620719	0.997144
988.917037	0.997327
989.213318	0.998140
989.509563	0.998848
989.805772	0.997586
990.101944	0.998875
990.398080	0.997687
990.694180	0.997926
990.990244	0.996686
991.286271	0.998267
991.582262	0.997925
991.878217	0.998465
992.174136	0.998412
992.470019	0.998454
992.765865	0.997837
993.061676	0.997926
993.357450	0.998420
993.653188	0.997136
993.948890	0.998133
994.244556	0.996952
994.540186	0.997531
994.835780	0.996558
995.131337	0.998754
995.426859	0.996402
995.722345	0.998293
996.017795	0.995680
996.313208	0.996228
996.608586	0.995828
996.903928	0.997208
997.199234	0.995658
997.494504	0.996578
997.789738	0.997137
998.084936	0.997093
998.380099	0.997980
998.675225	0.998119
998.970316	0.997694
999.265371	0.998752
999.560390	0.997861
999.855373	0.998405
1000.150320	0.998586
1000.445232	0.998934
1000.740108	0.997142
1001.034948	0.998854
1001.329752	0.999051
1001.624521	0.998784
1001.919254	0.998698
1002.213951	0.998294
1002.508613	0.997521
1002.803239	0.999019
1003.097829	0.999101
1003.392384	1.000002
1003.686903	0.998380
1003.981386	0.999348
1004.275834	0.997633
1004.570246	0.998233
1004.864623	0.998635
1005.158964	0.999691
1005.453270	0.997842
1005.747540	0.998087
1006.041775	0.999458
1006.335974	0.999740
1006.630138	0.998435
1006.924266	0.998744
1007.218359	1.000698
1007.512416	0.999283
1007.806438	0.998642
1008.100425	0.998188
1008.394376	0.997546
1008.688292	0.999451
1008.982172	1.000039
1009.276017	0.999337
1009.569827	0.999158
1009.863602	0.998231
1010.157341	1.000229
1010.451045	0.998801
1010.744714	0.998289
1011.038347	0.998700
1011.331945	0.999246
1011.625508	0.996703
1011.919036	0.998530
1012.212528	0.998787
1012.505986	0.997904
1012.799408	0.999745
1013.092795	0.999285
1013.386147	0.999687
1013.679464	0.998542
1013.972745	0.997685
1014.265992	0.997654
1014.559204	0.999089
1014.852380	0.998785
1015.145521	0.998087
1015.438628	0.998325
1015.731699	0.999319
1016.024736	0.998644
1016.317737	0.998560
1016.610703	0.999108
1016.903635	0.999559
1017.196531	0.999132
1017.489393	0.999658
1017.782219	0.999098
1018.075011	0.998646
1018.367768	1.000041
1018.660490	0.999624
1018.953177	0.999624
1019.245829	0.999624
