Dividing Wavelength (nm)	Counts (n)	Blue Motor Position (mm): 0.000000	Red Motor Position (mm): 11.200000	
326.493990	1.001086
326.888308	1.001086
327.282561	1.001086
327.676750	1.000627
328.070874	1.000298
328.464933	1.000500
328.858929	0.999812
329.252859	1.000208
329.646726	0.999819
330.040528	1.001499
330.434265	0.999852
330.827938	1.000131
331.221547	0.999956
331.615091	0.999930
332.008571	0.998802
332.401986	1.000074
332.795338	1.000146
333.188625	0.998460
333.581847	0.999969
333.975006	0.999296
334.368100	0.998689
334.761129	0.999971
335.154095	1.001538
335.546996	0.998092
335.939833	0.993871
336.332606	0.993215
336.725315	0.994986
337.117960	0.995974
337.510540	0.992617
337.903056	0.994553
338.295508	0.992432
338.687896	0.994013
339.080220	0.994045
339.472480	0.994843
339.864676	0.993327
340.256807	0.993987
340.648875	0.994672
341.040879	0.994996
341.432818	0.994245
341.824694	0.994068
342.216506	0.995520
342.608253	0.994567
342.999937	0.993309
343.391557	0.993484
343.783113	0.992724
344.174605	0.994203
344.566033	0.994226
344.957397	0.993207
345.348697	0.992635
345.739934	0.993843
346.131106	0.993510
346.522215	0.993046
346.913260	0.993599
347.304241	0.993031
347.695159	0.993998
348.086012	0.993029
348.476802	0.994568
348.867528	0.994653
349.258191	0.992326
349.648789	0.993887
350.039324	0.994245
350.429796	0.994301
350.820203	0.994296
351.210548	0.994365
351.600828	0.993037
351.991045	0.993419
352.381198	0.993398
352.771288	0.992884
353.161314	0.994060
353.551276	0.994213
353.941175	0.994376
354.331010	0.993018
354.720782	0.993591
355.110490	0.993969
355.500135	0.994773
355.889717	0.994172
356.279235	0.993066
356.668689	0.993574
357.058080	0.993272
357.447408	0.994108
357.836672	0.994355
358.225873	0.993884
358.615010	0.993750
359.004084	0.995069
359.393095	0.993934
359.782043	0.993386
360.170927	0.994612
360.559748	0.994750
360.948505	0.993089
361.337199	0.993183
361.725830	0.993149
362.114398	0.993404
362.502903	0.994185
362.891344	0.994940
363.279722	0.993073
363.668037	0.994478
364.056289	0.993210
364.444478	0.993589
364.832603	0.994202
365.220665	0.992522
365.608665	0.993448
365.996601	0.991920
366.384474	0.993040
366.772284	0.992115
367.160031	0.991412
367.547715	0.992069
367.935336	0.993410
368.322893	0.992473
368.710388	0.991960
369.097820	0.992822
369.485189	0.991707
369.872495	0.991524
370.259738	0.990041
370.646918	0.992597
371.034035	0.992767
371.421090	0.991955
371.808081	0.992123
372.195010	0.992102
372.581875	0.991624
372.968678	0.992118
373.355418	0.992446
373.742096	0.992089
374.128710	0.993305
374.515262	0.991882
374.901751	0.993280
375.288177	0.992333
375.674540	0.992472
376.060841	0.992191
376.447079	0.993579
376.833254	0.992873
377.219367	0.992861
377.605417	0.993214
377.991404	0.992193
378.377329	0.991939
378.763191	0.992526
379.148991	0.992577
379.534727	0.992358
379.920402	0.992234
380.306013	0.992445
380.691563	0.993059
381.077049	0.992489
381.462474	0.991762
381.847835	0.991236
382.233134	0.990262
382.618371	0.990513
383.003545	0.988671
383.388657	0.987280
383.773706	0.986288
384.158693	0.983801
384.543618	0.982181
384.928480	0.979458
385.313280	0.975893
385.698017	0.974156
386.082692	0.969488
386.467305	0.965873
386.851856	0.961707
387.236344	0.956307
387.620770	0.951947
388.005133	0.945800
388.389435	0.941579
388.773674	0.935010
389.157851	0.928339
389.541965	0.922601
389.926018	0.918666
390.310008	0.910571
390.693936	0.902075
391.077802	0.894742
391.461606	0.888130
391.845348	0.878156
392.229027	0.871395
392.612645	0.862726
392.996200	0.850429
393.379694	0.839668
393.763125	0.827801
394.146494	0.821662
394.529801	0.808182
394.913047	0.795914
395.296230	0.791608
395.679351	0.778551
396.062410	0.767645
396.445408	0.762106
396.828343	0.750384
397.211217	0.739949
397.594028	0.740376
397.976778	0.725060
398.359466	0.715330
398.742092	0.704094
399.124656	0.706874
399.507158	0.690930
399.889598	0.682511
400.271977	0.669091
400.654294	0.666890
401.036549	0.659906
401.418742	0.657801
401.800874	0.640057
402.182944	0.632551
402.564952	0.620706
402.946898	0.617630
403.328783	0.614102
403.710606	0.620599
404.092367	0.593705
404.474067	0.594447
404.855705	0.590465
405.237282	0.596671
405.618797	0.580748
406.000250	0.574331
406.381642	0.562924
406.762972	0.564952
407.144240	0.562110
407.525447	0.560392
407.906593	0.552269
408.287677	0.545889
408.668700	0.552825
409.049661	0.545556
409.430560	0.539995
409.811399	0.547136
410.192176	0.528870
410.572891	0.535407
410.953545	0.523471
411.334138	0.535303
411.714669	0.528536
412.095139	0.539299
412.475547	0.523980
412.855894	0.525812
413.236180	0.524505
413.616405	0.530131
413.996568	0.520214
414.376670	0.526312
414.756711	0.530059
415.136691	0.527086
415.516609	0.518974
415.896466	0.514860
416.276262	0.511026
416.655997	0.512650
417.035670	0.494222
417.415283	0.486517
417.794834	0.490704
418.174324	0.495499
418.553753	0.505670
418.933121	0.487473
419.312428	0.481310
419.691674	0.486440
420.070859	0.475449
420.449983	0.483549
420.829045	0.472552
421.208047	0.481730
421.586988	0.475231
421.965867	0.473866
422.344686	0.462878
422.723444	0.474752
423.102141	0.491724
423.480777	0.464865
423.859352	0.484659
424.237866	0.462228
424.616319	0.462797
424.994712	0.454298
425.373044	0.464470
425.751314	0.452837
426.129524	0.468916
426.507673	0.453014
426.885762	0.446606
427.263789	0.451568
427.641756	0.461675
428.019662	0.451740
428.397508	0.450709
428.775292	0.454566
429.153016	0.447111
429.530679	0.453392
429.908282	0.446102
430.285824	0.456746
430.663305	0.435310
431.040726	0.456080
431.418086	0.456510
431.795385	0.447728
432.172624	0.445858
432.549802	0.447041
432.926920	0.445875
433.303977	0.445241
433.680974	0.442680
434.057910	0.440880
434.434786	0.440800
434.811601	0.443016
435.188355	0.425235
435.565050	0.435071
435.941683	0.436024
436.318257	0.421046
436.694770	0.421139
437.071222	0.419543
437.447614	0.423368
437.823946	0.430573
438.200218	0.419045
438.576429	0.429384
438.952580	0.422615
439.328670	0.419189
439.704700	0.425422
440.080670	0.426544
440.456580	0.408172
440.832429	0.415748
441.208218	0.426870
441.583947	0.415907
441.959616	0.415634
442.335224	0.420423
442.710773	0.411898
443.086261	0.409746
443.461689	0.423387
443.837057	0.413587
444.212365	0.403312
444.587612	0.410035
444.962800	0.399744
445.337927	0.401601
445.712995	0.427792
446.088002	0.390479
446.462949	0.400614
446.837837	0.405278
447.212664	0.394793
447.587431	0.385941
447.962139	0.356174
448.336786	0.315785
448.711374	0.326268
449.085901	0.369827
449.460369	0.374180
449.834776	0.377396
450.209124	0.356996
450.583412	0.349094
450.957640	0.342862
451.331808	0.353982
451.705917	0.377339
452.079965	0.381656
452.453954	0.370248
452.827883	0.376676
453.201752	0.371913
453.575562	0.383255
453.949311	0.371950
454.323001	0.377688
454.696632	0.373437
455.070202	0.366123
455.443713	0.358133
455.817164	0.353161
456.190556	0.348734
456.563888	0.345597
456.937160	0.343347
457.310373	0.360483
457.683526	0.359326
458.056619	0.365090
458.429653	0.365244
458.802628	0.368454
459.175542	0.363379
459.548398	0.345495
459.921194	0.338407
460.293930	0.338334
460.666607	0.316028
461.039224	0.304288
461.411782	0.299841
461.784280	0.299051
462.156719	0.303481
462.529099	0.307639
462.901419	0.323533
463.273680	0.328290
463.645882	0.327511
464.018024	0.333374
464.390106	0.326612
464.762130	0.311303
465.134094	0.294248
465.505999	0.263565
465.877845	0.234106
466.249631	0.220918
466.621358	0.228763
466.993026	0.242313
467.364634	0.248496
467.736184	0.257237
468.107674	0.265904
468.479105	0.264996
468.850477	0.272077
469.221790	0.278419
469.593043	0.288965
469.964238	0.293391
470.335373	0.292875
470.706449	0.291000
471.077467	0.292174
471.448425	0.253856
471.819324	0.229753
472.190164	0.228779
472.560945	0.257667
472.931667	0.279771
473.302330	0.283669
473.672934	0.295836
474.043479	0.283812
474.413965	0.285730
474.784393	0.289089
475.154761	0.284428
475.525070	0.281341
475.895321	0.287188
476.265513	0.281180
476.635645	0.276483
477.005719	0.276652
477.375734	0.273351
477.745691	0.266465
478.115588	0.263015
478.485427	0.256684
478.855207	0.243126
479.224928	0.225874
479.594591	0.214034
479.964194	0.217439
480.333739	0.218800
480.703226	0.220244
481.072653	0.218597
481.442022	0.214427
481.811333	0.210332
482.180584	0.214329
482.549777	0.219281
482.918912	0.223005
483.287988	0.222496
483.657005	0.222180
484.025964	0.228835
484.394864	0.226060
484.763706	0.226463
485.132489	0.231661
485.501213	0.232355
485.869879	0.230703
486.238487	0.233858
486.607036	0.231789
486.975527	0.236388
487.343959	0.232026
487.712333	0.231396
488.080648	0.232680
488.448905	0.232017
488.817104	0.233150
489.185244	0.227586
489.553326	0.224816
489.921350	0.214450
490.289315	0.196784
490.657222	0.192079
491.025070	0.193295
491.392861	0.195492
491.760593	0.200854
492.128267	0.206742
492.495883	0.212042
492.863440	0.218392
493.230939	0.224719
493.598380	0.226058
493.965763	0.228184
494.333088	0.230685
494.700354	0.231893
495.067563	0.231081
495.434713	0.234169
495.801805	0.231843
496.168839	0.233456
496.535815	0.235027
496.902733	0.234984
497.269593	0.236559
497.636395	0.234449
498.003139	0.234661
498.369825	0.237437
498.736453	0.233992
499.103023	0.235606
499.469535	0.235129
499.835989	0.235239
500.202385	0.236043
500.568723	0.239487
500.935003	0.234568
501.301226	0.238702
501.667390	0.233183
502.033497	0.231189
502.399546	0.234152
502.765537	0.235924
503.131470	0.234423
503.497345	0.230877
503.863163	0.239731
504.228923	0.232424
504.594625	0.231057
504.960269	0.236723
505.325856	0.231723
505.691385	0.235972
506.056856	0.232911
506.422270	0.232169
506.787625	0.234678
507.152924	0.232109
507.518164	0.232585
507.883347	0.234384
508.248472	0.236082
508.613540	0.230895
508.978550	0.233450
509.343503	0.234052
509.708398	0.231689
510.073236	0.229380
510.438016	0.229240
510.802738	0.230452
511.167403	0.229057
511.532010	0.231316
511.896561	0.226577
512.261053	0.225435
512.625488	0.227516
512.989866	0.227981
513.354186	0.228140
513.718449	0.230056
514.082655	0.226354
514.446803	0.228529
514.810894	0.226170
515.174927	0.228873
515.538904	0.228624
515.902822	0.225277
516.266684	0.227499
516.630488	0.228956
516.994235	0.227554
517.357925	0.226251
517.721558	0.224671
518.085133	0.224023
518.448651	0.224311
518.812112	0.226442
519.175516	0.226012
519.538863	0.223758
519.902152	0.225571
520.265385	0.222053
520.628560	0.223861
520.991678	0.224339
521.354739	0.223073
521.717743	0.224330
522.080690	0.225009
522.443580	0.221964
522.806413	0.223126
523.169189	0.222321
523.531908	0.221195
523.894569	0.224843
524.257174	0.224878
524.619722	0.222471
524.982213	0.223889
525.344647	0.222381
525.707025	0.223564
526.069345	0.221669
526.431608	0.223292
526.793815	0.221096
527.155964	0.225451
527.518057	0.224437
527.880093	0.225399
528.242072	0.223928
528.603995	0.225947
528.965860	0.227157
529.327669	0.226275
529.689421	0.227148
530.051117	0.228095
530.412755	0.226034
530.774337	0.228427
531.135862	0.228397
531.497331	0.227846
531.858743	0.230672
532.220098	0.227556
532.581396	0.230039
532.942638	0.230131
533.303824	0.231529
533.664953	0.231024
534.026025	0.232775
534.387040	0.230861
534.747999	0.230819
535.108902	0.229223
535.469748	0.234367
535.830537	0.232752
536.191270	0.232954
536.551947	0.232290
536.912567	0.232533
537.273131	0.234100
537.633638	0.234396
537.994089	0.234722
538.354483	0.235526
538.714821	0.232728
539.075103	0.232619
539.435328	0.233149
539.795497	0.236862
540.155609	0.233664
540.515665	0.231957
540.875665	0.237361
541.235609	0.236011
541.595496	0.235857
541.955328	0.232458
542.315102	0.235264
542.674821	0.236320
543.034483	0.236250
543.394090	0.235902
543.753640	0.237888
544.113134	0.232863
544.472571	0.236247
544.831953	0.233122
545.191278	0.237160
545.550548	0.236737
545.909761	0.233412
546.268918	0.234162
546.628019	0.232528
546.987064	0.235230
547.346053	0.237238
547.704986	0.234852
548.063863	0.234993
548.422684	0.235684
548.781449	0.237273
549.140158	0.234812
549.498811	0.237993
549.857408	0.241077
550.215949	0.235794
550.574434	0.238920
550.932864	0.236881
551.291237	0.235336
551.649555	0.236714
552.007817	0.236449
552.366022	0.237218
552.724173	0.237504
553.082267	0.237607
553.440305	0.234777
553.798288	0.239322
554.156215	0.235705
554.514086	0.236447
554.871902	0.239473
555.229661	0.238884
555.587365	0.239153
555.945014	0.241739
556.302606	0.238693
556.660143	0.241390
557.017625	0.237781
557.375050	0.239894
557.732421	0.236979
558.089735	0.238932
558.446994	0.239179
558.804197	0.238129
559.161345	0.238059
559.518437	0.241816
559.875474	0.239340
560.232455	0.238907
560.589381	0.239947
560.946251	0.240114
561.303065	0.237581
561.659825	0.239218
562.016528	0.240700
562.373177	0.243429
562.729770	0.240740
563.086307	0.242916
563.442789	0.240588
563.799216	0.243374
564.155587	0.242283
564.511904	0.243624
564.868164	0.243383
565.224370	0.243307
565.580520	0.244964
565.936615	0.244744
566.292654	0.248070
566.648638	0.245236
567.004567	0.245924
567.360441	0.246472
567.716260	0.248417
568.072023	0.246274
568.427732	0.247041
568.783385	0.249478
569.138982	0.247371
569.494525	0.247108
569.850013	0.250139
570.205445	0.248507
570.560823	0.250756
570.916145	0.252885
571.271412	0.251228
571.626625	0.252913
571.981782	0.253245
572.336884	0.254033
572.691931	0.253455
573.046923	0.254754
573.401860	0.256220
573.756743	0.257753
574.111570	0.256769
574.466342	0.257275
574.821059	0.256246
575.175722	0.259169
575.530330	0.258835
575.884882	0.258915
576.239380	0.261039
576.593823	0.261776
576.948211	0.261115
577.302544	0.264535
577.656823	0.264055
578.011047	0.264245
578.365216	0.264997
578.719330	0.266907
579.073389	0.266631
579.427394	0.268036
579.781344	0.268595
580.135239	0.270277
580.489080	0.269910
580.842866	0.272565
581.196597	0.272468
581.550273	0.271112
581.903895	0.272341
582.257463	0.270633
582.610975	0.273769
582.964434	0.273061
583.317837	0.275847
583.671186	0.275851
584.024481	0.276137
584.377721	0.278732
584.730906	0.279207
585.084037	0.278492
585.437113	0.280045
585.790135	0.279601
586.143103	0.282756
586.496016	0.283985
586.848874	0.280907
587.201679	0.282010
587.554428	0.285507
587.907124	0.283928
588.259765	0.284281
588.612352	0.285284
588.964884	0.288540
589.317362	0.288940
589.669786	0.288723
590.022155	0.287199
590.374470	0.286404
590.726731	0.288207
591.078937	0.293145
591.431090	0.289581
591.783188	0.293972
592.135232	0.294329
592.487222	0.294264
592.839157	0.292177
593.191038	0.294553
593.542866	0.296490
593.894639	0.300207
594.246358	0.298454
594.598022	0.297583
594.949633	0.301300
595.301190	0.302206
595.652692	0.301091
596.004141	0.297069
596.355535	0.305262
596.706876	0.305978
597.058162	0.308120
597.409395	0.305477
597.760573	0.303271
598.111698	0.306301
598.462768	0.306899
598.813785	0.308242
599.164748	0.309489
599.515657	0.309673
599.866511	0.313393
600.217312	0.308514
600.568060	0.313569
600.918753	0.309935
601.269392	0.311128
601.619978	0.314464
601.970510	0.311858
602.320988	0.312087
602.671412	0.309835
603.021783	0.312513
603.372100	0.313665
603.722363	0.313465
604.072572	0.314412
604.422728	0.314009
604.772830	0.316521
605.122878	0.315677
605.472872	0.316275
605.822813	0.314371
606.172701	0.317407
606.522534	0.314712
606.872314	0.314897
607.222041	0.315799
607.571714	0.313566
607.921333	0.314962
608.270899	0.315022
608.620411	0.311900
608.969870	0.315421
609.319276	0.315419
609.668627	0.315400
610.017926	0.313769
610.367171	0.312437
610.716362	0.312993
611.065500	0.313530
611.414585	0.312165
611.763616	0.312519
612.112594	0.313039
612.461518	0.312283
612.810389	0.310192
613.159207	0.312450
613.507971	0.314677
613.856682	0.310279
614.205340	0.311577
614.553945	0.308498
614.902496	0.312528
615.250994	0.310706
615.599439	0.311200
615.947830	0.310734
616.296169	0.311554
616.644454	0.311148
616.992686	0.311301
617.340864	0.309059
617.688990	0.312634
618.037063	0.309400
618.385082	0.311187
618.733048	0.308101
619.080961	0.310540
619.428821	0.309843
619.776628	0.309495
620.124382	0.311465
620.472083	0.311830
620.819731	0.311078
621.167326	0.314830
621.514868	0.314494
621.862357	0.318729
622.209793	0.318460
622.557176	0.320820
622.904506	0.321798
623.251783	0.323927
623.599007	0.326274
623.946179	0.326061
624.293297	0.327822
624.640363	0.331842
624.987376	0.332400
625.334336	0.335040
625.681243	0.337225
626.028097	0.337373
626.374899	0.338788
626.721647	0.339189
627.068343	0.342590
627.414987	0.343128
627.761577	0.345706
628.108115	0.343314
628.454600	0.348916
628.801032	0.346557
629.147412	0.348568
629.493739	0.348685
629.840014	0.352170
630.186236	0.348719
630.532405	0.354800
630.878521	0.352113
631.224585	0.354364
631.570597	0.357849
631.916556	0.356330
632.262462	0.356719
632.608316	0.358683
632.954117	0.359402
633.299866	0.360537
633.645562	0.360444
633.991206	0.365036
634.336797	0.367851
634.682336	0.370011
635.027823	0.371900
635.373257	0.372396
635.718639	0.376350
636.063968	0.375656
636.409245	0.381133
636.754470	0.381296
637.099642	0.384048
637.444762	0.387419
637.789829	0.386004
638.134845	0.390230
638.479808	0.390895
638.824719	0.390478
639.169577	0.394953
639.514383	0.393379
639.859137	0.397573
640.203839	0.397425
640.548489	0.398572
640.893086	0.399899
641.237632	0.401391
641.582125	0.399213
641.926566	0.401113
642.270955	0.400929
642.615292	0.401540
642.959576	0.400760
643.303809	0.401152
643.647990	0.401144
643.992118	0.400966
644.336195	0.404734
644.680219	0.403092
645.024192	0.404024
645.368112	0.397941
645.711981	0.396743
646.055797	0.391730
646.399562	0.394376
646.743274	0.386488
647.086935	0.383669
647.430544	0.384030
647.774101	0.382846
648.117606	0.382313
648.461059	0.382681
648.804460	0.385290
649.147810	0.390898
649.491108	0.391965
649.834354	0.393705
650.177548	0.399171
650.520690	0.404125
650.863781	0.405922
651.206820	0.404948
651.549807	0.409729
651.892742	0.413611
652.235626	0.413791
652.578458	0.413805
652.921238	0.420169
653.263967	0.418010
653.606644	0.422021
653.949269	0.421958
654.291843	0.425419
654.634365	0.422466
654.976836	0.425797
655.319255	0.426088
655.661622	0.427649
656.003938	0.427413
656.346203	0.430169
656.688416	0.427963
657.030577	0.431568
657.372687	0.433382
657.714746	0.434635
658.056753	0.431131
658.398708	0.435309
658.740612	0.436385
659.082465	0.432472
659.424266	0.433311
659.766016	0.432387
660.107715	0.435056
660.449362	0.434165
660.790958	0.434767
661.132503	0.435361
661.473996	0.432991
661.815438	0.433783
662.156829	0.434110
662.498168	0.434456
662.839456	0.435983
663.180693	0.433691
663.521879	0.433525
663.863013	0.434657
664.204097	0.433478
664.545129	0.430006
664.886110	0.430217
665.227040	0.427695
665.567918	0.429995
665.908746	0.428280
666.249522	0.427845
666.590248	0.429151
666.930922	0.427328
667.271545	0.426223
667.612118	0.426252
667.952639	0.427412
668.293109	0.426672
668.633528	0.429406
668.973896	0.429123
669.314213	0.429638
669.654480	0.431227
669.994695	0.431414
670.334859	0.432464
670.674973	0.432500
671.015035	0.432729
671.355047	0.432426
671.695008	0.434290
672.034918	0.435162
672.374777	0.435347
672.714585	0.436329
673.054342	0.435718
673.394049	0.436196
673.733705	0.434042
674.073310	0.435246
674.412864	0.437992
674.752368	0.438788
675.091820	0.438739
675.431223	0.443188
675.770574	0.443476
676.109875	0.446242
676.449125	0.446087
676.788324	0.448195
677.127473	0.453615
677.466571	0.453350
677.805619	0.455093
678.144616	0.455641
678.483562	0.457757
678.822458	0.460615
679.161303	0.461706
679.500098	0.461848
679.838842	0.463142
680.177535	0.462807
680.516179	0.461493
680.854771	0.460537
681.193314	0.454091
681.531805	0.445479
681.870247	0.434012
682.208638	0.426155
682.546978	0.425138
682.885268	0.427337
683.223508	0.433277
683.561697	0.436946
683.899836	0.439579
684.237925	0.443041
684.575963	0.445206
684.913951	0.448820
685.251889	0.444145
685.589776	0.446301
685.927614	0.448886
686.265401	0.443186
686.603137	0.444283
686.940824	0.438667
687.278460	0.436656
687.616046	0.435825
687.953582	0.430878
688.291068	0.432667
688.628504	0.428131
688.965889	0.429890
689.303224	0.434239
689.640510	0.438264
689.977745	0.444411
690.314930	0.452407
690.652065	0.456603
690.989150	0.464400
691.326185	0.470710
691.663170	0.475383
692.000105	0.482383
692.336990	0.489152
692.673825	0.492573
693.010610	0.499462
693.347345	0.503969
693.684030	0.505664
694.020665	0.510382
694.357251	0.519368
694.693786	0.519434
695.030272	0.523900
695.366707	0.526801
695.703093	0.530048
696.039429	0.528120
696.375716	0.529592
696.711952	0.532228
697.048139	0.533836
697.384276	0.536130
697.720363	0.534651
698.056400	0.533830
698.392388	0.539598
698.728326	0.542575
699.064214	0.545034
699.400053	0.545836
699.735842	0.549290
700.071581	0.551775
700.407270	0.555042
700.742910	0.557441
701.078501	0.564163
701.414042	0.564842
701.749533	0.566847
702.084974	0.576286
702.420366	0.568491
702.755709	0.576688
703.091002	0.584142
703.426246	0.577501
703.761440	0.582876
704.096584	0.587745
704.431679	0.584772
704.766725	0.587261
705.101721	0.588484
705.436668	0.584800
705.771565	0.591709
706.106413	0.589339
706.441212	0.584036
706.775961	0.582852
707.110661	0.585786
707.445311	0.581305
707.779913	0.578411
708.114465	0.576857
708.448967	0.574230
708.783421	0.565897
709.117825	0.560817
709.452180	0.560619
709.786485	0.555161
710.120742	0.544513
710.454949	0.546428
710.789107	0.538137
711.123216	0.529820
711.457275	0.531480
711.791286	0.522398
712.125247	0.521195
712.459159	0.532098
712.793023	0.524209
713.126837	0.528904
713.460602	0.529374
713.794318	0.538399
714.127985	0.537969
714.461602	0.547316
714.795171	0.550451
715.128691	0.558711
715.462162	0.565832
715.795584	0.571700
716.128957	0.574731
716.462281	0.580907
716.795556	0.584670
717.128782	0.589538
717.461960	0.599151
717.795088	0.597811
718.128167	0.603611
718.461198	0.612531
718.794180	0.613298
719.127113	0.615743
719.459997	0.620011
719.792833	0.625788
720.125619	0.627410
720.458357	0.633519
720.791046	0.632588
721.123686	0.636728
721.456278	0.642812
721.788821	0.639913
722.121315	0.644147
722.453761	0.647694
722.786158	0.646335
723.118506	0.642631
723.450805	0.650735
723.783056	0.646984
724.115259	0.643370
724.447412	0.642896
724.779518	0.645006
725.111574	0.643961
725.443582	0.638362
725.775542	0.641967
726.107453	0.633805
726.439315	0.633438
726.771129	0.631586
727.102895	0.625006
727.434612	0.617565
727.766281	0.616159
728.097901	0.614736
728.429473	0.615155
728.760996	0.613438
729.092471	0.613860
729.423897	0.617783
729.755276	0.616541
730.086606	0.616679
730.417887	0.611327
730.749120	0.601317
731.080305	0.592204
731.411442	0.589488
731.742530	0.593197
732.073570	0.592693
732.404562	0.585379
732.735506	0.586306
733.066401	0.591377
733.397249	0.600121
733.728048	0.611963
734.058798	0.624467
734.389501	0.634894
734.720156	0.644415
735.050762	0.652844
735.381320	0.653532
735.711831	0.663051
736.042293	0.667600
736.372707	0.663634
736.703073	0.668353
737.033391	0.670839
737.363661	0.667397
737.693883	0.662724
738.024056	0.661336
738.354182	0.661936
738.684260	0.650672
739.014290	0.646927
739.344272	0.648231
739.674207	0.641199
740.004093	0.640142
740.333931	0.640949
740.663722	0.640898
740.993464	0.642327
741.323159	0.645684
741.652806	0.650584
741.982405	0.656083
742.311956	0.660048
742.641460	0.662183
742.970915	0.665603
743.300323	0.674370
743.629683	0.680374
743.958996	0.681660
744.288260	0.685900
744.617477	0.692709
744.946647	0.693785
745.275768	0.698592
745.604842	0.698790
745.933869	0.708833
746.262847	0.709832
746.591778	0.702921
746.920662	0.709403
747.249498	0.715754
747.578286	0.706722
747.907027	0.702272
748.235720	0.703703
748.564365	0.698582
748.892963	0.698763
749.221514	0.701118
749.550017	0.706625
749.878473	0.706370
750.206881	0.713143
750.535242	0.714050
750.863555	0.713736
751.191821	0.715072
751.520039	0.718280
751.848210	0.723178
752.176334	0.715681
752.504411	0.715375
752.832440	0.722559
753.160421	0.726371
753.488356	0.725284
753.816243	0.722558
754.144082	0.730861
754.471875	0.734303
754.799620	0.729426
755.127318	0.731356
755.454969	0.730094
755.782572	0.730910
756.110129	0.734972
756.437638	0.737724
756.765100	0.734202
757.092515	0.732718
757.419882	0.730793
757.747203	0.736756
758.074477	0.735595
758.401703	0.733769
758.728882	0.728673
759.056014	0.727323
759.383099	0.726574
759.710138	0.727415
760.037129	0.724269
760.364073	0.717924
760.690970	0.720369
761.017820	0.726416
761.344623	0.721308
761.671379	0.712280
761.998088	0.700851
762.324751	0.677034
762.651366	0.636231
762.977935	0.568642
763.304456	0.516338
763.630931	0.507234
763.957359	0.546140
764.283740	0.591596
764.610074	0.617719
764.936362	0.649285
765.262602	0.675743
765.588796	0.697686
765.914943	0.716119
766.241044	0.733322
766.567097	0.740742
766.893104	0.749471
767.219064	0.755927
767.544978	0.762673
767.870845	0.775596
768.196665	0.779534
768.522438	0.778404
768.848165	0.779796
769.173846	0.788605
769.499479	0.793025
769.825066	0.796156
770.150607	0.801518
770.476101	0.797187
770.801548	0.798171
771.126949	0.808985
771.452303	0.812660
771.777611	0.812058
772.102872	0.812236
772.428087	0.816979
772.753256	0.820389
773.078378	0.821670
773.403453	0.830614
773.728482	0.835723
774.053465	0.829115
774.378401	0.831708
774.703291	0.840329
775.028135	0.839765
775.352932	0.841926
775.677683	0.845312
776.002388	0.845522
776.327046	0.843953
776.651658	0.847811
776.976224	0.852432
777.300743	0.852152
777.625216	0.853960
777.949643	0.856290
778.274024	0.855699
778.598359	0.857649
778.922647	0.855285
779.246889	0.856207
779.571086	0.860989
779.895236	0.863288
780.219339	0.859456
780.543397	0.856929
780.867409	0.855385
781.191374	0.857915
781.515294	0.858961
781.839167	0.857593
782.162995	0.862216
782.486776	0.857992
782.810511	0.858821
783.134201	0.863217
783.457844	0.860511
783.781441	0.863234
784.104993	0.868457
784.428498	0.869022
784.751958	0.865672
785.075372	0.867568
785.398739	0.870993
785.722061	0.868204
786.045337	0.862931
786.368568	0.867617
786.691752	0.871185
787.014891	0.856307
787.337983	0.847748
787.661030	0.839675
787.984031	0.822218
788.306987	0.809483
788.629897	0.810857
788.952760	0.815617
789.275579	0.820337
789.598351	0.834886
789.921078	0.848411
790.243759	0.849547
790.566395	0.855516
790.888984	0.862385
791.211529	0.866859
791.534027	0.871262
791.856480	0.873973
792.178888	0.877826
792.501249	0.880661
792.823566	0.882465
793.145836	0.881625
793.468062	0.883422
793.790241	0.883667
794.112375	0.882136
794.434464	0.878285
794.756507	0.876952
795.078505	0.876033
795.400457	0.871713
795.722364	0.858783
796.044226	0.851752
796.366042	0.850668
796.687812	0.854505
797.009538	0.850830
797.331218	0.854448
797.652852	0.859240
797.974442	0.863164
798.295986	0.862891
798.617484	0.866115
798.938938	0.869690
799.260346	0.874937
799.581709	0.875954
799.903026	0.879274
800.224299	0.879990
800.545526	0.883935
800.866708	0.887793
801.187845	0.892046
801.508936	0.891978
801.829983	0.888380
802.150984	0.892045
802.471940	0.896896
802.792851	0.895700
803.113717	0.897320
803.434538	0.894845
803.755314	0.897681
804.076045	0.899169
804.396731	0.898747
804.717372	0.898078
805.037967	0.900789
805.358518	0.898846
805.679024	0.896179
805.999485	0.895302
806.319901	0.895980
806.640272	0.896963
806.960598	0.895537
807.280879	0.892476
807.601115	0.891448
807.921306	0.894922
808.241453	0.894548
808.561554	0.892154
808.881611	0.891910
809.201623	0.895458
809.521590	0.895080
809.841513	0.896309
810.161390	0.895970
810.481223	0.896965
810.801011	0.899669
811.120755	0.901992
811.440453	0.900361
811.760107	0.899265
812.079716	0.899507
812.399281	0.902225
812.718801	0.905972
813.038276	0.906134
813.357707	0.905602
813.677093	0.902609
813.996434	0.906684
814.315731	0.906761
814.634983	0.907915
814.954191	0.906458
815.273354	0.904071
815.592473	0.899668
815.911547	0.900898
816.230577	0.897730
816.549562	0.893906
816.868502	0.895482
817.187399	0.892933
817.506250	0.886800
817.825058	0.888588
818.143821	0.884597
818.462539	0.880260
818.781213	0.872399
819.099843	0.860493
819.418429	0.843684
819.736970	0.828571
820.055466	0.808024
820.373919	0.781533
820.692327	0.748202
821.010691	0.713459
821.329011	0.634960
821.647286	0.518726
821.965517	0.404405
822.283704	0.361346
822.601847	0.361783
822.919945	0.397955
823.237999	0.431764
823.556010	0.479526
823.873976	0.535662
824.191897	0.587016
824.509775	0.629860
824.827609	0.675728
825.145398	0.698007
825.463144	0.700745
825.780845	0.684100
826.098502	0.665090
826.416116	0.619562
826.733685	0.574596
827.051210	0.565578
827.368692	0.580131
827.686129	0.619067
828.003522	0.671904
828.320872	0.720681
828.638177	0.764222
828.955439	0.797184
829.272656	0.819643
829.589830	0.836703
829.906960	0.852888
830.224046	0.865230
830.541088	0.875527
830.858086	0.879943
831.175041	0.886325
831.491952	0.884764
831.808819	0.882405
832.125642	0.875111
832.442421	0.860979
832.759157	0.838444
833.075849	0.791546
833.392497	0.727459
833.709101	0.685766
834.025662	0.695938
834.342179	0.726408
834.658653	0.767328
834.975083	0.803325
835.291469	0.828648
835.607811	0.853416
835.924110	0.869586
836.240366	0.886271
836.556578	0.900071
836.872746	0.907542
837.188871	0.912722
837.504952	0.918571
837.820990	0.922062
838.136984	0.926562
838.452935	0.929543
838.768842	0.931304
839.084706	0.923348
839.400526	0.898409
839.716303	0.858078
840.032037	0.834782
840.347727	0.838537
840.663373	0.855999
840.978977	0.878424
841.294537	0.900193
841.610054	0.917524
841.925527	0.925720
842.240957	0.931633
842.556344	0.938175
842.871687	0.945079
843.186987	0.949235
843.502244	0.949440
843.817458	0.951004
844.132629	0.955047
844.447756	0.959671
844.762840	0.959686
845.077881	0.959436
845.392879	0.959283
845.707833	0.961883
846.022745	0.964574
846.337613	0.964838
846.652438	0.965521
846.967221	0.964565
847.281960	0.965017
847.596656	0.967314
847.911309	0.964853
848.225919	0.966810
848.540485	0.967277
848.855009	0.968667
849.169490	0.967428
849.483928	0.969418
849.798323	0.968772
850.112675	0.969487
850.426984	0.968920
850.741251	0.969281
851.055474	0.969185
851.369654	0.968504
851.683792	0.970385
851.997887	0.969583
852.311938	0.970271
852.625947	0.969418
852.939914	0.968156
853.253837	0.969011
853.567718	0.969833
853.881555	0.971036
854.195350	0.967827
854.509103	0.969873
854.822812	0.970023
855.136479	0.970838
855.450103	0.969730
855.763685	0.967641
856.077224	0.969273
856.390720	0.969511
856.704173	0.969930
857.017584	0.968417
857.330953	0.966704
857.644278	0.967169
857.957561	0.968009
858.270802	0.968825
858.584000	0.967521
858.897155	0.965770
859.210268	0.966677
859.523339	0.967127
859.836367	0.969747
860.149352	0.970203
860.462295	0.967940
860.775195	0.970112
861.088054	0.969501
861.400869	0.968868
861.713642	0.970436
862.026373	0.970516
862.339062	0.969325
862.651708	0.967010
862.964312	0.967891
863.276873	0.969049
863.589392	0.967108
863.901869	0.966118
864.214303	0.964752
864.526696	0.962695
864.839045	0.962773
865.151353	0.961367
865.463619	0.962289
865.775842	0.961912
866.088023	0.962350
866.400162	0.961084
866.712258	0.961963
867.024313	0.962464
867.336325	0.962756
867.648296	0.962919
867.960224	0.961192
868.272110	0.961059
868.583954	0.963140
868.895755	0.963270
869.207515	0.961223
869.519233	0.960199
869.830909	0.959921
870.142542	0.961113
870.454134	0.960979
870.765684	0.960198
871.077191	0.957929
871.388657	0.956644
871.700081	0.957094
872.011463	0.958189
872.322803	0.956446
872.634101	0.955568
872.945357	0.954358
873.256571	0.952746
873.567744	0.951766
873.878874	0.952143
874.189963	0.951174
874.501010	0.950136
874.812015	0.949066
875.122979	0.950129
875.433900	0.952182
875.744780	0.954328
876.055618	0.949875
876.366415	0.949280
876.677169	0.948023
876.987882	0.951140
877.298554	0.949667
877.609183	0.946881
877.919771	0.943817
878.230317	0.942582
878.540822	0.938749
878.851285	0.932983
879.161707	0.925760
879.472087	0.913085
879.782425	0.897232
880.092722	0.862906
880.402977	0.808828
880.713191	0.746816
881.023363	0.686316
881.333494	0.651797
881.643583	0.624362
881.953631	0.623301
882.263637	0.653504
882.573602	0.693340
882.883526	0.719384
883.193408	0.742932
883.503248	0.767320
883.813048	0.793290
884.122806	0.823310
884.432522	0.847629
884.742197	0.867254
885.051831	0.878180
885.361424	0.889652
885.670975	0.901096
885.980485	0.911039
886.289954	0.917240
886.599382	0.922750
886.908768	0.926782
887.218113	0.933339
887.527417	0.937338
887.836680	0.941192
888.145901	0.942787
888.455082	0.944401
888.764221	0.948503
889.073319	0.951624
889.382376	0.951732
889.691392	0.952465
890.000366	0.951778
890.309300	0.953771
890.618193	0.951985
890.927044	0.950228
891.235855	0.951254
891.544625	0.949970
891.853353	0.952039
892.162041	0.947333
892.470687	0.941251
892.779293	0.935609
893.087858	0.933347
893.396381	0.924728
893.704864	0.911847
894.013306	0.886609
894.321707	0.859906
894.630068	0.845146
894.938387	0.839662
895.246665	0.840772
895.554903	0.854293
895.863100	0.866458
896.171256	0.885559
896.479371	0.904057
896.787446	0.918086
897.095480	0.923135
897.403473	0.926744
897.711425	0.930604
898.019336	0.938023
898.327207	0.941452
898.635038	0.943089
898.942827	0.943896
899.250576	0.946861
899.558284	0.951534
899.865952	0.953533
900.173579	0.954434
900.481165	0.953900
900.788711	0.959844
901.096216	0.960552
901.403681	0.960820
901.711105	0.963413
902.018489	0.963434
902.325832	0.962245
902.633135	0.960907
902.940397	0.954530
903.247619	0.942320
903.554800	0.916533
903.861941	0.876233
904.169041	0.839380
904.476101	0.820927
904.783121	0.822251
905.090100	0.838853
905.397039	0.860630
905.703938	0.883856
906.010796	0.903634
906.317614	0.920075
906.624391	0.932984
906.931129	0.942163
907.237826	0.950424
907.544483	0.959118
907.851099	0.961301
908.157675	0.967165
908.464211	0.970145
908.770707	0.971681
909.077163	0.973182
909.383578	0.974250
909.689954	0.973827
909.996289	0.974882
910.302584	0.976245
910.608839	0.978630
910.915054	0.977687
911.221229	0.976712
911.527363	0.977202
911.833458	0.976134
912.139513	0.975797
912.445527	0.975298
912.751502	0.973099
913.057436	0.972197
913.363331	0.968250
913.669186	0.965525
913.975000	0.960309
914.280775	0.954266
914.586510	0.946494
914.892205	0.933303
915.197859	0.912573
915.503475	0.884291
915.809050	0.863817
916.114585	0.857098
916.420081	0.854809
916.725536	0.851640
917.030952	0.859558
917.336328	0.873684
917.641665	0.889154
917.946961	0.904070
918.252218	0.916610
918.557435	0.926133
918.862612	0.935037
919.167750	0.940833
919.472848	0.944855
919.777906	0.950821
920.082925	0.956658
920.387904	0.960363
920.692843	0.962708
920.997743	0.963845
921.302603	0.966598
921.607423	0.968618
921.912204	0.972044
922.216946	0.970473
922.521647	0.972380
922.826310	0.974736
923.130932	0.975906
923.435516	0.977973
923.740059	0.978198
924.044564	0.978404
924.349028	0.979791
924.653454	0.981914
924.957840	0.984265
925.262186	0.983819
925.566493	0.983628
925.870761	0.985221
926.174989	0.985663
926.479178	0.987931
926.783328	0.987905
927.087438	0.987650
927.391509	0.987626
927.695541	0.990616
927.999533	0.988230
928.303486	0.989613
928.607400	0.991399
928.911275	0.989356
929.215110	0.989894
929.518906	0.990400
929.822663	0.989430
930.126381	0.990142
930.430060	0.989283
930.733699	0.990857
931.037299	0.988979
931.340861	0.990939
931.644383	0.990921
931.947866	0.988905
932.251309	0.990453
932.554714	0.990199
932.858080	0.989414
933.161407	0.989518
933.464694	0.990889
933.767943	0.989373
934.071153	0.990675
934.374323	0.991120
934.677455	0.990657
934.980548	0.991365
935.283602	0.989487
935.586617	0.990791
935.889593	0.990212
936.192530	0.991795
936.495428	0.991306
936.798287	0.990699
937.101108	0.990190
937.403890	0.989042
937.706632	0.987849
938.009336	0.986649
938.312002	0.985128
938.614628	0.984004
938.917216	0.983191
939.219765	0.980925
939.522275	0.982693
939.824747	0.983123
940.127179	0.982192
940.429573	0.984684
940.731929	0.984238
941.034246	0.983643
941.336524	0.985551
941.638763	0.985052
941.940964	0.986064
942.243126	0.986386
942.545250	0.986593
942.847335	0.988338
943.149381	0.987157
943.451389	0.987181
943.753359	0.988677
944.055290	0.990588
944.357182	0.989645
944.659036	0.988084
944.960851	0.989653
945.262628	0.989769
945.564367	0.989951
945.866067	0.990050
946.167729	0.990162
946.469352	0.989131
946.770937	0.987849
947.072484	0.990982
947.373992	0.989117
947.675462	0.990434
947.976893	0.988825
948.278286	0.988638
948.579641	0.990965
948.880958	0.992014
949.182236	0.990951
949.483476	0.990667
949.784678	0.989837
950.085841	0.991264
950.386967	0.990032
950.688054	0.990186
950.989103	0.990628
951.290114	0.989283
951.591087	0.989040
951.892021	0.990428
952.192917	0.988581
952.493776	0.988035
952.794596	0.988260
953.095378	0.988506
953.396122	0.987328
953.696828	0.987308
953.997496	0.989259
954.298126	0.989980
954.598718	0.990259
954.899272	0.989889
955.199788	0.990570
955.500266	0.991136
955.800706	0.993127
956.101108	0.992685
956.401472	0.993236
956.701798	0.993563
957.002087	0.992754
957.302337	0.993571
957.602550	0.995010
957.902724	0.995577
958.202861	0.995318
958.502960	0.995515
958.803022	0.993811
959.103045	0.996074
959.403031	0.996244
959.702979	0.995320
960.002889	0.996198
960.302762	0.993642
960.602596	0.995975
960.902393	0.994969
961.202153	0.996068
961.501875	0.996799
961.801559	0.995234
962.101205	0.995263
962.400814	0.996195
962.700385	0.997034
962.999918	0.996260
963.299414	0.995861
963.598873	0.995195
963.898293	0.996735
964.197677	0.995853
964.497022	0.995955
964.796331	0.997393
965.095601	0.997073
965.394835	0.996283
965.694030	0.996363
965.993189	0.997034
966.292309	0.995801
966.591393	0.997446
966.890439	0.997426
967.189447	0.996281
967.488419	0.997783
967.787353	0.996229
968.086249	0.996902
968.385108	0.996722
968.683930	0.997814
968.982714	0.996609
969.281462	0.997398
969.580172	0.996554
969.878844	0.998061
970.177480	0.998231
970.476078	0.996629
970.774639	0.996846
971.073162	0.997909
971.371649	0.996219
971.670098	0.996118
971.968510	0.997437
972.266885	0.994804
972.565223	0.996322
972.863524	0.995686
973.161788	0.995962
973.460014	0.998116
973.758204	0.996414
974.056356	0.995818
974.354471	0.995230
974.652550	0.996945
974.950591	0.996344
975.248595	0.995424
975.546563	0.996323
975.844493	0.998090
976.142386	0.997315
976.440243	0.997168
976.738062	0.996305
977.035845	0.997766
977.333590	0.997279
977.631299	0.997151
977.928971	0.997074
978.226606	0.996376
978.524204	0.996017
978.821765	0.999237
979.119290	0.996191
979.416777	0.996965
979.714228	0.997475
980.011642	0.996062
980.309020	0.997753
980.606360	0.996846
980.903664	0.998515
981.200931	0.994998
981.498162	0.995144
981.795356	0.994364
982.092513	0.993636
982.389633	0.993287
982.686717	0.990941
982.983764	0.990202
983.280775	0.990730
983.577749	0.990721
983.874686	0.992935
984.171587	0.990755
984.468451	0.993954
984.765279	0.994472
985.062070	0.993920
985.358824	0.995876
985.655543	0.994910
985.952224	0.995982
986.248869	0.995439
986.545478	0.997525
986.842050	0.996527
987.138586	0.995815
987.435086	0.997833
987.731549	0.999519
988.027975	0.998407
988.324366	0.997730
988.620719	0.997522
988.917037	0.996852
989.213318	0.997421
989.509563	0.999190
989.805772	0.997835
990.101944	0.997893
990.398080	0.997880
990.694180	0.997422
990.990244	0.997557
991.286271	0.998457
991.582262	0.998709
991.878217	0.998059
992.174136	0.998487
992.470019	0.998693
992.765865	0.997993
993.061676	0.997671
993.357450	0.997236
993.653188	0.996744
993.948890	0.996884
994.244556	0.998368
994.540186	0.996580
994.835780	0.996081
995.131337	0.997548
995.426859	0.996353
995.722345	0.998095
996.017795	0.996150
996.313208	0.996409
996.608586	0.995862
996.903928	0.997090
997.199234	0.995489
997.494504	0.996401
997.789738	0.997117
998.084936	0.996142
998.380099	0.997219
998.675225	0.996908
998.970316	0.997827
999.265371	0.998479
999.560390	0.998684
999.855373	0.999188
1000.150320	0.998135
1000.445232	0.999358
1000.740108	0.997899
1001.034948	0.998852
1001.329752	0.999300
1001.624521	0.998305
1001.919254	0.998346
1002.213951	0.998911
1002.508613	0.998086
1002.803239	0.999263
1003.097829	1.000904
1003.392384	0.999761
1003.686903	0.998661
1003.981386	0.998849
1004.275834	0.999437
1004.570246	0.997954
1004.864623	0.997812
1005.158964	0.999213
1005.453270	0.998303
1005.747540	0.997501
1006.041775	0.999172
1006.335974	0.998992
1006.630138	0.999104
1006.924266	1.000001
1007.218359	1.001029
1007.512416	0.999280
1007.806438	0.998436
1008.100425	1.000288
1008.394376	0.999002
1008.688292	0.998336
1008.982172	1.001236
1009.276017	0.999243
1009.569827	0.997920
1009.863602	0.998853
1010.157341	0.999548
1010.451045	0.998833
1010.744714	0.999877
1011.038347	0.998403
1011.331945	0.998325
1011.625508	0.998182
1011.919036	0.999315
1012.212528	0.999237
1012.505986	0.998213
1012.799408	0.998523
1013.092795	1.000124
1013.386147	0.999529
1013.679464	0.999007
1013.972745	0.998270
1014.265992	0.997965
1014.559204	0.998234
1014.852380	0.998571
1015.145521	0.999857
1015.438628	0.999889
1015.731699	0.998266
1016.024736	0.999487
1016.317737	0.998498
1016.610703	0.998577
1016.903635	0.999214
1017.196531	0.998780
1017.489393	1.000267
1017.782219	0.998977
1018.075011	0.998525
1018.367768	0.999756
1018.660490	0.999170
1018.953177	0.999170
1019.245829	0.999170
