Dividing Wavelength (nm)	Counts (n)	Blue Motor Position (mm): 0.000000	Red Motor Position (mm): 16.900000	
326.493990	1.001133
326.888308	1.001133
327.282561	1.001133
327.676750	1.000591
328.070874	1.000398
328.464933	1.000888
328.858929	1.000511
329.252859	0.998984
329.646726	1.000862
330.040528	1.000550
330.434265	0.999877
330.827938	1.002393
331.221547	1.001277
331.615091	1.000175
332.008571	1.000266
332.401986	0.999983
332.795338	0.999872
333.188625	0.999777
333.581847	1.001269
333.975006	1.000348
334.368100	1.000090
334.761129	1.000080
335.154095	1.001202
335.546996	0.999106
335.939833	0.993764
336.332606	0.994639
336.725315	0.993837
337.117960	0.996178
337.510540	0.994568
337.903056	0.995020
338.295508	0.993581
338.687896	0.993170
339.080220	0.993483
339.472480	0.994471
339.864676	0.993574
340.256807	0.996271
340.648875	0.995786
341.040879	0.995100
341.432818	0.994265
341.824694	0.994264
342.216506	0.996080
342.608253	0.994025
342.999937	0.994938
343.391557	0.995359
343.783113	0.994251
344.174605	0.994606
344.566033	0.995280
344.957397	0.993401
345.348697	0.994354
345.739934	0.994690
346.131106	0.993963
346.522215	0.992982
346.913260	0.995211
347.304241	0.994147
347.695159	0.994192
348.086012	0.992824
348.476802	0.994394
348.867528	0.994414
349.258191	0.994319
349.648789	0.994050
350.039324	0.993960
350.429796	0.995611
350.820203	0.994598
351.210548	0.994515
351.600828	0.994612
351.991045	0.994225
352.381198	0.994009
352.771288	0.994340
353.161314	0.993421
353.551276	0.995484
353.941175	0.994439
354.331010	0.993500
354.720782	0.995142
355.110490	0.994689
355.500135	0.994726
355.889717	0.993684
356.279235	0.993652
356.668689	0.994689
357.058080	0.994055
357.447408	0.995390
357.836672	0.994729
358.225873	0.995365
358.615010	0.993770
359.004084	0.995668
359.393095	0.994125
359.782043	0.993759
360.170927	0.995347
360.559748	0.995345
360.948505	0.994585
361.337199	0.994180
361.725830	0.994531
362.114398	0.994224
362.502903	0.994834
362.891344	0.995183
363.279722	0.994190
363.668037	0.995081
364.056289	0.993266
364.444478	0.995741
364.832603	0.994945
365.220665	0.994041
365.608665	0.994496
365.996601	0.994310
366.384474	0.995031
366.772284	0.995526
367.160031	0.993655
367.547715	0.993968
367.935336	0.994778
368.322893	0.993808
368.710388	0.993802
369.097820	0.993637
369.485189	0.993842
369.872495	0.993623
370.259738	0.993102
370.646918	0.995684
371.034035	0.994453
371.421090	0.994049
371.808081	0.994288
372.195010	0.994263
372.581875	0.993897
372.968678	0.994210
373.355418	0.994486
373.742096	0.993741
374.128710	0.995457
374.515262	0.994095
374.901751	0.994625
375.288177	0.995531
375.674540	0.995848
376.060841	0.994333
376.447079	0.994410
376.833254	0.993259
377.219367	0.995279
377.605417	0.994424
377.991404	0.994552
378.377329	0.994389
378.763191	0.993890
379.148991	0.994552
379.534727	0.994849
379.920402	0.994380
380.306013	0.994586
380.691563	0.995456
381.077049	0.994455
381.462474	0.994924
381.847835	0.994870
382.233134	0.994429
382.618371	0.994320
383.003545	0.994062
383.388657	0.995118
383.773706	0.995215
384.158693	0.994309
384.543618	0.994603
384.928480	0.995877
385.313280	0.994169
385.698017	0.995258
386.082692	0.994836
386.467305	0.994348
386.851856	0.994762
387.236344	0.994252
387.620770	0.993247
388.005133	0.994462
388.389435	0.994641
388.773674	0.993607
389.157851	0.994424
389.541965	0.994530
389.926018	0.994005
390.310008	0.994699
390.693936	0.994595
391.077802	0.995194
391.461606	0.994428
391.845348	0.994260
392.229027	0.995917
392.612645	0.995379
392.996200	0.995133
393.379694	0.993771
393.763125	0.995174
394.146494	0.994655
394.529801	0.994084
394.913047	0.995058
395.296230	0.994891
395.679351	0.994662
396.062410	0.994450
396.445408	0.994085
396.828343	0.993324
397.211217	0.993882
397.594028	0.993059
397.976778	0.992561
398.359466	0.993212
398.742092	0.992067
399.124656	0.991435
399.507158	0.991839
399.889598	0.991243
400.271977	0.989936
400.654294	0.989290
401.036549	0.988743
401.418742	0.986187
401.800874	0.982870
402.182944	0.980747
402.564952	0.977898
402.946898	0.976738
403.328783	0.973846
403.710606	0.970727
404.092367	0.966104
404.474067	0.962954
404.855705	0.958806
405.237282	0.955979
405.618797	0.950168
406.000250	0.944700
406.381642	0.939134
406.762972	0.935496
407.144240	0.929393
407.525447	0.924759
407.906593	0.917455
408.287677	0.910327
408.668700	0.906155
409.049661	0.897811
409.430560	0.891270
409.811399	0.884721
410.192176	0.874079
410.572891	0.868621
410.953545	0.857140
411.334138	0.853576
411.714669	0.844976
412.095139	0.839980
412.475547	0.826954
412.855894	0.818975
413.236180	0.810389
413.616405	0.803945
413.996568	0.792245
414.376670	0.785940
414.756711	0.779778
415.136691	0.769717
415.516609	0.756942
415.896466	0.746072
416.276262	0.735179
416.655997	0.728635
417.035670	0.707915
417.415283	0.695969
417.794834	0.689967
418.174324	0.685591
418.553753	0.682287
418.933121	0.662183
419.312428	0.649318
419.691674	0.644249
420.070859	0.628564
420.449983	0.626677
420.829045	0.611013
421.208047	0.611280
421.586988	0.598087
421.965867	0.589692
422.344686	0.573845
422.723444	0.577577
423.102141	0.584936
423.480777	0.557154
423.859352	0.568456
424.237866	0.542588
424.616319	0.538691
424.994712	0.525400
425.373044	0.529448
425.751314	0.513809
426.129524	0.523204
426.507673	0.505142
426.885762	0.495174
427.263789	0.495808
427.641756	0.501820
428.019662	0.489254
428.397508	0.484556
428.775292	0.485834
429.153016	0.475818
429.530679	0.479290
429.908282	0.470385
430.285824	0.478064
430.663305	0.454785
431.040726	0.472967
431.418086	0.472414
431.795385	0.462015
432.172624	0.459453
432.549802	0.458972
432.926920	0.457021
433.303977	0.455185
433.680974	0.451094
434.057910	0.449175
434.434786	0.448407
434.811601	0.449162
435.188355	0.431282
435.565050	0.440057
435.941683	0.441201
436.318257	0.425593
436.694770	0.425299
437.071222	0.423125
437.447614	0.427258
437.823946	0.433541
438.200218	0.422951
438.576429	0.432022
438.952580	0.424980
439.328670	0.421761
439.704700	0.427820
440.080670	0.428876
440.456580	0.410578
440.832429	0.417941
441.208218	0.429084
441.583947	0.418048
441.959616	0.418101
442.335224	0.422275
442.710773	0.413357
443.086261	0.411083
443.461689	0.425374
443.837057	0.415287
444.212365	0.404638
444.587612	0.411678
444.962800	0.401682
445.337927	0.403084
445.712995	0.429409
446.088002	0.391670
446.462949	0.402081
446.837837	0.407020
447.212664	0.395590
447.587431	0.387272
447.962139	0.358132
448.336786	0.317434
448.711374	0.327318
449.085901	0.371500
449.460369	0.375703
449.834776	0.379002
450.209124	0.358282
450.583412	0.351007
450.957640	0.344186
451.331808	0.355181
451.705917	0.378649
452.079965	0.382994
452.453954	0.371417
452.827883	0.377967
453.201752	0.372809
453.575562	0.384629
453.949311	0.372946
454.323001	0.378970
454.696632	0.375227
455.070202	0.367597
455.443713	0.359402
455.817164	0.354429
456.190556	0.350071
456.563888	0.346880
456.937160	0.344493
457.310373	0.361442
457.683526	0.360143
458.056619	0.366448
458.429653	0.366795
458.802628	0.370091
459.175542	0.364586
459.548398	0.347291
459.921194	0.339662
460.293930	0.339769
460.666607	0.317570
461.039224	0.305368
461.411782	0.300929
461.784280	0.300790
462.156719	0.304809
462.529099	0.309203
462.901419	0.324933
463.273680	0.330047
463.645882	0.329101
464.018024	0.335324
464.390106	0.327984
464.762130	0.312946
465.134094	0.295577
465.505999	0.264982
465.877845	0.235639
466.249631	0.222482
466.621358	0.230212
466.993026	0.243637
467.364634	0.250123
467.736184	0.258838
468.107674	0.267633
468.479105	0.266510
468.850477	0.273286
469.221790	0.280211
469.593043	0.290391
469.964238	0.295147
470.335373	0.294470
470.706449	0.292856
471.077467	0.293721
471.448425	0.255634
471.819324	0.231519
472.190164	0.230663
472.560945	0.259623
472.931667	0.281410
473.302330	0.285735
473.672934	0.297308
474.043479	0.285642
474.413965	0.287395
474.784393	0.291142
475.154761	0.286384
475.525070	0.283247
475.895321	0.289185
476.265513	0.283366
476.635645	0.278548
477.005719	0.278581
477.375734	0.275282
477.745691	0.268540
478.115588	0.264779
478.485427	0.258660
478.855207	0.245479
479.224928	0.228058
479.594591	0.216326
479.964194	0.219793
480.333739	0.220562
480.703226	0.222150
481.072653	0.220854
481.442022	0.216378
481.811333	0.212921
482.180584	0.216590
482.549777	0.221663
482.918912	0.224749
483.287988	0.224581
483.657005	0.224360
484.025964	0.231078
484.394864	0.228006
484.763706	0.228873
485.132489	0.233572
485.501213	0.234292
485.869879	0.232823
486.238487	0.236015
486.607036	0.233550
486.975527	0.238153
487.343959	0.234266
487.712333	0.233074
488.080648	0.234670
488.448905	0.234041
488.817104	0.235152
489.185244	0.229663
489.553326	0.226309
489.921350	0.216416
490.289315	0.199027
490.657222	0.193858
491.025070	0.195254
491.392861	0.197140
491.760593	0.203018
492.128267	0.208349
492.495883	0.214120
492.863440	0.220094
493.230939	0.226427
493.598380	0.227762
493.965763	0.230031
494.333088	0.232366
494.700354	0.233418
495.067563	0.232634
495.434713	0.235758
495.801805	0.233951
496.168839	0.235448
496.535815	0.236789
496.902733	0.236839
497.269593	0.238150
497.636395	0.236028
498.003139	0.236144
498.369825	0.239500
498.736453	0.235721
499.103023	0.237501
499.469535	0.236671
499.835989	0.236751
500.202385	0.237835
500.568723	0.241306
500.935003	0.236629
501.301226	0.240454
501.667390	0.234753
502.033497	0.233221
502.399546	0.235871
502.765537	0.237635
503.131470	0.236120
503.497345	0.232428
503.863163	0.241091
504.228923	0.234257
504.594625	0.233137
504.960269	0.238294
505.325856	0.233820
505.691385	0.238004
506.056856	0.234471
506.422270	0.234208
506.787625	0.236554
507.152924	0.234047
507.518164	0.234279
507.883347	0.236331
508.248472	0.237894
508.613540	0.232919
508.978550	0.235338
509.343503	0.235544
509.708398	0.233335
510.073236	0.231261
510.438016	0.231295
510.802738	0.232346
511.167403	0.230986
511.532010	0.232931
511.896561	0.228437
512.261053	0.227236
512.625488	0.229199
512.989866	0.229495
513.354186	0.229673
513.718449	0.231642
514.082655	0.227957
514.446803	0.230329
514.810894	0.227953
515.174927	0.230531
515.538904	0.229968
515.902822	0.226970
516.266684	0.229042
516.630488	0.230734
516.994235	0.229337
517.357925	0.228048
517.721558	0.226367
518.085133	0.225734
518.448651	0.226185
518.812112	0.228246
519.175516	0.227979
519.538863	0.225593
519.902152	0.227070
520.265385	0.224052
520.628560	0.225477
520.991678	0.226129
521.354739	0.225060
521.717743	0.226163
522.080690	0.226849
522.443580	0.223927
522.806413	0.224769
523.169189	0.224164
523.531908	0.223029
523.894569	0.226883
524.257174	0.226686
524.619722	0.224369
524.982213	0.225593
525.344647	0.224390
525.707025	0.225310
526.069345	0.223312
526.431608	0.225128
526.793815	0.222837
527.155964	0.227056
527.518057	0.226010
527.880093	0.227157
528.242072	0.225664
528.603995	0.227546
528.965860	0.229090
529.327669	0.228206
529.689421	0.228620
530.051117	0.229852
530.412755	0.227310
530.774337	0.229793
531.135862	0.230255
531.497331	0.229404
531.858743	0.232591
532.220098	0.229279
532.581396	0.231677
532.942638	0.232072
533.303824	0.233111
533.664953	0.233079
534.026025	0.234493
534.387040	0.232518
534.747999	0.232474
535.108902	0.231433
535.469748	0.236455
535.830537	0.234274
536.191270	0.234472
536.551947	0.234061
536.912567	0.234108
537.273131	0.235767
537.633638	0.236117
537.994089	0.236269
538.354483	0.237348
538.714821	0.234556
539.075103	0.234129
539.435328	0.235077
539.795497	0.238691
540.155609	0.235297
540.515665	0.233501
540.875665	0.239085
541.235609	0.237486
541.595496	0.237771
541.955328	0.234235
542.315102	0.236838
542.674821	0.238001
543.034483	0.237770
543.394090	0.237578
543.753640	0.239616
544.113134	0.234279
544.472571	0.237884
544.831953	0.234638
545.191278	0.238765
545.550548	0.237933
545.909761	0.234979
546.268918	0.235551
546.628019	0.234088
546.987064	0.237135
547.346053	0.238606
547.704986	0.236639
548.063863	0.236891
548.422684	0.236870
548.781449	0.238871
549.140158	0.236371
549.498811	0.239274
549.857408	0.242429
550.215949	0.237184
550.574434	0.240173
550.932864	0.238102
551.291237	0.237064
551.649555	0.238273
552.007817	0.238133
552.366022	0.238993
552.724173	0.239133
553.082267	0.239348
553.440305	0.236301
553.798288	0.240503
554.156215	0.237405
554.514086	0.237995
554.871902	0.241106
555.229661	0.240263
555.587365	0.240678
555.945014	0.243605
556.302606	0.240435
556.660143	0.243018
557.017625	0.239182
557.375050	0.241467
557.732421	0.238680
558.089735	0.240630
558.446994	0.240813
558.804197	0.239909
559.161345	0.239790
559.518437	0.243344
559.875474	0.241147
560.232455	0.240184
560.589381	0.241653
560.946251	0.241275
561.303065	0.239141
561.659825	0.240506
562.016528	0.241958
562.373177	0.245157
562.729770	0.242272
563.086307	0.244569
563.442789	0.242189
563.799216	0.244897
564.155587	0.243644
564.511904	0.244875
564.868164	0.244912
565.224370	0.244813
565.580520	0.246638
565.936615	0.246476
566.292654	0.249271
566.648638	0.246144
567.004567	0.247291
567.360441	0.247743
567.716260	0.250183
568.072023	0.247607
568.427732	0.248506
568.783385	0.250997
569.138982	0.249097
569.494525	0.248869
569.850013	0.251360
570.205445	0.249906
570.560823	0.252518
570.916145	0.254511
571.271412	0.252581
571.626625	0.254103
571.981782	0.254607
572.336884	0.255464
572.691931	0.255058
573.046923	0.256192
573.401860	0.257454
573.756743	0.259315
574.111570	0.258003
574.466342	0.258460
574.821059	0.258014
575.175722	0.260589
575.530330	0.260700
575.884882	0.260377
576.239380	0.262948
576.593823	0.263047
576.948211	0.262600
577.302544	0.265934
577.656823	0.265601
578.011047	0.265545
578.365216	0.266295
578.719330	0.268388
579.073389	0.268200
579.427394	0.269405
579.781344	0.270094
580.135239	0.271571
580.489080	0.271101
580.842866	0.274194
581.196597	0.273840
581.550273	0.272885
581.903895	0.273880
582.257463	0.272020
582.610975	0.275479
582.964434	0.274476
583.317837	0.277061
583.671186	0.277667
584.024481	0.277384
584.377721	0.280098
584.730906	0.280545
585.084037	0.280031
585.437113	0.281570
585.790135	0.281257
586.143103	0.284045
586.496016	0.285473
586.848874	0.282878
587.201679	0.283374
587.554428	0.287055
587.907124	0.285452
588.259765	0.286072
588.612352	0.286980
588.964884	0.290511
589.317362	0.290154
589.669786	0.290052
590.022155	0.288464
590.374470	0.288157
590.726731	0.290239
591.078937	0.294815
591.431090	0.290601
591.783188	0.295198
592.135232	0.295796
592.487222	0.295691
592.839157	0.293945
593.191038	0.296348
593.542866	0.297779
593.894639	0.301840
594.246358	0.299630
594.598022	0.298735
594.949633	0.302948
595.301190	0.303257
595.652692	0.302602
596.004141	0.298718
596.355535	0.306948
596.706876	0.307271
597.058162	0.309427
597.409395	0.306883
597.760573	0.304607
598.111698	0.308060
598.462768	0.308644
598.813785	0.309804
599.164748	0.311079
599.515657	0.311018
599.866511	0.314389
600.217312	0.309771
600.568060	0.315234
600.918753	0.311058
601.269392	0.312478
601.619978	0.315776
601.970510	0.313727
602.320988	0.313674
602.671412	0.311299
603.021783	0.313558
603.372100	0.315338
603.722363	0.314586
604.072572	0.315653
604.422728	0.315394
604.772830	0.317503
605.122878	0.317301
605.472872	0.317402
605.822813	0.315963
606.172701	0.318507
606.522534	0.315860
606.872314	0.316021
607.222041	0.317115
607.571714	0.315244
607.921333	0.316315
608.270899	0.315942
608.620411	0.312883
608.969870	0.316751
609.319276	0.316839
609.668627	0.316776
610.017926	0.315346
610.367171	0.313985
610.716362	0.314509
611.065500	0.314670
611.414585	0.313677
611.763616	0.314289
612.112594	0.314355
612.461518	0.314107
612.810389	0.311506
613.159207	0.313930
613.507971	0.316276
613.856682	0.311730
614.205340	0.313010
614.553945	0.309920
614.902496	0.314030
615.250994	0.311626
615.599439	0.312710
615.947830	0.311965
616.296169	0.313217
616.644454	0.312603
616.992686	0.312504
617.340864	0.310479
617.688990	0.313889
618.037063	0.310805
618.385082	0.312736
618.733048	0.309269
619.080961	0.311847
619.428821	0.311075
619.776628	0.310573
620.124382	0.312854
620.472083	0.313178
620.819731	0.312291
621.167326	0.316409
621.514868	0.315779
621.862357	0.320126
622.209793	0.319407
622.557176	0.322358
622.904506	0.323312
623.251783	0.325588
623.599007	0.327589
623.946179	0.327669
624.293297	0.329042
624.640363	0.333483
624.987376	0.333544
625.334336	0.336522
625.681243	0.338483
626.028097	0.339355
626.374899	0.340319
626.721647	0.339908
627.068343	0.343587
627.414987	0.344909
627.761577	0.346959
628.108115	0.344910
628.454600	0.350125
628.801032	0.347027
629.147412	0.349711
629.493739	0.349915
629.840014	0.353168
630.186236	0.350633
630.532405	0.355990
630.878521	0.353565
631.224585	0.355599
631.570597	0.359461
631.916556	0.357588
632.262462	0.358135
632.608316	0.360148
632.954117	0.360519
633.299866	0.361612
633.645562	0.362003
633.991206	0.366427
634.336797	0.369540
634.682336	0.371438
635.027823	0.373451
635.373257	0.373768
635.718639	0.377379
636.063968	0.376334
636.409245	0.382309
636.754470	0.382585
637.099642	0.385324
637.444762	0.388865
637.789829	0.387726
638.134845	0.391059
638.479808	0.392044
638.824719	0.391872
639.169577	0.396102
639.514383	0.394859
639.859137	0.399107
640.203839	0.399182
640.548489	0.399535
640.893086	0.400722
641.237632	0.402419
641.582125	0.401128
641.926566	0.402566
642.270955	0.402433
642.615292	0.403053
642.959576	0.401943
643.303809	0.402067
643.647990	0.402004
643.992118	0.402629
644.336195	0.406124
644.680219	0.404311
645.024192	0.404916
645.368112	0.398627
645.711981	0.398149
646.055797	0.393221
646.399562	0.395723
646.743274	0.387499
647.086935	0.384835
647.430544	0.385152
647.774101	0.383792
648.117606	0.383903
648.461059	0.383931
648.804460	0.386332
649.147810	0.391546
649.491108	0.393771
649.834354	0.394975
650.177548	0.400417
650.520690	0.405926
650.863781	0.406808
651.206820	0.406258
651.549807	0.410937
651.892742	0.414693
652.235626	0.414248
652.578458	0.415375
652.921238	0.421676
653.263967	0.419202
653.606644	0.423803
653.949269	0.423185
654.291843	0.426989
654.634365	0.423499
654.976836	0.426825
655.319255	0.427545
655.661622	0.428695
656.003938	0.428699
656.346203	0.431835
656.688416	0.429253
657.030577	0.432982
657.372687	0.434459
657.714746	0.435554
658.056753	0.432410
658.398708	0.436661
658.740612	0.437691
659.082465	0.433692
659.424266	0.434578
659.766016	0.433814
660.107715	0.436750
660.449362	0.435110
660.790958	0.435565
661.132503	0.436111
661.473996	0.434218
661.815438	0.434663
662.156829	0.435729
662.498168	0.435436
662.839456	0.437170
663.180693	0.435080
663.521879	0.435172
663.863013	0.435915
664.204097	0.434591
664.545129	0.431786
664.886110	0.431499
665.227040	0.429250
665.567918	0.431562
665.908746	0.429641
666.249522	0.429530
666.590248	0.429901
666.930922	0.428440
667.271545	0.427657
667.612118	0.427705
667.952639	0.429036
668.293109	0.427433
668.633528	0.430665
668.973896	0.430410
669.314213	0.430932
669.654480	0.432275
669.994695	0.433017
670.334859	0.433893
670.674973	0.434264
671.015035	0.434362
671.355047	0.434291
671.695008	0.435071
672.034918	0.437135
672.374777	0.436171
672.714585	0.437799
673.054342	0.437526
673.394049	0.437668
673.733705	0.434715
674.073310	0.436126
674.412864	0.439599
674.752368	0.440012
675.091820	0.439861
675.431223	0.444480
675.770574	0.444194
676.109875	0.447506
676.449125	0.447340
676.788324	0.449121
677.127473	0.454990
677.466571	0.454597
677.805619	0.455983
678.144616	0.457272
678.483562	0.458621
678.822458	0.461645
679.161303	0.462891
679.500098	0.463117
679.838842	0.464752
680.177535	0.464214
680.516179	0.462755
680.854771	0.461839
681.193314	0.455191
681.531805	0.446580
681.870247	0.435731
682.208638	0.427814
682.546978	0.426243
682.885268	0.428335
683.223508	0.434966
683.561697	0.438436
683.899836	0.441017
684.237925	0.444217
684.575963	0.446864
684.913951	0.449803
685.251889	0.445612
685.589776	0.447637
685.927614	0.450210
686.265401	0.444406
686.603137	0.445658
686.940824	0.439515
687.278460	0.438522
687.616046	0.437173
687.953582	0.432253
688.291068	0.434084
688.628504	0.429032
688.965889	0.431540
689.303224	0.435601
689.640510	0.439874
689.977745	0.445394
690.314930	0.453439
690.652065	0.458256
690.989150	0.465554
691.326185	0.472029
691.663170	0.477006
692.000105	0.484375
692.336990	0.490648
692.673825	0.493597
693.010610	0.500069
693.347345	0.505789
693.684030	0.506665
694.020665	0.511915
694.357251	0.520330
694.693786	0.520557
695.030272	0.524445
695.366707	0.528157
695.703093	0.531691
696.039429	0.529217
696.375716	0.530761
696.711952	0.533431
697.048139	0.535224
697.384276	0.536661
697.720363	0.536260
698.056400	0.535085
698.392388	0.540894
698.728326	0.543643
699.064214	0.545777
699.400053	0.547064
699.735842	0.550318
700.071581	0.553582
700.407270	0.556571
700.742910	0.559721
701.078501	0.564840
701.414042	0.565982
701.749533	0.568049
702.084974	0.577802
702.420366	0.569985
702.755709	0.577457
703.091002	0.584710
703.426246	0.578474
703.761440	0.584833
704.096584	0.589492
704.431679	0.586589
704.766725	0.588275
705.101721	0.589659
705.436668	0.586572
705.771565	0.592917
706.106413	0.590438
706.441212	0.585323
706.775961	0.583985
707.110661	0.586549
707.445311	0.583563
707.779913	0.580349
708.114465	0.578635
708.448967	0.575089
708.783421	0.567056
709.117825	0.562562
709.452180	0.562318
709.786485	0.555293
710.120742	0.545898
710.454949	0.547466
710.789107	0.539760
711.123216	0.530884
711.457275	0.532992
711.791286	0.523759
712.125247	0.522262
712.459159	0.532778
712.793023	0.526085
713.126837	0.529633
713.460602	0.530342
713.794318	0.540060
714.127985	0.538283
714.461602	0.548562
714.795171	0.551728
715.128691	0.559384
715.462162	0.567350
715.795584	0.572512
716.128957	0.575796
716.462281	0.582000
716.795556	0.585510
717.128782	0.590941
717.461960	0.600397
717.795088	0.598770
718.128167	0.604917
718.461198	0.613459
718.794180	0.614262
719.127113	0.617859
719.459997	0.621194
719.792833	0.626315
720.125619	0.628334
720.458357	0.633705
720.791046	0.633323
721.123686	0.637126
721.456278	0.643888
721.788821	0.641544
722.121315	0.645108
722.453761	0.649437
722.786158	0.647259
723.118506	0.644017
723.450805	0.652038
723.783056	0.647839
724.115259	0.644540
724.447412	0.644522
724.779518	0.646669
725.111574	0.645144
725.443582	0.640977
725.775542	0.642372
726.107453	0.634303
726.439315	0.634063
726.771129	0.633228
727.102895	0.626354
727.434612	0.619318
727.766281	0.617435
728.097901	0.616410
728.429473	0.616520
728.760996	0.615314
729.092471	0.614576
729.423897	0.618734
729.755276	0.617689
730.086606	0.617894
730.417887	0.612049
730.749120	0.603314
731.080305	0.594105
731.411442	0.589781
731.742530	0.594162
732.073570	0.594416
732.404562	0.586640
732.735506	0.587836
733.066401	0.591963
733.397249	0.601745
733.728048	0.612981
734.058798	0.625617
734.389501	0.635741
734.720156	0.646237
735.050762	0.654540
735.381320	0.655268
735.711831	0.664609
736.042293	0.668767
736.372707	0.665228
736.703073	0.670061
737.033391	0.671712
737.363661	0.667824
737.693883	0.663467
738.024056	0.663377
738.354182	0.663493
738.684260	0.652587
739.014290	0.647641
739.344272	0.649738
739.674207	0.643174
740.004093	0.642363
740.333931	0.642323
740.663722	0.642769
740.993464	0.642514
741.323159	0.648153
741.652806	0.651800
741.982405	0.656753
742.311956	0.661637
742.641460	0.663692
742.970915	0.667412
743.300323	0.674644
743.629683	0.681689
743.958996	0.683411
744.288260	0.688078
744.617477	0.694003
744.946647	0.694764
745.275768	0.701139
745.604842	0.700132
745.933869	0.710454
746.262847	0.711235
746.591778	0.704456
746.920662	0.710181
747.249498	0.717188
747.578286	0.708281
747.907027	0.704259
748.235720	0.705148
748.564365	0.699711
748.892963	0.699469
749.221514	0.703584
749.550017	0.707401
749.878473	0.707662
750.206881	0.713421
750.535242	0.715627
750.863555	0.714608
751.191821	0.716241
751.520039	0.719199
751.848210	0.723930
752.176334	0.716572
752.504411	0.715717
752.832440	0.723213
753.160421	0.727991
753.488356	0.725496
753.816243	0.723751
754.144082	0.731333
754.471875	0.735381
754.799620	0.731332
755.127318	0.731679
755.454969	0.731999
755.782572	0.731281
756.110129	0.737133
756.437638	0.738752
756.765100	0.735335
757.092515	0.733333
757.419882	0.732611
757.747203	0.737785
758.074477	0.736624
758.401703	0.734182
758.728882	0.729382
759.056014	0.727600
759.383099	0.727291
759.710138	0.729183
760.037129	0.725399
760.364073	0.718464
760.690970	0.721104
761.017820	0.726868
761.344623	0.722199
761.671379	0.713332
761.998088	0.701805
762.324751	0.678721
762.651366	0.637676
762.977935	0.570153
763.304456	0.518383
763.630931	0.509333
763.957359	0.547816
764.283740	0.592148
764.610074	0.619240
764.936362	0.650139
765.262602	0.677305
765.588796	0.699212
765.914943	0.717023
766.241044	0.734736
766.567097	0.741477
766.893104	0.750763
767.219064	0.757526
767.544978	0.764308
767.870845	0.777327
768.196665	0.780611
768.522438	0.779577
768.848165	0.781298
769.173846	0.789583
769.499479	0.794856
769.825066	0.797663
770.150607	0.802411
770.476101	0.798695
770.801548	0.798979
771.126949	0.810039
771.452303	0.814352
771.777611	0.812918
772.102872	0.812417
772.428087	0.817897
772.753256	0.821555
773.078378	0.822666
773.403453	0.831478
773.728482	0.836131
774.053465	0.829280
774.378401	0.834308
774.703291	0.840884
775.028135	0.840877
775.352932	0.842816
775.677683	0.846718
776.002388	0.845736
776.327046	0.844912
776.651658	0.848775
776.976224	0.852076
777.300743	0.852655
777.625216	0.855274
777.949643	0.855699
778.274024	0.857569
778.598359	0.858315
778.922647	0.855720
779.246889	0.857360
779.571086	0.861575
779.895236	0.864177
780.219339	0.861145
780.543397	0.858373
780.867409	0.855992
781.191374	0.858179
781.515294	0.860198
781.839167	0.858876
782.162995	0.863098
782.486776	0.858809
782.810511	0.859451
783.134201	0.863659
783.457844	0.861624
783.781441	0.863665
784.104993	0.869964
784.428498	0.869596
784.751958	0.865236
785.075372	0.868637
785.398739	0.872264
785.722061	0.868556
786.045337	0.864557
786.368568	0.869445
786.691752	0.871721
787.014891	0.856152
787.337983	0.848072
787.661030	0.841051
787.984031	0.823107
788.306987	0.810792
788.629897	0.812461
788.952760	0.816706
789.275579	0.821178
789.598351	0.836368
789.921078	0.849186
790.243759	0.850949
790.566395	0.855677
790.888984	0.862451
791.211529	0.868165
791.534027	0.871948
791.856480	0.873973
792.178888	0.878310
792.501249	0.881215
792.823566	0.882931
793.145836	0.882933
793.468062	0.884855
793.790241	0.884475
794.112375	0.883610
794.434464	0.878100
794.756507	0.877784
795.078505	0.877341
795.400457	0.871916
795.722364	0.859669
796.044226	0.853492
796.366042	0.851915
796.687812	0.855265
797.009538	0.852359
797.331218	0.854285
797.652852	0.859602
797.974442	0.864139
798.295986	0.864200
798.617484	0.866737
798.938938	0.870596
799.260346	0.875263
799.581709	0.876978
799.903026	0.879046
800.224299	0.879291
800.545526	0.884828
800.866708	0.888629
801.187845	0.892732
801.508936	0.892176
801.829983	0.890388
802.150984	0.893118
802.471940	0.897299
802.792851	0.896696
803.113717	0.897871
803.434538	0.896180
803.755314	0.898470
804.076045	0.901168
804.396731	0.899865
804.717372	0.899639
805.037967	0.901126
805.358518	0.898932
805.679024	0.896289
805.999485	0.896930
806.319901	0.896630
806.640272	0.898026
806.960598	0.895888
807.280879	0.893411
807.601115	0.892221
807.921306	0.896357
808.241453	0.896124
808.561554	0.893965
808.881611	0.894386
809.201623	0.895613
809.521590	0.897088
809.841513	0.897567
810.161390	0.896365
810.481223	0.897795
810.801011	0.902304
811.120755	0.901906
811.440453	0.900494
811.760107	0.900749
812.079716	0.899683
812.399281	0.903244
812.718801	0.905573
813.038276	0.907903
813.357707	0.905648
813.677093	0.903820
813.996434	0.907367
814.315731	0.908417
814.634983	0.909415
814.954191	0.908328
815.273354	0.904534
815.592473	0.901105
815.911547	0.900759
816.230577	0.899066
816.549562	0.895363
816.868502	0.896768
817.187399	0.892615
817.506250	0.887979
817.825058	0.889467
818.143821	0.886704
818.462539	0.881688
818.781213	0.873222
819.099843	0.861924
819.418429	0.845884
819.736970	0.828699
820.055466	0.809089
820.373919	0.783974
820.692327	0.751128
821.010691	0.715124
821.329011	0.638000
821.647286	0.521858
821.965517	0.408720
822.283704	0.365895
822.601847	0.367011
822.919945	0.402893
823.237999	0.436359
823.556010	0.483229
823.873976	0.539814
824.191897	0.590201
824.509775	0.631997
824.827609	0.678060
825.145398	0.700515
825.463144	0.703797
825.780845	0.687007
826.098502	0.667432
826.416116	0.621582
826.733685	0.577567
827.051210	0.569341
827.368692	0.583888
827.686129	0.621010
828.003522	0.674769
828.320872	0.722221
828.638177	0.764685
828.955439	0.799790
829.272656	0.820626
829.589830	0.838033
829.906960	0.854242
830.224046	0.867631
830.541088	0.876578
830.858086	0.881804
831.175041	0.887210
831.491952	0.887038
831.808819	0.884055
832.125642	0.876785
832.442421	0.861937
832.759157	0.839174
833.075849	0.793492
833.392497	0.728914
833.709101	0.689145
834.025662	0.698435
834.342179	0.730201
834.658653	0.769467
834.975083	0.805659
835.291469	0.831146
835.607811	0.853674
835.924110	0.870939
836.240366	0.887337
836.556578	0.901218
836.872746	0.908590
837.188871	0.914436
837.504952	0.920076
837.820990	0.923223
838.136984	0.926784
838.452935	0.929685
838.768842	0.931583
839.084706	0.924709
839.400526	0.899612
839.716303	0.859795
840.032037	0.835827
840.347727	0.839522
840.663373	0.858035
840.978977	0.880788
841.294537	0.901943
841.610054	0.918897
841.925527	0.925492
842.240957	0.933803
842.556344	0.940690
842.871687	0.946394
843.186987	0.951267
843.502244	0.951285
843.817458	0.951495
844.132629	0.956444
844.447756	0.960145
844.762840	0.959531
845.077881	0.960034
845.392879	0.959621
845.707833	0.963434
846.022745	0.964094
846.337613	0.964379
846.652438	0.966765
846.967221	0.964468
847.281960	0.965871
847.596656	0.968051
847.911309	0.966289
848.225919	0.968091
848.540485	0.968193
848.855009	0.969061
849.169490	0.968838
849.483928	0.969303
849.798323	0.970009
850.112675	0.970948
850.426984	0.970181
850.741251	0.968932
851.055474	0.970403
851.369654	0.967742
851.683792	0.969371
851.997887	0.970386
852.311938	0.970509
852.625947	0.970387
852.939914	0.969183
853.253837	0.968123
853.567718	0.971673
853.881555	0.971249
854.195350	0.967301
854.509103	0.969192
854.822812	0.971896
855.136479	0.970377
855.450103	0.969747
855.763685	0.969257
856.077224	0.969039
856.390720	0.971083
856.704173	0.969740
857.017584	0.969280
857.330953	0.966585
857.644278	0.967920
857.957561	0.967841
858.270802	0.967877
858.584000	0.968070
858.897155	0.966855
859.210268	0.968656
859.523339	0.969056
859.836367	0.970950
860.149352	0.971053
860.462295	0.968270
860.775195	0.970510
861.088054	0.968867
861.400869	0.970874
861.713642	0.970540
862.026373	0.971814
862.339062	0.971034
862.651708	0.969137
862.964312	0.969163
863.276873	0.970639
863.589392	0.968225
863.901869	0.966387
864.214303	0.964861
864.526696	0.964413
864.839045	0.963278
865.151353	0.961978
865.463619	0.963356
865.775842	0.962994
866.088023	0.961208
866.400162	0.962497
866.712258	0.962068
867.024313	0.963283
867.336325	0.964124
867.648296	0.962721
867.960224	0.962200
868.272110	0.962860
868.583954	0.964388
868.895755	0.965434
869.207515	0.961526
869.519233	0.959001
869.830909	0.961612
870.142542	0.963144
870.454134	0.962141
870.765684	0.960946
871.077191	0.958055
871.388657	0.959072
871.700081	0.957532
872.011463	0.957864
872.322803	0.958010
872.634101	0.956657
872.945357	0.954778
873.256571	0.953487
873.567744	0.953405
873.878874	0.953574
874.189963	0.952185
874.501010	0.952026
874.812015	0.950354
875.122979	0.951204
875.433900	0.953792
875.744780	0.954055
876.055618	0.952401
876.366415	0.950109
876.677169	0.949809
876.987882	0.951859
877.298554	0.951376
877.609183	0.946898
877.919771	0.945255
878.230317	0.943100
878.540822	0.939811
878.851285	0.934910
879.161707	0.926914
879.472087	0.915816
879.782425	0.898936
880.092722	0.864475
880.402977	0.811885
880.713191	0.750851
881.023363	0.691736
881.333494	0.657054
881.643583	0.629694
881.953631	0.629691
882.263637	0.658744
882.573602	0.696868
882.883526	0.722900
883.193408	0.746688
883.503248	0.768835
883.813048	0.797526
884.122806	0.826961
884.432522	0.850974
884.742197	0.870528
885.051831	0.881396
885.361424	0.890936
885.670975	0.904339
885.980485	0.914342
886.289954	0.919973
886.599382	0.924569
886.908768	0.928765
887.218113	0.933712
887.527417	0.939368
887.836680	0.942459
888.145901	0.943670
888.455082	0.946165
888.764221	0.949717
889.073319	0.952291
889.382376	0.953181
889.691392	0.952593
890.000366	0.952606
890.309300	0.953729
890.618193	0.953492
890.927044	0.951818
891.235855	0.952924
891.544625	0.951334
891.853353	0.951541
892.162041	0.949077
892.470687	0.943084
892.779293	0.938382
893.087858	0.934396
893.396381	0.926574
893.704864	0.911941
894.013306	0.889062
894.321707	0.862182
894.630068	0.848509
894.938387	0.843164
895.246665	0.844563
895.554903	0.856972
895.863100	0.870048
896.171256	0.886929
896.479371	0.905819
896.787446	0.919087
897.095480	0.924618
897.403473	0.928850
897.711425	0.931712
898.019336	0.940502
898.327207	0.943020
898.635038	0.944444
898.942827	0.945446
899.250576	0.948028
899.558284	0.952675
899.865952	0.954237
900.173579	0.955767
900.481165	0.955670
900.788711	0.960213
901.096216	0.961663
901.403681	0.961557
901.711105	0.962810
902.018489	0.962561
902.325832	0.962041
902.633135	0.962245
902.940397	0.955539
903.247619	0.943910
903.554800	0.917851
903.861941	0.878327
904.169041	0.842448
904.476101	0.824902
904.783121	0.825278
905.090100	0.841354
905.397039	0.862967
905.703938	0.885126
906.010796	0.905929
906.317614	0.922420
906.624391	0.934554
906.931129	0.944108
907.237826	0.952402
907.544483	0.958132
907.851099	0.964054
908.157675	0.966894
908.464211	0.969873
908.770707	0.973286
909.077163	0.974597
909.383578	0.973459
909.689954	0.975820
909.996289	0.976516
910.302584	0.977954
910.608839	0.979662
910.915054	0.979159
911.221229	0.977646
911.527363	0.978320
911.833458	0.976681
912.139513	0.976687
912.445527	0.975075
912.751502	0.974377
913.057436	0.972783
913.363331	0.969960
913.669186	0.965304
913.975000	0.961657
914.280775	0.955056
914.586510	0.949031
914.892205	0.933883
915.197859	0.913895
915.503475	0.886501
915.809050	0.867800
916.114585	0.861305
916.420081	0.857912
916.725536	0.855638
917.030952	0.863505
917.336328	0.876655
917.641665	0.891890
917.946961	0.907237
918.252218	0.919146
918.557435	0.926636
918.862612	0.936416
919.167750	0.941774
919.472848	0.946714
919.777906	0.952365
920.082925	0.958660
920.387904	0.962640
920.692843	0.963058
920.997743	0.964702
921.302603	0.968563
921.607423	0.969081
921.912204	0.972351
922.216946	0.972023
922.521647	0.973525
922.826310	0.975994
923.130932	0.976252
923.435516	0.978490
923.740059	0.980413
924.044564	0.978905
924.349028	0.979625
924.653454	0.982895
924.957840	0.985902
925.262186	0.984494
925.566493	0.984367
925.870761	0.986150
926.174989	0.986858
926.479178	0.988599
926.783328	0.989035
927.087438	0.988284
927.391509	0.987557
927.695541	0.990955
927.999533	0.989822
928.303486	0.989938
928.607400	0.991438
928.911275	0.990431
929.215110	0.990182
929.518906	0.991520
929.822663	0.989765
930.126381	0.991507
930.430060	0.989891
930.733699	0.990434
931.037299	0.989813
931.340861	0.991491
931.644383	0.989869
931.947866	0.989791
932.251309	0.991293
932.554714	0.990541
932.858080	0.989253
933.161407	0.990111
933.464694	0.990489
933.767943	0.990715
934.071153	0.990805
934.374323	0.992236
934.677455	0.991858
934.980548	0.991963
935.283602	0.991069
935.586617	0.991627
935.889593	0.991105
936.192530	0.990627
936.495428	0.991849
936.798287	0.991191
937.101108	0.991012
937.403890	0.988515
937.706632	0.988984
938.009336	0.987036
938.312002	0.986812
938.614628	0.984378
938.917216	0.983849
939.219765	0.982682
939.522275	0.982966
939.824747	0.982749
940.127179	0.983835
940.429573	0.984744
940.731929	0.983903
941.034246	0.984661
941.336524	0.985222
941.638763	0.985686
941.940964	0.986431
942.243126	0.987149
942.545250	0.987953
942.847335	0.988446
943.149381	0.988082
943.451389	0.987489
943.753359	0.987716
944.055290	0.991707
944.357182	0.988507
944.659036	0.988343
944.960851	0.990141
945.262628	0.989245
945.564367	0.991273
945.866067	0.990534
946.167729	0.990014
946.469352	0.989835
946.770937	0.989357
947.072484	0.990962
947.373992	0.990362
947.675462	0.990411
947.976893	0.990127
948.278286	0.990330
948.579641	0.991015
948.880958	0.992100
949.182236	0.991537
949.483476	0.992037
949.784678	0.989473
950.085841	0.991721
950.386967	0.990633
950.688054	0.991361
950.989103	0.990182
951.290114	0.989300
951.591087	0.989893
951.892021	0.990032
952.192917	0.989412
952.493776	0.988874
952.794596	0.987700
953.095378	0.987247
953.396122	0.988430
953.696828	0.987171
953.997496	0.990522
954.298126	0.991203
954.598718	0.990223
954.899272	0.990919
955.199788	0.990689
955.500266	0.992749
955.800706	0.993542
956.101108	0.993791
956.401472	0.993552
956.701798	0.994137
957.002087	0.993832
957.302337	0.993105
957.602550	0.995048
957.902724	0.995685
958.202861	0.994611
958.502960	0.996427
958.803022	0.994770
959.103045	0.996100
959.403031	0.995849
959.702979	0.995775
960.002889	0.995478
960.302762	0.995754
960.602596	0.996111
960.902393	0.995621
961.202153	0.997094
961.501875	0.995906
961.801559	0.996177
962.101205	0.995109
962.400814	0.996658
962.700385	0.996749
962.999918	0.995613
963.299414	0.996508
963.598873	0.995328
963.898293	0.996941
964.197677	0.996710
964.497022	0.996413
964.796331	0.998249
965.095601	0.997783
965.394835	0.997093
965.694030	0.997297
965.993189	0.997388
966.292309	0.996534
966.591393	0.997835
966.890439	0.997986
967.189447	0.996653
967.488419	0.997904
967.787353	0.995124
968.086249	0.996048
968.385108	0.997957
968.683930	0.998123
968.982714	0.997404
969.281462	0.998382
969.580172	0.997480
969.878844	0.997905
970.177480	0.997053
970.476078	0.996700
970.774639	0.998635
971.073162	0.998077
971.371649	0.996416
971.670098	0.997044
971.968510	0.998019
972.266885	0.995580
972.565223	0.996819
972.863524	0.997185
973.161788	0.996788
973.460014	0.997457
973.758204	0.996524
974.056356	0.996815
974.354471	0.995690
974.652550	0.997858
974.950591	0.997719
975.248595	0.996404
975.546563	0.997324
975.844493	0.997546
976.142386	0.997544
976.440243	0.998740
976.738062	0.997865
977.035845	0.998270
977.333590	0.996797
977.631299	0.997886
977.928971	0.996530
978.226606	0.997061
978.524204	0.996965
978.821765	0.998051
979.119290	0.996865
979.416777	0.997110
979.714228	0.997531
980.011642	0.996269
980.309020	0.997997
980.606360	0.996967
980.903664	0.999334
981.200931	0.996447
981.498162	0.994797
981.795356	0.994185
982.092513	0.994608
982.389633	0.995481
982.686717	0.990611
982.983764	0.991703
983.280775	0.991247
983.577749	0.991482
983.874686	0.992139
984.171587	0.992530
984.468451	0.994584
984.765279	0.994755
985.062070	0.994768
985.358824	0.995160
985.655543	0.995959
985.952224	0.996669
986.248869	0.996978
986.545478	0.995942
986.842050	0.999004
987.138586	0.996059
987.435086	0.997608
987.731549	0.999617
988.027975	0.997935
988.324366	0.998179
988.620719	0.998752
988.917037	0.996531
989.213318	0.998901
989.509563	0.999840
989.805772	0.998621
990.101944	0.998329
990.398080	0.998132
990.694180	0.998145
990.990244	0.998904
991.286271	0.998072
991.582262	0.998308
991.878217	0.997539
992.174136	0.998100
992.470019	0.998456
992.765865	0.998681
993.061676	0.998079
993.357450	0.998737
993.653188	0.997720
993.948890	0.997659
994.244556	0.999310
994.540186	0.998063
994.835780	0.996366
995.131337	0.997721
995.426859	0.996356
995.722345	0.997104
996.017795	0.996967
996.313208	0.996935
996.608586	0.996663
996.903928	0.998011
997.199234	0.995389
997.494504	0.997487
997.789738	0.996156
998.084936	0.996201
998.380099	0.998721
998.675225	0.996619
998.970316	0.999625
999.265371	0.997611
999.560390	0.999333
999.855373	0.999091
1000.150320	0.998214
1000.445232	0.999546
1000.740108	0.998032
1001.034948	0.998437
1001.329752	0.999025
1001.624521	0.999274
1001.919254	0.998733
1002.213951	0.999218
1002.508613	0.998623
1002.803239	0.999515
1003.097829	1.000373
1003.392384	1.000703
1003.686903	0.998780
1003.981386	0.999568
1004.275834	0.998410
1004.570246	0.998116
1004.864623	0.997437
1005.158964	1.000257
1005.453270	0.999822
1005.747540	0.997730
1006.041775	0.999547
1006.335974	1.000070
1006.630138	1.000453
1006.924266	0.999322
1007.218359	1.001261
1007.512416	0.999864
1007.806438	1.000158
1008.100425	1.000745
1008.394376	0.999008
1008.688292	0.998673
1008.982172	1.000783
1009.276017	0.998801
1009.569827	0.999177
1009.863602	0.998984
1010.157341	0.999698
1010.451045	1.000491
1010.744714	0.999252
1011.038347	0.999359
1011.331945	0.999371
1011.625508	0.997889
1011.919036	0.999208
1012.212528	0.999097
1012.505986	0.998152
1012.799408	0.999006
1013.092795	1.000276
1013.386147	0.998619
1013.679464	0.999403
1013.972745	0.997203
1014.265992	0.997889
1014.559204	0.998633
1014.852380	0.999267
1015.145521	1.000118
1015.438628	0.999127
1015.731699	0.998915
1016.024736	0.997938
1016.317737	0.999354
1016.610703	0.999576
1016.903635	1.000705
1017.196531	0.999559
1017.489393	1.000342
1017.782219	0.998060
1018.075011	0.998631
1018.367768	0.999356
1018.660490	1.000667
1018.953177	1.000667
1019.245829	1.000667
