Dividing Wavelength (nm)	Counts (n)	Blue Motor Position (mm): 0.000000	Red Motor Position (mm): 19.300000	
326.493990	1.000275
326.888308	1.000275
327.282561	1.000275
327.676750	1.000355
328.070874	0.998962
328.464933	0.999170
328.858929	0.998764
329.252859	0.999451
329.646726	0.999535
330.040528	1.000383
330.434265	0.999648
330.827938	1.000026
331.221547	1.001123
331.615091	1.000517
332.008571	0.999851
332.401986	0.998864
332.795338	0.999471
333.188625	0.998110
333.581847	1.000728
333.975006	0.998858
334.368100	0.999369
334.761129	0.999693
335.154095	0.999674
335.546996	0.997505
335.939833	0.991673
336.332606	0.993881
336.725315	0.994269
337.117960	0.995542
337.510540	0.994309
337.903056	0.994737
338.295508	0.992236
338.687896	0.994489
339.080220	0.994561
339.472480	0.993705
339.864676	0.994228
340.256807	0.994578
340.648875	0.995590
341.040879	0.994636
341.432818	0.994843
341.824694	0.993351
342.216506	0.994424
342.608253	0.992921
342.999937	0.994012
343.391557	0.993013
343.783113	0.993404
344.174605	0.993991
344.566033	0.994835
344.957397	0.993456
345.348697	0.993177
345.739934	0.993783
346.131106	0.993191
346.522215	0.993821
346.913260	0.993268
347.304241	0.993829
347.695159	0.992945
348.086012	0.992739
348.476802	0.993832
348.867528	0.993764
349.258191	0.993137
349.648789	0.994637
350.039324	0.993269
350.429796	0.994439
350.820203	0.994072
351.210548	0.994327
351.600828	0.993306
351.991045	0.993773
352.381198	0.994051
352.771288	0.994081
353.161314	0.993188
353.551276	0.995329
353.941175	0.993772
354.331010	0.993959
354.720782	0.994269
355.110490	0.993403
355.500135	0.994995
355.889717	0.993012
356.279235	0.993348
356.668689	0.993773
357.058080	0.993722
357.447408	0.994460
357.836672	0.994241
358.225873	0.994586
358.615010	0.993801
359.004084	0.995341
359.393095	0.993473
359.782043	0.994002
360.170927	0.994786
360.559748	0.995164
360.948505	0.993508
361.337199	0.993706
361.725830	0.994520
362.114398	0.993934
362.502903	0.995373
362.891344	0.995297
363.279722	0.993635
363.668037	0.993871
364.056289	0.993440
364.444478	0.994762
364.832603	0.993553
365.220665	0.994131
365.608665	0.993807
365.996601	0.993445
366.384474	0.994808
366.772284	0.994203
367.160031	0.992825
367.547715	0.992759
367.935336	0.994060
368.322893	0.994259
368.710388	0.993552
369.097820	0.994136
369.485189	0.993459
369.872495	0.992627
370.259738	0.992601
370.646918	0.994647
371.034035	0.994558
371.421090	0.994071
371.808081	0.993888
372.195010	0.993986
372.581875	0.994532
372.968678	0.993613
373.355418	0.993650
373.742096	0.993609
374.128710	0.994506
374.515262	0.994168
374.901751	0.994094
375.288177	0.994749
375.674540	0.995250
376.060841	0.993889
376.447079	0.994552
376.833254	0.994014
377.219367	0.993867
377.605417	0.994702
377.991404	0.994756
378.377329	0.994118
378.763191	0.994725
379.148991	0.994955
379.534727	0.994103
379.920402	0.994837
380.306013	0.995132
380.691563	0.995623
381.077049	0.994512
381.462474	0.993798
381.847835	0.994863
382.233134	0.994082
382.618371	0.994354
383.003545	0.994886
383.388657	0.994423
383.773706	0.995153
384.158693	0.995023
384.543618	0.994881
384.928480	0.996150
385.313280	0.995257
385.698017	0.994832
386.082692	0.995592
386.467305	0.994923
386.851856	0.994372
387.236344	0.994588
387.620770	0.993404
388.005133	0.995056
388.389435	0.995775
388.773674	0.994441
389.157851	0.995332
389.541965	0.995224
389.926018	0.994497
390.310008	0.996795
390.693936	0.994812
391.077802	0.996039
391.461606	0.995438
391.845348	0.995127
392.229027	0.996518
392.612645	0.994927
392.996200	0.996024
393.379694	0.994130
393.763125	0.995811
394.146494	0.994790
394.529801	0.995132
394.913047	0.995257
395.296230	0.995253
395.679351	0.994772
396.062410	0.995070
396.445408	0.995841
396.828343	0.995316
397.211217	0.994280
397.594028	0.994980
397.976778	0.995099
398.359466	0.995571
398.742092	0.994039
399.124656	0.994374
399.507158	0.995364
399.889598	0.994776
400.271977	0.994639
400.654294	0.995223
401.036549	0.995065
401.418742	0.995082
401.800874	0.994182
402.182944	0.995415
402.564952	0.993578
402.946898	0.995001
403.328783	0.994524
403.710606	0.994150
404.092367	0.994084
404.474067	0.994861
404.855705	0.994476
405.237282	0.994316
405.618797	0.993747
406.000250	0.993148
406.381642	0.993478
406.762972	0.993474
407.144240	0.993856
407.525447	0.992235
407.906593	0.991604
408.287677	0.991398
408.668700	0.990494
409.049661	0.987476
409.430560	0.987670
409.811399	0.984854
410.192176	0.983783
410.572891	0.982660
410.953545	0.981030
411.334138	0.978358
411.714669	0.976107
412.095139	0.975244
412.475547	0.971696
412.855894	0.969126
413.236180	0.965646
413.616405	0.962481
413.996568	0.959906
414.376670	0.956383
414.756711	0.952337
415.136691	0.948247
415.516609	0.943958
415.896466	0.938694
416.276262	0.932933
416.655997	0.929894
417.035670	0.921648
417.415283	0.915494
417.794834	0.910476
418.174324	0.906728
418.553753	0.902906
418.933121	0.892917
419.312428	0.884637
419.691674	0.878987
420.070859	0.870023
420.449983	0.865080
420.829045	0.855456
421.208047	0.850220
421.586988	0.840282
421.965867	0.831827
422.344686	0.820718
422.723444	0.817094
423.102141	0.815192
423.480777	0.796457
423.859352	0.795890
424.237866	0.777886
424.616319	0.769840
424.994712	0.757053
425.373044	0.753178
425.751314	0.738139
426.129524	0.736283
426.507673	0.719448
426.885762	0.708504
427.263789	0.700807
427.641756	0.699046
428.019662	0.683600
428.397508	0.674380
428.775292	0.667268
429.153016	0.653954
429.530679	0.649947
429.908282	0.637388
430.285824	0.636430
430.663305	0.612700
431.040726	0.618696
431.418086	0.611892
431.795385	0.598587
432.172624	0.589483
432.549802	0.583438
432.926920	0.575106
433.303977	0.567833
433.680974	0.559582
434.057910	0.551279
434.434786	0.544917
434.811601	0.540730
435.188355	0.520095
435.565050	0.522614
435.941683	0.518061
436.318257	0.499496
436.694770	0.494799
437.071222	0.487778
437.447614	0.487693
437.823946	0.489020
438.200218	0.474929
438.576429	0.479683
438.952580	0.469396
439.328670	0.462771
439.704700	0.465502
440.080670	0.464055
440.456580	0.442854
440.832429	0.447156
441.208218	0.455379
441.583947	0.442868
441.959616	0.440638
442.335224	0.442713
442.710773	0.432125
443.086261	0.428511
443.461689	0.440492
443.837057	0.429463
444.212365	0.417381
444.587612	0.423343
444.962800	0.412046
445.337927	0.412798
445.712995	0.437289
446.088002	0.399585
446.462949	0.409045
446.837837	0.412872
447.212664	0.401253
447.587431	0.392435
447.962139	0.362823
448.336786	0.322011
448.711374	0.332043
449.085901	0.374859
449.460369	0.379061
449.834776	0.382093
450.209124	0.361166
450.583412	0.353925
450.957640	0.346617
451.331808	0.357901
451.705917	0.380871
452.079965	0.385514
452.453954	0.373305
452.827883	0.380285
453.201752	0.374703
453.575562	0.386056
453.949311	0.374506
454.323001	0.380289
454.696632	0.376294
455.070202	0.368745
455.443713	0.360818
455.817164	0.355711
456.190556	0.350947
456.563888	0.347669
456.937160	0.345042
457.310373	0.362924
457.683526	0.361000
458.056619	0.366795
458.429653	0.367392
458.802628	0.371092
459.175542	0.364940
459.548398	0.347903
459.921194	0.340340
460.293930	0.340476
460.666607	0.317944
461.039224	0.306315
461.411782	0.301931
461.784280	0.301166
462.156719	0.305318
462.529099	0.309868
462.901419	0.326118
463.273680	0.330133
463.645882	0.329653
464.018024	0.335730
464.390106	0.328556
464.762130	0.313386
465.134094	0.296342
465.505999	0.265646
465.877845	0.236425
466.249631	0.223274
466.621358	0.230721
466.993026	0.244533
467.364634	0.250535
467.736184	0.259435
468.107674	0.268325
468.479105	0.267098
468.850477	0.273952
469.221790	0.280724
469.593043	0.291088
469.964238	0.295646
470.335373	0.294976
470.706449	0.293158
471.077467	0.294150
471.448425	0.256200
471.819324	0.231582
472.190164	0.231243
472.560945	0.259981
472.931667	0.282119
473.302330	0.286453
473.672934	0.298257
474.043479	0.286489
474.413965	0.288275
474.784393	0.291701
475.154761	0.286728
475.525070	0.283778
475.895321	0.289717
476.265513	0.283782
476.635645	0.278987
477.005719	0.279117
477.375734	0.275544
477.745691	0.269098
478.115588	0.265519
478.485427	0.259157
478.855207	0.245899
479.224928	0.228533
479.594591	0.216786
479.964194	0.220145
480.333739	0.221327
480.703226	0.222881
481.072653	0.221370
481.442022	0.216997
481.811333	0.213566
482.180584	0.217045
482.549777	0.222344
482.918912	0.225839
483.287988	0.225421
483.657005	0.224944
484.025964	0.231599
484.394864	0.228663
484.763706	0.229406
485.132489	0.234147
485.501213	0.235148
485.869879	0.233799
486.238487	0.236606
486.607036	0.234521
486.975527	0.238914
487.343959	0.234860
487.712333	0.233892
488.080648	0.235165
488.448905	0.234420
488.817104	0.235870
489.185244	0.230319
489.553326	0.227200
489.921350	0.217279
490.289315	0.199608
490.657222	0.194658
491.025070	0.195796
491.392861	0.197794
491.760593	0.203464
492.128267	0.208882
492.495883	0.214732
492.863440	0.220811
493.230939	0.227209
493.598380	0.228536
493.965763	0.230376
494.333088	0.232837
494.700354	0.234271
495.067563	0.233109
495.434713	0.236643
495.801805	0.234689
496.168839	0.235990
496.535815	0.237015
496.902733	0.237218
497.269593	0.238692
497.636395	0.236619
498.003139	0.236764
498.369825	0.239996
498.736453	0.236104
499.103023	0.237654
499.469535	0.237135
499.835989	0.237549
500.202385	0.238461
500.568723	0.241510
500.935003	0.236776
501.301226	0.241072
501.667390	0.235261
502.033497	0.233576
502.399546	0.236591
502.765537	0.238235
503.131470	0.236619
503.497345	0.232901
503.863163	0.241725
504.228923	0.234551
504.594625	0.233584
504.960269	0.238917
505.325856	0.234105
505.691385	0.238406
506.056856	0.234948
506.422270	0.234476
506.787625	0.236933
507.152924	0.234431
507.518164	0.234896
507.883347	0.236666
508.248472	0.238185
508.613540	0.233257
508.978550	0.235854
509.343503	0.236116
509.708398	0.234090
510.073236	0.231716
510.438016	0.231447
510.802738	0.232297
511.167403	0.231410
511.532010	0.233410
511.896561	0.228698
512.261053	0.227670
512.625488	0.230006
512.989866	0.230079
513.354186	0.230472
513.718449	0.232232
514.082655	0.228598
514.446803	0.231054
514.810894	0.228621
515.174927	0.231318
515.538904	0.230669
515.902822	0.227636
516.266684	0.229817
516.630488	0.231251
516.994235	0.229784
517.357925	0.228449
517.721558	0.227047
518.085133	0.226391
518.448651	0.226446
518.812112	0.228652
519.175516	0.228547
519.538863	0.226056
519.902152	0.227785
520.265385	0.224639
520.628560	0.226239
520.991678	0.226620
521.354739	0.225466
521.717743	0.227005
522.080690	0.227300
522.443580	0.224557
522.806413	0.225440
523.169189	0.224792
523.531908	0.223725
523.894569	0.227102
524.257174	0.227437
524.619722	0.225011
524.982213	0.225994
525.344647	0.225216
525.707025	0.225945
526.069345	0.223951
526.431608	0.225711
526.793815	0.223442
527.155964	0.227649
527.518057	0.226771
527.880093	0.227827
528.242072	0.226318
528.603995	0.228305
528.965860	0.229852
529.327669	0.228814
529.689421	0.229844
530.051117	0.230567
530.412755	0.228307
530.774337	0.230476
531.135862	0.230841
531.497331	0.230476
531.858743	0.233049
532.220098	0.229876
532.581396	0.232314
532.942638	0.232684
533.303824	0.233930
533.664953	0.233623
534.026025	0.235223
534.387040	0.233149
534.747999	0.233190
535.108902	0.232176
535.469748	0.236958
535.830537	0.234732
536.191270	0.235262
536.551947	0.234880
536.912567	0.234840
537.273131	0.236584
537.633638	0.236715
537.994089	0.237132
538.354483	0.238327
538.714821	0.235128
539.075103	0.234728
539.435328	0.235773
539.795497	0.239350
540.155609	0.236092
540.515665	0.233986
540.875665	0.239753
541.235609	0.238285
541.595496	0.238404
541.955328	0.234847
542.315102	0.237594
542.674821	0.238648
543.034483	0.238427
543.394090	0.238247
543.753640	0.240329
544.113134	0.235348
544.472571	0.238528
544.831953	0.235388
545.191278	0.239663
545.550548	0.239040
545.909761	0.235762
546.268918	0.236490
546.628019	0.234905
546.987064	0.237263
547.346053	0.239403
547.704986	0.237297
548.063863	0.237236
548.422684	0.237798
548.781449	0.239720
549.140158	0.237030
549.498811	0.240057
549.857408	0.242914
550.215949	0.238082
550.574434	0.240939
550.932864	0.238863
551.291237	0.237535
551.649555	0.238949
552.007817	0.238792
552.366022	0.239580
552.724173	0.239884
553.082267	0.239996
553.440305	0.237022
553.798288	0.241551
554.156215	0.238188
554.514086	0.238790
554.871902	0.241779
555.229661	0.240997
555.587365	0.241220
555.945014	0.244072
556.302606	0.240941
556.660143	0.243517
557.017625	0.240061
557.375050	0.242446
557.732421	0.239155
558.089735	0.241317
558.446994	0.241370
558.804197	0.240499
559.161345	0.240564
559.518437	0.243908
559.875474	0.241495
560.232455	0.241047
560.589381	0.242317
560.946251	0.242293
561.303065	0.239726
561.659825	0.241416
562.016528	0.242732
562.373177	0.245750
562.729770	0.242898
563.086307	0.245238
563.442789	0.242933
563.799216	0.245650
564.155587	0.244479
564.511904	0.245453
564.868164	0.245595
565.224370	0.245286
565.580520	0.247136
565.936615	0.247114
566.292654	0.250202
566.648638	0.247238
567.004567	0.247798
567.360441	0.248444
567.716260	0.250903
568.072023	0.248350
568.427732	0.248878
568.783385	0.251669
569.138982	0.249595
569.494525	0.249255
569.850013	0.252361
570.205445	0.250603
570.560823	0.253348
570.916145	0.255141
571.271412	0.253271
571.626625	0.254913
571.981782	0.255235
572.336884	0.256127
572.691931	0.256176
573.046923	0.256989
573.401860	0.258310
573.756743	0.260242
574.111570	0.258917
574.466342	0.259266
574.821059	0.258650
575.175722	0.261338
575.530330	0.261055
575.884882	0.261479
576.239380	0.263367
576.593823	0.263610
576.948211	0.263080
577.302544	0.266500
577.656823	0.265988
578.011047	0.266329
578.365216	0.266933
578.719330	0.268859
579.073389	0.268748
579.427394	0.269872
579.781344	0.270797
580.135239	0.272094
580.489080	0.271730
580.842866	0.274649
581.196597	0.274660
581.550273	0.273370
581.903895	0.274668
582.257463	0.272482
582.610975	0.276074
582.964434	0.275363
583.317837	0.277942
583.671186	0.278189
584.024481	0.278029
584.377721	0.280726
584.730906	0.281276
585.084037	0.280376
585.437113	0.282437
585.790135	0.281551
586.143103	0.284450
586.496016	0.285835
586.848874	0.283448
587.201679	0.283931
587.554428	0.287299
587.907124	0.285925
588.259765	0.286779
588.612352	0.287535
588.964884	0.291034
589.317362	0.290305
589.669786	0.290455
590.022155	0.289064
590.374470	0.288463
590.726731	0.290745
591.078937	0.295344
591.431090	0.291702
591.783188	0.295886
592.135232	0.296133
592.487222	0.296001
592.839157	0.294282
593.191038	0.296828
593.542866	0.298522
593.894639	0.302267
594.246358	0.300000
594.598022	0.299583
594.949633	0.303336
595.301190	0.303746
595.652692	0.303035
596.004141	0.299334
596.355535	0.307709
596.706876	0.307472
597.058162	0.310145
597.409395	0.307464
597.760573	0.305034
598.111698	0.308316
598.462768	0.308690
598.813785	0.310017
599.164748	0.311711
599.515657	0.311545
599.866511	0.315087
600.217312	0.310101
600.568060	0.315846
600.918753	0.312163
601.269392	0.312959
601.619978	0.316162
601.970510	0.313829
602.320988	0.314104
602.671412	0.311647
603.021783	0.314376
603.372100	0.315625
603.722363	0.315208
604.072572	0.316149
604.422728	0.315858
604.772830	0.318023
605.122878	0.317549
605.472872	0.318002
605.822813	0.316310
606.172701	0.319148
606.522534	0.316512
606.872314	0.316741
607.222041	0.317329
607.571714	0.315628
607.921333	0.317077
608.270899	0.316788
608.620411	0.313758
608.969870	0.317322
609.319276	0.317476
609.668627	0.317085
610.017926	0.315923
610.367171	0.314312
610.716362	0.315027
611.065500	0.315371
611.414585	0.314198
611.763616	0.314485
612.112594	0.315053
612.461518	0.314301
612.810389	0.312031
613.159207	0.314527
613.507971	0.316571
613.856682	0.311965
614.205340	0.313937
614.553945	0.310439
614.902496	0.314314
615.250994	0.312681
615.599439	0.313075
615.947830	0.312319
616.296169	0.313609
616.644454	0.312885
616.992686	0.313249
617.340864	0.310745
617.688990	0.314548
618.037063	0.311101
618.385082	0.312768
618.733048	0.309942
619.080961	0.312412
619.428821	0.311648
619.776628	0.310945
620.124382	0.313336
620.472083	0.313512
620.819731	0.312471
621.167326	0.316565
621.514868	0.315818
621.862357	0.320765
622.209793	0.320446
622.557176	0.322333
622.904506	0.323528
623.251783	0.325514
623.599007	0.328311
623.946179	0.327295
624.293297	0.329802
624.640363	0.333484
624.987376	0.334420
625.334336	0.336808
625.681243	0.338958
626.028097	0.339005
626.374899	0.340813
626.721647	0.340735
627.068343	0.343880
627.414987	0.344834
627.761577	0.347348
628.108115	0.345661
628.454600	0.350494
628.801032	0.347861
629.147412	0.349705
629.493739	0.349966
629.840014	0.353708
630.186236	0.351136
630.532405	0.356196
630.878521	0.353757
631.224585	0.356305
631.570597	0.359545
631.916556	0.358132
632.262462	0.358392
632.608316	0.360541
632.954117	0.361612
633.299866	0.361863
633.645562	0.362577
633.991206	0.366264
634.336797	0.369813
634.682336	0.372429
635.027823	0.373887
635.373257	0.373830
635.718639	0.377434
636.063968	0.376991
636.409245	0.382780
636.754470	0.382888
637.099642	0.385492
637.444762	0.388668
637.789829	0.387944
638.134845	0.391278
638.479808	0.392846
638.824719	0.392365
639.169577	0.395932
639.514383	0.394892
639.859137	0.399388
640.203839	0.399535
640.548489	0.400102
640.893086	0.401104
641.237632	0.402660
641.582125	0.401207
641.926566	0.402559
642.270955	0.402577
642.615292	0.402997
642.959576	0.402084
643.303809	0.402638
643.647990	0.402493
643.992118	0.403008
644.336195	0.406924
644.680219	0.404739
645.024192	0.406007
645.368112	0.399045
645.711981	0.397955
646.055797	0.393302
646.399562	0.396150
646.743274	0.387815
647.086935	0.385462
647.430544	0.385697
647.774101	0.383967
648.117606	0.384498
648.461059	0.384184
648.804460	0.386971
649.147810	0.391607
649.491108	0.394091
649.834354	0.395473
650.177548	0.400806
650.520690	0.405913
650.863781	0.407337
651.206820	0.406386
651.549807	0.411062
651.892742	0.415223
652.235626	0.414753
652.578458	0.415549
652.921238	0.421995
653.263967	0.419872
653.606644	0.423859
653.949269	0.423192
654.291843	0.427154
654.634365	0.423470
654.976836	0.427394
655.319255	0.426966
655.661622	0.428779
656.003938	0.429263
656.346203	0.431907
656.688416	0.429577
657.030577	0.433177
657.372687	0.435135
657.714746	0.435518
658.056753	0.432924
658.398708	0.436695
658.740612	0.437466
659.082465	0.433556
659.424266	0.434639
659.766016	0.434195
660.107715	0.436196
660.449362	0.435689
660.790958	0.436451
661.132503	0.436226
661.473996	0.434099
661.815438	0.435725
662.156829	0.435469
662.498168	0.435696
662.839456	0.437447
663.180693	0.435752
663.521879	0.435155
663.863013	0.436005
664.204097	0.434925
664.545129	0.431461
664.886110	0.432092
665.227040	0.429171
665.567918	0.432225
665.908746	0.430027
666.249522	0.429445
666.590248	0.430403
666.930922	0.428573
667.271545	0.427391
667.612118	0.427761
667.952639	0.429691
668.293109	0.428278
668.633528	0.430777
668.973896	0.430687
669.314213	0.431348
669.654480	0.432792
669.994695	0.433555
670.334859	0.434159
670.674973	0.433979
671.015035	0.434607
671.355047	0.434213
671.695008	0.435727
672.034918	0.437281
672.374777	0.435988
672.714585	0.437621
673.054342	0.437307
673.394049	0.437216
673.733705	0.434857
674.073310	0.436168
674.412864	0.439800
674.752368	0.439892
675.091820	0.440324
675.431223	0.444438
675.770574	0.444639
676.109875	0.447473
676.449125	0.447609
676.788324	0.449322
677.127473	0.455008
677.466571	0.454575
677.805619	0.456290
678.144616	0.457832
678.483562	0.459205
678.822458	0.462173
679.161303	0.463303
679.500098	0.463214
679.838842	0.464850
680.177535	0.464330
680.516179	0.463041
680.854771	0.462504
681.193314	0.455597
681.531805	0.447187
681.870247	0.435240
682.208638	0.427756
682.546978	0.426446
682.885268	0.428388
683.223508	0.434997
683.561697	0.438564
683.899836	0.441478
684.237925	0.444742
684.575963	0.447104
684.913951	0.450114
685.251889	0.446314
685.589776	0.448186
685.927614	0.450839
686.265401	0.445044
686.603137	0.446621
686.940824	0.439662
687.278460	0.438371
687.616046	0.437306
687.953582	0.432925
688.291068	0.434124
688.628504	0.429825
688.965889	0.432081
689.303224	0.435776
689.640510	0.439880
689.977745	0.445817
690.314930	0.453654
690.652065	0.457811
690.989150	0.465507
691.326185	0.472471
691.663170	0.476809
692.000105	0.483496
692.336990	0.490450
692.673825	0.493211
693.010610	0.499957
693.347345	0.505953
693.684030	0.507451
694.020665	0.511565
694.357251	0.520718
694.693786	0.520390
695.030272	0.525357
695.366707	0.527921
695.703093	0.531404
696.039429	0.529195
696.375716	0.530504
696.711952	0.533818
697.048139	0.535752
697.384276	0.537696
697.720363	0.535690
698.056400	0.535288
698.392388	0.540492
698.728326	0.543220
699.064214	0.546480
699.400053	0.546585
699.735842	0.550637
700.071581	0.553182
700.407270	0.557115
700.742910	0.558761
701.078501	0.565522
701.414042	0.566043
701.749533	0.568833
702.084974	0.577355
702.420366	0.569053
702.755709	0.577886
703.091002	0.585252
703.426246	0.579432
703.761440	0.584723
704.096584	0.589541
704.431679	0.586154
704.766725	0.588196
705.101721	0.589948
705.436668	0.586273
705.771565	0.593894
706.106413	0.589998
706.441212	0.584910
706.775961	0.583911
707.110661	0.586815
707.445311	0.583382
707.779913	0.579441
708.114465	0.578401
708.448967	0.575790
708.783421	0.567592
709.117825	0.561737
709.452180	0.561517
709.786485	0.556193
710.120742	0.546272
710.454949	0.548123
710.789107	0.539900
711.123216	0.531187
711.457275	0.532981
711.791286	0.524115
712.125247	0.522313
712.459159	0.533287
712.793023	0.526156
713.126837	0.530027
713.460602	0.530186
713.794318	0.540181
714.127985	0.538886
714.461602	0.549158
714.795171	0.552194
715.128691	0.559777
715.462162	0.567160
715.795584	0.572857
716.128957	0.576344
716.462281	0.582200
716.795556	0.586037
717.128782	0.591079
717.461960	0.600284
717.795088	0.598693
718.128167	0.605579
718.461198	0.613800
718.794180	0.614003
719.127113	0.617204
719.459997	0.620976
719.792833	0.626460
720.125619	0.628640
720.458357	0.633998
720.791046	0.633544
721.123686	0.636983
721.456278	0.644777
721.788821	0.641313
722.121315	0.645468
722.453761	0.649635
722.786158	0.647962
723.118506	0.643918
723.450805	0.651829
723.783056	0.648068
724.115259	0.644494
724.447412	0.644963
724.779518	0.646506
725.111574	0.644948
725.443582	0.640841
725.775542	0.642850
726.107453	0.634830
726.439315	0.634758
726.771129	0.632945
727.102895	0.626470
727.434612	0.619703
727.766281	0.617624
728.097901	0.616594
728.429473	0.617023
728.760996	0.614863
729.092471	0.614452
729.423897	0.618983
729.755276	0.617953
730.086606	0.617873
730.417887	0.612896
730.749120	0.603436
731.080305	0.593366
731.411442	0.590263
731.742530	0.595043
732.073570	0.593786
732.404562	0.587139
732.735506	0.587322
733.066401	0.592620
733.397249	0.601905
733.728048	0.612905
734.058798	0.625471
734.389501	0.636331
734.720156	0.646203
735.050762	0.653649
735.381320	0.654470
735.711831	0.664199
736.042293	0.668516
736.372707	0.664679
736.703073	0.669683
737.033391	0.672167
737.363661	0.668716
737.693883	0.664303
738.024056	0.662418
738.354182	0.663695
738.684260	0.653214
739.014290	0.648743
739.344272	0.649333
739.674207	0.642219
740.004093	0.643016
740.333931	0.642797
740.663722	0.642604
740.993464	0.643132
741.323159	0.647077
741.652806	0.651977
741.982405	0.656815
742.311956	0.660832
742.641460	0.663689
742.970915	0.667550
743.300323	0.675707
743.629683	0.681662
743.958996	0.683402
744.288260	0.687421
744.617477	0.693335
744.946647	0.694989
745.275768	0.699800
745.604842	0.699759
745.933869	0.711150
746.262847	0.710613
746.591778	0.704467
746.920662	0.710659
747.249498	0.717310
747.578286	0.707380
747.907027	0.703960
748.235720	0.705228
748.564365	0.700194
748.892963	0.699841
749.221514	0.702109
749.550017	0.707720
749.878473	0.707092
750.206881	0.713806
750.535242	0.716017
750.863555	0.715094
751.191821	0.716368
751.520039	0.718678
751.848210	0.723414
752.176334	0.717225
752.504411	0.715747
752.832440	0.723432
753.160421	0.727542
753.488356	0.725564
753.816243	0.723479
754.144082	0.731633
754.471875	0.735667
754.799620	0.730638
755.127318	0.732403
755.454969	0.731516
755.782572	0.732293
756.110129	0.736495
756.437638	0.739079
756.765100	0.735252
757.092515	0.733921
757.419882	0.732662
757.747203	0.737522
758.074477	0.736741
758.401703	0.734038
758.728882	0.729250
759.056014	0.728439
759.383099	0.728521
759.710138	0.727753
760.037129	0.725806
760.364073	0.719056
760.690970	0.720965
761.017820	0.726444
761.344623	0.722723
761.671379	0.713711
761.998088	0.702337
762.324751	0.678654
762.651366	0.637345
762.977935	0.570960
763.304456	0.518843
763.630931	0.509220
763.957359	0.548226
764.283740	0.592903
764.610074	0.619852
764.936362	0.650630
765.262602	0.677955
765.588796	0.698425
765.914943	0.716314
766.241044	0.734736
766.567097	0.740375
766.893104	0.750371
767.219064	0.756878
767.544978	0.763019
767.870845	0.776911
768.196665	0.780843
768.522438	0.779853
768.848165	0.781173
769.173846	0.788512
769.499479	0.793648
769.825066	0.797381
770.150607	0.801569
770.476101	0.797618
770.801548	0.798361
771.126949	0.810309
771.452303	0.814080
771.777611	0.812723
772.102872	0.812448
772.428087	0.816821
772.753256	0.821116
773.078378	0.822593
773.403453	0.831840
773.728482	0.835745
774.053465	0.829020
774.378401	0.833248
774.703291	0.841554
775.028135	0.840659
775.352932	0.842740
775.677683	0.846631
776.002388	0.846513
776.327046	0.845752
776.651658	0.848377
776.976224	0.851883
777.300743	0.852420
777.625216	0.854820
777.949643	0.856070
778.274024	0.856364
778.598359	0.858104
778.922647	0.856306
779.246889	0.857863
779.571086	0.860798
779.895236	0.862899
780.219339	0.860105
780.543397	0.857184
780.867409	0.856293
781.191374	0.858163
781.515294	0.859776
781.839167	0.858704
782.162995	0.862422
782.486776	0.858333
782.810511	0.859801
783.134201	0.863225
783.457844	0.861181
783.781441	0.863009
784.104993	0.869843
784.428498	0.870598
784.751958	0.865725
785.075372	0.868783
785.398739	0.872310
785.722061	0.867566
786.045337	0.863738
786.368568	0.868530
786.691752	0.870904
787.014891	0.856688
787.337983	0.847984
787.661030	0.840885
787.984031	0.823643
788.306987	0.809624
788.629897	0.813001
788.952760	0.815942
789.275579	0.820137
789.598351	0.836537
789.921078	0.849315
790.243759	0.851028
790.566395	0.856527
790.888984	0.863229
791.211529	0.868219
791.534027	0.871508
791.856480	0.874372
792.178888	0.878260
792.501249	0.880672
792.823566	0.881489
793.145836	0.883016
793.468062	0.884361
793.790241	0.883826
794.112375	0.882393
794.434464	0.877404
794.756507	0.876962
795.078505	0.876565
795.400457	0.871628
795.722364	0.859477
796.044226	0.853654
796.366042	0.851138
796.687812	0.855272
797.009538	0.851762
797.331218	0.854656
797.652852	0.859180
797.974442	0.863744
798.295986	0.863516
798.617484	0.866379
798.938938	0.870057
799.260346	0.875555
799.581709	0.877775
799.903026	0.879611
800.224299	0.880525
800.545526	0.883357
800.866708	0.887991
801.187845	0.891747
801.508936	0.891146
801.829983	0.889151
802.150984	0.892199
802.471940	0.897600
802.792851	0.897088
803.113717	0.896765
803.434538	0.895963
803.755314	0.898462
804.076045	0.899257
804.396731	0.899835
804.717372	0.898511
805.037967	0.900709
805.358518	0.899435
805.679024	0.895906
805.999485	0.896162
806.319901	0.896775
806.640272	0.898914
806.960598	0.895836
807.280879	0.893006
807.601115	0.891577
807.921306	0.895906
808.241453	0.896060
808.561554	0.893204
808.881611	0.893553
809.201623	0.895535
809.521590	0.895215
809.841513	0.895742
810.161390	0.895987
810.481223	0.897106
810.801011	0.900786
811.120755	0.902427
811.440453	0.901473
811.760107	0.900107
812.079716	0.900659
812.399281	0.903077
812.718801	0.905223
813.038276	0.906684
813.357707	0.906488
813.677093	0.903372
813.996434	0.906662
814.315731	0.908364
814.634983	0.909109
814.954191	0.907419
815.273354	0.904782
815.592473	0.901116
815.911547	0.901227
816.230577	0.897464
816.549562	0.895688
816.868502	0.896641
817.187399	0.892816
817.506250	0.887999
817.825058	0.889512
818.143821	0.885991
818.462539	0.880718
818.781213	0.873007
819.099843	0.861564
819.418429	0.844945
819.736970	0.828739
820.055466	0.809476
820.373919	0.783590
820.692327	0.749868
821.010691	0.716154
821.329011	0.638822
821.647286	0.523487
821.965517	0.410067
822.283704	0.367276
822.601847	0.368244
822.919945	0.404224
823.237999	0.437921
823.556010	0.484586
823.873976	0.539794
824.191897	0.590576
824.509775	0.633074
824.827609	0.679212
825.145398	0.700803
825.463144	0.703858
825.780845	0.687575
826.098502	0.668389
826.416116	0.622547
826.733685	0.578891
827.051210	0.569770
827.368692	0.584974
827.686129	0.621829
828.003522	0.675228
828.320872	0.721551
828.638177	0.765811
828.955439	0.799723
829.272656	0.821229
829.589830	0.838543
829.906960	0.854249
830.224046	0.866724
830.541088	0.876832
830.858086	0.881391
831.175041	0.886668
831.491952	0.886907
831.808819	0.882957
832.125642	0.876586
832.442421	0.861922
832.759157	0.840918
833.075849	0.793326
833.392497	0.729755
833.709101	0.689167
834.025662	0.698603
834.342179	0.730338
834.658653	0.768998
834.975083	0.805278
835.291469	0.832114
835.607811	0.854978
835.924110	0.870364
836.240366	0.886733
836.556578	0.901026
836.872746	0.907929
837.188871	0.913846
837.504952	0.919133
837.820990	0.923076
838.136984	0.926660
838.452935	0.929910
838.768842	0.930841
839.084706	0.924699
839.400526	0.898930
839.716303	0.858206
840.032037	0.835806
840.347727	0.838953
840.663373	0.857662
840.978977	0.879176
841.294537	0.901885
841.610054	0.917715
841.925527	0.925993
842.240957	0.931847
842.556344	0.940186
842.871687	0.945928
843.186987	0.950173
843.502244	0.950565
843.817458	0.950922
844.132629	0.954611
844.447756	0.960277
844.762840	0.959841
845.077881	0.958710
845.392879	0.958735
845.707833	0.962818
846.022745	0.963082
846.337613	0.964035
846.652438	0.965311
846.967221	0.964280
847.281960	0.965301
847.596656	0.968350
847.911309	0.965849
848.225919	0.968154
848.540485	0.967499
848.855009	0.968573
849.169490	0.968563
849.483928	0.968850
849.798323	0.969735
850.112675	0.968551
850.426984	0.969416
850.741251	0.969361
851.055474	0.969154
851.369654	0.968222
851.683792	0.969486
851.997887	0.969998
852.311938	0.971201
852.625947	0.969523
852.939914	0.968421
853.253837	0.968733
853.567718	0.970010
853.881555	0.970327
854.195350	0.967532
854.509103	0.969320
854.822812	0.969792
855.136479	0.969920
855.450103	0.969988
855.763685	0.968717
856.077224	0.967646
856.390720	0.970732
856.704173	0.970496
857.017584	0.967527
857.330953	0.966787
857.644278	0.968031
857.957561	0.966744
858.270802	0.967797
858.584000	0.967047
858.897155	0.966266
859.210268	0.966749
859.523339	0.968566
859.836367	0.970147
860.149352	0.970248
860.462295	0.969195
860.775195	0.969663
861.088054	0.968056
861.400869	0.968685
861.713642	0.969268
862.026373	0.969730
862.339062	0.970903
862.651708	0.968013
862.964312	0.968706
863.276873	0.968757
863.589392	0.968675
863.901869	0.966231
864.214303	0.964950
864.526696	0.963510
864.839045	0.963117
865.151353	0.961211
865.463619	0.960975
865.775842	0.962489
866.088023	0.962678
866.400162	0.962028
866.712258	0.962388
867.024313	0.962127
867.336325	0.962802
867.648296	0.962671
867.960224	0.961531
868.272110	0.961447
868.583954	0.962578
868.895755	0.963552
869.207515	0.961257
869.519233	0.958505
869.830909	0.961016
870.142542	0.962299
870.454134	0.961457
870.765684	0.960953
871.077191	0.957916
871.388657	0.958440
871.700081	0.957764
872.011463	0.958039
872.322803	0.958225
872.634101	0.956792
872.945357	0.953604
873.256571	0.952646
873.567744	0.953612
873.878874	0.953504
874.189963	0.950802
874.501010	0.951103
874.812015	0.949128
875.122979	0.951828
875.433900	0.953178
875.744780	0.953811
876.055618	0.949771
876.366415	0.949891
876.677169	0.949203
876.987882	0.951538
877.298554	0.950987
877.609183	0.948169
877.919771	0.944943
878.230317	0.942554
878.540822	0.941684
878.851285	0.935928
879.161707	0.925871
879.472087	0.914862
879.782425	0.898654
880.092722	0.864315
880.402977	0.812551
880.713191	0.751603
881.023363	0.692908
881.333494	0.659215
881.643583	0.630872
881.953631	0.630837
882.263637	0.659277
882.573602	0.698460
882.883526	0.723499
883.193408	0.747013
883.503248	0.770301
883.813048	0.798046
884.122806	0.827917
884.432522	0.850361
884.742197	0.870888
885.051831	0.880989
885.361424	0.891175
885.670975	0.902726
885.980485	0.913232
886.289954	0.919220
886.599382	0.924893
886.908768	0.928789
887.218113	0.933144
887.527417	0.940245
887.836680	0.940885
888.145901	0.942907
888.455082	0.946695
888.764221	0.949801
889.073319	0.952537
889.382376	0.953929
889.691392	0.953190
890.000366	0.953228
890.309300	0.953902
890.618193	0.951878
890.927044	0.951698
891.235855	0.950067
891.544625	0.952028
891.853353	0.951492
892.162041	0.949664
892.470687	0.942350
892.779293	0.938169
893.087858	0.932719
893.396381	0.925993
893.704864	0.913227
894.013306	0.890045
894.321707	0.862833
894.630068	0.847422
894.938387	0.842799
895.246665	0.844049
895.554903	0.857576
895.863100	0.870235
896.171256	0.887154
896.479371	0.906006
896.787446	0.919918
897.095480	0.925215
897.403473	0.928641
897.711425	0.933374
898.019336	0.939461
898.327207	0.943812
898.635038	0.944199
898.942827	0.944413
899.250576	0.948471
899.558284	0.951886
899.865952	0.953706
900.173579	0.954900
900.481165	0.955312
900.788711	0.958948
901.096216	0.960742
901.403681	0.960973
901.711105	0.963413
902.018489	0.963407
902.325832	0.962841
902.633135	0.961907
902.940397	0.954661
903.247619	0.943486
903.554800	0.918433
903.861941	0.878422
904.169041	0.843070
904.476101	0.826268
904.783121	0.826426
905.090100	0.841293
905.397039	0.863955
905.703938	0.885688
906.010796	0.906601
906.317614	0.922574
906.624391	0.934335
906.931129	0.943364
907.237826	0.951578
907.544483	0.958713
907.851099	0.962223
908.157675	0.967882
908.464211	0.969226
908.770707	0.972237
909.077163	0.973629
909.383578	0.974836
909.689954	0.974690
909.996289	0.975633
910.302584	0.977157
910.608839	0.978405
910.915054	0.977102
911.221229	0.977114
911.527363	0.975732
911.833458	0.976811
912.139513	0.976930
912.445527	0.974886
912.751502	0.973869
913.057436	0.972155
913.363331	0.969201
913.669186	0.966032
913.975000	0.962538
914.280775	0.955184
914.586510	0.947121
914.892205	0.935023
915.197859	0.914893
915.503475	0.885783
915.809050	0.867502
916.114585	0.861890
916.420081	0.858498
916.725536	0.854716
917.030952	0.864289
917.336328	0.876111
917.641665	0.892747
917.946961	0.907775
918.252218	0.918815
918.557435	0.927273
918.862612	0.936787
919.167750	0.941743
919.472848	0.947352
919.777906	0.952363
920.082925	0.958170
920.387904	0.960950
920.692843	0.963359
920.997743	0.963271
921.302603	0.967902
921.607423	0.969417
921.912204	0.971728
922.216946	0.971957
922.521647	0.972765
922.826310	0.974383
923.130932	0.975816
923.435516	0.977692
923.740059	0.979369
924.044564	0.979417
924.349028	0.980289
924.653454	0.982653
924.957840	0.984289
925.262186	0.983867
925.566493	0.984175
925.870761	0.984738
926.174989	0.985254
926.479178	0.988119
926.783328	0.988278
927.087438	0.987543
927.391509	0.987506
927.695541	0.989356
927.999533	0.988342
928.303486	0.989469
928.607400	0.991008
928.911275	0.990169
929.215110	0.991350
929.518906	0.990883
929.822663	0.990358
930.126381	0.990410
930.430060	0.990538
930.733699	0.990052
931.037299	0.988887
931.340861	0.990108
931.644383	0.990260
931.947866	0.989529
932.251309	0.990304
932.554714	0.990179
932.858080	0.989958
933.161407	0.989925
933.464694	0.990437
933.767943	0.989609
934.071153	0.991851
934.374323	0.990911
934.677455	0.990748
934.980548	0.991689
935.283602	0.990439
935.586617	0.991030
935.889593	0.990149
936.192530	0.990350
936.495428	0.989803
936.798287	0.990227
937.101108	0.991162
937.403890	0.989038
937.706632	0.988845
938.009336	0.987754
938.312002	0.985420
938.614628	0.984650
938.917216	0.983634
939.219765	0.981957
939.522275	0.983268
939.824747	0.982877
940.127179	0.983045
940.429573	0.985181
940.731929	0.983736
941.034246	0.984208
941.336524	0.985460
941.638763	0.985258
941.940964	0.985189
942.243126	0.985922
942.545250	0.986278
942.847335	0.987744
943.149381	0.987151
943.451389	0.988582
943.753359	0.988209
944.055290	0.990272
944.357182	0.988948
944.659036	0.987346
944.960851	0.989045
945.262628	0.988669
945.564367	0.990320
945.866067	0.990543
946.167729	0.991088
946.469352	0.989470
946.770937	0.988649
947.072484	0.990427
947.373992	0.989981
947.675462	0.990457
947.976893	0.989921
948.278286	0.989564
948.579641	0.990791
948.880958	0.990026
949.182236	0.990316
949.483476	0.991312
949.784678	0.989685
950.085841	0.991811
950.386967	0.990094
950.688054	0.990830
950.989103	0.990474
951.290114	0.989558
951.591087	0.987980
951.892021	0.989102
952.192917	0.988596
952.493776	0.988323
952.794596	0.988163
953.095378	0.987043
953.396122	0.987551
953.696828	0.987881
953.997496	0.989351
954.298126	0.990636
954.598718	0.990163
954.899272	0.990987
955.199788	0.989098
955.500266	0.992409
955.800706	0.991738
956.101108	0.993137
956.401472	0.993136
956.701798	0.993391
957.002087	0.992969
957.302337	0.993486
957.602550	0.994697
957.902724	0.994712
958.202861	0.995025
958.502960	0.994879
958.803022	0.993595
959.103045	0.996029
959.403031	0.995445
959.702979	0.994820
960.002889	0.994703
960.302762	0.993931
960.602596	0.995756
960.902393	0.994568
961.202153	0.995765
961.501875	0.996441
961.801559	0.996009
962.101205	0.996217
962.400814	0.996089
962.700385	0.996572
962.999918	0.995832
963.299414	0.996071
963.598873	0.993778
963.898293	0.995866
964.197677	0.996132
964.497022	0.996248
964.796331	0.997664
965.095601	0.997415
965.394835	0.996505
965.694030	0.996520
965.993189	0.995716
966.292309	0.995882
966.591393	0.997757
966.890439	0.997692
967.189447	0.997357
967.488419	0.996747
967.787353	0.996528
968.086249	0.995953
968.385108	0.996255
968.683930	0.997044
968.982714	0.996167
969.281462	0.997102
969.580172	0.995519
969.878844	0.997202
970.177480	0.995722
970.476078	0.997230
970.774639	0.996508
971.073162	0.997473
971.371649	0.996392
971.670098	0.996375
971.968510	0.996759
972.266885	0.995989
972.565223	0.995609
972.863524	0.995605
973.161788	0.996067
973.460014	0.997977
973.758204	0.994785
974.056356	0.996288
974.354471	0.995161
974.652550	0.995774
974.950591	0.995659
975.248595	0.996567
975.546563	0.996356
975.844493	0.998188
976.142386	0.996373
976.440243	0.997323
976.738062	0.997261
977.035845	0.996667
977.333590	0.996940
977.631299	0.997331
977.928971	0.996487
978.226606	0.996205
978.524204	0.995293
978.821765	0.997347
979.119290	0.996217
979.416777	0.996528
979.714228	0.996549
980.011642	0.995616
980.309020	0.998403
980.606360	0.996987
980.903664	0.998023
981.200931	0.996234
981.498162	0.995378
981.795356	0.995092
982.092513	0.992929
982.389633	0.993249
982.686717	0.992386
982.983764	0.991166
983.280775	0.990152
983.577749	0.990522
983.874686	0.991270
984.171587	0.990635
984.468451	0.995148
984.765279	0.994505
985.062070	0.993647
985.358824	0.994962
985.655543	0.994656
985.952224	0.995518
986.248869	0.996286
986.545478	0.996964
986.842050	0.998584
987.138586	0.996670
987.435086	0.996757
987.731549	0.998042
988.027975	0.996403
988.324366	0.997495
988.620719	0.998537
988.917037	0.995536
989.213318	0.997975
989.509563	0.999193
989.805772	0.998516
990.101944	0.998654
990.398080	0.996950
990.694180	0.997441
990.990244	0.997120
991.286271	0.996435
991.582262	0.997035
991.878217	0.997150
992.174136	0.998295
992.470019	0.999191
992.765865	0.997194
993.061676	0.998569
993.357450	0.997808
993.653188	0.997172
993.948890	0.996376
994.244556	0.997432
994.540186	0.996655
994.835780	0.995814
995.131337	0.998096
995.426859	0.996354
995.722345	0.996643
996.017795	0.996451
996.313208	0.996081
996.608586	0.995894
996.903928	0.996089
997.199234	0.994874
997.494504	0.996108
997.789738	0.994993
998.084936	0.996642
998.380099	0.998244
998.675225	0.996828
998.970316	0.997427
999.265371	0.998566
999.560390	0.997373
999.855373	0.998263
1000.150320	0.997433
1000.445232	0.997201
1000.740108	0.997794
1001.034948	0.997761
1001.329752	0.998722
1001.624521	0.999915
1001.919254	0.997999
1002.213951	0.998427
1002.508613	0.998007
1002.803239	0.997642
1003.097829	0.998082
1003.392384	0.998380
1003.686903	0.998230
1003.981386	0.997090
1004.275834	1.000018
1004.570246	0.998773
1004.864623	0.999105
1005.158964	0.998384
1005.453270	0.997830
1005.747540	0.996506
1006.041775	0.998285
1006.335974	0.999208
1006.630138	0.998789
1006.924266	0.998872
1007.218359	0.999945
1007.512416	0.999059
1007.806438	0.998627
1008.100425	0.998512
1008.394376	0.998339
1008.688292	0.998557
1008.982172	1.000990
1009.276017	0.999705
1009.569827	0.998494
1009.863602	0.999138
1010.157341	0.999656
1010.451045	0.999288
1010.744714	0.998613
1011.038347	0.999261
1011.331945	0.998099
1011.625508	0.997422
1011.919036	0.998218
1012.212528	0.998535
1012.505986	0.997766
1012.799408	0.998651
1013.092795	0.998811
1013.386147	0.998983
1013.679464	0.998443
1013.972745	0.999078
1014.265992	0.996778
1014.559204	0.999090
1014.852380	0.998877
1015.145521	0.999243
1015.438628	0.999662
1015.731699	0.999139
1016.024736	0.998192
1016.317737	0.998080
1016.610703	0.998761
1016.903635	1.000211
1017.196531	0.998489
1017.489393	0.999167
1017.782219	0.998377
1018.075011	0.998577
1018.367768	0.998950
1018.660490	0.999959
1018.953177	0.999959
1019.245829	0.999959
