Dividing Wavelength (nm)	Counts (n)	Blue Motor Position (mm): 0.000000	Red Motor Position (mm): 27.000000	
326.493990	1.001123
326.888308	1.001123
327.282561	1.001123
327.676750	0.999780
328.070874	0.999229
328.464933	1.000893
328.858929	1.000314
329.252859	0.999877
329.646726	0.999145
330.040528	1.001057
330.434265	0.999106
330.827938	1.001287
331.221547	1.000537
331.615091	0.999722
332.008571	1.000214
332.401986	0.999950
332.795338	1.000502
333.188625	0.998067
333.581847	1.000919
333.975006	0.999138
334.368100	0.999284
334.761129	1.000032
335.154095	1.000300
335.546996	0.997786
335.939833	0.993589
336.332606	0.994378
336.725315	0.994965
337.117960	0.995525
337.510540	0.994320
337.903056	0.995637
338.295508	0.993202
338.687896	0.995450
339.080220	0.994497
339.472480	0.995354
339.864676	0.994723
340.256807	0.995546
340.648875	0.995423
341.040879	0.994703
341.432818	0.994454
341.824694	0.994801
342.216506	0.995976
342.608253	0.995052
342.999937	0.994142
343.391557	0.995358
343.783113	0.995335
344.174605	0.994494
344.566033	0.995116
344.957397	0.993633
345.348697	0.994889
345.739934	0.994924
346.131106	0.995120
346.522215	0.994503
346.913260	0.994035
347.304241	0.994624
347.695159	0.994115
348.086012	0.993855
348.476802	0.995513
348.867528	0.994295
349.258191	0.992966
349.648789	0.995832
350.039324	0.995655
350.429796	0.995323
350.820203	0.995028
351.210548	0.994961
351.600828	0.995457
351.991045	0.995392
352.381198	0.995266
352.771288	0.995159
353.161314	0.995445
353.551276	0.994936
353.941175	0.994667
354.331010	0.993818
354.720782	0.996380
355.110490	0.994157
355.500135	0.994609
355.889717	0.993781
356.279235	0.995946
356.668689	0.994790
357.058080	0.994503
357.447408	0.995811
357.836672	0.995942
358.225873	0.995630
358.615010	0.994676
359.004084	0.995889
359.393095	0.995050
359.782043	0.994203
360.170927	0.996205
360.559748	0.995685
360.948505	0.993293
361.337199	0.994672
361.725830	0.995430
362.114398	0.994713
362.502903	0.995074
362.891344	0.995125
363.279722	0.994758
363.668037	0.995668
364.056289	0.993846
364.444478	0.996185
364.832603	0.995544
365.220665	0.994208
365.608665	0.995576
365.996601	0.994102
366.384474	0.994983
366.772284	0.995057
367.160031	0.993681
367.547715	0.994593
367.935336	0.995142
368.322893	0.994262
368.710388	0.995020
369.097820	0.996040
369.485189	0.994465
369.872495	0.994237
370.259738	0.993015
370.646918	0.995488
371.034035	0.995047
371.421090	0.994648
371.808081	0.995795
372.195010	0.995572
372.581875	0.995172
372.968678	0.995947
373.355418	0.995137
373.742096	0.994189
374.128710	0.995677
374.515262	0.994422
374.901751	0.995315
375.288177	0.995765
375.674540	0.996513
376.060841	0.994560
376.447079	0.996154
376.833254	0.995484
377.219367	0.995343
377.605417	0.995669
377.991404	0.994697
378.377329	0.994124
378.763191	0.996493
379.148991	0.996136
379.534727	0.995916
379.920402	0.995572
380.306013	0.996361
380.691563	0.995854
381.077049	0.995176
381.462474	0.995395
381.847835	0.996784
382.233134	0.995572
382.618371	0.995858
383.003545	0.995906
383.388657	0.995095
383.773706	0.996499
384.158693	0.994867
384.543618	0.995713
384.928480	0.996957
385.313280	0.995725
385.698017	0.996768
386.082692	0.996862
386.467305	0.997045
386.851856	0.995734
387.236344	0.994916
387.620770	0.995745
388.005133	0.995822
388.389435	0.997398
388.773674	0.997428
389.157851	0.997164
389.541965	0.996538
389.926018	0.996349
390.310008	0.997689
390.693936	0.996412
391.077802	0.997431
391.461606	0.996012
391.845348	0.996103
392.229027	0.997161
392.612645	0.996357
392.996200	0.997797
393.379694	0.995792
393.763125	0.997682
394.146494	0.997071
394.529801	0.996319
394.913047	0.996224
395.296230	0.996659
395.679351	0.996093
396.062410	0.996745
396.445408	0.997130
396.828343	0.997014
397.211217	0.997319
397.594028	0.996802
397.976778	0.996722
398.359466	0.996568
398.742092	0.996141
399.124656	0.996472
399.507158	0.996731
399.889598	0.996583
400.271977	0.996970
400.654294	0.996066
401.036549	0.996715
401.418742	0.996904
401.800874	0.995384
402.182944	0.995904
402.564952	0.995872
402.946898	0.997164
403.328783	0.996360
403.710606	0.997168
404.092367	0.996892
404.474067	0.997549
404.855705	0.996716
405.237282	0.996637
405.618797	0.996763
406.000250	0.995777
406.381642	0.997443
406.762972	0.997219
407.144240	0.997529
407.525447	0.997127
407.906593	0.997457
408.287677	0.997365
408.668700	0.997214
409.049661	0.997076
409.430560	0.997499
409.811399	0.996229
410.192176	0.996954
410.572891	0.996308
410.953545	0.996559
411.334138	0.995714
411.714669	0.996785
412.095139	0.997099
412.475547	0.997829
412.855894	0.996759
413.236180	0.997981
413.616405	0.997356
413.996568	0.997491
414.376670	0.997114
414.756711	0.996643
415.136691	0.996406
415.516609	0.997207
415.896466	0.996476
416.276262	0.995987
416.655997	0.997132
417.035670	0.997778
417.415283	0.997453
417.794834	0.998170
418.174324	0.997927
418.553753	0.997316
418.933121	0.997465
419.312428	0.996408
419.691674	0.997169
420.070859	0.997619
420.449983	0.997555
420.829045	0.997050
421.208047	0.997680
421.586988	0.997763
421.965867	0.997701
422.344686	0.998571
422.723444	0.997294
423.102141	0.997001
423.480777	0.996872
423.859352	0.996760
424.237866	0.996834
424.616319	0.997953
424.994712	0.996975
425.373044	0.997715
425.751314	0.997531
426.129524	0.997155
426.507673	0.997576
426.885762	0.998214
427.263789	0.997158
427.641756	0.998517
428.019662	0.998170
428.397508	0.997495
428.775292	0.996988
429.153016	0.997170
429.530679	0.997711
429.908282	0.997326
430.285824	0.996668
430.663305	0.996647
431.040726	0.996452
431.418086	0.998752
431.795385	0.997656
432.172624	0.996477
432.549802	0.997181
432.926920	0.996922
433.303977	0.996418
433.680974	0.997163
434.057910	0.997174
434.434786	0.997268
434.811601	0.996847
435.188355	0.996570
435.565050	0.997287
435.941683	0.997099
436.318257	0.997904
436.694770	0.996372
437.071222	0.996753
437.447614	0.996477
437.823946	0.996411
438.200218	0.996098
438.576429	0.997411
438.952580	0.997229
439.328670	0.995812
439.704700	0.997003
440.080670	0.997111
440.456580	0.996670
440.832429	0.995440
441.208218	0.996659
441.583947	0.995781
441.959616	0.995614
442.335224	0.995773
442.710773	0.995924
443.086261	0.993920
443.461689	0.994087
443.837057	0.994764
444.212365	0.993285
444.587612	0.993165
444.962800	0.991986
445.337927	0.991823
445.712995	0.991772
446.088002	0.990975
446.462949	0.989696
446.837837	0.989260
447.212664	0.988555
447.587431	0.987506
447.962139	0.985337
448.336786	0.983716
448.711374	0.982976
449.085901	0.982449
449.460369	0.981380
449.834776	0.979220
450.209124	0.977688
450.583412	0.974911
450.957640	0.973697
451.331808	0.971938
451.705917	0.970760
452.079965	0.968762
452.453954	0.966667
452.827883	0.964425
453.201752	0.961791
453.575562	0.961704
453.949311	0.957220
454.323001	0.955219
454.696632	0.952501
455.070202	0.948847
455.443713	0.944886
455.817164	0.941459
456.190556	0.937060
456.563888	0.933396
456.937160	0.930003
457.310373	0.927860
457.683526	0.924500
458.056619	0.921563
458.429653	0.917150
458.802628	0.913491
459.175542	0.907918
459.548398	0.900315
459.921194	0.894169
460.293930	0.889431
460.666607	0.876637
461.039224	0.867968
461.411782	0.863254
461.784280	0.857549
462.156719	0.854369
462.529099	0.848965
462.901419	0.847177
463.273680	0.842326
463.645882	0.837174
464.018024	0.830868
464.390106	0.823314
464.762130	0.812830
465.134094	0.798388
465.505999	0.780320
465.877845	0.762649
466.249631	0.752979
466.621358	0.748804
466.993026	0.745901
467.364634	0.740585
467.736184	0.735999
468.107674	0.730490
468.479105	0.719910
468.850477	0.716726
469.221790	0.711020
469.593043	0.707119
469.964238	0.700092
470.335373	0.690949
470.706449	0.682422
471.077467	0.675108
471.448425	0.648197
471.819324	0.628577
472.190164	0.620726
472.560945	0.627426
472.931667	0.629098
473.302330	0.623300
473.672934	0.621557
474.043479	0.606592
474.413965	0.600163
474.784393	0.593622
475.154761	0.583141
475.525070	0.572789
475.895321	0.569862
476.265513	0.557978
476.635645	0.548645
477.005719	0.539602
477.375734	0.530053
477.745691	0.518390
478.115588	0.508425
478.485427	0.496289
478.855207	0.480999
479.224928	0.462142
479.594591	0.448333
479.964194	0.442271
480.333739	0.435428
480.703226	0.427133
481.072653	0.419916
481.442022	0.410565
481.811333	0.401719
482.180584	0.397623
482.549777	0.394091
482.918912	0.391141
483.287988	0.384263
483.657005	0.378371
484.025964	0.377171
484.394864	0.368457
484.763706	0.363300
485.132489	0.362262
485.501213	0.357331
485.869879	0.350898
486.238487	0.348104
486.607036	0.341886
486.975527	0.340477
487.343959	0.332627
487.712333	0.327163
488.080648	0.324580
488.448905	0.319034
488.817104	0.316591
489.185244	0.307852
489.553326	0.301337
489.921350	0.289011
490.289315	0.269857
490.657222	0.262456
491.025070	0.259859
491.392861	0.258334
491.760593	0.260195
492.128267	0.261966
492.495883	0.263683
492.863440	0.266604
493.230939	0.270055
493.598380	0.269067
493.965763	0.268862
494.333088	0.269077
494.700354	0.268401
495.067563	0.265518
495.434713	0.266629
495.801805	0.262773
496.168839	0.262754
496.535815	0.262428
496.902733	0.261202
497.269593	0.261016
497.636395	0.257750
498.003139	0.256573
498.369825	0.258574
498.736453	0.253893
499.103023	0.254099
499.469535	0.253132
499.835989	0.252381
500.202385	0.252452
500.568723	0.254801
500.935003	0.249440
501.301226	0.253092
501.667390	0.246724
502.033497	0.244368
502.399546	0.247033
502.765537	0.248028
503.131470	0.246087
503.497345	0.242028
503.863163	0.250274
504.228923	0.242911
504.594625	0.241276
504.960269	0.246410
505.325856	0.241255
505.691385	0.245266
506.056856	0.241728
506.422270	0.241155
506.787625	0.243208
507.152924	0.240328
507.518164	0.240618
507.883347	0.242416
508.248472	0.243748
508.613540	0.238711
508.978550	0.241163
509.343503	0.241206
509.708398	0.238870
510.073236	0.236658
510.438016	0.236246
510.802738	0.236806
511.167403	0.235832
511.532010	0.237904
511.896561	0.233044
512.261053	0.231884
512.625488	0.233753
512.989866	0.233845
513.354186	0.234317
513.718449	0.235933
514.082655	0.232423
514.446803	0.234469
514.810894	0.231894
515.174927	0.234659
515.538904	0.234009
515.902822	0.230864
516.266684	0.233156
516.630488	0.234163
516.994235	0.232884
517.357925	0.231625
517.721558	0.230069
518.085133	0.229172
518.448651	0.229572
518.812112	0.231522
519.175516	0.231200
519.538863	0.228759
519.902152	0.230509
520.265385	0.227364
520.628560	0.229285
520.991678	0.229480
521.354739	0.228278
521.717743	0.229361
522.080690	0.229672
522.443580	0.227256
522.806413	0.228022
523.169189	0.227308
523.531908	0.226042
523.894569	0.229923
524.257174	0.229725
524.619722	0.227276
524.982213	0.228890
525.344647	0.227242
525.707025	0.228428
526.069345	0.226552
526.431608	0.228026
526.793815	0.225844
527.155964	0.230047
527.518057	0.229050
527.880093	0.230247
528.242072	0.228628
528.603995	0.230605
528.965860	0.232257
529.327669	0.230903
529.689421	0.231795
530.051117	0.232573
530.412755	0.230296
530.774337	0.232847
531.135862	0.233169
531.497331	0.232276
531.858743	0.235313
532.220098	0.232089
532.581396	0.234304
532.942638	0.235115
533.303824	0.235914
533.664953	0.235811
534.026025	0.237714
534.387040	0.235532
534.747999	0.235249
535.108902	0.234450
535.469748	0.239222
535.830537	0.236958
536.191270	0.237480
536.551947	0.236977
536.912567	0.236998
537.273131	0.238704
537.633638	0.238862
537.994089	0.239296
538.354483	0.240356
538.714821	0.237124
539.075103	0.237150
539.435328	0.238054
539.795497	0.241595
540.155609	0.238125
540.515665	0.236404
540.875665	0.242033
541.235609	0.240530
541.595496	0.240501
541.955328	0.237057
542.315102	0.239765
542.674821	0.240783
543.034483	0.240785
543.394090	0.240665
543.753640	0.242419
544.113134	0.237336
544.472571	0.240593
544.831953	0.237530
545.191278	0.241750
545.550548	0.241207
545.909761	0.238154
546.268918	0.238567
546.628019	0.236916
546.987064	0.239681
547.346053	0.241661
547.704986	0.239265
548.063863	0.239779
548.422684	0.239857
548.781449	0.241820
549.140158	0.239348
549.498811	0.242221
549.857408	0.245355
550.215949	0.240146
550.574434	0.243287
550.932864	0.241107
551.291237	0.239640
551.649555	0.240998
552.007817	0.240996
552.366022	0.241744
552.724173	0.241946
553.082267	0.242362
553.440305	0.239183
553.798288	0.243859
554.156215	0.240155
554.514086	0.240761
554.871902	0.243912
555.229661	0.243316
555.587365	0.243716
555.945014	0.246571
556.302606	0.243201
556.660143	0.245873
557.017625	0.242219
557.375050	0.244507
557.732421	0.241706
558.089735	0.243451
558.446994	0.243767
558.804197	0.242728
559.161345	0.242970
559.518437	0.246225
559.875474	0.243778
560.232455	0.243252
560.589381	0.244513
560.946251	0.244540
561.303065	0.242103
561.659825	0.243768
562.016528	0.245222
562.373177	0.248267
562.729770	0.245134
563.086307	0.247385
563.442789	0.244978
563.799216	0.248104
564.155587	0.246786
564.511904	0.247750
564.868164	0.248370
565.224370	0.247888
565.580520	0.249356
565.936615	0.249706
566.292654	0.252410
566.648638	0.249609
567.004567	0.250189
567.360441	0.250940
567.716260	0.252838
568.072023	0.250767
568.427732	0.251280
568.783385	0.254054
569.138982	0.252042
569.494525	0.251762
569.850013	0.254400
570.205445	0.253271
570.560823	0.255453
570.916145	0.257642
571.271412	0.255646
571.626625	0.257161
571.981782	0.257640
572.336884	0.258766
572.691931	0.258328
573.046923	0.259569
573.401860	0.260535
573.756743	0.262387
574.111570	0.261112
574.466342	0.261862
574.821059	0.260835
575.175722	0.263537
575.530330	0.263555
575.884882	0.263399
576.239380	0.265588
576.593823	0.266318
576.948211	0.265691
577.302544	0.269022
577.656823	0.268625
578.011047	0.268576
578.365216	0.269188
578.719330	0.271321
579.073389	0.271337
579.427394	0.272556
579.781344	0.273199
580.135239	0.274899
580.489080	0.274479
580.842866	0.277354
581.196597	0.277412
581.550273	0.275845
581.903895	0.276911
582.257463	0.274974
582.610975	0.278431
582.964434	0.277622
583.317837	0.280340
583.671186	0.280662
584.024481	0.280779
584.377721	0.283288
584.730906	0.283696
585.084037	0.282828
585.437113	0.284811
585.790135	0.284021
586.143103	0.287422
586.496016	0.288271
586.848874	0.285631
587.201679	0.286482
587.554428	0.289798
587.907124	0.288674
588.259765	0.289066
588.612352	0.289546
588.964884	0.293681
589.317362	0.293205
589.669786	0.292989
590.022155	0.291914
590.374470	0.290721
590.726731	0.292976
591.078937	0.297826
591.431090	0.293970
591.783188	0.298485
592.135232	0.298476
592.487222	0.298756
592.839157	0.296715
593.191038	0.298991
593.542866	0.301303
593.894639	0.304767
594.246358	0.302598
594.598022	0.302053
594.949633	0.305741
595.301190	0.306248
595.652692	0.305744
596.004141	0.302080
596.355535	0.309891
596.706876	0.310146
597.058162	0.313018
597.409395	0.310023
597.760573	0.307649
598.111698	0.310940
598.462768	0.311679
598.813785	0.312954
599.164748	0.314261
599.515657	0.314386
599.866511	0.317528
600.217312	0.312678
600.568060	0.318070
600.918753	0.314850
601.269392	0.315969
601.619978	0.318738
601.970510	0.316291
602.320988	0.316742
602.671412	0.314163
603.021783	0.316856
603.372100	0.318272
603.722363	0.317913
604.072572	0.318815
604.422728	0.318563
604.772830	0.320863
605.122878	0.320248
605.472872	0.320677
605.822813	0.318698
606.172701	0.321648
606.522534	0.318996
606.872314	0.318903
607.222041	0.320075
607.571714	0.318235
607.921333	0.319771
608.270899	0.319230
608.620411	0.316113
608.969870	0.319995
609.319276	0.319976
609.668627	0.320087
610.017926	0.318422
610.367171	0.317186
610.716362	0.317579
611.065500	0.318157
611.414585	0.316985
611.763616	0.317431
612.112594	0.317936
612.461518	0.317220
612.810389	0.314675
613.159207	0.316874
613.507971	0.318977
613.856682	0.314334
614.205340	0.316396
614.553945	0.312781
614.902496	0.317108
615.250994	0.314934
615.599439	0.315718
615.947830	0.315381
616.296169	0.316538
616.644454	0.315652
616.992686	0.315799
617.340864	0.313558
617.688990	0.317262
618.037063	0.314059
618.385082	0.315645
618.733048	0.312276
619.080961	0.314898
619.428821	0.314460
619.776628	0.313912
620.124382	0.315872
620.472083	0.316138
620.819731	0.315656
621.167326	0.319480
621.514868	0.319163
621.862357	0.323400
622.209793	0.323005
622.557176	0.325055
622.904506	0.326254
623.251783	0.328696
623.599007	0.330405
623.946179	0.330338
624.293297	0.332144
624.640363	0.336163
624.987376	0.336675
625.334336	0.339383
625.681243	0.341798
626.028097	0.342219
626.374899	0.343299
626.721647	0.343375
627.068343	0.346655
627.414987	0.347634
627.761577	0.350047
628.108115	0.347919
628.454600	0.353065
628.801032	0.350831
629.147412	0.352810
629.493739	0.353106
629.840014	0.355947
630.186236	0.353151
630.532405	0.358953
630.878521	0.356595
631.224585	0.358861
631.570597	0.362656
631.916556	0.360730
632.262462	0.360843
632.608316	0.363093
632.954117	0.363894
633.299866	0.364759
633.645562	0.364843
633.991206	0.369199
634.336797	0.372490
634.682336	0.374562
635.027823	0.376173
635.373257	0.376863
635.718639	0.380368
636.063968	0.379807
636.409245	0.385159
636.754470	0.385865
637.099642	0.388133
637.444762	0.391537
637.789829	0.390140
638.134845	0.394071
638.479808	0.394986
638.824719	0.394739
639.169577	0.398946
639.514383	0.397423
639.859137	0.402158
640.203839	0.401859
640.548489	0.402195
640.893086	0.404045
641.237632	0.405300
641.582125	0.403039
641.926566	0.405207
642.270955	0.404974
642.615292	0.405739
642.959576	0.404985
643.303809	0.405228
643.647990	0.405224
643.992118	0.405364
644.336195	0.408996
644.680219	0.407282
645.024192	0.408188
645.368112	0.401805
645.711981	0.400603
646.055797	0.395696
646.399562	0.398183
646.743274	0.390447
647.086935	0.387857
647.430544	0.388532
647.774101	0.386911
648.117606	0.386582
648.461059	0.386440
648.804460	0.389839
649.147810	0.394295
649.491108	0.396441
649.834354	0.397802
650.177548	0.403652
650.520690	0.408321
650.863781	0.410118
651.206820	0.409085
651.549807	0.413535
651.892742	0.417783
652.235626	0.417067
652.578458	0.417888
652.921238	0.424479
653.263967	0.422162
653.606644	0.425970
653.949269	0.425902
654.291843	0.429519
654.634365	0.426309
654.976836	0.429551
655.319255	0.429830
655.661622	0.431740
656.003938	0.431251
656.346203	0.434657
656.688416	0.431828
657.030577	0.435461
657.372687	0.438030
657.714746	0.438153
658.056753	0.435382
658.398708	0.439238
658.740612	0.440261
659.082465	0.436781
659.424266	0.437670
659.766016	0.436662
660.107715	0.439104
660.449362	0.437802
660.790958	0.438942
661.132503	0.439175
661.473996	0.436598
661.815438	0.437792
662.156829	0.438349
662.498168	0.439073
662.839456	0.440494
663.180693	0.438284
663.521879	0.437817
663.863013	0.438293
664.204097	0.437358
664.545129	0.433615
664.886110	0.434410
665.227040	0.431948
665.567918	0.434642
665.908746	0.432312
666.249522	0.432093
666.590248	0.433036
666.930922	0.431079
667.271545	0.430188
667.612118	0.430175
667.952639	0.432013
668.293109	0.430752
668.633528	0.434084
668.973896	0.433493
669.314213	0.433875
669.654480	0.435341
669.994695	0.435892
670.334859	0.436310
670.674973	0.436485
671.015035	0.437106
671.355047	0.436847
671.695008	0.438110
672.034918	0.439492
672.374777	0.439069
672.714585	0.440043
673.054342	0.440486
673.394049	0.440250
673.733705	0.437792
674.073310	0.438523
674.412864	0.441933
674.752368	0.443047
675.091820	0.442987
675.431223	0.447182
675.770574	0.447078
676.109875	0.449790
676.449125	0.449970
676.788324	0.452309
677.127473	0.457817
677.466571	0.457256
677.805619	0.458818
678.144616	0.460065
678.483562	0.462023
678.822458	0.464574
679.161303	0.465152
679.500098	0.465643
679.838842	0.467680
680.177535	0.466834
680.516179	0.465942
680.854771	0.464503
681.193314	0.457740
681.531805	0.449294
681.870247	0.437841
682.208638	0.430492
682.546978	0.429384
682.885268	0.431203
683.223508	0.437325
683.561697	0.440549
683.899836	0.443318
684.237925	0.446841
684.575963	0.449633
684.913951	0.452925
685.251889	0.449171
685.589776	0.450434
685.927614	0.452846
686.265401	0.447252
686.603137	0.448224
686.940824	0.442330
687.278460	0.440828
687.616046	0.440111
687.953582	0.435081
688.291068	0.436481
688.628504	0.433009
688.965889	0.434504
689.303224	0.438360
689.640510	0.441914
689.977745	0.448275
690.314930	0.455765
690.652065	0.460376
690.989150	0.468247
691.326185	0.474627
691.663170	0.479723
692.000105	0.486358
692.336990	0.492974
692.673825	0.495721
693.010610	0.502302
693.347345	0.507997
693.684030	0.509172
694.020665	0.514301
694.357251	0.522618
694.693786	0.522932
695.030272	0.526447
695.366707	0.530413
695.703093	0.533050
696.039429	0.531555
696.375716	0.532256
696.711952	0.535864
697.048139	0.537634
697.384276	0.540033
697.720363	0.537741
698.056400	0.537884
698.392388	0.542328
698.728326	0.545249
699.064214	0.548445
699.400053	0.549416
699.735842	0.553178
700.071581	0.554994
700.407270	0.557886
700.742910	0.561033
701.078501	0.567522
701.414042	0.567587
701.749533	0.570965
702.084974	0.579620
702.420366	0.572607
702.755709	0.579568
703.091002	0.587951
703.426246	0.580752
703.761440	0.587432
704.096584	0.591779
704.431679	0.588693
704.766725	0.590305
705.101721	0.592061
705.436668	0.588864
705.771565	0.594804
706.106413	0.592439
706.441212	0.586682
706.775961	0.585897
707.110661	0.589228
707.445311	0.584771
707.779913	0.582216
708.114465	0.580699
708.448967	0.577615
708.783421	0.569596
709.117825	0.564143
709.452180	0.564608
709.786485	0.557889
710.120742	0.548357
710.454949	0.550138
710.789107	0.542317
711.123216	0.533403
711.457275	0.535090
711.791286	0.526232
712.125247	0.525029
712.459159	0.536081
712.793023	0.528797
713.126837	0.532881
713.460602	0.533001
713.794318	0.542103
714.127985	0.541031
714.461602	0.550891
714.795171	0.554231
715.128691	0.562307
715.462162	0.569017
715.795584	0.575711
716.128957	0.577654
716.462281	0.584322
716.795556	0.588352
717.128782	0.593396
717.461960	0.602389
717.795088	0.600485
718.128167	0.607043
718.461198	0.616233
718.794180	0.616632
719.127113	0.618608
719.459997	0.622771
719.792833	0.628988
720.125619	0.629373
720.458357	0.636025
720.791046	0.635781
721.123686	0.638608
721.456278	0.646296
721.788821	0.642515
722.121315	0.647139
722.453761	0.651591
722.786158	0.649686
723.118506	0.645757
723.450805	0.654155
723.783056	0.649828
724.115259	0.646801
724.447412	0.646852
724.779518	0.648305
725.111574	0.647370
725.443582	0.642520
725.775542	0.643737
726.107453	0.636684
726.439315	0.636724
726.771129	0.635226
727.102895	0.628504
727.434612	0.621985
727.766281	0.619719
728.097901	0.618704
728.429473	0.618898
728.760996	0.616808
729.092471	0.617715
729.423897	0.620458
729.755276	0.619322
730.086606	0.620125
730.417887	0.614763
730.749120	0.605427
731.080305	0.596406
731.411442	0.592284
731.742530	0.596938
732.073570	0.596417
732.404562	0.588375
732.735506	0.590284
733.066401	0.595061
733.397249	0.604194
733.728048	0.615568
734.058798	0.627490
734.389501	0.637903
734.720156	0.647874
735.050762	0.656041
735.381320	0.656578
735.711831	0.665710
736.042293	0.670998
736.372707	0.667119
736.703073	0.671553
737.033391	0.674390
737.363661	0.671093
737.693883	0.665300
738.024056	0.664457
738.354182	0.665358
738.684260	0.654943
739.014290	0.650522
739.344272	0.651009
739.674207	0.645018
740.004093	0.644141
740.333931	0.644681
740.663722	0.644462
740.993464	0.644982
741.323159	0.648603
741.652806	0.653470
741.982405	0.658741
742.311956	0.663544
742.641460	0.665482
742.970915	0.668933
743.300323	0.677066
743.629683	0.683409
743.958996	0.684610
744.288260	0.689634
744.617477	0.695840
744.946647	0.696987
745.275768	0.702336
745.604842	0.701772
745.933869	0.711879
746.262847	0.712426
746.591778	0.706241
746.920662	0.712403
747.249498	0.718964
747.578286	0.710125
747.907027	0.705729
748.235720	0.706718
748.564365	0.701768
748.892963	0.702125
749.221514	0.704565
749.550017	0.708878
749.878473	0.709873
750.206881	0.715131
750.535242	0.716799
750.863555	0.716962
751.191821	0.718341
751.520039	0.720751
751.848210	0.725786
752.176334	0.718530
752.504411	0.717284
752.832440	0.724523
753.160421	0.729336
753.488356	0.727031
753.816243	0.724582
754.144082	0.734390
754.471875	0.736533
754.799620	0.732133
755.127318	0.734403
755.454969	0.734157
755.782572	0.733224
756.110129	0.738697
756.437638	0.740204
756.765100	0.737332
757.092515	0.735316
757.419882	0.733469
757.747203	0.740025
758.074477	0.738647
758.401703	0.736071
758.728882	0.730375
759.056014	0.729875
759.383099	0.728834
759.710138	0.730255
760.037129	0.725487
760.364073	0.720400
760.690970	0.722547
761.017820	0.728363
761.344623	0.724371
761.671379	0.715214
761.998088	0.703440
762.324751	0.681398
762.651366	0.639419
762.977935	0.572753
763.304456	0.521135
763.630931	0.511978
763.957359	0.550658
764.283740	0.595286
764.610074	0.622642
764.936362	0.652642
765.262602	0.679834
765.588796	0.701372
765.914943	0.718858
766.241044	0.736442
766.567097	0.742226
766.893104	0.752284
767.219064	0.760013
767.544978	0.764722
767.870845	0.778826
768.196665	0.782966
768.522438	0.780343
768.848165	0.781425
769.173846	0.790251
769.499479	0.794508
769.825066	0.799613
770.150607	0.803555
770.476101	0.799142
770.801548	0.799413
771.126949	0.810915
771.452303	0.815188
771.777611	0.814221
772.102872	0.813012
772.428087	0.819291
772.753256	0.822310
773.078378	0.823679
773.403453	0.833013
773.728482	0.837637
774.053465	0.830595
774.378401	0.832770
774.703291	0.842671
775.028135	0.841576
775.352932	0.844058
775.677683	0.847240
776.002388	0.847296
776.327046	0.846215
776.651658	0.849357
776.976224	0.852474
777.300743	0.853872
777.625216	0.855166
777.949643	0.857376
778.274024	0.856953
778.598359	0.858619
778.922647	0.857669
779.246889	0.858053
779.571086	0.861886
779.895236	0.864077
780.219339	0.861188
780.543397	0.857734
780.867409	0.856946
781.191374	0.858853
781.515294	0.861168
781.839167	0.858736
782.162995	0.863064
782.486776	0.861272
782.810511	0.860229
783.134201	0.864083
783.457844	0.862788
783.781441	0.864722
784.104993	0.871343
784.428498	0.871120
784.751958	0.866799
785.075372	0.869027
785.398739	0.873852
785.722061	0.869234
786.045337	0.865511
786.368568	0.870242
786.691752	0.872929
787.014891	0.857655
787.337983	0.849015
787.661030	0.841623
787.984031	0.824423
788.306987	0.811484
788.629897	0.813936
788.952760	0.817640
789.275579	0.822406
789.598351	0.837198
789.921078	0.850102
790.243759	0.852625
790.566395	0.856589
790.888984	0.864751
791.211529	0.868816
791.534027	0.872161
791.856480	0.875160
792.178888	0.879469
792.501249	0.882266
792.823566	0.883684
793.145836	0.883150
793.468062	0.885194
793.790241	0.885384
794.112375	0.882545
794.434464	0.879470
794.756507	0.879210
795.078505	0.877714
795.400457	0.873148
795.722364	0.860361
796.044226	0.853594
796.366042	0.853906
796.687812	0.856040
797.009538	0.853453
797.331218	0.854690
797.652852	0.860204
797.974442	0.865141
798.295986	0.864214
798.617484	0.867883
798.938938	0.872563
799.260346	0.876211
799.581709	0.878216
799.903026	0.880713
800.224299	0.880424
800.545526	0.885027
800.866708	0.889508
801.187845	0.893097
801.508936	0.891948
801.829983	0.890934
802.150984	0.894513
802.471940	0.898258
802.792851	0.896684
803.113717	0.898279
803.434538	0.897593
803.755314	0.898617
804.076045	0.900110
804.396731	0.899986
804.717372	0.900984
805.037967	0.901959
805.358518	0.900377
805.679024	0.897274
805.999485	0.897754
806.319901	0.896417
806.640272	0.898182
806.960598	0.897438
807.280879	0.893639
807.601115	0.892560
807.921306	0.895773
808.241453	0.896952
808.561554	0.894551
808.881611	0.895054
809.201623	0.896929
809.521590	0.897627
809.841513	0.897627
810.161390	0.897724
810.481223	0.898146
810.801011	0.901971
811.120755	0.903490
811.440453	0.901610
811.760107	0.901012
812.079716	0.900385
812.399281	0.904898
812.718801	0.907155
813.038276	0.908432
813.357707	0.908203
813.677093	0.904699
813.996434	0.907306
814.315731	0.908695
814.634983	0.910503
814.954191	0.909521
815.273354	0.905305
815.592473	0.902056
815.911547	0.902453
816.230577	0.898722
816.549562	0.896533
816.868502	0.897815
817.187399	0.893591
817.506250	0.889316
817.825058	0.891250
818.143821	0.888094
818.462539	0.882302
818.781213	0.874652
819.099843	0.863112
819.418429	0.847489
819.736970	0.831007
820.055466	0.811004
820.373919	0.786048
820.692327	0.753631
821.010691	0.718189
821.329011	0.642450
821.647286	0.528713
821.965517	0.415302
822.283704	0.372726
822.601847	0.374981
822.919945	0.409950
823.237999	0.443068
823.556010	0.489940
823.873976	0.544601
824.191897	0.595325
824.509775	0.636669
824.827609	0.682362
825.145398	0.704382
825.463144	0.707294
825.780845	0.690325
826.098502	0.671945
826.416116	0.626536
826.733685	0.583319
827.051210	0.574583
827.368692	0.589394
827.686129	0.625189
828.003522	0.677508
828.320872	0.725549
828.638177	0.768529
828.955439	0.801012
829.272656	0.822806
829.589830	0.839636
829.906960	0.855965
830.224046	0.867801
830.541088	0.878453
830.858086	0.882405
831.175041	0.887204
831.491952	0.887147
831.808819	0.884772
832.125642	0.877519
832.442421	0.862544
832.759157	0.841326
833.075849	0.795318
833.392497	0.732376
833.709101	0.692148
834.025662	0.701432
834.342179	0.733346
834.658653	0.771111
834.975083	0.807321
835.291469	0.834201
835.607811	0.855052
835.924110	0.870869
836.240366	0.888981
836.556578	0.903003
836.872746	0.909195
837.188871	0.916245
837.504952	0.921287
837.820990	0.924432
838.136984	0.928021
838.452935	0.930590
838.768842	0.932157
839.084706	0.924952
839.400526	0.899808
839.716303	0.861141
840.032037	0.838671
840.347727	0.841253
840.663373	0.860241
840.978977	0.880402
841.294537	0.903072
841.610054	0.919263
841.925527	0.926331
842.240957	0.933273
842.556344	0.940278
842.871687	0.946051
843.186987	0.950607
843.502244	0.950576
843.817458	0.952560
844.132629	0.956182
844.447756	0.960447
844.762840	0.961034
845.077881	0.960320
845.392879	0.960945
845.707833	0.963259
846.022745	0.964720
846.337613	0.966198
846.652438	0.967053
846.967221	0.964298
847.281960	0.964771
847.596656	0.968060
847.911309	0.965427
848.225919	0.967984
848.540485	0.968413
848.855009	0.968991
849.169490	0.968130
849.483928	0.969277
849.798323	0.969682
850.112675	0.970743
850.426984	0.969452
850.741251	0.970220
851.055474	0.970049
851.369654	0.968361
851.683792	0.968990
851.997887	0.969871
852.311938	0.971153
852.625947	0.969930
852.939914	0.968439
853.253837	0.970456
853.567718	0.969424
853.881555	0.970432
854.195350	0.968930
854.509103	0.970323
854.822812	0.969540
855.136479	0.970385
855.450103	0.969479
855.763685	0.968696
856.077224	0.969243
856.390720	0.970490
856.704173	0.970698
857.017584	0.969875
857.330953	0.967556
857.644278	0.968609
857.957561	0.969413
858.270802	0.968816
858.584000	0.967479
858.897155	0.967191
859.210268	0.967221
859.523339	0.968087
859.836367	0.970425
860.149352	0.969953
860.462295	0.968547
860.775195	0.969941
861.088054	0.969950
861.400869	0.969976
861.713642	0.970354
862.026373	0.970257
862.339062	0.971560
862.651708	0.968803
862.964312	0.968800
863.276873	0.970264
863.589392	0.967424
863.901869	0.966926
864.214303	0.965212
864.526696	0.964400
864.839045	0.963687
865.151353	0.963683
865.463619	0.962289
865.775842	0.963022
866.088023	0.963149
866.400162	0.962396
866.712258	0.963162
867.024313	0.963274
867.336325	0.964258
867.648296	0.963857
867.960224	0.962407
868.272110	0.962261
868.583954	0.964921
868.895755	0.964058
869.207515	0.961969
869.519233	0.959682
869.830909	0.961401
870.142542	0.963989
870.454134	0.961650
870.765684	0.961059
871.077191	0.957464
871.388657	0.959557
871.700081	0.958397
872.011463	0.958488
872.322803	0.959194
872.634101	0.956756
872.945357	0.955018
873.256571	0.953705
873.567744	0.953178
873.878874	0.954070
874.189963	0.953066
874.501010	0.952824
874.812015	0.950540
875.122979	0.951876
875.433900	0.953609
875.744780	0.955033
876.055618	0.952106
876.366415	0.950966
876.677169	0.951352
876.987882	0.951784
877.298554	0.951607
877.609183	0.948391
877.919771	0.945282
878.230317	0.942660
878.540822	0.941176
878.851285	0.935839
879.161707	0.928893
879.472087	0.917297
879.782425	0.900595
880.092722	0.867052
880.402977	0.816015
880.713191	0.756680
881.023363	0.698180
881.333494	0.665544
881.643583	0.637176
881.953631	0.636513
882.263637	0.665694
882.573602	0.704273
882.883526	0.729719
883.193408	0.752749
883.503248	0.774278
883.813048	0.802817
884.122806	0.831088
884.432522	0.853308
884.742197	0.873521
885.051831	0.883218
885.361424	0.893409
885.670975	0.905466
885.980485	0.915788
886.289954	0.920323
886.599382	0.926207
886.908768	0.929993
887.218113	0.935781
887.527417	0.940663
887.836680	0.942881
888.145901	0.944678
888.455082	0.946678
888.764221	0.951361
889.073319	0.953835
889.382376	0.953824
889.691392	0.953553
890.000366	0.953617
890.309300	0.955038
890.618193	0.953381
890.927044	0.952447
891.235855	0.951814
891.544625	0.952269
891.853353	0.953605
892.162041	0.950359
892.470687	0.943069
892.779293	0.939098
893.087858	0.935038
893.396381	0.927237
893.704864	0.915061
894.013306	0.891052
894.321707	0.864969
894.630068	0.852045
894.938387	0.846507
895.246665	0.848106
895.554903	0.860049
895.863100	0.872601
896.171256	0.889719
896.479371	0.909077
896.787446	0.920583
897.095480	0.927377
897.403473	0.929872
897.711425	0.933201
898.019336	0.940686
898.327207	0.943334
898.635038	0.946833
898.942827	0.946116
899.250576	0.951060
899.558284	0.953617
899.865952	0.954812
900.173579	0.956951
900.481165	0.956538
900.788711	0.961838
901.096216	0.961613
901.403681	0.962393
901.711105	0.964055
902.018489	0.964537
902.325832	0.963652
902.633135	0.962501
902.940397	0.957329
903.247619	0.945170
903.554800	0.919905
903.861941	0.881147
904.169041	0.846656
904.476101	0.829533
904.783121	0.831119
905.090100	0.846647
905.397039	0.867442
905.703938	0.888654
906.010796	0.907552
906.317614	0.924944
906.624391	0.936246
906.931129	0.945484
907.237826	0.953393
907.544483	0.959131
907.851099	0.964526
908.157675	0.967829
908.464211	0.970097
908.770707	0.972482
909.077163	0.974851
909.383578	0.975774
909.689954	0.974406
909.996289	0.976178
910.302584	0.977959
910.608839	0.980356
910.915054	0.978440
911.221229	0.977295
911.527363	0.977754
911.833458	0.976397
912.139513	0.978012
912.445527	0.975323
912.751502	0.974418
913.057436	0.973445
913.363331	0.971025
913.669186	0.966326
913.975000	0.962401
914.280775	0.956721
914.586510	0.949090
914.892205	0.936991
915.197859	0.916823
915.503475	0.889333
915.809050	0.870442
916.114585	0.865850
916.420081	0.863684
916.725536	0.860196
917.030952	0.867746
917.336328	0.880033
917.641665	0.894459
917.946961	0.910335
918.252218	0.921194
918.557435	0.928960
918.862612	0.937973
919.167750	0.943717
919.472848	0.948846
919.777906	0.953769
920.082925	0.959290
920.387904	0.963628
920.692843	0.964500
920.997743	0.964215
921.302603	0.968890
921.607423	0.969551
921.912204	0.972305
922.216946	0.972688
922.521647	0.974096
922.826310	0.975467
923.130932	0.976478
923.435516	0.978956
923.740059	0.979448
924.044564	0.978834
924.349028	0.981191
924.653454	0.983850
924.957840	0.985985
925.262186	0.985036
925.566493	0.984099
925.870761	0.984288
926.174989	0.986377
926.479178	0.988153
926.783328	0.988351
927.087438	0.988628
927.391509	0.987107
927.695541	0.990588
927.999533	0.989882
928.303486	0.990260
928.607400	0.992144
928.911275	0.989207
929.215110	0.991136
929.518906	0.991213
929.822663	0.989155
930.126381	0.992160
930.430060	0.990562
930.733699	0.990982
931.037299	0.989087
931.340861	0.991758
931.644383	0.989486
931.947866	0.988630
932.251309	0.990411
932.554714	0.990638
932.858080	0.990876
933.161407	0.991260
933.464694	0.990302
933.767943	0.989738
934.071153	0.990084
934.374323	0.991821
934.677455	0.990769
934.980548	0.991283
935.283602	0.990012
935.586617	0.990949
935.889593	0.991060
936.192530	0.991368
936.495428	0.991312
936.798287	0.990806
937.101108	0.990685
937.403890	0.988882
937.706632	0.988756
938.009336	0.985645
938.312002	0.986845
938.614628	0.984625
938.917216	0.983142
939.219765	0.982765
939.522275	0.983575
939.824747	0.983461
940.127179	0.982731
940.429573	0.985570
940.731929	0.984825
941.034246	0.985837
941.336524	0.985455
941.638763	0.986710
941.940964	0.986899
942.243126	0.987043
942.545250	0.987065
942.847335	0.988293
943.149381	0.988122
943.451389	0.987653
943.753359	0.988584
944.055290	0.990653
944.357182	0.988926
944.659036	0.988124
944.960851	0.989567
945.262628	0.989816
945.564367	0.990506
945.866067	0.990516
946.167729	0.990622
946.469352	0.989815
946.770937	0.989476
947.072484	0.989869
947.373992	0.990438
947.675462	0.990214
947.976893	0.990747
948.278286	0.990847
948.579641	0.992110
948.880958	0.991043
949.182236	0.991122
949.483476	0.991008
949.784678	0.989550
950.085841	0.992061
950.386967	0.991593
950.688054	0.990688
950.989103	0.990464
951.290114	0.989200
951.591087	0.989557
951.892021	0.988927
952.192917	0.989823
952.493776	0.989085
952.794596	0.988737
953.095378	0.988206
953.396122	0.988327
953.696828	0.988293
953.997496	0.991108
954.298126	0.991773
954.598718	0.991162
954.899272	0.990780
955.199788	0.990497
955.500266	0.991676
955.800706	0.993105
956.101108	0.992399
956.401472	0.993752
956.701798	0.993837
957.002087	0.993194
957.302337	0.993397
957.602550	0.995094
957.902724	0.994656
958.202861	0.994578
958.502960	0.995072
958.803022	0.993906
959.103045	0.996562
959.403031	0.995606
959.702979	0.994903
960.002889	0.995339
960.302762	0.993963
960.602596	0.996602
960.902393	0.994458
961.202153	0.997249
961.501875	0.996671
961.801559	0.995447
962.101205	0.995830
962.400814	0.996299
962.700385	0.996883
962.999918	0.997333
963.299414	0.996806
963.598873	0.994676
963.898293	0.995577
964.197677	0.995558
964.497022	0.995654
964.796331	0.997701
965.095601	0.996548
965.394835	0.996554
965.694030	0.996107
965.993189	0.997826
966.292309	0.997199
966.591393	0.997041
966.890439	0.997300
967.189447	0.996620
967.488419	0.996223
967.787353	0.996302
968.086249	0.996749
968.385108	0.996992
968.683930	0.997079
968.982714	0.997647
969.281462	0.997589
969.580172	0.996277
969.878844	0.998185
970.177480	0.997056
970.476078	0.997737
970.774639	0.996150
971.073162	0.997693
971.371649	0.996609
971.670098	0.996165
971.968510	0.997148
972.266885	0.995056
972.565223	0.995788
972.863524	0.995641
973.161788	0.996014
973.460014	0.997155
973.758204	0.995436
974.056356	0.997179
974.354471	0.993337
974.652550	0.996632
974.950591	0.995425
975.248595	0.996350
975.546563	0.996223
975.844493	0.996735
976.142386	0.996514
976.440243	0.997571
976.738062	0.997188
977.035845	0.997837
977.333590	0.996598
977.631299	0.997443
977.928971	0.995757
978.226606	0.996898
978.524204	0.995682
978.821765	0.997889
979.119290	0.996142
979.416777	0.996702
979.714228	0.998117
980.011642	0.995752
980.309020	0.996888
980.606360	0.996409
980.903664	0.998159
981.200931	0.996715
981.498162	0.994385
981.795356	0.995369
982.092513	0.993804
982.389633	0.994493
982.686717	0.991441
982.983764	0.991636
983.280775	0.991298
983.577749	0.990370
983.874686	0.991377
984.171587	0.991996
984.468451	0.994623
984.765279	0.993828
985.062070	0.994027
985.358824	0.995076
985.655543	0.996333
985.952224	0.996880
986.248869	0.996581
986.545478	0.997423
986.842050	0.998254
987.138586	0.995446
987.435086	0.997449
987.731549	0.999647
988.027975	0.997891
988.324366	0.997175
988.620719	0.997004
988.917037	0.996478
989.213318	0.997908
989.509563	0.998312
989.805772	0.997724
990.101944	0.998502
990.398080	0.996939
990.694180	0.997462
990.990244	0.997342
991.286271	0.997446
991.582262	0.997645
991.878217	0.998127
992.174136	0.997894
992.470019	0.997724
992.765865	0.997745
993.061676	0.997889
993.357450	0.996865
993.653188	0.996143
993.948890	0.996977
994.244556	0.997453
994.540186	0.997343
994.835780	0.995954
995.131337	0.997589
995.426859	0.996200
995.722345	0.997072
996.017795	0.996903
996.313208	0.996034
996.608586	0.996319
996.903928	0.995198
997.199234	0.995351
997.494504	0.996513
997.789738	0.995422
998.084936	0.995593
998.380099	0.997238
998.675225	0.997304
998.970316	0.998320
999.265371	0.998817
999.560390	0.997214
999.855373	0.999018
1000.150320	0.997457
1000.445232	0.997893
1000.740108	0.998626
1001.034948	0.997795
1001.329752	0.999176
1001.624521	0.998122
1001.919254	0.998463
1002.213951	0.997586
1002.508613	0.997339
1002.803239	0.999328
1003.097829	0.998502
1003.392384	0.998484
1003.686903	0.997306
1003.981386	0.999213
1004.275834	0.998811
1004.570246	0.997739
1004.864623	0.998733
1005.158964	0.999860
1005.453270	0.998767
1005.747540	0.996729
1006.041775	0.998843
1006.335974	0.999532
1006.630138	0.999408
1006.924266	0.998586
1007.218359	1.000082
1007.512416	0.999549
1007.806438	0.998890
1008.100425	0.999445
1008.394376	0.999184
1008.688292	0.998245
1008.982172	1.001109
1009.276017	0.998962
1009.569827	0.998326
1009.863602	0.997668
1010.157341	0.999457
1010.451045	0.999067
1010.744714	0.998852
1011.038347	0.999198
1011.331945	0.998641
1011.625508	0.997670
1011.919036	0.998865
1012.212528	0.998825
1012.505986	0.998443
1012.799408	0.998379
1013.092795	0.999029
1013.386147	0.999489
1013.679464	0.999139
1013.972745	0.998237
1014.265992	0.997524
1014.559204	0.998873
1014.852380	0.998872
1015.145521	0.997644
1015.438628	0.998907
1015.731699	0.998539
1016.024736	0.997955
1016.317737	0.998631
1016.610703	0.997542
1016.903635	0.998680
1017.196531	0.998666
1017.489393	0.998860
1017.782219	0.999060
1018.075011	0.999570
1018.367768	0.999638
1018.660490	0.999886
1018.953177	0.999886
1019.245829	0.999886
