Dividing Wavelength (nm)	Counts (n)	Blue Motor Position (mm): 0.000000	Red Motor Position (mm): 28.100000	
326.493990	1.001570
326.888308	1.001570
327.282561	1.001570
327.676750	1.000224
328.070874	0.999455
328.464933	1.000042
328.858929	0.999800
329.252859	0.999878
329.646726	0.998797
330.040528	1.000092
330.434265	0.998530
330.827938	1.001055
331.221547	0.999627
331.615091	1.000082
332.008571	0.999621
332.401986	1.000462
332.795338	0.999871
333.188625	0.998798
333.581847	1.001254
333.975006	0.998471
334.368100	0.999844
334.761129	1.000682
335.154095	1.001085
335.546996	0.997638
335.939833	0.994435
336.332606	0.994186
336.725315	0.995706
337.117960	0.996835
337.510540	0.995265
337.903056	0.994959
338.295508	0.993747
338.687896	0.995055
339.080220	0.996290
339.472480	0.994222
339.864676	0.995242
340.256807	0.995628
340.648875	0.995181
341.040879	0.995931
341.432818	0.994369
341.824694	0.995662
342.216506	0.996302
342.608253	0.995099
342.999937	0.994414
343.391557	0.996028
343.783113	0.994471
344.174605	0.995678
344.566033	0.996787
344.957397	0.995522
345.348697	0.993461
345.739934	0.994942
346.131106	0.994235
346.522215	0.995460
346.913260	0.995729
347.304241	0.995243
347.695159	0.994298
348.086012	0.994682
348.476802	0.995382
348.867528	0.995475
349.258191	0.994311
349.648789	0.996204
350.039324	0.995392
350.429796	0.995593
350.820203	0.995234
351.210548	0.996180
351.600828	0.994974
351.991045	0.995587
352.381198	0.994931
352.771288	0.995150
353.161314	0.995115
353.551276	0.995694
353.941175	0.994716
354.331010	0.994073
354.720782	0.995621
355.110490	0.993776
355.500135	0.996545
355.889717	0.994145
356.279235	0.995047
356.668689	0.994764
357.058080	0.995778
357.447408	0.996442
357.836672	0.996544
358.225873	0.996080
358.615010	0.994041
359.004084	0.995673
359.393095	0.994766
359.782043	0.996015
360.170927	0.996392
360.559748	0.996662
360.948505	0.993809
361.337199	0.995564
361.725830	0.995647
362.114398	0.995241
362.502903	0.996135
362.891344	0.996434
363.279722	0.995486
363.668037	0.995345
364.056289	0.995354
364.444478	0.995675
364.832603	0.996405
365.220665	0.994764
365.608665	0.996221
365.996601	0.995529
366.384474	0.996269
366.772284	0.996262
367.160031	0.993590
367.547715	0.993439
367.935336	0.995403
368.322893	0.994720
368.710388	0.993940
369.097820	0.995831
369.485189	0.994486
369.872495	0.994339
370.259738	0.993594
370.646918	0.996179
371.034035	0.995016
371.421090	0.994995
371.808081	0.995125
372.195010	0.996375
372.581875	0.994758
372.968678	0.995420
373.355418	0.995263
373.742096	0.994985
374.128710	0.997418
374.515262	0.995334
374.901751	0.996775
375.288177	0.996186
375.674540	0.997111
376.060841	0.995190
376.447079	0.995976
376.833254	0.995819
377.219367	0.996496
377.605417	0.995417
377.991404	0.997115
378.377329	0.996436
378.763191	0.996401
379.148991	0.996745
379.534727	0.996348
379.920402	0.996663
380.306013	0.996414
380.691563	0.997692
381.077049	0.996228
381.462474	0.997384
381.847835	0.997125
382.233134	0.996446
382.618371	0.997689
383.003545	0.996557
383.388657	0.997195
383.773706	0.996669
384.158693	0.996888
384.543618	0.997256
384.928480	0.996919
385.313280	0.997346
385.698017	0.998070
386.082692	0.997418
386.467305	0.997733
386.851856	0.997444
387.236344	0.996652
387.620770	0.996449
388.005133	0.996944
388.389435	0.997012
388.773674	0.996570
389.157851	0.997611
389.541965	0.996849
389.926018	0.996802
390.310008	0.998376
390.693936	0.997505
391.077802	0.997997
391.461606	0.997900
391.845348	0.997186
392.229027	0.998966
392.612645	0.996928
392.996200	0.998704
393.379694	0.997423
393.763125	0.998046
394.146494	0.998194
394.529801	0.996875
394.913047	0.998784
395.296230	0.998752
395.679351	0.997610
396.062410	0.997712
396.445408	0.997942
396.828343	0.998232
397.211217	0.997770
397.594028	0.998063
397.976778	0.997877
398.359466	0.997024
398.742092	0.996693
399.124656	0.996438
399.507158	0.997883
399.889598	0.997750
400.271977	0.997729
400.654294	0.997096
401.036549	0.997194
401.418742	0.998204
401.800874	0.997157
402.182944	0.997678
402.564952	0.997047
402.946898	0.998058
403.328783	0.998076
403.710606	0.997958
404.092367	0.997672
404.474067	0.998369
404.855705	0.997041
405.237282	0.997484
405.618797	0.998209
406.000250	0.997296
406.381642	0.998198
406.762972	0.998064
407.144240	0.998380
407.525447	0.997777
407.906593	0.997744
408.287677	0.998493
408.668700	0.998434
409.049661	0.996873
409.430560	0.998473
409.811399	0.997617
410.192176	0.998234
410.572891	0.997808
410.953545	0.997405
411.334138	0.996682
411.714669	0.998587
412.095139	0.997572
412.475547	0.998212
412.855894	0.998944
413.236180	0.998490
413.616405	0.998041
413.996568	0.998510
414.376670	0.998567
414.756711	0.998017
415.136691	0.998057
415.516609	0.998429
415.896466	0.998203
416.276262	0.996295
416.655997	0.998682
417.035670	0.997699
417.415283	0.997792
417.794834	0.998147
418.174324	0.998281
418.553753	0.998266
418.933121	0.998040
419.312428	0.997665
419.691674	0.998204
420.070859	0.998420
420.449983	0.997344
420.829045	0.997852
421.208047	0.998404
421.586988	0.998428
421.965867	0.998395
422.344686	0.999219
422.723444	0.998278
423.102141	0.997460
423.480777	0.998101
423.859352	0.998072
424.237866	0.997414
424.616319	0.997822
424.994712	0.997643
425.373044	0.997738
425.751314	0.997892
426.129524	0.998244
426.507673	0.997900
426.885762	0.998847
427.263789	0.998597
427.641756	0.997928
428.019662	0.998858
428.397508	0.997478
428.775292	0.997684
429.153016	0.997785
429.530679	0.998340
429.908282	0.998504
430.285824	0.997849
430.663305	0.997610
431.040726	0.997404
431.418086	0.998816
431.795385	0.998389
432.172624	0.996895
432.549802	0.997840
432.926920	0.998509
433.303977	0.997775
433.680974	0.998892
434.057910	0.997573
434.434786	0.998433
434.811601	0.997828
435.188355	0.997396
435.565050	0.997876
435.941683	0.997749
436.318257	0.999033
436.694770	0.997452
437.071222	0.998079
437.447614	0.997924
437.823946	0.997171
438.200218	0.997343
438.576429	0.997664
438.952580	0.998398
439.328670	0.997143
439.704700	0.997955
440.080670	0.997787
440.456580	0.997501
440.832429	0.997071
441.208218	0.997714
441.583947	0.997153
441.959616	0.997284
442.335224	0.997577
442.710773	0.998359
443.086261	0.996808
443.461689	0.996987
443.837057	0.997814
444.212365	0.996689
444.587612	0.997667
444.962800	0.997025
445.337927	0.997282
445.712995	0.997076
446.088002	0.997372
446.462949	0.997195
446.837837	0.996174
447.212664	0.996941
447.587431	0.996771
447.962139	0.996913
448.336786	0.996794
448.711374	0.996720
449.085901	0.994892
449.460369	0.996222
449.834776	0.994724
450.209124	0.994364
450.583412	0.994268
450.957640	0.993583
451.331808	0.993921
451.705917	0.992334
452.079965	0.992148
452.453954	0.991549
452.827883	0.990548
453.201752	0.990445
453.575562	0.990566
453.949311	0.989382
454.323001	0.987836
454.696632	0.986684
455.070202	0.985791
455.443713	0.984098
455.817164	0.983778
456.190556	0.981457
456.563888	0.980595
456.937160	0.979368
457.310373	0.977705
457.683526	0.976708
458.056619	0.974999
458.429653	0.973232
458.802628	0.971708
459.175542	0.970456
459.548398	0.967066
459.921194	0.964046
460.293930	0.962352
460.666607	0.956656
461.039224	0.952507
461.411782	0.950619
461.784280	0.947916
462.156719	0.947523
462.529099	0.945039
462.901419	0.943072
463.273680	0.940901
463.645882	0.937518
464.018024	0.934235
464.390106	0.930291
464.762130	0.925953
465.134094	0.918381
465.505999	0.907837
465.877845	0.897379
466.249631	0.892951
466.621358	0.891338
466.993026	0.890069
467.364634	0.887220
467.736184	0.883599
468.107674	0.879822
468.479105	0.872017
468.850477	0.870356
469.221790	0.866322
469.593043	0.862111
469.964238	0.856505
470.335373	0.850424
470.706449	0.844330
471.077467	0.838296
471.448425	0.821940
471.819324	0.808925
472.190164	0.804341
472.560945	0.805587
472.931667	0.803138
473.302330	0.797588
473.672934	0.794528
474.043479	0.783560
474.413965	0.777617
474.784393	0.770747
475.154761	0.761903
475.525070	0.753414
475.895321	0.748689
476.265513	0.739336
476.635645	0.731105
477.005719	0.722011
477.375734	0.713914
477.745691	0.703355
478.115588	0.693624
478.485427	0.682743
478.855207	0.669329
479.224928	0.652476
479.594591	0.640796
479.964194	0.633528
480.333739	0.626414
480.703226	0.616942
481.072653	0.609115
481.442022	0.597588
481.811333	0.587911
482.180584	0.582095
482.549777	0.575908
482.918912	0.570019
483.287988	0.562428
483.657005	0.553779
484.025964	0.549532
484.394864	0.539539
484.763706	0.531742
485.132489	0.527300
485.501213	0.519419
485.869879	0.511614
486.238487	0.505151
486.607036	0.497265
486.975527	0.491597
487.343959	0.481832
487.712333	0.473947
488.080648	0.468131
488.448905	0.459611
488.817104	0.454353
489.185244	0.443410
489.553326	0.434371
489.921350	0.420951
490.289315	0.401929
490.657222	0.392828
491.025070	0.386606
491.392861	0.382031
491.760593	0.379853
492.128267	0.377213
492.495883	0.375058
492.863440	0.373907
493.230939	0.372855
493.598380	0.368755
493.965763	0.364786
494.333088	0.362567
494.700354	0.358033
495.067563	0.352891
495.434713	0.350300
495.801805	0.344336
496.168839	0.341223
496.535815	0.337426
496.902733	0.333929
497.269593	0.330829
497.636395	0.325619
498.003139	0.321120
498.369825	0.320537
498.736453	0.313503
499.103023	0.311506
499.469535	0.307580
499.835989	0.304654
500.202385	0.302382
500.568723	0.302089
500.935003	0.294919
501.301226	0.296007
501.667390	0.288557
502.033497	0.283604
502.399546	0.283921
502.765537	0.282998
503.131470	0.279097
503.497345	0.273455
503.863163	0.280350
504.228923	0.271180
504.594625	0.268026
504.960269	0.271324
505.325856	0.265046
505.691385	0.267457
506.056856	0.262901
506.422270	0.260702
506.787625	0.261721
507.152924	0.258024
507.518164	0.256891
507.883347	0.257390
508.248472	0.257978
508.613540	0.251959
508.978550	0.253513
509.343503	0.252845
509.708398	0.249935
510.073236	0.246700
510.438016	0.245932
510.802738	0.246139
511.167403	0.244356
511.532010	0.245862
511.896561	0.240563
512.261053	0.239004
512.625488	0.240315
512.989866	0.240315
513.354186	0.240365
513.718449	0.241512
514.082655	0.237753
514.446803	0.239568
514.810894	0.236839
515.174927	0.239190
515.538904	0.238204
515.902822	0.234921
516.266684	0.237005
516.630488	0.237839
516.994235	0.236154
517.357925	0.235144
517.721558	0.233201
518.085133	0.232532
518.448651	0.232495
518.812112	0.234500
519.175516	0.234050
519.538863	0.231457
519.902152	0.232862
520.265385	0.229607
520.628560	0.231253
520.991678	0.231524
521.354739	0.230439
521.717743	0.231443
522.080690	0.231799
522.443580	0.229243
522.806413	0.229897
523.169189	0.229178
523.531908	0.227924
523.894569	0.231572
524.257174	0.231311
524.619722	0.228937
524.982213	0.229992
525.344647	0.229057
525.707025	0.229744
526.069345	0.227580
526.431608	0.229421
526.793815	0.227357
527.155964	0.231193
527.518057	0.230140
527.880093	0.231084
528.242072	0.229718
528.603995	0.231472
528.965860	0.233339
529.327669	0.232147
529.689421	0.232889
530.051117	0.233783
530.412755	0.231216
530.774337	0.233610
531.135862	0.233816
531.497331	0.233162
531.858743	0.236127
532.220098	0.232734
532.581396	0.235584
532.942638	0.235717
533.303824	0.236817
533.664953	0.236453
534.026025	0.238123
534.387040	0.236149
534.747999	0.235969
535.108902	0.234918
535.469748	0.239684
535.830537	0.237672
536.191270	0.238144
536.551947	0.237721
536.912567	0.237762
537.273131	0.239541
537.633638	0.239437
537.994089	0.240052
538.354483	0.241068
538.714821	0.237949
539.075103	0.237730
539.435328	0.238455
539.795497	0.242126
540.155609	0.238624
540.515665	0.236790
540.875665	0.242328
541.235609	0.241101
541.595496	0.241164
541.955328	0.237498
542.315102	0.240482
542.674821	0.241366
543.034483	0.241220
543.394090	0.241030
543.753640	0.242876
544.113134	0.237818
544.472571	0.241018
544.831953	0.237890
545.191278	0.242192
545.550548	0.241555
545.909761	0.238381
546.268918	0.239134
546.628019	0.237393
546.987064	0.240319
547.346053	0.242020
547.704986	0.239871
548.063863	0.240236
548.422684	0.240174
548.781449	0.242294
549.140158	0.239542
549.498811	0.242326
549.857408	0.245800
550.215949	0.240619
550.574434	0.243691
550.932864	0.241562
551.291237	0.240493
551.649555	0.241617
552.007817	0.241310
552.366022	0.242009
552.724173	0.242381
553.082267	0.243049
553.440305	0.239573
553.798288	0.244085
554.156215	0.240397
554.514086	0.241191
554.871902	0.244429
555.229661	0.243568
555.587365	0.244193
555.945014	0.246590
556.302606	0.243629
556.660143	0.246044
557.017625	0.242550
557.375050	0.244695
557.732421	0.241955
558.089735	0.243859
558.446994	0.244053
558.804197	0.243288
559.161345	0.243264
559.518437	0.246804
559.875474	0.244124
560.232455	0.244081
560.589381	0.245163
560.946251	0.244833
561.303065	0.242608
561.659825	0.243932
562.016528	0.245571
562.373177	0.248274
562.729770	0.245689
563.086307	0.247761
563.442789	0.245591
563.799216	0.248521
564.155587	0.247178
564.511904	0.248094
564.868164	0.248472
565.224370	0.248186
565.580520	0.249720
565.936615	0.249959
566.292654	0.252770
566.648638	0.249927
567.004567	0.250842
567.360441	0.251485
567.716260	0.253475
568.072023	0.251239
568.427732	0.251974
568.783385	0.254301
569.138982	0.252273
569.494525	0.252041
569.850013	0.254983
570.205445	0.253330
570.560823	0.255854
570.916145	0.257929
571.271412	0.255952
571.626625	0.257352
571.981782	0.257911
572.336884	0.258954
572.691931	0.258393
573.046923	0.259876
573.401860	0.261065
573.756743	0.262356
574.111570	0.261643
574.466342	0.262030
574.821059	0.261327
575.175722	0.263976
575.530330	0.263800
575.884882	0.263879
576.239380	0.266018
576.593823	0.266278
576.948211	0.266360
577.302544	0.269271
577.656823	0.268952
578.011047	0.269295
578.365216	0.269981
578.719330	0.271876
579.073389	0.271625
579.427394	0.272927
579.781344	0.273354
580.135239	0.275235
580.489080	0.274586
580.842866	0.277537
581.196597	0.277259
581.550273	0.276106
581.903895	0.277292
582.257463	0.275346
582.610975	0.278795
582.964434	0.277966
583.317837	0.280474
583.671186	0.280598
584.024481	0.281017
584.377721	0.283627
584.730906	0.284038
585.084037	0.283124
585.437113	0.284934
585.790135	0.284463
586.143103	0.287352
586.496016	0.288487
586.848874	0.286201
587.201679	0.287116
587.554428	0.290310
587.907124	0.289295
588.259765	0.289422
588.612352	0.289841
588.964884	0.293912
589.317362	0.293605
589.669786	0.293298
590.022155	0.291881
590.374470	0.291293
590.726731	0.293226
591.078937	0.297818
591.431090	0.293922
591.783188	0.298800
592.135232	0.298953
592.487222	0.299325
592.839157	0.297272
593.191038	0.299349
593.542866	0.301050
593.894639	0.305019
594.246358	0.302750
594.598022	0.302470
594.949633	0.305692
595.301190	0.306653
595.652692	0.305859
596.004141	0.302273
596.355535	0.310240
596.706876	0.310644
597.058162	0.313285
597.409395	0.310425
597.760573	0.307889
598.111698	0.311467
598.462768	0.311877
598.813785	0.313188
599.164748	0.314253
599.515657	0.314765
599.866511	0.318144
600.217312	0.312985
600.568060	0.318729
600.918753	0.314974
601.269392	0.315800
601.619978	0.319200
601.970510	0.316958
602.320988	0.317191
602.671412	0.314879
603.021783	0.317301
603.372100	0.318623
603.722363	0.318341
604.072572	0.318979
604.422728	0.318945
604.772830	0.321271
605.122878	0.320469
605.472872	0.320903
605.822813	0.319730
606.172701	0.322071
606.522534	0.319339
606.872314	0.319297
607.222041	0.320197
607.571714	0.318764
607.921333	0.319775
608.270899	0.319758
608.620411	0.316259
608.969870	0.320344
609.319276	0.320506
609.668627	0.320288
610.017926	0.319058
610.367171	0.317488
610.716362	0.318140
611.065500	0.318297
611.414585	0.316897
611.763616	0.317783
612.112594	0.318088
612.461518	0.317778
612.810389	0.315052
613.159207	0.317970
613.507971	0.319205
613.856682	0.314835
614.205340	0.317035
614.553945	0.313613
614.902496	0.317474
615.250994	0.315332
615.599439	0.316143
615.947830	0.315679
616.296169	0.316708
616.644454	0.316122
616.992686	0.316363
617.340864	0.313857
617.688990	0.317754
618.037063	0.314408
618.385082	0.316027
618.733048	0.312901
619.080961	0.315225
619.428821	0.314682
619.776628	0.314333
620.124382	0.316495
620.472083	0.316716
620.819731	0.315752
621.167326	0.319436
621.514868	0.319700
621.862357	0.323710
622.209793	0.323296
622.557176	0.326050
622.904506	0.326840
623.251783	0.328886
623.599007	0.330969
623.946179	0.331331
624.293297	0.332214
624.640363	0.336963
624.987376	0.336907
625.334336	0.339855
625.681243	0.342058
626.028097	0.342473
626.374899	0.343239
626.721647	0.343641
627.068343	0.347356
627.414987	0.347965
627.761577	0.350255
628.108115	0.348528
628.454600	0.353663
628.801032	0.351106
629.147412	0.353108
629.493739	0.353487
629.840014	0.356462
630.186236	0.353881
630.532405	0.359741
630.878521	0.356865
631.224585	0.359458
631.570597	0.362683
631.916556	0.360839
632.262462	0.361588
632.608316	0.363622
632.954117	0.364582
633.299866	0.365098
633.645562	0.365436
633.991206	0.369524
634.336797	0.372855
634.682336	0.374926
635.027823	0.376812
635.373257	0.377456
635.718639	0.381114
636.063968	0.379686
636.409245	0.385793
636.754470	0.385839
637.099642	0.388573
637.444762	0.392132
637.789829	0.391020
638.134845	0.394403
638.479808	0.395546
638.824719	0.395415
639.169577	0.399366
639.514383	0.397481
639.859137	0.402142
640.203839	0.402031
640.548489	0.402914
640.893086	0.404232
641.237632	0.405281
641.582125	0.404178
641.926566	0.405723
642.270955	0.405564
642.615292	0.406088
642.959576	0.404851
643.303809	0.406300
643.647990	0.405321
643.992118	0.405711
644.336195	0.409741
644.680219	0.407788
645.024192	0.408516
645.368112	0.401979
645.711981	0.400991
646.055797	0.396220
646.399562	0.399083
646.743274	0.390687
647.086935	0.388345
647.430544	0.388867
647.774101	0.387330
648.117606	0.387086
648.461059	0.387525
648.804460	0.390266
649.147810	0.395437
649.491108	0.396568
649.834354	0.398575
650.177548	0.404017
650.520690	0.408875
650.863781	0.409819
651.206820	0.409485
651.549807	0.414550
651.892742	0.418273
652.235626	0.417600
652.578458	0.418755
652.921238	0.424409
653.263967	0.422690
653.606644	0.426470
653.949269	0.426285
654.291843	0.430062
654.634365	0.426616
654.976836	0.430159
655.319255	0.429866
655.661622	0.431599
656.003938	0.431324
656.346203	0.434396
656.688416	0.432294
657.030577	0.435865
657.372687	0.438079
657.714746	0.438382
658.056753	0.436074
658.398708	0.440207
658.740612	0.440864
659.082465	0.436276
659.424266	0.437594
659.766016	0.436667
660.107715	0.439394
660.449362	0.438434
660.790958	0.440012
661.132503	0.439281
661.473996	0.437303
661.815438	0.438394
662.156829	0.438192
662.498168	0.439233
662.839456	0.440172
663.180693	0.437843
663.521879	0.437946
663.863013	0.439089
664.204097	0.437665
664.545129	0.434567
664.886110	0.434909
665.227040	0.432269
665.567918	0.434865
665.908746	0.433021
666.249522	0.432241
666.590248	0.432864
666.930922	0.431946
667.271545	0.430812
667.612118	0.430377
667.952639	0.432693
668.293109	0.430737
668.633528	0.434180
668.973896	0.433235
669.314213	0.434432
669.654480	0.435767
669.994695	0.436444
670.334859	0.437090
670.674973	0.437135
671.015035	0.437467
671.355047	0.437708
671.695008	0.438187
672.034918	0.440004
672.374777	0.440247
672.714585	0.440686
673.054342	0.440505
673.394049	0.440561
673.733705	0.438121
674.073310	0.439170
674.412864	0.442400
674.752368	0.442772
675.091820	0.442835
675.431223	0.447801
675.770574	0.447138
676.109875	0.450115
676.449125	0.450347
676.788324	0.452760
677.127473	0.458479
677.466571	0.457845
677.805619	0.459258
678.144616	0.460883
678.483562	0.462329
678.822458	0.464771
679.161303	0.465890
679.500098	0.466066
679.838842	0.467720
680.177535	0.467595
680.516179	0.465997
680.854771	0.465135
681.193314	0.458799
681.531805	0.449827
681.870247	0.438420
682.208638	0.431040
682.546978	0.430097
682.885268	0.431528
683.223508	0.438027
683.561697	0.441414
683.899836	0.444278
684.237925	0.447510
684.575963	0.450621
684.913951	0.453575
685.251889	0.449150
685.589776	0.451035
685.927614	0.453459
686.265401	0.447811
686.603137	0.449104
686.940824	0.442907
687.278460	0.441790
687.616046	0.441145
687.953582	0.434913
688.291068	0.437139
688.628504	0.432823
688.965889	0.434592
689.303224	0.439155
689.640510	0.442960
689.977745	0.448558
690.314930	0.456472
690.652065	0.461192
690.989150	0.468882
691.326185	0.474674
691.663170	0.479358
692.000105	0.486939
692.336990	0.493717
692.673825	0.496320
693.010610	0.502921
693.347345	0.508702
693.684030	0.509881
694.020665	0.514385
694.357251	0.523197
694.693786	0.523144
695.030272	0.527061
695.366707	0.530631
695.703093	0.534425
696.039429	0.531968
696.375716	0.533221
696.711952	0.536029
697.048139	0.538044
697.384276	0.540947
697.720363	0.538520
698.056400	0.537476
698.392388	0.543179
698.728326	0.546275
699.064214	0.549163
699.400053	0.549550
699.735842	0.553568
700.071581	0.556151
700.407270	0.559503
700.742910	0.561235
701.078501	0.568404
701.414042	0.568415
701.749533	0.570636
702.084974	0.580146
702.420366	0.572326
702.755709	0.579544
703.091002	0.588139
703.426246	0.581103
703.761440	0.587348
704.096584	0.592347
704.431679	0.589559
704.766725	0.592073
705.101721	0.592654
705.436668	0.588574
705.771565	0.595522
706.106413	0.592528
706.441212	0.587820
706.775961	0.586524
707.110661	0.589247
707.445311	0.585921
707.779913	0.582855
708.114465	0.581278
708.448967	0.577676
708.783421	0.570577
709.117825	0.564643
709.452180	0.564627
709.786485	0.559191
710.120742	0.548550
710.454949	0.550122
710.789107	0.543318
711.123216	0.533925
711.457275	0.535251
711.791286	0.526497
712.125247	0.524913
712.459159	0.535918
712.793023	0.529247
713.126837	0.532695
713.460602	0.533218
713.794318	0.542627
714.127985	0.540904
714.461602	0.552289
714.795171	0.554913
715.128691	0.562633
715.462162	0.569741
715.795584	0.575613
716.128957	0.578487
716.462281	0.585293
716.795556	0.589231
717.128782	0.593498
717.461960	0.603182
717.795088	0.601330
718.128167	0.607756
718.461198	0.615937
718.794180	0.616892
719.127113	0.618906
719.459997	0.622982
719.792833	0.628908
720.125619	0.630960
720.458357	0.636499
720.791046	0.636232
721.123686	0.639874
721.456278	0.646473
721.788821	0.643368
722.121315	0.647600
722.453761	0.652253
722.786158	0.649436
723.118506	0.645814
723.450805	0.653740
723.783056	0.650642
724.115259	0.647357
724.447412	0.647394
724.779518	0.648636
725.111574	0.647628
725.443582	0.643387
725.775542	0.644950
726.107453	0.637190
726.439315	0.637357
726.771129	0.635259
727.102895	0.629163
727.434612	0.622244
727.766281	0.620349
728.097901	0.619684
728.429473	0.619037
728.760996	0.617623
729.092471	0.617539
729.423897	0.621705
729.755276	0.619780
730.086606	0.620749
730.417887	0.615037
730.749120	0.605792
731.080305	0.596240
731.411442	0.593069
731.742530	0.597913
732.073570	0.596668
732.404562	0.589323
732.735506	0.589833
733.066401	0.594943
733.397249	0.604755
733.728048	0.615811
734.058798	0.628178
734.389501	0.638928
734.720156	0.648918
735.050762	0.656456
735.381320	0.657585
735.711831	0.666226
736.042293	0.671965
736.372707	0.667160
736.703073	0.671179
737.033391	0.674571
737.363661	0.670598
737.693883	0.665949
738.024056	0.665209
738.354182	0.665869
738.684260	0.655685
739.014290	0.650679
739.344272	0.651913
739.674207	0.645971
740.004093	0.644913
740.333931	0.645324
740.663722	0.645011
740.993464	0.645388
741.323159	0.649663
741.652806	0.655136
741.982405	0.659583
742.311956	0.663618
742.641460	0.665724
742.970915	0.670291
743.300323	0.677278
743.629683	0.684048
743.958996	0.685529
744.288260	0.689978
744.617477	0.695742
744.946647	0.698320
745.275768	0.703259
745.604842	0.702783
745.933869	0.713177
746.262847	0.713425
746.591778	0.706232
746.920662	0.713312
747.249498	0.718661
747.578286	0.710318
747.907027	0.706143
748.235720	0.707684
748.564365	0.702303
748.892963	0.702074
749.221514	0.704557
749.550017	0.709739
749.878473	0.709951
750.206881	0.715811
750.535242	0.718012
750.863555	0.717899
751.191821	0.718269
751.520039	0.722141
751.848210	0.726892
752.176334	0.719740
752.504411	0.718357
752.832440	0.726132
753.160421	0.730687
753.488356	0.727806
753.816243	0.726193
754.144082	0.734023
754.471875	0.738169
754.799620	0.732553
755.127318	0.734219
755.454969	0.734522
755.782572	0.733633
756.110129	0.739090
756.437638	0.740325
756.765100	0.738087
757.092515	0.736456
757.419882	0.734550
757.747203	0.740089
758.074477	0.739246
758.401703	0.736016
758.728882	0.731757
759.056014	0.731795
759.383099	0.729855
759.710138	0.731028
760.037129	0.727244
760.364073	0.721176
760.690970	0.723746
761.017820	0.729417
761.344623	0.725449
761.671379	0.716224
761.998088	0.704149
762.324751	0.681562
762.651366	0.640184
762.977935	0.573726
763.304456	0.522179
763.630931	0.512636
763.957359	0.551775
764.283740	0.596058
764.610074	0.622195
764.936362	0.653850
765.262602	0.680279
765.588796	0.701062
765.914943	0.718854
766.241044	0.737304
766.567097	0.743152
766.893104	0.752686
767.219064	0.759217
767.544978	0.766594
767.870845	0.779650
768.196665	0.782622
768.522438	0.781379
768.848165	0.782190
769.173846	0.792110
769.499479	0.795756
769.825066	0.798814
770.150607	0.804641
770.476101	0.798881
770.801548	0.800815
771.126949	0.811423
771.452303	0.815315
771.777611	0.814228
772.102872	0.813445
772.428087	0.819849
772.753256	0.822747
773.078378	0.824396
773.403453	0.833921
773.728482	0.837578
774.053465	0.831437
774.378401	0.834210
774.703291	0.842884
775.028135	0.842225
775.352932	0.844516
775.677683	0.847085
776.002388	0.847956
776.327046	0.846901
776.651658	0.851030
776.976224	0.854078
777.300743	0.853527
777.625216	0.856582
777.949643	0.857618
778.274024	0.857386
778.598359	0.860206
778.922647	0.858420
779.246889	0.858596
779.571086	0.862200
779.895236	0.865461
780.219339	0.861936
780.543397	0.859587
780.867409	0.858149
781.191374	0.860386
781.515294	0.861977
781.839167	0.860281
782.162995	0.864858
782.486776	0.861043
782.810511	0.861636
783.134201	0.864996
783.457844	0.861856
783.781441	0.865931
784.104993	0.872003
784.428498	0.871662
784.751958	0.867381
785.075372	0.869653
785.398739	0.874304
785.722061	0.869650
786.045337	0.865418
786.368568	0.871337
786.691752	0.871871
787.014891	0.858778
787.337983	0.849409
787.661030	0.841789
787.984031	0.825582
788.306987	0.812352
788.629897	0.814417
788.952760	0.818415
789.275579	0.823525
789.598351	0.837756
789.921078	0.851284
790.243759	0.853088
790.566395	0.857347
790.888984	0.864590
791.211529	0.869214
791.534027	0.873126
791.856480	0.875091
792.178888	0.881063
792.501249	0.882821
792.823566	0.883864
793.145836	0.884042
793.468062	0.886024
793.790241	0.885788
794.112375	0.883842
794.434464	0.879155
794.756507	0.879662
795.078505	0.878657
795.400457	0.872678
795.722364	0.861713
796.044226	0.854381
796.366042	0.853688
796.687812	0.856441
797.009538	0.853357
797.331218	0.856033
797.652852	0.861221
797.974442	0.865336
798.295986	0.865727
798.617484	0.868397
798.938938	0.872096
799.260346	0.876859
799.581709	0.877949
799.903026	0.881681
800.224299	0.880706
800.545526	0.885571
800.866708	0.890274
801.187845	0.893929
801.508936	0.893802
801.829983	0.890583
802.150984	0.893629
802.471940	0.899135
802.792851	0.898456
803.113717	0.899445
803.434538	0.897460
803.755314	0.899030
804.076045	0.901743
804.396731	0.901996
804.717372	0.901831
805.037967	0.902976
805.358518	0.900791
805.679024	0.897559
805.999485	0.898608
806.319901	0.896811
806.640272	0.899695
806.960598	0.896699
807.280879	0.893923
807.601115	0.892929
807.921306	0.897545
808.241453	0.897281
808.561554	0.895223
808.881611	0.894896
809.201623	0.897454
809.521590	0.896808
809.841513	0.898869
810.161390	0.897509
810.481223	0.898826
810.801011	0.901549
811.120755	0.903081
811.440453	0.902844
811.760107	0.901474
812.079716	0.900312
812.399281	0.904031
812.718801	0.907385
813.038276	0.908520
813.357707	0.907771
813.677093	0.905411
813.996434	0.908151
814.315731	0.910068
814.634983	0.910619
814.954191	0.909496
815.273354	0.906290
815.592473	0.902061
815.911547	0.902533
816.230577	0.900489
816.549562	0.897245
816.868502	0.898540
817.187399	0.894337
817.506250	0.889057
817.825058	0.890827
818.143821	0.887975
818.462539	0.882535
818.781213	0.875554
819.099843	0.863849
819.418429	0.847926
819.736970	0.831541
820.055466	0.812025
820.373919	0.787249
820.692327	0.753990
821.010691	0.720402
821.329011	0.643937
821.647286	0.529444
821.965517	0.416865
822.283704	0.374313
822.601847	0.376025
822.919945	0.411241
823.237999	0.444172
823.556010	0.490691
823.873976	0.545820
824.191897	0.596045
824.509775	0.637741
824.827609	0.683213
825.145398	0.705318
825.463144	0.708943
825.780845	0.690933
826.098502	0.672826
826.416116	0.626889
826.733685	0.583477
827.051210	0.575786
827.368692	0.590190
827.686129	0.626213
828.003522	0.679134
828.320872	0.726424
828.638177	0.769710
828.955439	0.803046
829.272656	0.824041
829.589830	0.840725
829.906960	0.855729
830.224046	0.868565
830.541088	0.879140
830.858086	0.882115
831.175041	0.888772
831.491952	0.888751
831.808819	0.885256
832.125642	0.878994
832.442421	0.863815
832.759157	0.840978
833.075849	0.797272
833.392497	0.733801
833.709101	0.693058
834.025662	0.701826
834.342179	0.734116
834.658653	0.772776
834.975083	0.808169
835.291469	0.833935
835.607811	0.856015
835.924110	0.872645
836.240366	0.889877
836.556578	0.902477
836.872746	0.909481
837.188871	0.916368
837.504952	0.922377
837.820990	0.923882
838.136984	0.928154
838.452935	0.930782
838.768842	0.932760
839.084706	0.927891
839.400526	0.900810
839.716303	0.861640
840.032037	0.838155
840.347727	0.842956
840.663373	0.860649
840.978977	0.880958
841.294537	0.904183
841.610054	0.920454
841.925527	0.927534
842.240957	0.934772
842.556344	0.941367
842.871687	0.947032
843.186987	0.951861
843.502244	0.951379
843.817458	0.952383
844.132629	0.955904
844.447756	0.961505
844.762840	0.961810
845.077881	0.960735
845.392879	0.960693
845.707833	0.963620
846.022745	0.964576
846.337613	0.964755
846.652438	0.966674
846.967221	0.965544
847.281960	0.965499
847.596656	0.968972
847.911309	0.966867
848.225919	0.968464
848.540485	0.969188
848.855009	0.969341
849.169490	0.968783
849.483928	0.969890
849.798323	0.969944
850.112675	0.970020
850.426984	0.970168
850.741251	0.970238
851.055474	0.970993
851.369654	0.967291
851.683792	0.970856
851.997887	0.970214
852.311938	0.971127
852.625947	0.970018
852.939914	0.969279
853.253837	0.969616
853.567718	0.970951
853.881555	0.971707
854.195350	0.968737
854.509103	0.970329
854.822812	0.970136
855.136479	0.971221
855.450103	0.970514
855.763685	0.969160
856.077224	0.968732
856.390720	0.971656
856.704173	0.970362
857.017584	0.969090
857.330953	0.967450
857.644278	0.969248
857.957561	0.969506
858.270802	0.968906
858.584000	0.969659
858.897155	0.968012
859.210268	0.969065
859.523339	0.968838
859.836367	0.971111
860.149352	0.971020
860.462295	0.969603
860.775195	0.970840
861.088054	0.970362
861.400869	0.971290
861.713642	0.971894
862.026373	0.971663
862.339062	0.971923
862.651708	0.968566
862.964312	0.968872
863.276873	0.970697
863.589392	0.969153
863.901869	0.966629
864.214303	0.966234
864.526696	0.964369
864.839045	0.963874
865.151353	0.961843
865.463619	0.963811
865.775842	0.964368
866.088023	0.963234
866.400162	0.962305
866.712258	0.963334
867.024313	0.963143
867.336325	0.964169
867.648296	0.964173
867.960224	0.963356
868.272110	0.962489
868.583954	0.964205
868.895755	0.964746
869.207515	0.961000
869.519233	0.960241
869.830909	0.961701
870.142542	0.962847
870.454134	0.961840
870.765684	0.961731
871.077191	0.958572
871.388657	0.959670
871.700081	0.958492
872.011463	0.960151
872.322803	0.959662
872.634101	0.957705
872.945357	0.955542
873.256571	0.954430
873.567744	0.953868
873.878874	0.955233
874.189963	0.953669
874.501010	0.952648
874.812015	0.951202
875.122979	0.951786
875.433900	0.954570
875.744780	0.955470
876.055618	0.952309
876.366415	0.951248
876.677169	0.950867
876.987882	0.953135
877.298554	0.952938
877.609183	0.948982
877.919771	0.946154
878.230317	0.943347
878.540822	0.941907
878.851285	0.936323
879.161707	0.928586
879.472087	0.917306
879.782425	0.900555
880.092722	0.867753
880.402977	0.817148
880.713191	0.756696
881.023363	0.700576
881.333494	0.666790
881.643583	0.638121
881.953631	0.637745
882.263637	0.666632
882.573602	0.706185
882.883526	0.730716
883.193408	0.753465
883.503248	0.775534
883.813048	0.801977
884.122806	0.832148
884.432522	0.853921
884.742197	0.873533
885.051831	0.884259
885.361424	0.894180
885.670975	0.905955
885.980485	0.915050
886.289954	0.922331
886.599382	0.927300
886.908768	0.930751
887.218113	0.936109
887.527417	0.941828
887.836680	0.942934
888.145901	0.945566
888.455082	0.947376
888.764221	0.951361
889.073319	0.953214
889.382376	0.955109
889.691392	0.955627
890.000366	0.953056
890.309300	0.956534
890.618193	0.954698
890.927044	0.952617
891.235855	0.953257
891.544625	0.953002
891.853353	0.953810
892.162041	0.950916
892.470687	0.944328
892.779293	0.939022
893.087858	0.935869
893.396381	0.928455
893.704864	0.916115
894.013306	0.892464
894.321707	0.866145
894.630068	0.851806
894.938387	0.848428
895.246665	0.848998
895.554903	0.860825
895.863100	0.874118
896.171256	0.890072
896.479371	0.909223
896.787446	0.922653
897.095480	0.927106
897.403473	0.930401
897.711425	0.935612
898.019336	0.942648
898.327207	0.945190
898.635038	0.947125
898.942827	0.947557
899.250576	0.949484
899.558284	0.953822
899.865952	0.955044
900.173579	0.956302
900.481165	0.957806
900.788711	0.961295
901.096216	0.962675
901.403681	0.962251
901.711105	0.963978
902.018489	0.965133
902.325832	0.964089
902.633135	0.963140
902.940397	0.957014
903.247619	0.946181
903.554800	0.919400
903.861941	0.882573
904.169041	0.847877
904.476101	0.831274
904.783121	0.831881
905.090100	0.847957
905.397039	0.868334
905.703938	0.889367
906.010796	0.908949
906.317614	0.925950
906.624391	0.936791
906.931129	0.946686
907.237826	0.952976
907.544483	0.960098
907.851099	0.963923
908.157675	0.968384
908.464211	0.970808
908.770707	0.972838
909.077163	0.975811
909.383578	0.975271
909.689954	0.975209
909.996289	0.976559
910.302584	0.978530
910.608839	0.980744
910.915054	0.979419
911.221229	0.978621
911.527363	0.977682
911.833458	0.977708
912.139513	0.978988
912.445527	0.976402
912.751502	0.974960
913.057436	0.974295
913.363331	0.971198
913.669186	0.967276
913.975000	0.962564
914.280775	0.957695
914.586510	0.950546
914.892205	0.937606
915.197859	0.918034
915.503475	0.890240
915.809050	0.871824
916.114585	0.866835
916.420081	0.864985
916.725536	0.861325
917.030952	0.869201
917.336328	0.880388
917.641665	0.896400
917.946961	0.909985
918.252218	0.922405
918.557435	0.930170
918.862612	0.938879
919.167750	0.943918
919.472848	0.948719
919.777906	0.953902
920.082925	0.960187
920.387904	0.963149
920.692843	0.963802
920.997743	0.965798
921.302603	0.967846
921.607423	0.970441
921.912204	0.972722
922.216946	0.972504
922.521647	0.973693
922.826310	0.977684
923.130932	0.978122
923.435516	0.979252
923.740059	0.980173
924.044564	0.979641
924.349028	0.982359
924.653454	0.983304
924.957840	0.985781
925.262186	0.985935
925.566493	0.983984
925.870761	0.986097
926.174989	0.987022
926.479178	0.987877
926.783328	0.988944
927.087438	0.990084
927.391509	0.987941
927.695541	0.990877
927.999533	0.989611
928.303486	0.989320
928.607400	0.992299
928.911275	0.989911
929.215110	0.991845
929.518906	0.991601
929.822663	0.990568
930.126381	0.992051
930.430060	0.990796
930.733699	0.990750
931.037299	0.990629
931.340861	0.990708
931.644383	0.989224
931.947866	0.990231
932.251309	0.991061
932.554714	0.991959
932.858080	0.990631
933.161407	0.990768
933.464694	0.990571
933.767943	0.991115
934.071153	0.991571
934.374323	0.992309
934.677455	0.990549
934.980548	0.991866
935.283602	0.990932
935.586617	0.991383
935.889593	0.990848
936.192530	0.991144
936.495428	0.991161
936.798287	0.990067
937.101108	0.990589
937.403890	0.988332
937.706632	0.989326
938.009336	0.987813
938.312002	0.986333
938.614628	0.985316
938.917216	0.983697
939.219765	0.982936
939.522275	0.983763
939.824747	0.983333
940.127179	0.982991
940.429573	0.985311
940.731929	0.984800
941.034246	0.986009
941.336524	0.985886
941.638763	0.987393
941.940964	0.987428
942.243126	0.987587
942.545250	0.988044
942.847335	0.988452
943.149381	0.988165
943.451389	0.988881
943.753359	0.988519
944.055290	0.991116
944.357182	0.989972
944.659036	0.989451
944.960851	0.989891
945.262628	0.989737
945.564367	0.990912
945.866067	0.990223
946.167729	0.990695
946.469352	0.990664
946.770937	0.989251
947.072484	0.991291
947.373992	0.990439
947.675462	0.990446
947.976893	0.990045
948.278286	0.991257
948.579641	0.992252
948.880958	0.991403
949.182236	0.992248
949.483476	0.992367
949.784678	0.990474
950.085841	0.992522
950.386967	0.990305
950.688054	0.990432
950.989103	0.991010
951.290114	0.989094
951.591087	0.990707
951.892021	0.990892
952.192917	0.989748
952.493776	0.988303
952.794596	0.988743
953.095378	0.988263
953.396122	0.989340
953.696828	0.987463
953.997496	0.989938
954.298126	0.990340
954.598718	0.991477
954.899272	0.991847
955.199788	0.991063
955.500266	0.992742
955.800706	0.992390
956.101108	0.992997
956.401472	0.993564
956.701798	0.994244
957.002087	0.993255
957.302337	0.993281
957.602550	0.994337
957.902724	0.994960
958.202861	0.995726
958.502960	0.995206
958.803022	0.994310
959.103045	0.996447
959.403031	0.994934
959.702979	0.995081
960.002889	0.996634
960.302762	0.994429
960.602596	0.995916
960.902393	0.996113
961.202153	0.997453
961.501875	0.996452
961.801559	0.995409
962.101205	0.996363
962.400814	0.996950
962.700385	0.996675
962.999918	0.995659
963.299414	0.996318
963.598873	0.996303
963.898293	0.996431
964.197677	0.996449
964.497022	0.996741
964.796331	0.997831
965.095601	0.996554
965.394835	0.997289
965.694030	0.997269
965.993189	0.997471
966.292309	0.997184
966.591393	0.997675
966.890439	0.997660
967.189447	0.996175
967.488419	0.997694
967.787353	0.997213
968.086249	0.996767
968.385108	0.996339
968.683930	0.996932
968.982714	0.998378
969.281462	0.998205
969.580172	0.997243
969.878844	0.996560
970.177480	0.997278
970.476078	0.997776
970.774639	0.997873
971.073162	0.998190
971.371649	0.996585
971.670098	0.996783
971.968510	0.997190
972.266885	0.996217
972.565223	0.997057
972.863524	0.996801
973.161788	0.997709
973.460014	0.998121
973.758204	0.995103
974.056356	0.996441
974.354471	0.994829
974.652550	0.995674
974.950591	0.995950
975.248595	0.996677
975.546563	0.996306
975.844493	0.997400
976.142386	0.997398
976.440243	0.996890
976.738062	0.997663
977.035845	0.998513
977.333590	0.997456
977.631299	0.997564
977.928971	0.996800
978.226606	0.996573
978.524204	0.996008
978.821765	0.997602
979.119290	0.997009
979.416777	0.995519
979.714228	0.997380
980.011642	0.996383
980.309020	0.997586
980.606360	0.997636
980.903664	0.998922
981.200931	0.996112
981.498162	0.995905
981.795356	0.995494
982.092513	0.993567
982.389633	0.994742
982.686717	0.992201
982.983764	0.992400
983.280775	0.992278
983.577749	0.991211
983.874686	0.992505
984.171587	0.992188
984.468451	0.995070
984.765279	0.995416
985.062070	0.994745
985.358824	0.996390
985.655543	0.994903
985.952224	0.996489
986.248869	0.996770
986.545478	0.997785
986.842050	0.998434
987.138586	0.996521
987.435086	0.998272
987.731549	0.998452
988.027975	0.996973
988.324366	0.997589
988.620719	0.997372
988.917037	0.996552
989.213318	0.997173
989.509563	0.999242
989.805772	0.999729
990.101944	0.999141
990.398080	0.997438
990.694180	0.997418
990.990244	0.998026
991.286271	0.998089
991.582262	0.998549
991.878217	0.998153
992.174136	0.998318
992.470019	0.998741
992.765865	0.997669
993.061676	0.997559
993.357450	0.997739
993.653188	0.997469
993.948890	0.997077
994.244556	0.998015
994.540186	0.996892
994.835780	0.996527
995.131337	0.996782
995.426859	0.997000
995.722345	0.997975
996.017795	0.995934
996.313208	0.997100
996.608586	0.995923
996.903928	0.997518
997.199234	0.995899
997.494504	0.997554
997.789738	0.996922
998.084936	0.996507
998.380099	0.997546
998.675225	0.997987
998.970316	0.997646
999.265371	0.998052
999.560390	0.997894
999.855373	0.998039
1000.150320	0.998683
1000.445232	0.998611
1000.740108	0.998044
1001.034948	0.998157
1001.329752	0.999692
1001.624521	0.998681
1001.919254	0.998932
1002.213951	0.998426
1002.508613	0.996944
1002.803239	0.998362
1003.097829	1.000078
1003.392384	0.999531
1003.686903	0.998671
1003.981386	0.998631
1004.275834	0.999007
1004.570246	0.999632
1004.864623	0.998922
1005.158964	1.000490
1005.453270	0.999364
1005.747540	0.997931
1006.041775	0.998356
1006.335974	0.998449
1006.630138	0.999303
1006.924266	0.999210
1007.218359	1.000035
1007.512416	0.999761
1007.806438	0.999017
1008.100425	0.998145
1008.394376	0.998560
1008.688292	0.998133
1008.982172	1.000214
1009.276017	0.998034
1009.569827	0.998861
1009.863602	0.998036
1010.157341	0.999066
1010.451045	0.999607
1010.744714	0.999675
1011.038347	0.999983
1011.331945	0.998194
1011.625508	0.997544
1011.919036	0.998851
1012.212528	0.998272
1012.505986	0.998909
1012.799408	0.998586
1013.092795	0.998925
1013.386147	0.999938
1013.679464	0.999615
1013.972745	0.997100
1014.265992	0.997708
1014.559204	0.998674
1014.852380	0.999409
1015.145521	0.998495
1015.438628	0.999266
1015.731699	0.999323
1016.024736	0.998805
1016.317737	0.999520
1016.610703	0.999105
1016.903635	0.998851
1017.196531	0.998205
1017.489393	1.000131
1017.782219	0.999158
1018.075011	0.998892
1018.367768	0.999144
1018.660490	0.999506
1018.953177	0.999506
1019.245829	0.999506
