Dividing Wavelength (nm)	Counts (n)	Blue Motor Position (mm): 0.000000	Red Motor Position (mm): 36.400000	
326.493990	1.000756
326.888308	1.000756
327.282561	1.000756
327.676750	1.000784
328.070874	1.000612
328.464933	0.999074
328.858929	0.999935
329.252859	1.000379
329.646726	0.999621
330.040528	1.001072
330.434265	0.998646
330.827938	1.001024
331.221547	0.999994
331.615091	0.999482
332.008571	1.000505
332.401986	1.000499
332.795338	0.999969
333.188625	0.998519
333.581847	1.000910
333.975006	0.999270
334.368100	1.000230
334.761129	1.000127
335.154095	0.999970
335.546996	0.998650
335.939833	0.996470
336.332606	0.996656
336.725315	0.998328
337.117960	0.997833
337.510540	0.996369
337.903056	0.997054
338.295508	0.995742
338.687896	0.997556
339.080220	0.996778
339.472480	0.997175
339.864676	0.996268
340.256807	0.997952
340.648875	0.997091
341.040879	0.997821
341.432818	0.997240
341.824694	0.997598
342.216506	0.997688
342.608253	0.997335
342.999937	0.997434
343.391557	0.997255
343.783113	0.996060
344.174605	0.997285
344.566033	0.998301
344.957397	0.996249
345.348697	0.996434
345.739934	0.995871
346.131106	0.996760
346.522215	0.997296
346.913260	0.997130
347.304241	0.996208
347.695159	0.996958
348.086012	0.995134
348.476802	0.997000
348.867528	0.997253
349.258191	0.996206
349.648789	0.997474
350.039324	0.996616
350.429796	0.996689
350.820203	0.996859
351.210548	0.996599
351.600828	0.996659
351.991045	0.998279
352.381198	0.995030
352.771288	0.996415
353.161314	0.996805
353.551276	0.998003
353.941175	0.996569
354.331010	0.995849
354.720782	0.997289
355.110490	0.996885
355.500135	0.997707
355.889717	0.995962
356.279235	0.996967
356.668689	0.997757
357.058080	0.996376
357.447408	0.998172
357.836672	0.998563
358.225873	0.996612
358.615010	0.997700
359.004084	0.997749
359.393095	0.996673
359.782043	0.998288
360.170927	0.998123
360.559748	0.997469
360.948505	0.996209
361.337199	0.995948
361.725830	0.996382
362.114398	0.997030
362.502903	0.996839
362.891344	0.996641
363.279722	0.995634
363.668037	0.997449
364.056289	0.997762
364.444478	0.998185
364.832603	0.997219
365.220665	0.997496
365.608665	0.997019
365.996601	0.996946
366.384474	0.997769
366.772284	0.996680
367.160031	0.996367
367.547715	0.995274
367.935336	0.997351
368.322893	0.996898
368.710388	0.997359
369.097820	0.996886
369.485189	0.997016
369.872495	0.996560
370.259738	0.994314
370.646918	0.997776
371.034035	0.997660
371.421090	0.998122
371.808081	0.996748
372.195010	0.997628
372.581875	0.997061
372.968678	0.997521
373.355418	0.996851
373.742096	0.996192
374.128710	0.997498
374.515262	0.996373
374.901751	0.997971
375.288177	0.998039
375.674540	0.997874
376.060841	0.997588
376.447079	0.996882
376.833254	0.997427
377.219367	0.997478
377.605417	0.997591
377.991404	0.997537
378.377329	0.997284
378.763191	0.996972
379.148991	0.998693
379.534727	0.998068
379.920402	0.997304
380.306013	0.998353
380.691563	0.999107
381.077049	0.997376
381.462474	0.998867
381.847835	0.998882
382.233134	0.997050
382.618371	0.998500
383.003545	0.998191
383.388657	0.997351
383.773706	0.997679
384.158693	0.997919
384.543618	0.998481
384.928480	0.998566
385.313280	0.998070
385.698017	0.999034
386.082692	0.998681
386.467305	0.998243
386.851856	0.998385
387.236344	0.997651
387.620770	0.997679
388.005133	0.998729
388.389435	0.999644
388.773674	0.998474
389.157851	0.998606
389.541965	0.999010
389.926018	0.998045
390.310008	0.998455
390.693936	0.997561
391.077802	0.998368
391.461606	0.998123
391.845348	0.998780
392.229027	1.000039
392.612645	0.998750
392.996200	0.999308
393.379694	0.998167
393.763125	0.999517
394.146494	0.999116
394.529801	0.998381
394.913047	0.999158
395.296230	0.998791
395.679351	0.998909
396.062410	0.998868
396.445408	0.998950
396.828343	0.998013
397.211217	0.998193
397.594028	0.998738
397.976778	0.998682
398.359466	0.999546
398.742092	0.998469
399.124656	0.997787
399.507158	0.999223
399.889598	0.998449
400.271977	0.998538
400.654294	0.999003
401.036549	0.999071
401.418742	0.999657
401.800874	0.998442
402.182944	0.998256
402.564952	0.998429
402.946898	0.999372
403.328783	0.999930
403.710606	0.998820
404.092367	0.999215
404.474067	0.999502
404.855705	0.998581
405.237282	0.998735
405.618797	0.998333
406.000250	0.998082
406.381642	0.998575
406.762972	0.997838
407.144240	0.999745
407.525447	0.998819
407.906593	0.998456
408.287677	0.999177
408.668700	0.999208
409.049661	0.998275
409.430560	1.000073
409.811399	0.998631
410.192176	0.999295
410.572891	0.998798
410.953545	0.999040
411.334138	0.998593
411.714669	0.999080
412.095139	0.997982
412.475547	0.999698
412.855894	0.999378
413.236180	1.000207
413.616405	0.999080
413.996568	1.000420
414.376670	0.998221
414.756711	0.998937
415.136691	0.999272
415.516609	0.999122
415.896466	0.998828
416.276262	0.998621
416.655997	1.000408
417.035670	0.999406
417.415283	0.999258
417.794834	0.998802
418.174324	0.999632
418.553753	0.999957
418.933121	0.999469
419.312428	0.998481
419.691674	0.999314
420.070859	0.999886
420.449983	0.999653
420.829045	0.998502
421.208047	1.000410
421.586988	1.000161
421.965867	0.998766
422.344686	1.000056
422.723444	1.000054
423.102141	0.999250
423.480777	0.999588
423.859352	0.999509
424.237866	0.998608
424.616319	0.999745
424.994712	1.000070
425.373044	1.000472
425.751314	0.999415
426.129524	0.998832
426.507673	0.999927
426.885762	1.000525
427.263789	1.000026
427.641756	0.999542
428.019662	0.999930
428.397508	0.999640
428.775292	0.998999
429.153016	0.998626
429.530679	0.999238
429.908282	1.000478
430.285824	0.998885
430.663305	0.999246
431.040726	0.999254
431.418086	1.000091
431.795385	0.999766
432.172624	0.999484
432.549802	0.999901
432.926920	1.000328
433.303977	0.998941
433.680974	0.999872
434.057910	0.999219
434.434786	1.000171
434.811601	0.999470
435.188355	0.998656
435.565050	0.999377
435.941683	0.999247
436.318257	1.000666
436.694770	0.999013
437.071222	1.000058
437.447614	0.998947
437.823946	0.999855
438.200218	0.999316
438.576429	1.000129
438.952580	1.000650
439.328670	0.999215
439.704700	0.999712
440.080670	0.999367
440.456580	0.999633
440.832429	0.998937
441.208218	1.000328
441.583947	0.999867
441.959616	0.999897
442.335224	0.999722
442.710773	0.999879
443.086261	0.998989
443.461689	1.000103
443.837057	0.999342
444.212365	1.000034
444.587612	0.999073
444.962800	1.000149
445.337927	0.999713
445.712995	0.999923
446.088002	0.999767
446.462949	0.999968
446.837837	1.000219
447.212664	1.000712
447.587431	0.999563
447.962139	0.999647
448.336786	0.999585
448.711374	1.000461
449.085901	0.999772
449.460369	1.000198
449.834776	0.999750
450.209124	1.000052
450.583412	0.999503
450.957640	0.999449
451.331808	0.999293
451.705917	1.000264
452.079965	0.999215
452.453954	0.999472
452.827883	0.999643
453.201752	0.999497
453.575562	1.000453
453.949311	0.999387
454.323001	0.999182
454.696632	0.999455
455.070202	0.999359
455.443713	0.998970
455.817164	1.000295
456.190556	1.000248
456.563888	0.999402
456.937160	0.999748
457.310373	0.999505
457.683526	0.999192
458.056619	0.999185
458.429653	0.999354
458.802628	0.998749
459.175542	0.999465
459.548398	0.999892
459.921194	0.999150
460.293930	0.998876
460.666607	0.999653
461.039224	0.998377
461.411782	0.998887
461.784280	0.999051
462.156719	1.000291
462.529099	0.999792
462.901419	0.999595
463.273680	0.999390
463.645882	0.999685
464.018024	1.000131
464.390106	1.000571
464.762130	1.001028
465.134094	0.999218
465.505999	1.000328
465.877845	1.000039
466.249631	1.000171
466.621358	0.999702
466.993026	1.000522
467.364634	0.999715
467.736184	1.000257
468.107674	0.999396
468.479105	0.999752
468.850477	1.000162
469.221790	1.000223
469.593043	1.000070
469.964238	1.000484
470.335373	0.999522
470.706449	1.000291
471.077467	1.000624
471.448425	1.000209
471.819324	1.001101
472.190164	0.999502
472.560945	0.999768
472.931667	0.999708
473.302330	0.999500
473.672934	0.999762
474.043479	0.999958
474.413965	0.999961
474.784393	0.999965
475.154761	0.999469
475.525070	0.999625
475.895321	1.000489
476.265513	1.000307
476.635645	0.999649
477.005719	1.000101
477.375734	0.999347
477.745691	0.999686
478.115588	1.000095
478.485427	1.000542
478.855207	0.999377
479.224928	0.999751
479.594591	1.000292
479.964194	0.999731
480.333739	1.000170
480.703226	1.000575
481.072653	1.000535
481.442022	1.000331
481.811333	0.999649
482.180584	1.000135
482.549777	0.999899
482.918912	0.999658
483.287988	1.000033
483.657005	0.999527
484.025964	1.000480
484.394864	1.000311
484.763706	0.999859
485.132489	1.000824
485.501213	1.000242
485.869879	0.999719
486.238487	0.999749
486.607036	1.000412
486.975527	0.999818
487.343959	0.999663
487.712333	0.999661
488.080648	1.000045
488.448905	0.999971
488.817104	1.000318
489.185244	0.999788
489.553326	0.999268
489.921350	0.999836
490.289315	0.999947
490.657222	1.000013
491.025070	0.999818
491.392861	1.000508
491.760593	0.999876
492.128267	0.999670
492.495883	0.999278
492.863440	0.999894
493.230939	1.000026
493.598380	0.999525
493.965763	0.999092
494.333088	0.999679
494.700354	0.999435
495.067563	0.999863
495.434713	0.999154
495.801805	1.000428
496.168839	0.999746
496.535815	0.999563
496.902733	0.998981
497.269593	0.999652
497.636395	0.999497
498.003139	0.999692
498.369825	1.000060
498.736453	0.999373
499.103023	0.998605
499.469535	0.999358
499.835989	0.999189
500.202385	0.998955
500.568723	0.999572
500.935003	1.000129
501.301226	0.999873
501.667390	0.999596
502.033497	0.999651
502.399546	1.000263
502.765537	0.998580
503.131470	0.998997
503.497345	0.998579
503.863163	1.000351
504.228923	0.999427
504.594625	0.999579
504.960269	1.000319
505.325856	0.999529
505.691385	0.998582
506.056856	0.999295
506.422270	0.999087
506.787625	0.999343
507.152924	0.999460
507.518164	0.999176
507.883347	0.999176
508.248472	0.998743
508.613540	0.999420
508.978550	0.999620
509.343503	0.997950
509.708398	0.998914
510.073236	0.998998
510.438016	0.998686
510.802738	0.998707
511.167403	0.998702
511.532010	0.998998
511.896561	0.998406
512.261053	0.999241
512.625488	0.998366
512.989866	0.998160
513.354186	0.998448
513.718449	0.998124
514.082655	0.998117
514.446803	0.997579
514.810894	0.998381
515.174927	0.998015
515.538904	0.997475
515.902822	0.996998
516.266684	0.997784
516.630488	0.997416
516.994235	0.996453
517.357925	0.997291
517.721558	0.996473
518.085133	0.995619
518.448651	0.997076
518.812112	0.996020
519.175516	0.995247
519.538863	0.995780
519.902152	0.995178
520.265385	0.994502
520.628560	0.994792
520.991678	0.994268
521.354739	0.994602
521.717743	0.993972
522.080690	0.993828
522.443580	0.992933
522.806413	0.993071
523.169189	0.991911
523.531908	0.991702
523.894569	0.990793
524.257174	0.990705
524.619722	0.990994
524.982213	0.990335
525.344647	0.989480
525.707025	0.988684
526.069345	0.988153
526.431608	0.987768
526.793815	0.986862
527.155964	0.986242
527.518057	0.985964
527.880093	0.985083
528.242072	0.984194
528.603995	0.983530
528.965860	0.983715
529.327669	0.982217
529.689421	0.981648
530.051117	0.981194
530.412755	0.979968
530.774337	0.979729
531.135862	0.977475
531.497331	0.976965
531.858743	0.976140
532.220098	0.975335
532.581396	0.974102
532.942638	0.973084
533.303824	0.971831
533.664953	0.971009
534.026025	0.969328
534.387040	0.967788
534.747999	0.966777
535.108902	0.965919
535.469748	0.963927
535.830537	0.962813
536.191270	0.961440
536.551947	0.960205
536.912567	0.958521
537.273131	0.957696
537.633638	0.955064
537.994089	0.953621
538.354483	0.951855
538.714821	0.951125
539.075103	0.948159
539.435328	0.946318
539.795497	0.945072
540.155609	0.942571
540.515665	0.941315
540.875665	0.938817
541.235609	0.937765
541.595496	0.934458
541.955328	0.931838
542.315102	0.931255
542.674821	0.929236
543.034483	0.926700
543.394090	0.924341
543.753640	0.922790
544.113134	0.919519
544.472571	0.917777
544.831953	0.914778
545.191278	0.912260
545.550548	0.910583
545.909761	0.906405
546.268918	0.904519
546.628019	0.901654
546.987064	0.898133
547.346053	0.896752
547.704986	0.893040
548.063863	0.890497
548.422684	0.888372
548.781449	0.885092
549.140158	0.881031
549.498811	0.879190
549.857408	0.876629
550.215949	0.871568
550.574434	0.869399
550.932864	0.865384
551.291237	0.862993
551.649555	0.858664
552.007817	0.855769
552.366022	0.852287
552.724173	0.849736
553.082267	0.846461
553.440305	0.840586
553.798288	0.839999
554.156215	0.833920
554.514086	0.831435
554.871902	0.828792
555.229661	0.823932
555.587365	0.821047
555.945014	0.819448
556.302606	0.812586
556.660143	0.811339
557.017625	0.804713
557.375050	0.802893
557.732421	0.797643
558.089735	0.794084
558.446994	0.791147
558.804197	0.787124
559.161345	0.783306
559.518437	0.781025
559.875474	0.774800
560.232455	0.770642
560.589381	0.768228
560.946251	0.761976
561.303065	0.759775
561.659825	0.754907
562.016528	0.751773
562.373177	0.750303
562.729770	0.743315
563.086307	0.741319
563.442789	0.736324
563.799216	0.731171
564.155587	0.727512
564.511904	0.723385
564.868164	0.719053
565.224370	0.716366
565.580520	0.710422
565.936615	0.709161
566.292654	0.704649
566.648638	0.700110
567.004567	0.694946
567.360441	0.692159
567.716260	0.688306
568.072023	0.683473
568.427732	0.678668
568.783385	0.677868
569.138982	0.670492
569.494525	0.667143
569.850013	0.664586
570.205445	0.658334
570.560823	0.657487
570.916145	0.652427
571.271412	0.648019
571.626625	0.644349
571.981782	0.640494
572.336884	0.636506
572.691931	0.634383
573.046923	0.628257
573.401860	0.625935
573.756743	0.622100
574.111570	0.617458
574.466342	0.614768
574.821059	0.609142
575.175722	0.606565
575.530330	0.601919
575.884882	0.598783
576.239380	0.595813
576.593823	0.592231
576.948211	0.587390
577.302544	0.586707
577.656823	0.581371
578.011047	0.578060
578.365216	0.574755
578.719330	0.572106
579.073389	0.567898
579.427394	0.565553
579.781344	0.562953
580.135239	0.558933
580.489080	0.555679
580.842866	0.553260
581.196597	0.549686
581.550273	0.544921
581.903895	0.541317
582.257463	0.537299
582.610975	0.535393
582.964434	0.532149
583.317837	0.529974
583.671186	0.527329
584.024481	0.523303
584.377721	0.521949
584.730906	0.518964
585.084037	0.514501
585.437113	0.513263
585.790135	0.508964
586.143103	0.507759
586.496016	0.505597
586.848874	0.500343
587.201679	0.498342
587.554428	0.496635
587.907124	0.492344
588.259765	0.490788
588.612352	0.487778
588.964884	0.488241
589.317362	0.484490
589.669786	0.481141
590.022155	0.477889
590.374470	0.473095
590.726731	0.473179
591.078937	0.472463
591.431090	0.466505
591.783188	0.467716
592.135232	0.464283
592.487222	0.462918
592.839157	0.457786
593.191038	0.457191
593.542866	0.455723
593.894639	0.455985
594.246358	0.451505
594.598022	0.448351
594.949633	0.448709
595.301190	0.446711
595.652692	0.443152
596.004141	0.437238
596.355535	0.441326
596.706876	0.439032
597.058162	0.438516
597.409395	0.434412
597.760573	0.429873
598.111698	0.430478
598.462768	0.428035
598.813785	0.427652
599.164748	0.426022
599.515657	0.424074
599.866511	0.424304
600.217312	0.418734
600.568060	0.421502
600.918753	0.415933
601.269392	0.414987
601.619978	0.415309
601.970510	0.411838
602.320988	0.410325
602.671412	0.405726
603.021783	0.406370
603.372100	0.405641
603.722363	0.403126
604.072572	0.402440
604.422728	0.400545
604.772830	0.400530
605.122878	0.398397
605.472872	0.397372
605.822813	0.394163
606.172701	0.394966
606.522534	0.390589
606.872314	0.389589
607.222041	0.388656
607.571714	0.385756
607.921333	0.385904
608.270899	0.383723
608.620411	0.379757
608.969870	0.381946
609.319276	0.380291
609.668627	0.378721
610.017926	0.376361
610.367171	0.373791
610.716362	0.373257
611.065500	0.372332
611.414585	0.369697
611.763616	0.369099
612.112594	0.368640
612.461518	0.367160
612.810389	0.364075
613.159207	0.365113
613.507971	0.365439
613.856682	0.360285
614.205340	0.361143
614.553945	0.357048
614.902496	0.359795
615.250994	0.357464
615.599439	0.356942
615.947830	0.355137
616.296169	0.355680
616.644454	0.354287
616.992686	0.353480
617.340864	0.350871
617.688990	0.353517
618.037063	0.349863
618.385082	0.351040
618.733048	0.347311
619.080961	0.348537
619.428821	0.347492
619.776628	0.346197
620.124382	0.347653
620.472083	0.346978
620.819731	0.345655
621.167326	0.348479
621.514868	0.346942
621.862357	0.350756
622.209793	0.349384
622.557176	0.350390
622.904506	0.351173
623.251783	0.352877
623.599007	0.354224
623.946179	0.353606
624.293297	0.354831
624.640363	0.357746
624.987376	0.357557
625.334336	0.359412
625.681243	0.361186
626.028097	0.361130
626.374899	0.362211
626.721647	0.361943
627.068343	0.364603
627.414987	0.365027
627.761577	0.366985
628.108115	0.364698
628.454600	0.369619
628.801032	0.366013
629.147412	0.368238
629.493739	0.368099
629.840014	0.370916
630.186236	0.368119
630.532405	0.373424
630.878521	0.370377
631.224585	0.372378
631.570597	0.375439
631.916556	0.373952
632.262462	0.374043
632.608316	0.375437
632.954117	0.376284
633.299866	0.376969
633.645562	0.376860
633.991206	0.380829
634.336797	0.383437
634.682336	0.385109
635.027823	0.386694
635.373257	0.387113
635.718639	0.390569
636.063968	0.389056
636.409245	0.395115
636.754470	0.395081
637.099642	0.397171
637.444762	0.400783
637.789829	0.399125
638.134845	0.402381
638.479808	0.403635
638.824719	0.402899
639.169577	0.406325
639.514383	0.405010
639.859137	0.409456
640.203839	0.408947
640.548489	0.409307
640.893086	0.410564
641.237632	0.412147
641.582125	0.410776
641.926566	0.411522
642.270955	0.411908
642.615292	0.412400
642.959576	0.411208
643.303809	0.411936
643.647990	0.410761
643.992118	0.411908
644.336195	0.414899
644.680219	0.413440
645.024192	0.413832
645.368112	0.407598
645.711981	0.406405
646.055797	0.401520
646.399562	0.404272
646.743274	0.395998
647.086935	0.393564
647.430544	0.393640
647.774101	0.392352
648.117606	0.392275
648.461059	0.392623
648.804460	0.394531
649.147810	0.399720
649.491108	0.401744
649.834354	0.403085
650.177548	0.408127
650.520690	0.413266
650.863781	0.414690
651.206820	0.413899
651.549807	0.418481
651.892742	0.422401
652.235626	0.421422
652.578458	0.422720
652.921238	0.428759
653.263967	0.426045
653.606644	0.430367
653.949269	0.430034
654.291843	0.433589
654.634365	0.430170
654.976836	0.433298
655.319255	0.433594
655.661622	0.435892
656.003938	0.435521
656.346203	0.438866
656.688416	0.436465
657.030577	0.439397
657.372687	0.441206
657.714746	0.442051
658.056753	0.438964
658.398708	0.443245
658.740612	0.443684
659.082465	0.440454
659.424266	0.440847
659.766016	0.440160
660.107715	0.442494
660.449362	0.441141
660.790958	0.442352
661.132503	0.442611
661.473996	0.440116
661.815438	0.441135
662.156829	0.441190
662.498168	0.441660
662.839456	0.443466
663.180693	0.441209
663.521879	0.441426
663.863013	0.442145
664.204097	0.440595
664.545129	0.437232
664.886110	0.437928
665.227040	0.435318
665.567918	0.438136
665.908746	0.435547
666.249522	0.435680
666.590248	0.436503
666.930922	0.434608
667.271545	0.432983
667.612118	0.433427
667.952639	0.435385
668.293109	0.433014
668.633528	0.436810
668.973896	0.436025
669.314213	0.436855
669.654480	0.438323
669.994695	0.438947
670.334859	0.439356
670.674973	0.439544
671.015035	0.439947
671.355047	0.439717
671.695008	0.440757
672.034918	0.442703
672.374777	0.441720
672.714585	0.443362
673.054342	0.443529
673.394049	0.443288
673.733705	0.440739
674.073310	0.441653
674.412864	0.445415
674.752368	0.445177
675.091820	0.445770
675.431223	0.449899
675.770574	0.449831
676.109875	0.453026
676.449125	0.452618
676.788324	0.454988
677.127473	0.460499
677.466571	0.460119
677.805619	0.461352
678.144616	0.462682
678.483562	0.464729
678.822458	0.466963
679.161303	0.468258
679.500098	0.468346
679.838842	0.470422
680.177535	0.469916
680.516179	0.468668
680.854771	0.467675
681.193314	0.460944
681.531805	0.451994
681.870247	0.440747
682.208638	0.433343
682.546978	0.432041
682.885268	0.433753
683.223508	0.440457
683.561697	0.443850
683.899836	0.446462
684.237925	0.450229
684.575963	0.452132
684.913951	0.455659
685.251889	0.451313
685.589776	0.453525
685.927614	0.455393
686.265401	0.449816
686.603137	0.451254
686.940824	0.445335
687.278460	0.443322
687.616046	0.443161
687.953582	0.437661
688.291068	0.439139
688.628504	0.434688
688.965889	0.437354
689.303224	0.440999
689.640510	0.444776
689.977745	0.450652
690.314930	0.458576
690.652065	0.463206
690.989150	0.471353
691.326185	0.476829
691.663170	0.481739
692.000105	0.488932
692.336990	0.495848
692.673825	0.497918
693.010610	0.505360
693.347345	0.510316
693.684030	0.511657
694.020665	0.516323
694.357251	0.525343
694.693786	0.525744
695.030272	0.529679
695.366707	0.532549
695.703093	0.536509
696.039429	0.533624
696.375716	0.535366
696.711952	0.538393
697.048139	0.540518
697.384276	0.542012
697.720363	0.540517
698.056400	0.539318
698.392388	0.545333
698.728326	0.547970
699.064214	0.550919
699.400053	0.551370
699.735842	0.555247
700.071581	0.557902
700.407270	0.560999
700.742910	0.562965
701.078501	0.570414
701.414042	0.570489
701.749533	0.573098
702.084974	0.582105
702.420366	0.573973
702.755709	0.581921
703.091002	0.589722
703.426246	0.582936
703.761440	0.588830
704.096584	0.593939
704.431679	0.590959
704.766725	0.592887
705.101721	0.595032
705.436668	0.590694
705.771565	0.597506
706.106413	0.594155
706.441212	0.589387
706.775961	0.588006
707.110661	0.590880
707.445311	0.587686
707.779913	0.584529
708.114465	0.582708
708.448967	0.579869
708.783421	0.572317
709.117825	0.566526
709.452180	0.567023
709.786485	0.560136
710.120742	0.550633
710.454949	0.553323
710.789107	0.544584
711.123216	0.535629
711.457275	0.537961
711.791286	0.527671
712.125247	0.527438
712.459159	0.538177
712.793023	0.530650
713.126837	0.534344
713.460602	0.535132
713.794318	0.544860
714.127985	0.543248
714.461602	0.553954
714.795171	0.556531
715.128691	0.564068
715.462162	0.571283
715.795584	0.577224
716.128957	0.579765
716.462281	0.586605
716.795556	0.590111
717.128782	0.594698
717.461960	0.605477
717.795088	0.603224
718.128167	0.609667
718.461198	0.618212
718.794180	0.618147
719.127113	0.621519
719.459997	0.625054
719.792833	0.631359
720.125619	0.632642
720.458357	0.638391
720.791046	0.637652
721.123686	0.641394
721.456278	0.648156
721.788821	0.646015
722.121315	0.649315
722.453761	0.653754
722.786158	0.650801
723.118506	0.648222
723.450805	0.655705
723.783056	0.652268
724.115259	0.648636
724.447412	0.649022
724.779518	0.650295
725.111574	0.648967
725.443582	0.645036
725.775542	0.646853
726.107453	0.639367
726.439315	0.639177
726.771129	0.637461
727.102895	0.631049
727.434612	0.623799
727.766281	0.621719
728.097901	0.621584
728.429473	0.620880
728.760996	0.619675
729.092471	0.619045
729.423897	0.622856
729.755276	0.622173
730.086606	0.622377
730.417887	0.617307
730.749120	0.607636
731.080305	0.598972
731.411442	0.594784
731.742530	0.600140
732.073570	0.598761
732.404562	0.590812
732.735506	0.592554
733.066401	0.597593
733.397249	0.606019
733.728048	0.617800
734.058798	0.629887
734.389501	0.640805
734.720156	0.650544
735.050762	0.659005
735.381320	0.659333
735.711831	0.668167
736.042293	0.673072
736.372707	0.669238
736.703073	0.673610
737.033391	0.675886
737.363661	0.673367
737.693883	0.668297
738.024056	0.667439
738.354182	0.667730
738.684260	0.657015
739.014290	0.652676
739.344272	0.654309
739.674207	0.647432
740.004093	0.646529
740.333931	0.647999
740.663722	0.647325
740.993464	0.647711
741.323159	0.651403
741.652806	0.656391
741.982405	0.661732
742.311956	0.665452
742.641460	0.667618
742.970915	0.671992
743.300323	0.678914
743.629683	0.685023
743.958996	0.687795
744.288260	0.691718
744.617477	0.696928
744.946647	0.699914
745.275768	0.704679
745.604842	0.703810
745.933869	0.714459
746.262847	0.714909
746.591778	0.708714
746.920662	0.713748
747.249498	0.721842
747.578286	0.712296
747.907027	0.708318
748.235720	0.709648
748.564365	0.703572
748.892963	0.703322
749.221514	0.707178
749.550017	0.712114
749.878473	0.711423
750.206881	0.717890
750.535242	0.719556
750.863555	0.718861
751.191821	0.719867
751.520039	0.722958
751.848210	0.728055
752.176334	0.720496
752.504411	0.719255
752.832440	0.728422
753.160421	0.731201
753.488356	0.731220
753.816243	0.727206
754.144082	0.735176
754.471875	0.739274
754.799620	0.735490
755.127318	0.736578
755.454969	0.736387
755.782572	0.735520
756.110129	0.740193
756.437638	0.742970
756.765100	0.739371
757.092515	0.737747
757.419882	0.736435
757.747203	0.742268
758.074477	0.740900
758.401703	0.738583
758.728882	0.733663
759.056014	0.731784
759.383099	0.731193
759.710138	0.732498
760.037129	0.728249
760.364073	0.723196
760.690970	0.725789
761.017820	0.730822
761.344623	0.726975
761.671379	0.717437
761.998088	0.706913
762.324751	0.683543
762.651366	0.642392
762.977935	0.577290
763.304456	0.524138
763.630931	0.515054
763.957359	0.554099
764.283740	0.598130
764.610074	0.625196
764.936362	0.655859
765.262602	0.681279
765.588796	0.703713
765.914943	0.720917
766.241044	0.738263
766.567097	0.744309
766.893104	0.754626
767.219064	0.760735
767.544978	0.767608
767.870845	0.781223
768.196665	0.785233
768.522438	0.782720
768.848165	0.783539
769.173846	0.792605
769.499479	0.796839
769.825066	0.799925
770.150607	0.805340
770.476101	0.800077
770.801548	0.802535
771.126949	0.813000
771.452303	0.817410
771.777611	0.816324
772.102872	0.815891
772.428087	0.819834
772.753256	0.823283
773.078378	0.825768
773.403453	0.834730
773.728482	0.839610
774.053465	0.832564
774.378401	0.835400
774.703291	0.844916
775.028135	0.844365
775.352932	0.845834
775.677683	0.848072
776.002388	0.850304
776.327046	0.848805
776.651658	0.851615
776.976224	0.854738
777.300743	0.855034
777.625216	0.858005
777.949643	0.858787
778.274024	0.859287
778.598359	0.861159
778.922647	0.859698
779.246889	0.861041
779.571086	0.864556
779.895236	0.866057
780.219339	0.863557
780.543397	0.860156
780.867409	0.859185
781.191374	0.860591
781.515294	0.862688
781.839167	0.861859
782.162995	0.864623
782.486776	0.862903
782.810511	0.862814
783.134201	0.866747
783.457844	0.863614
783.781441	0.867025
784.104993	0.872441
784.428498	0.873613
784.751958	0.869028
785.075372	0.871291
785.398739	0.875131
785.722061	0.870921
786.045337	0.867665
786.368568	0.871763
786.691752	0.874768
787.014891	0.859492
787.337983	0.852822
787.661030	0.844049
787.984031	0.827655
788.306987	0.814353
788.629897	0.815780
788.952760	0.820291
789.275579	0.824805
789.598351	0.838739
789.921078	0.852581
790.243759	0.853734
790.566395	0.859228
790.888984	0.866312
791.211529	0.871775
791.534027	0.874098
791.856480	0.878073
792.178888	0.881319
792.501249	0.883995
792.823566	0.885019
793.145836	0.885094
793.468062	0.887827
793.790241	0.887851
794.112375	0.885377
794.434464	0.881136
794.756507	0.880486
795.078505	0.879941
795.400457	0.874787
795.722364	0.862721
796.044226	0.855112
796.366042	0.854779
796.687812	0.857602
797.009538	0.854374
797.331218	0.857026
797.652852	0.861699
797.974442	0.866787
798.295986	0.866825
798.617484	0.869586
798.938938	0.873094
799.260346	0.879129
799.581709	0.880677
799.903026	0.882865
800.224299	0.883132
800.545526	0.886554
800.866708	0.890445
801.187845	0.894902
801.508936	0.894507
801.829983	0.893089
802.150984	0.895148
802.471940	0.899904
802.792851	0.899789
803.113717	0.900329
803.434538	0.897810
803.755314	0.899956
804.076045	0.901705
804.396731	0.901648
804.717372	0.902619
805.037967	0.904836
805.358518	0.901339
805.679024	0.898813
805.999485	0.899307
806.319901	0.899138
806.640272	0.900239
806.960598	0.899361
807.280879	0.897148
807.601115	0.894504
807.921306	0.898180
808.241453	0.899245
808.561554	0.896717
808.881611	0.895990
809.201623	0.898394
809.521590	0.898378
809.841513	0.899206
810.161390	0.899131
810.481223	0.899521
810.801011	0.902584
811.120755	0.905637
811.440453	0.904163
811.760107	0.903193
812.079716	0.903032
812.399281	0.905696
812.718801	0.908860
813.038276	0.909808
813.357707	0.909621
813.677093	0.906592
813.996434	0.909415
814.315731	0.910717
814.634983	0.912341
814.954191	0.910552
815.273354	0.908302
815.592473	0.903037
815.911547	0.904407
816.230577	0.900635
816.549562	0.898580
816.868502	0.900412
817.187399	0.895567
817.506250	0.891840
817.825058	0.892382
818.143821	0.889173
818.462539	0.884828
818.781213	0.876925
819.099843	0.865216
819.418429	0.850112
819.736970	0.833580
820.055466	0.814097
820.373919	0.788844
820.692327	0.756397
821.010691	0.722127
821.329011	0.647203
821.647286	0.534727
821.965517	0.422415
822.283704	0.379944
822.601847	0.381443
822.919945	0.417497
823.237999	0.450083
823.556010	0.495617
823.873976	0.551010
824.191897	0.600925
824.509775	0.641729
824.827609	0.686414
825.145398	0.708395
825.463144	0.712129
825.780845	0.694453
826.098502	0.676178
826.416116	0.631345
826.733685	0.588231
827.051210	0.580111
827.368692	0.594297
827.686129	0.631200
828.003522	0.682965
828.320872	0.729173
828.638177	0.772674
828.955439	0.805900
829.272656	0.825997
829.589830	0.843396
829.906960	0.858469
830.224046	0.870589
830.541088	0.880322
830.858086	0.885124
831.175041	0.891316
831.491952	0.890251
831.808819	0.886477
832.125642	0.880084
832.442421	0.865543
832.759157	0.845047
833.075849	0.799099
833.392497	0.737452
833.709101	0.696406
834.025662	0.705970
834.342179	0.737292
834.658653	0.775352
834.975083	0.810794
835.291469	0.836907
835.607811	0.858627
835.924110	0.874295
836.240366	0.891134
836.556578	0.904528
836.872746	0.911987
837.188871	0.917672
837.504952	0.923012
837.820990	0.926102
838.136984	0.930150
838.452935	0.932403
838.768842	0.934285
839.084706	0.926898
839.400526	0.902444
839.716303	0.862744
840.032037	0.841304
840.347727	0.844878
840.663373	0.863412
840.978977	0.883793
841.294537	0.905497
841.610054	0.920714
841.925527	0.929648
842.240957	0.934967
842.556344	0.941950
842.871687	0.947605
843.186987	0.952191
843.502244	0.951694
843.817458	0.953903
844.132629	0.957353
844.447756	0.961948
844.762840	0.963049
845.077881	0.961994
845.392879	0.961481
845.707833	0.965270
846.022745	0.965397
846.337613	0.966701
846.652438	0.967904
846.967221	0.966020
847.281960	0.966128
847.596656	0.969760
847.911309	0.967458
848.225919	0.969888
848.540485	0.969541
848.855009	0.970073
849.169490	0.969786
849.483928	0.971475
849.798323	0.970376
850.112675	0.971370
850.426984	0.970710
850.741251	0.971141
851.055474	0.972984
851.369654	0.969628
851.683792	0.971107
851.997887	0.972873
852.311938	0.972493
852.625947	0.972232
852.939914	0.969286
853.253837	0.971134
853.567718	0.971973
853.881555	0.972278
854.195350	0.970172
854.509103	0.971014
854.822812	0.972315
855.136479	0.972190
855.450103	0.971835
855.763685	0.969982
856.077224	0.970842
856.390720	0.971918
856.704173	0.971995
857.017584	0.971139
857.330953	0.968000
857.644278	0.969043
857.957561	0.969163
858.270802	0.970746
858.584000	0.969639
858.897155	0.968244
859.210268	0.968847
859.523339	0.969933
859.836367	0.971517
860.149352	0.972983
860.462295	0.970624
860.775195	0.971386
861.088054	0.970245
861.400869	0.971481
861.713642	0.971341
862.026373	0.972065
862.339062	0.972313
862.651708	0.968626
862.964312	0.970142
863.276873	0.971057
863.589392	0.970577
863.901869	0.967186
864.214303	0.967294
864.526696	0.965802
864.839045	0.965378
865.151353	0.963262
865.463619	0.964915
865.775842	0.964298
866.088023	0.964069
866.400162	0.963478
866.712258	0.964860
867.024313	0.964445
867.336325	0.965748
867.648296	0.965691
867.960224	0.964627
868.272110	0.963780
868.583954	0.965033
868.895755	0.965554
869.207515	0.963557
869.519233	0.961612
869.830909	0.962918
870.142542	0.964304
870.454134	0.964075
870.765684	0.962483
871.077191	0.960670
871.388657	0.961338
871.700081	0.960290
872.011463	0.960206
872.322803	0.960241
872.634101	0.959141
872.945357	0.957556
873.256571	0.955605
873.567744	0.955786
873.878874	0.954972
874.189963	0.954813
874.501010	0.953493
874.812015	0.952091
875.122979	0.954985
875.433900	0.955913
875.744780	0.956098
876.055618	0.953482
876.366415	0.952884
876.677169	0.952161
876.987882	0.954351
877.298554	0.953896
877.609183	0.950551
877.919771	0.947635
878.230317	0.945528
878.540822	0.943611
878.851285	0.939760
879.161707	0.930954
879.472087	0.918839
879.782425	0.904131
880.092722	0.871861
880.402977	0.820883
880.713191	0.763148
881.023363	0.705989
881.333494	0.673460
881.643583	0.645095
881.953631	0.644609
882.263637	0.673503
882.573602	0.712281
882.883526	0.736966
883.193408	0.759191
883.503248	0.781527
883.813048	0.807521
884.122806	0.835008
884.432522	0.858477
884.742197	0.876555
885.051831	0.887579
885.361424	0.896766
885.670975	0.908528
885.980485	0.917772
886.289954	0.924610
886.599382	0.928811
886.908768	0.932314
887.218113	0.938044
887.527417	0.941545
887.836680	0.945546
888.145901	0.946941
888.455082	0.948801
888.764221	0.954133
889.073319	0.955294
889.382376	0.955582
889.691392	0.956346
890.000366	0.954717
890.309300	0.956552
890.618193	0.955515
890.927044	0.954712
891.235855	0.954858
891.544625	0.955260
891.853353	0.955393
892.162041	0.952872
892.470687	0.946089
892.779293	0.941033
893.087858	0.937748
893.396381	0.929861
893.704864	0.917763
894.013306	0.895886
894.321707	0.869728
894.630068	0.856077
894.938387	0.851759
895.246665	0.852570
895.554903	0.864179
895.863100	0.877132
896.171256	0.893495
896.479371	0.912225
896.787446	0.925285
897.095480	0.929889
897.403473	0.931596
897.711425	0.936342
898.019336	0.943289
898.327207	0.946367
898.635038	0.948707
898.942827	0.948692
899.250576	0.951768
899.558284	0.955405
899.865952	0.956329
900.173579	0.958339
900.481165	0.958819
900.788711	0.962186
901.096216	0.963976
901.403681	0.964601
901.711105	0.964073
902.018489	0.965530
902.325832	0.965268
902.633135	0.965752
902.940397	0.959015
903.247619	0.948223
903.554800	0.922798
903.861941	0.886423
904.169041	0.851961
904.476101	0.835974
904.783121	0.837541
905.090100	0.853515
905.397039	0.872084
905.703938	0.892379
906.010796	0.911724
906.317614	0.928825
906.624391	0.938942
906.931129	0.947546
907.237826	0.954889
907.544483	0.962056
907.851099	0.965176
908.157675	0.970649
908.464211	0.971834
908.770707	0.974940
909.077163	0.975853
909.383578	0.977254
909.689954	0.976840
909.996289	0.978228
910.302584	0.980046
910.608839	0.980639
910.915054	0.980000
911.221229	0.979694
911.527363	0.979358
911.833458	0.979269
912.139513	0.978948
912.445527	0.977572
912.751502	0.976241
913.057436	0.973923
913.363331	0.972176
913.669186	0.969872
913.975000	0.964131
914.280775	0.958744
914.586510	0.953744
914.892205	0.939894
915.197859	0.920103
915.503475	0.894127
915.809050	0.876283
916.114585	0.871132
916.420081	0.869672
916.725536	0.865408
917.030952	0.873164
917.336328	0.884643
917.641665	0.899116
917.946961	0.915148
918.252218	0.925395
918.557435	0.933249
918.862612	0.942111
919.167750	0.946334
919.472848	0.951334
919.777906	0.956912
920.082925	0.960905
920.387904	0.965899
920.692843	0.965973
920.997743	0.966952
921.302603	0.969841
921.607423	0.971517
921.912204	0.974841
922.216946	0.974889
922.521647	0.975735
922.826310	0.977055
923.130932	0.978699
923.435516	0.980541
923.740059	0.981186
924.044564	0.980474
924.349028	0.980956
924.653454	0.985088
924.957840	0.986133
925.262186	0.985726
925.566493	0.985031
925.870761	0.986104
926.174989	0.987992
926.479178	0.989481
926.783328	0.990540
927.087438	0.989422
927.391509	0.988508
927.695541	0.991684
927.999533	0.990216
928.303486	0.991627
928.607400	0.992177
928.911275	0.990289
929.215110	0.991771
929.518906	0.991474
929.822663	0.990054
930.126381	0.992196
930.430060	0.991438
930.733699	0.991847
931.037299	0.990586
931.340861	0.992227
931.644383	0.990995
931.947866	0.989941
932.251309	0.991181
932.554714	0.991142
932.858080	0.991040
933.161407	0.991808
933.464694	0.992763
933.767943	0.991605
934.071153	0.991414
934.374323	0.992308
934.677455	0.992465
934.980548	0.992640
935.283602	0.991894
935.586617	0.991858
935.889593	0.991531
936.192530	0.992225
936.495428	0.991860
936.798287	0.991732
937.101108	0.991585
937.403890	0.990438
937.706632	0.989880
938.009336	0.988790
938.312002	0.987602
938.614628	0.986681
938.917216	0.984922
939.219765	0.984381
939.522275	0.985359
939.824747	0.984557
940.127179	0.985282
940.429573	0.986929
940.731929	0.986106
941.034246	0.987216
941.336524	0.986139
941.638763	0.989275
941.940964	0.987979
942.243126	0.987797
942.545250	0.989552
942.847335	0.989818
943.149381	0.990283
943.451389	0.989173
943.753359	0.990430
944.055290	0.992629
944.357182	0.990758
944.659036	0.989727
944.960851	0.990338
945.262628	0.991680
945.564367	0.991153
945.866067	0.992111
946.167729	0.992242
946.469352	0.991817
946.770937	0.990375
947.072484	0.991533
947.373992	0.991485
947.675462	0.990822
947.976893	0.991249
948.278286	0.990831
948.579641	0.993348
948.880958	0.991529
949.182236	0.992192
949.483476	0.992318
949.784678	0.992168
950.085841	0.991679
950.386967	0.993174
950.688054	0.992356
950.989103	0.992346
951.290114	0.991224
951.591087	0.989963
951.892021	0.991244
952.192917	0.990619
952.493776	0.989413
952.794596	0.989726
953.095378	0.988465
953.396122	0.988609
953.696828	0.988804
953.997496	0.990915
954.298126	0.992441
954.598718	0.992100
954.899272	0.992865
955.199788	0.991821
955.500266	0.993011
955.800706	0.994591
956.101108	0.993687
956.401472	0.994417
956.701798	0.994123
957.002087	0.993293
957.302337	0.993881
957.602550	0.995264
957.902724	0.995217
958.202861	0.995752
958.502960	0.995800
958.803022	0.994869
959.103045	0.996782
959.403031	0.996959
959.702979	0.995892
960.002889	0.997219
960.302762	0.995834
960.602596	0.996960
960.902393	0.995130
961.202153	0.997431
961.501875	0.996862
961.801559	0.996899
962.101205	0.996853
962.400814	0.996725
962.700385	0.995780
962.999918	0.997721
963.299414	0.995950
963.598873	0.996846
963.898293	0.995551
964.197677	0.996650
964.497022	0.996709
964.796331	0.997108
965.095601	0.996736
965.394835	0.997601
965.694030	0.995729
965.993189	0.997912
966.292309	0.997311
966.591393	0.997530
966.890439	0.998380
967.189447	0.997396
967.488419	0.997012
967.787353	0.997235
968.086249	0.997577
968.385108	0.998328
968.683930	0.997472
968.982714	0.997190
969.281462	0.997590
969.580172	0.996928
969.878844	0.997892
970.177480	0.998438
970.476078	0.997857
970.774639	0.998293
971.073162	0.998641
971.371649	0.996609
971.670098	0.995845
971.968510	0.998235
972.266885	0.996805
972.565223	0.997081
972.863524	0.996600
973.161788	0.997005
973.460014	0.999115
973.758204	0.996355
974.056356	0.997713
974.354471	0.994785
974.652550	0.996975
974.950591	0.996781
975.248595	0.996944
975.546563	0.997243
975.844493	0.998281
976.142386	0.997365
976.440243	0.998177
976.738062	0.998256
977.035845	0.998506
977.333590	0.997994
977.631299	0.998773
977.928971	0.997484
978.226606	0.996425
978.524204	0.995934
978.821765	0.998194
979.119290	0.996578
979.416777	0.997514
979.714228	0.997239
980.011642	0.996364
980.309020	0.998411
980.606360	0.997056
980.903664	0.998394
981.200931	0.996874
981.498162	0.995669
981.795356	0.994688
982.092513	0.995747
982.389633	0.995386
982.686717	0.993072
982.983764	0.991746
983.280775	0.991580
983.577749	0.991317
983.874686	0.991993
984.171587	0.992471
984.468451	0.995418
984.765279	0.995225
985.062070	0.995200
985.358824	0.995424
985.655543	0.996033
985.952224	0.997977
986.248869	0.997149
986.545478	0.999188
986.842050	0.998327
987.138586	0.995140
987.435086	0.997634
987.731549	0.998818
988.027975	0.997738
988.324366	0.997706
988.620719	0.998669
988.917037	0.997918
989.213318	0.998307
989.509563	0.998934
989.805772	0.998504
990.101944	0.999185
990.398080	0.998551
990.694180	0.998240
990.990244	0.998092
991.286271	0.997658
991.582262	0.997949
991.878217	0.998842
992.174136	0.998894
992.470019	1.000507
992.765865	0.997178
993.061676	0.998164
993.357450	0.998347
993.653188	0.997969
993.948890	0.997809
994.244556	0.998012
994.540186	0.996536
994.835780	0.998152
995.131337	0.997751
995.426859	0.997183
995.722345	0.998430
996.017795	0.996286
996.313208	0.997059
996.608586	0.996122
996.903928	0.996790
997.199234	0.994751
997.494504	0.997486
997.789738	0.995640
998.084936	0.996766
998.380099	0.998944
998.675225	0.997872
998.970316	0.998501
999.265371	0.998636
999.560390	0.997921
999.855373	0.998747
1000.150320	0.997683
1000.445232	0.998821
1000.740108	0.997837
1001.034948	0.998396
1001.329752	0.999092
1001.624521	0.998849
1001.919254	0.997823
1002.213951	0.998999
1002.508613	0.997523
1002.803239	0.998768
1003.097829	0.999489
1003.392384	0.998776
1003.686903	0.998408
1003.981386	0.997883
1004.275834	0.999398
1004.570246	0.998610
1004.864623	0.999752
1005.158964	0.999868
1005.453270	0.999487
1005.747540	0.997947
1006.041775	0.998416
1006.335974	0.999949
1006.630138	0.998770
1006.924266	1.000546
1007.218359	1.000270
1007.512416	0.999133
1007.806438	0.999387
1008.100425	0.999437
1008.394376	0.998743
1008.688292	0.999385
1008.982172	0.999440
1009.276017	0.999486
1009.569827	0.999362
1009.863602	0.998912
1010.157341	0.999554
1010.451045	0.999379
1010.744714	0.998879
1011.038347	0.998782
1011.331945	0.999836
1011.625508	0.997884
1011.919036	0.999223
1012.212528	0.999619
1012.505986	0.997641
1012.799408	0.998704
1013.092795	0.999753
1013.386147	0.999549
1013.679464	0.999313
1013.972745	0.998045
1014.265992	0.997974
1014.559204	0.998343
1014.852380	0.999102
1015.145521	1.000086
1015.438628	0.999974
1015.731699	0.998571
1016.024736	0.999512
1016.317737	0.997986
1016.610703	0.998531
1016.903635	0.998894
1017.196531	0.999667
1017.489393	1.000494
1017.782219	0.997626
1018.075011	0.998722
1018.367768	0.999584
1018.660490	0.999832
1018.953177	0.999832
1019.245829	0.999832
