Dividing Wavelength (nm)	Counts (n)	Blue Motor Position (mm): 0.000000	Red Motor Position (mm): 30.800000	
326.493990	1.001208
326.888308	1.001208
327.282561	1.001208
327.676750	0.999889
328.070874	0.997921
328.464933	1.000747
328.858929	1.000459
329.252859	1.000688
329.646726	0.999712
330.040528	1.000054
330.434265	0.999149
330.827938	0.999728
331.221547	1.000799
331.615091	0.999360
332.008571	1.001171
332.401986	0.999168
332.795338	0.999710
333.188625	0.997360
333.581847	1.000503
333.975006	0.999600
334.368100	0.998047
334.761129	0.999747
335.154095	1.001061
335.546996	0.998126
335.939833	0.994345
336.332606	0.994879
336.725315	0.996246
337.117960	0.996064
337.510540	0.996241
337.903056	0.996287
338.295508	0.995566
338.687896	0.995802
339.080220	0.995813
339.472480	0.995668
339.864676	0.996226
340.256807	0.995433
340.648875	0.996122
341.040879	0.996592
341.432818	0.995933
341.824694	0.996075
342.216506	0.996067
342.608253	0.995839
342.999937	0.995046
343.391557	0.995377
343.783113	0.995056
344.174605	0.996104
344.566033	0.996039
344.957397	0.993941
345.348697	0.994447
345.739934	0.995014
346.131106	0.994156
346.522215	0.995617
346.913260	0.996239
347.304241	0.994703
347.695159	0.996710
348.086012	0.994826
348.476802	0.995531
348.867528	0.994970
349.258191	0.994598
349.648789	0.996043
350.039324	0.994231
350.429796	0.996636
350.820203	0.996134
351.210548	0.995130
351.600828	0.994197
351.991045	0.995891
352.381198	0.993830
352.771288	0.996021
353.161314	0.995077
353.551276	0.995959
353.941175	0.995670
354.331010	0.995758
354.720782	0.996263
355.110490	0.995242
355.500135	0.996107
355.889717	0.995577
356.279235	0.995668
356.668689	0.996021
357.058080	0.995978
357.447408	0.996917
357.836672	0.995267
358.225873	0.996577
358.615010	0.996040
359.004084	0.995877
359.393095	0.996293
359.782043	0.995626
360.170927	0.996139
360.559748	0.996639
360.948505	0.994524
361.337199	0.996521
361.725830	0.996224
362.114398	0.996772
362.502903	0.995541
362.891344	0.997745
363.279722	0.995338
363.668037	0.996885
364.056289	0.995101
364.444478	0.997187
364.832603	0.995844
365.220665	0.995577
365.608665	0.995827
365.996601	0.994842
366.384474	0.996238
366.772284	0.995581
367.160031	0.995292
367.547715	0.994888
367.935336	0.995613
368.322893	0.995771
368.710388	0.994686
369.097820	0.995663
369.485189	0.996011
369.872495	0.994529
370.259738	0.994430
370.646918	0.995910
371.034035	0.995778
371.421090	0.996120
371.808081	0.995243
372.195010	0.996328
372.581875	0.995224
372.968678	0.995598
373.355418	0.995399
373.742096	0.995486
374.128710	0.996790
374.515262	0.996201
374.901751	0.996312
375.288177	0.996509
375.674540	0.996651
376.060841	0.996108
376.447079	0.995982
376.833254	0.996036
377.219367	0.996371
377.605417	0.997139
377.991404	0.996373
378.377329	0.995532
378.763191	0.996416
379.148991	0.997211
379.534727	0.997114
379.920402	0.996285
380.306013	0.996515
380.691563	0.997054
381.077049	0.996150
381.462474	0.997048
381.847835	0.996289
382.233134	0.996360
382.618371	0.997194
383.003545	0.997166
383.388657	0.996381
383.773706	0.996838
384.158693	0.996548
384.543618	0.996802
384.928480	0.996692
385.313280	0.996348
385.698017	0.997318
386.082692	0.997384
386.467305	0.997174
386.851856	0.996986
387.236344	0.996847
387.620770	0.996264
388.005133	0.997019
388.389435	0.997631
388.773674	0.996726
389.157851	0.996962
389.541965	0.996795
389.926018	0.996866
390.310008	0.997048
390.693936	0.996977
391.077802	0.997594
391.461606	0.996829
391.845348	0.997438
392.229027	0.999170
392.612645	0.997447
392.996200	0.998224
393.379694	0.996754
393.763125	0.998705
394.146494	0.998399
394.529801	0.996194
394.913047	0.997236
395.296230	0.997477
395.679351	0.996890
396.062410	0.997015
396.445408	0.996752
396.828343	0.997138
397.211217	0.997957
397.594028	0.997418
397.976778	0.996575
398.359466	0.997211
398.742092	0.996212
399.124656	0.997152
399.507158	0.997700
399.889598	0.997577
400.271977	0.998326
400.654294	0.997470
401.036549	0.997496
401.418742	0.997409
401.800874	0.996956
402.182944	0.997237
402.564952	0.996486
402.946898	0.998304
403.328783	0.997557
403.710606	0.997197
404.092367	0.997958
404.474067	0.998214
404.855705	0.997883
405.237282	0.997719
405.618797	0.997369
406.000250	0.996797
406.381642	0.997165
406.762972	0.996757
407.144240	0.998178
407.525447	0.997699
407.906593	0.997167
408.287677	0.997490
408.668700	0.997526
409.049661	0.996352
409.430560	0.997322
409.811399	0.996857
410.192176	0.997366
410.572891	0.997155
410.953545	0.997328
411.334138	0.996269
411.714669	0.997737
412.095139	0.997134
412.475547	0.997724
412.855894	0.997660
413.236180	0.997537
413.616405	0.997484
413.996568	0.998023
414.376670	0.997368
414.756711	0.997366
415.136691	0.997075
415.516609	0.997582
415.896466	0.997319
416.276262	0.995767
416.655997	0.997850
417.035670	0.996585
417.415283	0.997475
417.794834	0.997190
418.174324	0.997989
418.553753	0.997469
418.933121	0.997722
419.312428	0.997579
419.691674	0.997315
420.070859	0.998058
420.449983	0.997979
420.829045	0.997201
421.208047	0.997368
421.586988	0.998703
421.965867	0.997026
422.344686	0.998742
422.723444	0.997471
423.102141	0.997900
423.480777	0.997407
423.859352	0.996785
424.237866	0.997356
424.616319	0.997980
424.994712	0.997397
425.373044	0.997756
425.751314	0.997547
426.129524	0.997226
426.507673	0.997792
426.885762	0.997486
427.263789	0.997892
427.641756	0.998040
428.019662	0.997909
428.397508	0.996797
428.775292	0.997001
429.153016	0.997281
429.530679	0.998505
429.908282	0.997253
430.285824	0.996765
430.663305	0.996987
431.040726	0.997592
431.418086	0.998832
431.795385	0.998034
432.172624	0.996844
432.549802	0.997404
432.926920	0.997849
433.303977	0.997252
433.680974	0.998350
434.057910	0.997588
434.434786	0.998067
434.811601	0.996727
435.188355	0.996859
435.565050	0.996628
435.941683	0.996793
436.318257	0.997873
436.694770	0.996679
437.071222	0.998227
437.447614	0.998120
437.823946	0.997148
438.200218	0.998325
438.576429	0.997887
438.952580	0.997519
439.328670	0.997215
439.704700	0.997704
440.080670	0.998081
440.456580	0.997167
440.832429	0.997297
441.208218	0.997121
441.583947	0.997836
441.959616	0.997812
442.335224	0.997268
442.710773	0.998140
443.086261	0.996775
443.461689	0.997323
443.837057	0.996640
444.212365	0.997893
444.587612	0.998164
444.962800	0.997607
445.337927	0.997086
445.712995	0.997405
446.088002	0.998525
446.462949	0.998278
446.837837	0.997279
447.212664	0.997916
447.587431	0.997510
447.962139	0.997301
448.336786	0.998280
448.711374	0.998000
449.085901	0.996710
449.460369	0.997741
449.834776	0.997351
450.209124	0.997713
450.583412	0.998062
450.957640	0.997911
451.331808	0.997668
451.705917	0.997975
452.079965	0.997240
452.453954	0.997255
452.827883	0.996503
453.201752	0.998096
453.575562	0.998171
453.949311	0.998043
454.323001	0.997732
454.696632	0.996600
455.070202	0.997386
455.443713	0.998078
455.817164	0.998157
456.190556	0.997608
456.563888	0.997024
456.937160	0.997539
457.310373	0.996943
457.683526	0.996133
458.056619	0.997013
458.429653	0.996738
458.802628	0.996377
459.175542	0.997058
459.548398	0.997142
459.921194	0.996237
460.293930	0.997156
460.666607	0.996724
461.039224	0.995717
461.411782	0.996891
461.784280	0.996518
462.156719	0.997641
462.529099	0.996979
462.901419	0.997046
463.273680	0.997440
463.645882	0.996117
464.018024	0.996226
464.390106	0.996945
464.762130	0.997548
465.134094	0.996705
465.505999	0.996682
465.877845	0.996095
466.249631	0.996223
466.621358	0.995789
466.993026	0.995689
467.364634	0.995177
467.736184	0.996212
468.107674	0.994589
468.479105	0.994734
468.850477	0.994893
469.221790	0.994211
469.593043	0.993989
469.964238	0.994383
470.335373	0.992894
470.706449	0.992561
471.077467	0.991789
471.448425	0.990834
471.819324	0.990498
472.190164	0.988992
472.560945	0.989072
472.931667	0.988026
473.302330	0.986851
473.672934	0.987180
474.043479	0.985874
474.413965	0.985504
474.784393	0.984379
475.154761	0.983163
475.525070	0.981530
475.895321	0.981235
476.265513	0.980322
476.635645	0.978107
477.005719	0.977033
477.375734	0.975492
477.745691	0.974644
478.115588	0.973003
478.485427	0.971688
478.855207	0.968526
479.224928	0.964538
479.594591	0.963032
479.964194	0.961756
480.333739	0.960241
480.703226	0.957710
481.072653	0.955724
481.442022	0.952285
481.811333	0.948770
482.180584	0.947933
482.549777	0.944944
482.918912	0.942388
483.287988	0.938891
483.657005	0.936149
484.025964	0.935273
484.394864	0.932203
484.763706	0.928175
485.132489	0.926513
485.501213	0.922428
485.869879	0.919466
486.238487	0.915848
486.607036	0.912860
486.975527	0.907901
487.343959	0.904433
487.712333	0.899541
488.080648	0.896339
488.448905	0.891794
488.817104	0.887676
489.185244	0.882895
489.553326	0.877862
489.921350	0.869380
490.289315	0.857817
490.657222	0.852852
491.025070	0.847180
491.392861	0.844353
491.760593	0.841388
492.128267	0.837662
492.495883	0.834046
492.863440	0.830865
493.230939	0.825561
493.598380	0.819914
493.965763	0.813870
494.333088	0.810562
494.700354	0.802957
495.067563	0.798414
495.434713	0.792386
495.801805	0.786631
496.168839	0.779761
496.535815	0.772720
496.902733	0.768380
497.269593	0.761181
497.636395	0.754745
498.003139	0.747371
498.369825	0.742860
498.736453	0.733909
499.103023	0.727849
499.469535	0.721000
499.835989	0.714716
500.202385	0.707888
500.568723	0.702832
500.935003	0.694888
501.301226	0.687196
501.667390	0.679728
502.033497	0.671748
502.399546	0.666982
502.765537	0.660323
503.131470	0.652104
503.497345	0.643318
503.863163	0.642103
504.228923	0.630282
504.594625	0.624160
504.960269	0.619804
505.325856	0.610712
505.691385	0.605986
506.056856	0.597424
506.422270	0.589998
506.787625	0.585518
507.152924	0.576494
507.518164	0.570498
507.883347	0.564379
508.248472	0.559098
508.613540	0.549876
508.978550	0.544656
509.343503	0.537701
509.708398	0.529913
510.073236	0.521911
510.438016	0.516250
510.802738	0.509992
511.167403	0.503317
511.532010	0.497928
511.896561	0.489919
512.261053	0.483231
512.625488	0.477738
512.989866	0.472095
513.354186	0.466220
513.718449	0.461473
514.082655	0.453559
514.446803	0.449164
514.810894	0.442406
515.174927	0.438259
515.538904	0.433392
515.902822	0.424645
516.266684	0.421642
516.630488	0.417017
516.994235	0.411686
517.357925	0.404792
517.721558	0.398992
518.085133	0.393135
518.448651	0.388943
518.812112	0.385821
519.175516	0.380157
519.538863	0.374369
519.902152	0.371279
520.265385	0.363352
520.628560	0.361635
520.991678	0.357279
521.354739	0.352404
521.717743	0.350000
522.080690	0.346283
522.443580	0.339338
522.806413	0.336587
523.169189	0.332480
523.531908	0.327920
523.894569	0.327314
524.257174	0.323850
524.619722	0.317941
524.982213	0.316538
525.344647	0.311551
525.707025	0.309530
526.069345	0.304982
526.431608	0.303323
526.793815	0.298664
527.155964	0.299431
527.518057	0.295827
527.880093	0.294220
528.242072	0.290444
528.603995	0.289530
528.965860	0.288631
529.327669	0.285295
529.689421	0.284095
530.051117	0.282549
530.412755	0.278035
530.774337	0.278490
531.135862	0.276641
531.497331	0.274395
531.858743	0.275288
532.220098	0.270501
532.581396	0.271049
532.942638	0.269926
533.303824	0.269184
533.664953	0.267639
534.026025	0.267700
534.387040	0.264324
534.747999	0.263214
535.108902	0.260705
535.469748	0.264366
535.830537	0.260972
536.191270	0.260252
536.551947	0.258598
536.912567	0.257695
537.273131	0.258583
537.633638	0.257931
537.994089	0.257186
538.354483	0.257588
538.714821	0.253990
539.075103	0.252614
539.435328	0.252678
539.795497	0.255780
540.155609	0.251594
540.515665	0.249264
540.875665	0.254436
541.235609	0.252134
541.595496	0.252060
541.955328	0.247942
542.315102	0.250121
542.674821	0.250677
543.034483	0.250179
543.394090	0.249487
543.753640	0.251236
544.113134	0.245679
544.472571	0.248693
544.831953	0.245141
545.191278	0.249154
545.550548	0.248005
545.909761	0.245086
546.268918	0.245225
546.628019	0.243118
546.987064	0.245880
547.346053	0.247445
547.704986	0.245017
548.063863	0.244997
548.422684	0.245275
548.781449	0.246831
549.140158	0.244473
549.498811	0.247221
549.857408	0.250093
550.215949	0.244831
550.574434	0.247584
550.932864	0.245473
551.291237	0.243957
551.649555	0.245163
552.007817	0.244776
552.366022	0.245465
552.724173	0.245687
553.082267	0.245977
553.440305	0.242789
553.798288	0.247160
554.156215	0.243720
554.514086	0.244173
554.871902	0.247306
555.229661	0.246412
555.587365	0.246937
555.945014	0.249444
556.302606	0.246191
556.660143	0.248624
557.017625	0.244948
557.375050	0.247214
557.732421	0.243959
558.089735	0.246266
558.446994	0.246118
558.804197	0.245401
559.161345	0.244991
559.518437	0.248562
559.875474	0.246464
560.232455	0.245643
560.589381	0.246976
560.946251	0.246998
561.303065	0.244354
561.659825	0.245868
562.016528	0.247316
562.373177	0.250012
562.729770	0.247367
563.086307	0.249448
563.442789	0.247025
563.799216	0.250062
564.155587	0.248542
564.511904	0.249578
564.868164	0.249886
565.224370	0.249691
565.580520	0.251574
565.936615	0.251117
566.292654	0.254260
566.648638	0.250916
567.004567	0.252071
567.360441	0.252632
567.716260	0.254837
568.072023	0.252011
568.427732	0.252571
568.783385	0.255360
569.138982	0.253415
569.494525	0.253280
569.850013	0.256185
570.205445	0.254569
570.560823	0.257131
570.916145	0.258670
571.271412	0.257032
571.626625	0.258668
571.981782	0.259135
572.336884	0.260146
572.691931	0.259631
573.046923	0.260751
573.401860	0.262016
573.756743	0.263504
574.111570	0.262673
574.466342	0.262988
574.821059	0.262415
575.175722	0.264958
575.530330	0.264681
575.884882	0.265202
576.239380	0.267158
576.593823	0.267604
576.948211	0.266950
577.302544	0.270123
577.656823	0.270012
578.011047	0.269572
578.365216	0.270523
578.719330	0.272577
579.073389	0.272516
579.427394	0.273650
579.781344	0.274576
580.135239	0.275860
580.489080	0.275902
580.842866	0.278576
581.196597	0.278091
581.550273	0.276949
581.903895	0.278160
582.257463	0.276526
582.610975	0.279715
582.964434	0.279012
583.317837	0.281273
583.671186	0.281864
584.024481	0.281802
584.377721	0.284211
584.730906	0.284928
585.084037	0.284052
585.437113	0.285420
585.790135	0.285441
586.143103	0.288269
586.496016	0.289317
586.848874	0.286905
587.201679	0.287686
587.554428	0.290826
587.907124	0.289869
588.259765	0.290333
588.612352	0.290933
588.964884	0.294614
589.317362	0.294196
589.669786	0.294194
590.022155	0.292820
590.374470	0.292102
590.726731	0.294210
591.078937	0.298620
591.431090	0.295111
591.783188	0.299627
592.135232	0.299503
592.487222	0.300071
592.839157	0.297664
593.191038	0.300083
593.542866	0.302214
593.894639	0.305832
594.246358	0.303710
594.598022	0.303246
594.949633	0.306790
595.301190	0.307389
595.652692	0.306709
596.004141	0.302747
596.355535	0.311065
596.706876	0.311309
597.058162	0.313517
597.409395	0.311109
597.760573	0.308606
598.111698	0.311644
598.462768	0.312197
598.813785	0.313724
599.164748	0.314965
599.515657	0.315177
599.866511	0.318494
600.217312	0.314180
600.568060	0.319415
600.918753	0.315810
601.269392	0.316510
601.619978	0.319876
601.970510	0.317803
602.320988	0.317596
602.671412	0.315516
603.021783	0.317850
603.372100	0.318879
603.722363	0.318854
604.072572	0.319698
604.422728	0.319304
604.772830	0.321437
605.122878	0.320920
605.472872	0.321621
605.822813	0.320036
606.172701	0.322610
606.522534	0.319944
606.872314	0.319962
607.222041	0.321213
607.571714	0.319110
607.921333	0.320277
608.270899	0.320524
608.620411	0.317065
608.969870	0.320853
609.319276	0.320769
609.668627	0.320993
610.017926	0.319295
610.367171	0.318391
610.716362	0.318867
611.065500	0.318936
611.414585	0.317745
611.763616	0.318397
612.112594	0.318666
612.461518	0.318109
612.810389	0.315591
613.159207	0.317936
613.507971	0.319811
613.856682	0.315417
614.205340	0.317456
614.553945	0.313985
614.902496	0.317679
615.250994	0.316112
615.599439	0.316786
615.947830	0.316066
616.296169	0.317556
616.644454	0.316315
616.992686	0.316562
617.340864	0.314384
617.688990	0.318238
618.037063	0.314832
618.385082	0.316380
618.733048	0.313528
619.080961	0.315651
619.428821	0.315121
619.776628	0.314865
620.124382	0.316739
620.472083	0.317079
620.819731	0.316600
621.167326	0.320252
621.514868	0.320174
621.862357	0.324345
622.209793	0.323765
622.557176	0.325906
622.904506	0.327089
623.251783	0.329828
623.599007	0.331500
623.946179	0.331548
624.293297	0.333582
624.640363	0.337106
624.987376	0.337567
625.334336	0.340415
625.681243	0.342387
626.028097	0.343206
626.374899	0.343810
626.721647	0.344292
627.068343	0.347837
627.414987	0.348627
627.761577	0.350572
628.108115	0.348854
628.454600	0.354041
628.801032	0.351744
629.147412	0.353478
629.493739	0.354056
629.840014	0.357231
630.186236	0.354566
630.532405	0.359908
630.878521	0.357177
631.224585	0.359670
631.570597	0.363493
631.916556	0.361671
632.262462	0.362000
632.608316	0.364554
632.954117	0.364780
633.299866	0.365767
633.645562	0.366149
633.991206	0.370256
634.336797	0.373327
634.682336	0.375385
635.027823	0.376720
635.373257	0.377818
635.718639	0.381160
636.063968	0.380269
636.409245	0.386414
636.754470	0.385915
637.099642	0.389020
637.444762	0.392324
637.789829	0.391060
638.134845	0.394350
638.479808	0.395812
638.824719	0.395772
639.169577	0.399251
639.514383	0.398479
639.859137	0.403185
640.203839	0.402835
640.548489	0.403265
640.893086	0.404682
641.237632	0.406029
641.582125	0.404360
641.926566	0.406127
642.270955	0.406431
642.615292	0.406320
642.959576	0.405990
643.303809	0.406244
643.647990	0.405511
643.992118	0.406285
644.336195	0.409739
644.680219	0.408088
645.024192	0.408886
645.368112	0.402761
645.711981	0.401348
646.055797	0.397216
646.399562	0.399494
646.743274	0.391504
647.086935	0.388672
647.430544	0.389018
647.774101	0.388044
648.117606	0.387784
648.461059	0.387834
648.804460	0.390129
649.147810	0.395643
649.491108	0.397898
649.834354	0.398670
650.177548	0.404005
650.520690	0.409763
650.863781	0.410770
651.206820	0.410196
651.549807	0.415192
651.892742	0.418546
652.235626	0.418021
652.578458	0.419093
652.921238	0.424609
653.263967	0.422794
653.606644	0.426832
653.949269	0.426512
654.291843	0.430409
654.634365	0.427026
654.976836	0.430092
655.319255	0.430268
655.661622	0.432146
656.003938	0.431879
656.346203	0.434777
656.688416	0.432695
657.030577	0.436158
657.372687	0.438418
657.714746	0.439528
658.056753	0.436188
658.398708	0.439981
658.740612	0.440840
659.082465	0.437092
659.424266	0.437937
659.766016	0.437343
660.107715	0.440589
660.449362	0.438940
660.790958	0.439470
661.132503	0.439740
661.473996	0.437359
661.815438	0.438313
662.156829	0.438739
662.498168	0.440082
662.839456	0.441144
663.180693	0.438995
663.521879	0.438353
663.863013	0.439770
664.204097	0.438143
664.545129	0.435310
664.886110	0.435698
665.227040	0.433345
665.567918	0.435097
665.908746	0.433454
666.249522	0.433127
666.590248	0.433608
666.930922	0.432716
667.271545	0.431022
667.612118	0.431002
667.952639	0.432894
668.293109	0.431499
668.633528	0.434642
668.973896	0.434363
669.314213	0.434758
669.654480	0.436214
669.994695	0.436570
670.334859	0.437456
670.674973	0.437391
671.015035	0.437501
671.355047	0.437461
671.695008	0.438824
672.034918	0.440631
672.374777	0.439717
672.714585	0.441029
673.054342	0.440894
673.394049	0.441432
673.733705	0.439098
674.073310	0.439827
674.412864	0.443238
674.752368	0.443797
675.091820	0.443824
675.431223	0.448192
675.770574	0.448301
676.109875	0.450952
676.449125	0.450636
676.788324	0.453136
677.127473	0.458927
677.466571	0.458706
677.805619	0.459903
678.144616	0.460937
678.483562	0.462983
678.822458	0.465227
679.161303	0.466843
679.500098	0.466663
679.838842	0.468525
680.177535	0.468201
680.516179	0.466086
680.854771	0.465327
681.193314	0.459313
681.531805	0.450190
681.870247	0.438721
682.208638	0.431837
682.546978	0.430315
682.885268	0.432298
683.223508	0.438279
683.561697	0.442111
683.899836	0.444332
684.237925	0.447769
684.575963	0.450773
684.913951	0.453590
685.251889	0.449465
685.589776	0.451201
685.927614	0.453519
686.265401	0.447877
686.603137	0.449135
686.940824	0.444079
687.278460	0.442147
687.616046	0.441805
687.953582	0.436340
688.291068	0.437378
688.628504	0.433767
688.965889	0.435180
689.303224	0.440311
689.640510	0.443834
689.977745	0.448774
690.314930	0.457280
690.652065	0.461508
690.989150	0.469280
691.326185	0.475611
691.663170	0.480224
692.000105	0.486871
692.336990	0.494710
692.673825	0.496637
693.010610	0.503317
693.347345	0.509175
693.684030	0.510308
694.020665	0.515460
694.357251	0.524401
694.693786	0.523657
695.030272	0.527922
695.366707	0.531040
695.703093	0.535250
696.039429	0.532127
696.375716	0.534339
696.711952	0.536838
697.048139	0.538635
697.384276	0.540390
697.720363	0.539230
698.056400	0.538080
698.392388	0.544192
698.728326	0.546722
699.064214	0.549623
699.400053	0.550086
699.735842	0.553289
700.071581	0.556496
700.407270	0.559373
700.742910	0.561716
701.078501	0.569232
701.414042	0.568771
701.749533	0.571403
702.084974	0.581087
702.420366	0.572900
702.755709	0.580555
703.091002	0.588107
703.426246	0.581554
703.761440	0.587918
704.096584	0.592905
704.431679	0.588903
704.766725	0.591693
705.101721	0.593522
705.436668	0.588641
705.771565	0.596339
706.106413	0.592996
706.441212	0.588939
706.775961	0.586821
707.110661	0.589800
707.445311	0.585958
707.779913	0.584064
708.114465	0.582381
708.448967	0.578886
708.783421	0.571336
709.117825	0.565502
709.452180	0.565487
709.786485	0.559412
710.120742	0.548827
710.454949	0.551857
710.789107	0.543151
711.123216	0.534753
711.457275	0.536166
711.791286	0.527632
712.125247	0.525956
712.459159	0.536735
712.793023	0.530097
713.126837	0.533783
713.460602	0.533809
713.794318	0.543136
714.127985	0.541739
714.461602	0.551985
714.795171	0.555871
715.128691	0.562805
715.462162	0.570407
715.795584	0.575672
716.128957	0.578781
716.462281	0.585903
716.795556	0.589224
717.128782	0.594025
717.461960	0.603439
717.795088	0.601969
718.128167	0.607488
718.461198	0.616474
718.794180	0.617074
719.127113	0.620250
719.459997	0.623201
719.792833	0.629787
720.125619	0.631101
720.458357	0.636997
720.791046	0.636127
721.123686	0.639872
721.456278	0.647072
721.788821	0.644248
722.121315	0.648947
722.453761	0.653025
722.786158	0.650545
723.118506	0.646490
723.450805	0.654931
723.783056	0.650932
724.115259	0.647643
724.447412	0.647550
724.779518	0.648620
725.111574	0.647923
725.443582	0.643847
725.775542	0.645688
726.107453	0.637940
726.439315	0.637684
726.771129	0.635834
727.102895	0.629221
727.434612	0.623027
727.766281	0.620235
728.097901	0.619922
728.429473	0.619814
728.760996	0.618756
729.092471	0.617040
729.423897	0.622642
729.755276	0.620912
730.086606	0.620568
730.417887	0.615429
730.749120	0.605915
731.080305	0.596547
731.411442	0.594080
731.742530	0.598775
732.073570	0.597731
732.404562	0.589597
732.735506	0.590786
733.066401	0.595978
733.397249	0.604504
733.728048	0.616669
734.058798	0.628568
734.389501	0.639373
734.720156	0.649105
735.050762	0.657347
735.381320	0.657395
735.711831	0.667279
736.042293	0.671957
736.372707	0.667286
736.703073	0.672102
737.033391	0.674166
737.363661	0.671412
737.693883	0.667019
738.024056	0.665940
738.354182	0.666213
738.684260	0.655302
739.014290	0.651551
739.344272	0.653127
739.674207	0.645924
740.004093	0.645002
740.333931	0.646254
740.663722	0.646272
740.993464	0.646793
741.323159	0.650145
741.652806	0.655465
741.982405	0.659292
742.311956	0.664290
742.641460	0.666779
742.970915	0.670191
743.300323	0.677599
743.629683	0.684509
743.958996	0.686204
744.288260	0.690108
744.617477	0.696643
744.946647	0.698249
745.275768	0.703076
745.604842	0.703074
745.933869	0.713026
746.262847	0.713997
746.591778	0.707561
746.920662	0.713935
747.249498	0.720494
747.578286	0.710737
747.907027	0.707001
748.235720	0.707891
748.564365	0.702435
748.892963	0.702543
749.221514	0.705745
749.550017	0.710676
749.878473	0.710087
750.206881	0.716937
750.535242	0.718141
750.863555	0.717758
751.191821	0.720054
751.520039	0.721166
751.848210	0.726244
752.176334	0.719019
752.504411	0.718318
752.832440	0.726913
753.160421	0.731056
753.488356	0.728490
753.816243	0.726038
754.144082	0.734251
754.471875	0.738851
754.799620	0.733285
755.127318	0.735007
755.454969	0.734493
755.782572	0.734483
756.110129	0.738849
756.437638	0.741428
756.765100	0.738600
757.092515	0.736776
757.419882	0.734556
757.747203	0.740894
758.074477	0.739575
758.401703	0.737334
758.728882	0.732435
759.056014	0.731248
759.383099	0.730936
759.710138	0.731755
760.037129	0.727864
760.364073	0.721679
760.690970	0.724378
761.017820	0.729515
761.344623	0.725574
761.671379	0.716360
761.998088	0.704313
762.324751	0.682301
762.651366	0.641419
762.977935	0.575141
763.304456	0.523228
763.630931	0.513519
763.957359	0.552380
764.283740	0.596960
764.610074	0.623741
764.936362	0.653992
765.262602	0.681562
765.588796	0.701638
765.914943	0.720051
766.241044	0.737578
766.567097	0.744186
766.893104	0.752796
767.219064	0.760434
767.544978	0.767372
767.870845	0.780428
768.196665	0.783392
768.522438	0.781722
768.848165	0.782107
769.173846	0.791966
769.499479	0.796054
769.825066	0.799834
770.150607	0.803531
770.476101	0.799509
770.801548	0.800250
771.126949	0.812601
771.452303	0.815162
771.777611	0.815107
772.102872	0.814371
772.428087	0.819879
772.753256	0.823168
773.078378	0.824879
773.403453	0.833682
773.728482	0.838343
774.053465	0.831595
774.378401	0.834768
774.703291	0.843222
775.028135	0.842110
775.352932	0.844803
775.677683	0.848237
776.002388	0.848578
776.327046	0.847399
776.651658	0.851498
776.976224	0.854312
777.300743	0.854800
777.625216	0.857288
777.949643	0.858099
778.274024	0.858259
778.598359	0.860756
778.922647	0.858347
779.246889	0.859460
779.571086	0.863140
779.895236	0.864878
780.219339	0.862667
780.543397	0.859873
780.867409	0.858965
781.191374	0.860307
781.515294	0.861175
781.839167	0.860864
782.162995	0.863805
782.486776	0.860746
782.810511	0.861784
783.134201	0.865818
783.457844	0.863483
783.781441	0.866014
784.104993	0.871651
784.428498	0.870912
784.751958	0.867707
785.075372	0.870028
785.398739	0.873680
785.722061	0.870790
786.045337	0.865539
786.368568	0.870870
786.691752	0.873782
787.014891	0.859389
787.337983	0.850609
787.661030	0.843007
787.984031	0.825101
788.306987	0.811893
788.629897	0.815082
788.952760	0.819176
789.275579	0.823267
789.598351	0.838083
789.921078	0.851668
790.243759	0.852241
790.566395	0.857530
790.888984	0.864629
791.211529	0.869958
791.534027	0.873587
791.856480	0.874789
792.178888	0.880747
792.501249	0.882670
792.823566	0.883800
793.145836	0.885224
793.468062	0.886568
793.790241	0.885672
794.112375	0.884499
794.434464	0.880725
794.756507	0.879497
795.078505	0.879882
795.400457	0.873318
795.722364	0.862344
796.044226	0.854403
796.366042	0.853845
796.687812	0.856575
797.009538	0.853847
797.331218	0.856103
797.652852	0.862053
797.974442	0.866210
798.295986	0.865694
798.617484	0.868163
798.938938	0.872898
799.260346	0.878088
799.581709	0.878489
799.903026	0.882303
800.224299	0.882127
800.545526	0.886191
800.866708	0.890469
801.187845	0.894088
801.508936	0.893450
801.829983	0.891273
802.150984	0.893852
802.471940	0.900350
802.792851	0.899168
803.113717	0.899487
803.434538	0.897347
803.755314	0.899599
804.076045	0.900566
804.396731	0.901994
804.717372	0.901489
805.037967	0.903392
805.358518	0.900617
805.679024	0.897813
805.999485	0.896935
806.319901	0.898793
806.640272	0.899396
806.960598	0.897951
807.280879	0.895699
807.601115	0.893271
807.921306	0.897299
808.241453	0.897166
808.561554	0.895312
808.881611	0.896038
809.201623	0.897941
809.521590	0.897283
809.841513	0.898738
810.161390	0.898275
810.481223	0.898725
810.801011	0.902428
811.120755	0.904717
811.440453	0.902863
811.760107	0.901860
812.079716	0.900923
812.399281	0.904800
812.718801	0.906973
813.038276	0.909295
813.357707	0.907072
813.677093	0.904728
813.996434	0.908371
814.315731	0.910287
814.634983	0.910875
814.954191	0.909787
815.273354	0.906388
815.592473	0.902935
815.911547	0.903133
816.230577	0.900216
816.549562	0.897403
816.868502	0.898687
817.187399	0.894789
817.506250	0.889637
817.825058	0.891518
818.143821	0.888514
818.462539	0.883388
818.781213	0.875441
819.099843	0.864218
819.418429	0.849308
819.736970	0.831911
820.055466	0.812688
820.373919	0.786650
820.692327	0.755002
821.010691	0.721046
821.329011	0.645226
821.647286	0.531835
821.965517	0.419134
822.283704	0.376542
822.601847	0.378615
822.919945	0.413978
823.237999	0.446606
823.556010	0.492314
823.873976	0.547685
824.191897	0.598456
824.509775	0.639146
824.827609	0.684496
825.145398	0.707542
825.463144	0.709373
825.780845	0.692197
826.098502	0.673357
826.416116	0.629453
826.733685	0.585654
827.051210	0.577788
827.368692	0.591333
827.686129	0.628311
828.003522	0.680479
828.320872	0.727183
828.638177	0.771131
828.955439	0.803209
829.272656	0.824564
829.589830	0.840963
829.906960	0.856704
830.224046	0.868761
830.541088	0.879432
830.858086	0.883202
831.175041	0.889035
831.491952	0.889914
831.808819	0.885153
832.125642	0.879656
832.442421	0.863242
832.759157	0.842327
833.075849	0.797314
833.392497	0.734852
833.709101	0.694270
834.025662	0.703970
834.342179	0.735060
834.658653	0.774159
834.975083	0.809640
835.291469	0.835559
835.607811	0.856837
835.924110	0.872876
836.240366	0.888887
836.556578	0.902237
836.872746	0.911294
837.188871	0.916454
837.504952	0.921830
837.820990	0.926041
838.136984	0.927344
838.452935	0.931295
838.768842	0.932579
839.084706	0.926083
839.400526	0.901622
839.716303	0.861558
840.032037	0.838833
840.347727	0.842993
840.663373	0.860725
840.978977	0.881718
841.294537	0.904013
841.610054	0.920269
841.925527	0.927902
842.240957	0.933414
842.556344	0.941585
842.871687	0.947171
843.186987	0.951241
843.502244	0.950865
843.817458	0.952534
844.132629	0.956776
844.447756	0.962441
844.762840	0.962238
845.077881	0.960044
845.392879	0.960461
845.707833	0.962716
846.022745	0.965651
846.337613	0.965499
846.652438	0.966397
846.967221	0.964999
847.281960	0.966324
847.596656	0.969551
847.911309	0.966670
848.225919	0.968245
848.540485	0.968521
848.855009	0.969153
849.169490	0.968655
849.483928	0.969946
849.798323	0.970097
850.112675	0.970672
850.426984	0.969865
850.741251	0.971193
851.055474	0.970954
851.369654	0.967687
851.683792	0.970292
851.997887	0.970206
852.311938	0.971552
852.625947	0.970986
852.939914	0.968690
853.253837	0.968990
853.567718	0.972345
853.881555	0.972379
854.195350	0.968665
854.509103	0.970573
854.822812	0.971160
855.136479	0.970968
855.450103	0.971434
855.763685	0.969299
856.077224	0.969934
856.390720	0.971877
856.704173	0.971200
857.017584	0.969035
857.330953	0.968586
857.644278	0.968656
857.957561	0.969403
858.270802	0.969339
858.584000	0.968679
858.897155	0.967270
859.210268	0.968010
859.523339	0.968580
859.836367	0.970687
860.149352	0.971838
860.462295	0.970013
860.775195	0.971359
861.088054	0.969511
861.400869	0.970150
861.713642	0.970604
862.026373	0.970884
862.339062	0.971978
862.651708	0.967737
862.964312	0.968253
863.276873	0.969885
863.589392	0.969496
863.901869	0.967931
864.214303	0.965148
864.526696	0.965415
864.839045	0.964325
865.151353	0.962522
865.463619	0.964125
865.775842	0.963063
866.088023	0.962857
866.400162	0.963938
866.712258	0.963799
867.024313	0.963275
867.336325	0.963600
867.648296	0.965034
867.960224	0.962363
868.272110	0.962269
868.583954	0.965495
868.895755	0.964229
869.207515	0.962759
869.519233	0.960705
869.830909	0.962222
870.142542	0.963384
870.454134	0.962221
870.765684	0.961600
871.077191	0.959611
871.388657	0.960682
871.700081	0.959348
872.011463	0.960076
872.322803	0.958734
872.634101	0.957169
872.945357	0.956633
873.256571	0.954960
873.567744	0.953954
873.878874	0.955804
874.189963	0.953423
874.501010	0.952718
874.812015	0.951537
875.122979	0.952651
875.433900	0.954950
875.744780	0.956003
876.055618	0.953010
876.366415	0.952426
876.677169	0.951215
876.987882	0.953041
877.298554	0.953106
877.609183	0.948811
877.919771	0.946802
878.230317	0.944405
878.540822	0.941346
878.851285	0.937386
879.161707	0.930222
879.472087	0.918522
879.782425	0.901135
880.092722	0.869133
880.402977	0.818828
880.713191	0.759434
881.023363	0.702325
881.333494	0.669922
881.643583	0.642076
881.953631	0.641054
882.263637	0.669965
882.573602	0.709392
882.883526	0.733172
883.193408	0.756242
883.503248	0.777540
883.813048	0.803999
884.122806	0.833341
884.432522	0.856701
884.742197	0.875270
885.051831	0.885790
885.361424	0.894253
885.670975	0.906368
885.980485	0.915974
886.289954	0.922268
886.599382	0.927055
886.908768	0.930587
887.218113	0.936390
887.527417	0.940740
887.836680	0.943378
888.145901	0.946520
888.455082	0.948554
888.764221	0.952253
889.073319	0.953652
889.382376	0.953936
889.691392	0.955785
890.000366	0.954796
890.309300	0.955576
890.618193	0.955452
890.927044	0.953365
891.235855	0.954151
891.544625	0.952111
891.853353	0.953585
892.162041	0.951597
892.470687	0.943822
892.779293	0.939943
893.087858	0.936339
893.396381	0.928912
893.704864	0.916946
894.013306	0.893600
894.321707	0.867946
894.630068	0.853917
894.938387	0.849314
895.246665	0.850512
895.554903	0.862692
895.863100	0.874857
896.171256	0.891358
896.479371	0.910604
896.787446	0.923011
897.095480	0.928200
897.403473	0.931413
897.711425	0.934840
898.019336	0.942864
898.327207	0.945512
898.635038	0.947299
898.942827	0.948721
899.250576	0.950341
899.558284	0.953718
899.865952	0.955668
900.173579	0.956273
900.481165	0.957832
900.788711	0.961655
901.096216	0.961397
901.403681	0.962904
901.711105	0.965070
902.018489	0.965149
902.325832	0.963409
902.633135	0.963805
902.940397	0.957769
903.247619	0.945390
903.554800	0.921254
903.861941	0.884320
904.169041	0.848555
904.476101	0.833224
904.783121	0.833554
905.090100	0.849245
905.397039	0.869541
905.703938	0.890642
906.010796	0.910314
906.317614	0.926168
906.624391	0.936141
906.931129	0.946443
907.237826	0.954776
907.544483	0.961273
907.851099	0.964335
908.157675	0.969577
908.464211	0.972255
908.770707	0.974128
909.077163	0.976093
909.383578	0.974701
909.689954	0.976662
909.996289	0.976189
910.302584	0.978547
910.608839	0.980726
910.915054	0.980496
911.221229	0.978189
911.527363	0.978444
911.833458	0.978374
912.139513	0.979326
912.445527	0.977083
912.751502	0.975049
913.057436	0.972353
913.363331	0.971386
913.669186	0.967845
913.975000	0.963984
914.280775	0.957817
914.586510	0.950936
914.892205	0.938750
915.197859	0.918018
915.503475	0.890626
915.809050	0.872465
916.114585	0.869053
916.420081	0.866607
916.725536	0.863097
917.030952	0.869804
917.336328	0.882379
917.641665	0.897826
917.946961	0.912393
918.252218	0.923324
918.557435	0.931701
918.862612	0.939375
919.167750	0.945368
919.472848	0.948999
919.777906	0.955097
920.082925	0.959814
920.387904	0.963734
920.692843	0.965189
920.997743	0.965352
921.302603	0.968973
921.607423	0.971207
921.912204	0.972241
922.216946	0.973335
922.521647	0.974441
922.826310	0.975940
923.130932	0.977732
923.435516	0.979471
923.740059	0.981180
924.044564	0.979378
924.349028	0.981777
924.653454	0.983781
924.957840	0.985632
925.262186	0.985323
925.566493	0.985438
925.870761	0.985135
926.174989	0.986459
926.479178	0.988143
926.783328	0.988429
927.087438	0.989736
927.391509	0.987802
927.695541	0.990863
927.999533	0.989866
928.303486	0.990196
928.607400	0.991430
928.911275	0.990839
929.215110	0.989767
929.518906	0.991287
929.822663	0.989676
930.126381	0.992538
930.430060	0.990464
930.733699	0.990980
931.037299	0.989814
931.340861	0.991502
931.644383	0.989056
931.947866	0.990069
932.251309	0.992597
932.554714	0.991155
932.858080	0.990486
933.161407	0.991222
933.464694	0.991353
933.767943	0.990369
934.071153	0.992012
934.374323	0.991952
934.677455	0.991634
934.980548	0.991365
935.283602	0.990594
935.586617	0.991256
935.889593	0.990826
936.192530	0.990817
936.495428	0.990925
936.798287	0.991038
937.101108	0.990990
937.403890	0.988560
937.706632	0.988916
938.009336	0.988265
938.312002	0.986232
938.614628	0.985505
938.917216	0.985383
939.219765	0.982146
939.522275	0.984757
939.824747	0.984284
940.127179	0.984220
940.429573	0.984972
940.731929	0.984667
941.034246	0.985475
941.336524	0.987466
941.638763	0.987629
941.940964	0.986950
942.243126	0.987733
942.545250	0.989216
942.847335	0.988933
943.149381	0.989033
943.451389	0.989150
943.753359	0.989188
944.055290	0.991870
944.357182	0.990450
944.659036	0.988631
944.960851	0.990640
945.262628	0.990218
945.564367	0.991337
945.866067	0.989205
946.167729	0.991107
946.469352	0.990412
946.770937	0.990761
947.072484	0.991443
947.373992	0.991037
947.675462	0.990916
947.976893	0.990607
948.278286	0.989915
948.579641	0.990914
948.880958	0.991784
949.182236	0.991599
949.483476	0.991101
949.784678	0.991101
950.085841	0.992757
950.386967	0.991525
950.688054	0.989635
950.989103	0.991877
951.290114	0.989677
951.591087	0.990553
951.892021	0.990358
952.192917	0.989438
952.493776	0.988552
952.794596	0.988230
953.095378	0.989021
953.396122	0.988662
953.696828	0.987908
953.997496	0.989937
954.298126	0.991296
954.598718	0.992013
954.899272	0.992679
955.199788	0.989937
955.500266	0.993520
955.800706	0.992870
956.101108	0.993234
956.401472	0.993760
956.701798	0.993524
957.002087	0.993508
957.302337	0.993840
957.602550	0.995341
957.902724	0.994716
958.202861	0.994915
958.502960	0.994815
958.803022	0.995245
959.103045	0.996509
959.403031	0.996304
959.702979	0.994855
960.002889	0.995528
960.302762	0.994604
960.602596	0.994993
960.902393	0.995476
961.202153	0.998066
961.501875	0.996797
961.801559	0.995435
962.101205	0.995958
962.400814	0.996596
962.700385	0.996491
962.999918	0.996116
963.299414	0.997205
963.598873	0.995815
963.898293	0.996760
964.197677	0.995811
964.497022	0.996813
964.796331	0.996821
965.095601	0.998011
965.394835	0.996494
965.694030	0.996506
965.993189	0.996760
966.292309	0.995760
966.591393	0.997761
966.890439	0.998438
967.189447	0.997463
967.488419	0.997987
967.787353	0.996551
968.086249	0.996843
968.385108	0.996636
968.683930	0.997540
968.982714	0.997595
969.281462	0.996885
969.580172	0.996875
969.878844	0.996628
970.177480	0.996674
970.476078	0.997966
970.774639	0.996675
971.073162	0.997457
971.371649	0.997113
971.670098	0.995994
971.968510	0.997144
972.266885	0.996164
972.565223	0.995579
972.863524	0.996057
973.161788	0.997571
973.460014	0.997687
973.758204	0.996138
974.056356	0.995684
974.354471	0.994639
974.652550	0.995254
974.950591	0.996570
975.248595	0.997533
975.546563	0.997153
975.844493	0.998458
976.142386	0.996248
976.440243	0.996757
976.738062	0.996222
977.035845	0.998713
977.333590	0.996476
977.631299	0.998153
977.928971	0.996537
978.226606	0.997087
978.524204	0.995292
978.821765	0.998633
979.119290	0.995789
979.416777	0.996681
979.714228	0.997948
980.011642	0.995066
980.309020	0.997626
980.606360	0.996931
980.903664	0.998823
981.200931	0.996697
981.498162	0.994932
981.795356	0.994774
982.092513	0.994654
982.389633	0.994543
982.686717	0.991917
982.983764	0.991753
983.280775	0.991160
983.577749	0.990166
983.874686	0.992637
984.171587	0.991480
984.468451	0.995310
984.765279	0.996260
985.062070	0.993158
985.358824	0.994489
985.655543	0.995450
985.952224	0.995580
986.248869	0.997308
986.545478	0.995803
986.842050	0.998646
987.138586	0.995606
987.435086	0.997898
987.731549	0.998509
988.027975	0.997469
988.324366	0.998433
988.620719	0.997903
988.917037	0.995938
989.213318	0.997166
989.509563	0.998561
989.805772	0.997645
990.101944	0.997986
990.398080	0.997465
990.694180	0.997781
990.990244	0.996981
991.286271	0.997467
991.582262	0.998217
991.878217	0.996943
992.174136	0.999228
992.470019	0.997605
992.765865	0.997978
993.061676	0.997580
993.357450	0.997461
993.653188	0.996766
993.948890	0.997261
994.244556	0.998280
994.540186	0.997474
994.835780	0.997330
995.131337	0.996709
995.426859	0.996716
995.722345	0.997508
996.017795	0.996259
996.313208	0.996333
996.608586	0.996808
996.903928	0.995935
997.199234	0.995321
997.494504	0.996637
997.789738	0.995185
998.084936	0.996563
998.380099	0.998397
998.675225	0.997410
998.970316	0.997585
999.265371	0.997745
999.560390	0.997852
999.855373	0.998473
1000.150320	0.997311
1000.445232	0.998732
1000.740108	0.997473
1001.034948	0.997449
1001.329752	0.998356
1001.624521	0.997934
1001.919254	0.999093
1002.213951	0.997969
1002.508613	0.997912
1002.803239	1.000152
1003.097829	0.999079
1003.392384	0.998627
1003.686903	0.998379
1003.981386	0.998264
1004.275834	0.997414
1004.570246	0.998399
1004.864623	0.999888
1005.158964	0.999480
1005.453270	0.999971
1005.747540	0.997178
1006.041775	0.998151
1006.335974	0.999007
1006.630138	1.000200
1006.924266	0.999464
1007.218359	1.000235
1007.512416	0.998617
1007.806438	0.999314
1008.100425	0.999830
1008.394376	0.998903
1008.688292	0.999336
1008.982172	1.000599
1009.276017	1.000222
1009.569827	0.999228
1009.863602	0.998090
1010.157341	0.998930
1010.451045	0.997977
1010.744714	0.999020
1011.038347	0.998589
1011.331945	0.999058
1011.625508	0.997017
1011.919036	0.999305
1012.212528	0.998622
1012.505986	0.997674
1012.799408	0.998448
1013.092795	0.998352
1013.386147	0.999109
1013.679464	0.998739
1013.972745	0.997025
1014.265992	0.997812
1014.559204	0.999571
1014.852380	0.998745
1015.145521	0.997849
1015.438628	0.999711
1015.731699	0.999477
1016.024736	0.998306
1016.317737	0.999120
1016.610703	0.996967
1016.903635	0.998937
1017.196531	0.999092
1017.489393	0.999353
1017.782219	0.998207
1018.075011	0.998686
1018.367768	0.998598
1018.660490	0.999894
1018.953177	0.999894
1019.245829	0.999894
