Dividing Wavelength (nm)	Counts (n)	Blue Motor Position (mm): 0.000000	Red Motor Position (mm): 20.800000	
326.493990	1.000817
326.888308	1.000817
327.282561	1.000817
327.676750	1.000695
328.070874	0.999610
328.464933	1.000962
328.858929	0.999804
329.252859	0.999777
329.646726	1.000145
330.040528	1.000320
330.434265	0.999399
330.827938	1.000555
331.221547	1.001424
331.615091	1.000098
332.008571	1.001061
332.401986	1.001415
332.795338	1.001015
333.188625	0.998518
333.581847	1.001199
333.975006	0.999269
334.368100	0.998565
334.761129	0.999791
335.154095	1.001185
335.546996	0.997876
335.939833	0.993716
336.332606	0.993755
336.725315	0.995329
337.117960	0.995734
337.510540	0.994615
337.903056	0.996354
338.295508	0.994434
338.687896	0.993715
339.080220	0.994867
339.472480	0.993685
339.864676	0.995063
340.256807	0.995721
340.648875	0.995418
341.040879	0.994966
341.432818	0.994420
341.824694	0.993799
342.216506	0.995664
342.608253	0.994887
342.999937	0.993889
343.391557	0.995033
343.783113	0.993799
344.174605	0.994748
344.566033	0.994898
344.957397	0.994679
345.348697	0.994523
345.739934	0.994518
346.131106	0.993162
346.522215	0.993264
346.913260	0.995225
347.304241	0.994656
347.695159	0.994354
348.086012	0.992508
348.476802	0.995156
348.867528	0.994930
349.258191	0.993450
349.648789	0.995016
350.039324	0.995271
350.429796	0.995208
350.820203	0.994000
351.210548	0.994369
351.600828	0.994232
351.991045	0.993636
352.381198	0.993280
352.771288	0.994640
353.161314	0.992365
353.551276	0.995388
353.941175	0.993680
354.331010	0.995291
354.720782	0.994439
355.110490	0.994316
355.500135	0.995464
355.889717	0.993307
356.279235	0.994314
356.668689	0.993901
357.058080	0.994707
357.447408	0.995985
357.836672	0.994619
358.225873	0.995024
358.615010	0.994743
359.004084	0.996609
359.393095	0.995213
359.782043	0.994783
360.170927	0.994961
360.559748	0.995418
360.948505	0.994871
361.337199	0.994844
361.725830	0.994178
362.114398	0.994076
362.502903	0.995145
362.891344	0.994646
363.279722	0.994730
363.668037	0.995059
364.056289	0.994483
364.444478	0.995506
364.832603	0.994089
365.220665	0.994516
365.608665	0.995437
365.996601	0.994920
366.384474	0.994411
366.772284	0.995204
367.160031	0.993226
367.547715	0.993658
367.935336	0.994699
368.322893	0.994937
368.710388	0.993486
369.097820	0.994929
369.485189	0.994310
369.872495	0.993758
370.259738	0.992219
370.646918	0.995655
371.034035	0.995623
371.421090	0.993971
371.808081	0.994339
372.195010	0.995254
372.581875	0.995243
372.968678	0.995010
373.355418	0.994712
373.742096	0.994179
374.128710	0.995455
374.515262	0.993973
374.901751	0.995548
375.288177	0.995020
375.674540	0.995157
376.060841	0.994243
376.447079	0.994343
376.833254	0.995364
377.219367	0.995799
377.605417	0.996094
377.991404	0.996305
378.377329	0.996016
378.763191	0.996076
379.148991	0.996716
379.534727	0.996279
379.920402	0.995673
380.306013	0.995418
380.691563	0.996946
381.077049	0.995948
381.462474	0.995814
381.847835	0.997161
382.233134	0.995501
382.618371	0.995457
383.003545	0.995748
383.388657	0.995784
383.773706	0.997294
384.158693	0.996796
384.543618	0.995490
384.928480	0.996637
385.313280	0.996612
385.698017	0.996376
386.082692	0.996321
386.467305	0.996136
386.851856	0.995803
387.236344	0.995339
387.620770	0.995163
388.005133	0.996539
388.389435	0.997499
388.773674	0.995908
389.157851	0.997169
389.541965	0.997044
389.926018	0.995716
390.310008	0.998031
390.693936	0.996797
391.077802	0.997177
391.461606	0.996215
391.845348	0.996919
392.229027	0.997766
392.612645	0.996702
392.996200	0.998274
393.379694	0.996711
393.763125	0.997219
394.146494	0.997210
394.529801	0.996746
394.913047	0.997033
395.296230	0.997570
395.679351	0.996754
396.062410	0.995904
396.445408	0.996728
396.828343	0.996076
397.211217	0.996556
397.594028	0.997921
397.976778	0.996349
398.359466	0.996289
398.742092	0.995553
399.124656	0.996449
399.507158	0.996911
399.889598	0.995937
400.271977	0.996622
400.654294	0.996782
401.036549	0.996746
401.418742	0.997470
401.800874	0.995881
402.182944	0.996586
402.564952	0.995673
402.946898	0.997773
403.328783	0.996427
403.710606	0.996165
404.092367	0.996554
404.474067	0.996831
404.855705	0.997204
405.237282	0.996858
405.618797	0.996538
406.000250	0.995307
406.381642	0.997352
406.762972	0.996703
407.144240	0.997316
407.525447	0.997694
407.906593	0.996157
408.287677	0.996892
408.668700	0.996194
409.049661	0.996286
409.430560	0.996273
409.811399	0.996180
410.192176	0.995964
410.572891	0.996272
410.953545	0.995936
411.334138	0.994848
411.714669	0.995756
412.095139	0.993949
412.475547	0.995893
412.855894	0.993813
413.236180	0.994599
413.616405	0.994279
413.996568	0.993473
414.376670	0.991873
414.756711	0.991210
415.136691	0.990478
415.516609	0.988574
415.896466	0.987666
416.276262	0.985051
416.655997	0.984666
417.035670	0.982112
417.415283	0.980937
417.794834	0.977994
418.174324	0.976474
418.553753	0.975277
418.933121	0.971552
419.312428	0.968666
419.691674	0.966089
420.070859	0.963297
420.449983	0.959959
420.829045	0.955853
421.208047	0.953006
421.586988	0.948850
421.965867	0.943666
422.344686	0.939126
422.723444	0.936466
423.102141	0.933945
423.480777	0.926604
423.859352	0.923476
424.237866	0.914941
424.616319	0.910230
424.994712	0.903165
425.373044	0.899530
425.751314	0.889801
426.129524	0.886274
426.507673	0.877781
426.885762	0.870786
427.263789	0.863458
427.641756	0.859732
428.019662	0.849573
428.397508	0.841846
428.775292	0.834646
429.153016	0.825998
429.530679	0.820443
429.908282	0.809758
430.285824	0.805541
430.663305	0.788980
431.040726	0.788097
431.418086	0.781726
431.795385	0.768725
432.172624	0.759788
432.549802	0.752052
432.926920	0.742577
433.303977	0.733167
433.680974	0.724041
434.057910	0.713447
434.434786	0.705053
434.811601	0.697700
435.188355	0.678976
435.565050	0.675704
435.941683	0.668230
436.318257	0.650584
436.694770	0.641495
437.071222	0.632219
437.447614	0.626631
437.823946	0.623360
438.200218	0.607867
438.576429	0.606440
438.952580	0.593016
439.328670	0.582928
439.704700	0.581355
440.080670	0.575390
440.456580	0.552242
440.832429	0.551667
441.208218	0.554051
441.583947	0.538904
441.959616	0.532735
442.335224	0.529900
442.710773	0.516655
443.086261	0.508027
443.461689	0.515456
443.837057	0.500948
444.212365	0.486940
444.587612	0.488163
444.962800	0.474559
445.337927	0.471028
445.712995	0.490248
446.088002	0.452186
446.462949	0.457754
446.837837	0.457702
447.212664	0.444195
447.587431	0.432463
447.962139	0.401970
448.336786	0.361021
448.711374	0.368065
449.085901	0.405817
449.460369	0.406823
449.834776	0.408014
450.209124	0.385865
450.583412	0.376353
450.957640	0.368010
451.331808	0.376618
451.705917	0.397737
452.079965	0.400290
452.453954	0.387264
452.827883	0.392597
453.201752	0.386910
453.575562	0.396575
453.949311	0.383818
454.323001	0.389337
454.696632	0.384126
455.070202	0.376468
455.443713	0.367507
455.817164	0.361935
456.190556	0.357460
456.563888	0.353275
456.937160	0.350249
457.310373	0.367080
457.683526	0.365507
458.056619	0.370985
458.429653	0.371494
458.802628	0.374225
459.175542	0.368605
459.548398	0.350936
459.921194	0.343280
460.293930	0.342896
460.666607	0.320568
461.039224	0.308570
461.411782	0.304442
461.784280	0.303193
462.156719	0.307278
462.529099	0.311685
462.901419	0.327564
463.273680	0.332038
463.645882	0.331311
464.018024	0.336989
464.390106	0.329917
464.762130	0.314824
465.134094	0.297566
465.505999	0.267052
465.877845	0.237275
466.249631	0.224486
466.621358	0.231981
466.993026	0.245581
467.364634	0.251861
467.736184	0.260292
468.107674	0.269040
468.479105	0.268253
468.850477	0.275073
469.221790	0.281766
469.593043	0.291802
469.964238	0.296519
470.335373	0.295966
470.706449	0.294303
471.077467	0.294498
471.448425	0.257366
471.819324	0.233138
472.190164	0.232004
472.560945	0.260793
472.931667	0.283159
473.302330	0.287010
473.672934	0.299092
474.043479	0.287224
474.413965	0.288926
474.784393	0.292411
475.154761	0.287610
475.525070	0.284644
475.895321	0.290424
476.265513	0.284279
476.635645	0.279920
477.005719	0.279652
477.375734	0.276781
477.745691	0.269930
478.115588	0.266099
478.485427	0.259814
478.855207	0.246694
479.224928	0.229309
479.594591	0.217431
479.964194	0.220834
480.333739	0.222138
480.703226	0.223594
481.072653	0.222188
481.442022	0.217719
481.811333	0.214080
482.180584	0.217762
482.549777	0.223132
482.918912	0.226119
483.287988	0.225904
483.657005	0.225624
484.025964	0.231938
484.394864	0.229264
484.763706	0.230175
485.132489	0.235021
485.501213	0.235895
485.869879	0.233776
486.238487	0.237342
486.607036	0.235170
486.975527	0.239636
487.343959	0.235527
487.712333	0.234693
488.080648	0.235922
488.448905	0.234922
488.817104	0.236509
489.185244	0.230836
489.553326	0.227961
489.921350	0.217816
490.289315	0.200270
490.657222	0.195271
491.025070	0.196642
491.392861	0.198607
491.760593	0.204236
492.128267	0.209780
492.495883	0.215272
492.863440	0.221703
493.230939	0.227823
493.598380	0.228976
493.965763	0.231419
494.333088	0.233456
494.700354	0.235206
495.067563	0.234177
495.434713	0.237323
495.801805	0.234885
496.168839	0.236451
496.535815	0.238016
496.902733	0.238098
497.269593	0.239548
497.636395	0.237316
498.003139	0.237418
498.369825	0.240454
498.736453	0.236989
499.103023	0.238330
499.469535	0.237906
499.835989	0.238252
500.202385	0.238826
500.568723	0.242206
500.935003	0.237533
501.301226	0.241478
501.667390	0.235938
502.033497	0.233730
502.399546	0.236997
502.765537	0.238728
503.131470	0.237111
503.497345	0.233506
503.863163	0.242047
504.228923	0.235136
504.594625	0.233798
504.960269	0.239160
505.325856	0.234874
505.691385	0.238715
506.056856	0.235735
506.422270	0.235063
506.787625	0.237446
507.152924	0.235024
507.518164	0.235303
507.883347	0.237197
508.248472	0.238844
508.613540	0.233871
508.978550	0.236216
509.343503	0.236690
509.708398	0.234227
510.073236	0.232124
510.438016	0.232247
510.802738	0.233051
511.167403	0.231810
511.532010	0.234053
511.896561	0.229124
512.261053	0.228423
512.625488	0.230180
512.989866	0.230495
513.354186	0.231114
513.718449	0.232745
514.082655	0.229221
514.446803	0.231521
514.810894	0.228805
515.174927	0.231595
515.538904	0.230890
515.902822	0.228326
516.266684	0.230501
516.630488	0.231595
516.994235	0.230397
517.357925	0.229153
517.721558	0.227697
518.085133	0.226821
518.448651	0.227051
518.812112	0.229292
519.175516	0.228893
519.538863	0.226548
519.902152	0.228230
520.265385	0.225068
520.628560	0.226734
520.991678	0.227246
521.354739	0.225998
521.717743	0.227269
522.080690	0.227779
522.443580	0.225269
522.806413	0.226201
523.169189	0.225509
523.531908	0.224199
523.894569	0.227934
524.257174	0.227924
524.619722	0.225537
524.982213	0.226741
525.344647	0.225540
525.707025	0.226601
526.069345	0.224991
526.431608	0.226327
526.793815	0.224234
527.155964	0.228287
527.518057	0.227235
527.880093	0.228274
528.242072	0.226983
528.603995	0.228910
528.965860	0.230694
529.327669	0.229376
529.689421	0.230229
530.051117	0.231224
530.412755	0.228718
530.774337	0.230887
531.135862	0.231224
531.497331	0.230786
531.858743	0.233704
532.220098	0.230222
532.581396	0.232783
532.942638	0.233236
533.303824	0.234368
533.664953	0.234174
534.026025	0.235710
534.387040	0.233863
534.747999	0.233803
535.108902	0.232948
535.469748	0.237437
535.830537	0.235466
536.191270	0.236071
536.551947	0.235358
536.912567	0.235550
537.273131	0.237316
537.633638	0.237348
537.994089	0.237593
538.354483	0.238667
538.714821	0.235781
539.075103	0.235636
539.435328	0.236048
539.795497	0.240115
540.155609	0.236503
540.515665	0.234672
540.875665	0.240563
541.235609	0.239211
541.595496	0.239058
541.955328	0.235620
542.315102	0.238259
542.674821	0.239312
543.034483	0.239198
543.394090	0.239138
543.753640	0.240764
544.113134	0.235684
544.472571	0.239119
544.831953	0.236043
545.191278	0.240046
545.550548	0.239485
545.909761	0.236636
546.268918	0.237097
546.628019	0.235602
546.987064	0.238304
547.346053	0.240040
547.704986	0.237772
548.063863	0.237871
548.422684	0.238533
548.781449	0.240196
549.140158	0.237914
549.498811	0.240788
549.857408	0.243784
550.215949	0.238733
550.574434	0.241467
550.932864	0.239669
551.291237	0.238263
551.649555	0.239737
552.007817	0.239540
552.366022	0.240176
552.724173	0.240615
553.082267	0.240620
553.440305	0.237638
553.798288	0.241964
554.156215	0.238981
554.514086	0.239252
554.871902	0.242260
555.229661	0.241786
555.587365	0.242157
555.945014	0.244528
556.302606	0.241800
556.660143	0.244139
557.017625	0.240704
557.375050	0.242923
557.732421	0.240143
558.089735	0.241892
558.446994	0.242129
558.804197	0.241034
559.161345	0.241103
559.518437	0.244586
559.875474	0.242526
560.232455	0.241752
560.589381	0.242975
560.946251	0.243077
561.303065	0.240441
561.659825	0.242204
562.016528	0.243608
562.373177	0.246427
562.729770	0.243542
563.086307	0.245841
563.442789	0.243664
563.799216	0.246256
564.155587	0.245294
564.511904	0.246341
564.868164	0.246473
565.224370	0.246430
565.580520	0.247965
565.936615	0.248060
566.292654	0.251034
566.648638	0.247664
567.004567	0.248985
567.360441	0.249137
567.716260	0.251236
568.072023	0.249099
568.427732	0.249751
568.783385	0.252511
569.138982	0.250379
569.494525	0.249953
569.850013	0.252850
570.205445	0.251165
570.560823	0.253646
570.916145	0.255820
571.271412	0.254136
571.626625	0.255510
571.981782	0.256136
572.336884	0.256734
572.691931	0.256707
573.046923	0.257655
573.401860	0.258809
573.756743	0.260592
574.111570	0.259703
574.466342	0.260370
574.821059	0.259210
575.175722	0.261845
575.530330	0.261756
575.884882	0.262037
576.239380	0.264054
576.593823	0.264733
576.948211	0.264198
577.302544	0.267198
577.656823	0.267078
578.011047	0.267093
578.365216	0.267794
578.719330	0.269559
579.073389	0.269603
579.427394	0.270863
579.781344	0.271385
580.135239	0.272910
580.489080	0.272712
580.842866	0.275452
581.196597	0.275728
581.550273	0.274129
581.903895	0.275136
582.257463	0.273257
582.610975	0.277259
582.964434	0.275975
583.317837	0.278540
583.671186	0.278914
584.024481	0.278943
584.377721	0.281485
584.730906	0.281906
585.084037	0.281324
585.437113	0.282897
585.790135	0.282581
586.143103	0.285564
586.496016	0.286313
586.848874	0.284278
587.201679	0.284853
587.554428	0.288294
587.907124	0.286712
588.259765	0.287388
588.612352	0.288203
588.964884	0.291779
589.317362	0.291171
589.669786	0.291230
590.022155	0.289750
590.374470	0.289069
590.726731	0.291240
591.078937	0.295771
591.431090	0.292088
591.783188	0.296502
592.135232	0.296756
592.487222	0.296788
592.839157	0.294830
593.191038	0.297329
593.542866	0.299233
593.894639	0.302514
594.246358	0.300591
594.598022	0.300373
594.949633	0.303683
595.301190	0.304518
595.652692	0.303651
596.004141	0.300358
596.355535	0.307982
596.706876	0.308241
597.058162	0.310826
597.409395	0.308015
597.760573	0.305917
598.111698	0.309133
598.462768	0.309424
598.813785	0.310916
599.164748	0.312434
599.515657	0.312614
599.866511	0.315862
600.217312	0.311017
600.568060	0.316117
600.918753	0.312872
601.269392	0.313672
601.619978	0.317054
601.970510	0.314638
602.320988	0.314674
602.671412	0.312462
603.021783	0.315232
603.372100	0.316178
603.722363	0.315919
604.072572	0.316882
604.422728	0.316607
604.772830	0.318543
605.122878	0.318360
605.472872	0.318373
605.822813	0.316862
606.172701	0.319548
606.522534	0.317435
606.872314	0.317176
607.222041	0.318155
607.571714	0.316382
607.921333	0.317542
608.270899	0.317399
608.620411	0.314123
608.969870	0.318115
609.319276	0.317969
609.668627	0.317989
610.017926	0.316611
610.367171	0.315293
610.716362	0.316136
611.065500	0.315864
611.414585	0.314721
611.763616	0.315705
612.112594	0.315937
612.461518	0.315102
612.810389	0.313007
613.159207	0.315204
613.507971	0.317188
613.856682	0.312816
614.205340	0.314425
614.553945	0.311162
614.902496	0.315152
615.250994	0.313136
615.599439	0.313885
615.947830	0.313256
616.296169	0.314510
616.644454	0.313599
616.992686	0.313981
617.340864	0.311705
617.688990	0.315016
618.037063	0.312190
618.385082	0.314169
618.733048	0.310427
619.080961	0.312693
619.428821	0.312189
619.776628	0.311936
620.124382	0.313694
620.472083	0.313776
620.819731	0.313497
621.167326	0.317447
621.514868	0.317341
621.862357	0.321336
622.209793	0.321469
622.557176	0.322969
622.904506	0.323976
623.251783	0.326576
623.599007	0.328987
623.946179	0.328680
624.293297	0.330380
624.640363	0.333940
624.987376	0.334919
625.334336	0.337114
625.681243	0.339438
626.028097	0.340300
626.374899	0.340832
626.721647	0.341353
627.068343	0.344587
627.414987	0.345930
627.761577	0.348018
628.108115	0.345962
628.454600	0.351272
628.801032	0.348306
629.147412	0.350829
629.493739	0.350974
629.840014	0.354226
630.186236	0.351977
630.532405	0.356881
630.878521	0.354409
631.224585	0.356764
631.570597	0.359903
631.916556	0.358720
632.262462	0.358965
632.608316	0.361309
632.954117	0.361762
633.299866	0.362945
633.645562	0.363141
633.991206	0.367585
634.336797	0.370269
634.682336	0.372483
635.027823	0.374273
635.373257	0.375024
635.718639	0.378923
636.063968	0.377157
636.409245	0.383631
636.754470	0.383454
637.099642	0.386109
637.444762	0.389582
637.789829	0.388547
638.134845	0.391892
638.479808	0.392954
638.824719	0.392394
639.169577	0.396849
639.514383	0.395684
639.859137	0.400096
640.203839	0.399884
640.548489	0.400515
640.893086	0.401685
641.237632	0.403306
641.582125	0.401881
641.926566	0.402927
642.270955	0.403729
642.615292	0.403759
642.959576	0.402972
643.303809	0.403956
643.647990	0.402731
643.992118	0.403598
644.336195	0.407565
644.680219	0.405323
645.024192	0.406311
645.368112	0.399893
645.711981	0.399271
646.055797	0.394442
646.399562	0.396528
646.743274	0.388556
647.086935	0.386267
647.430544	0.386220
647.774101	0.384444
648.117606	0.385366
648.461059	0.385271
648.804460	0.387259
649.147810	0.392622
649.491108	0.394732
649.834354	0.396279
650.177548	0.400980
650.520690	0.406534
650.863781	0.407463
651.206820	0.407619
651.549807	0.412149
651.892742	0.415808
652.235626	0.414962
652.578458	0.416432
652.921238	0.422252
653.263967	0.420331
653.606644	0.424179
653.949269	0.423871
654.291843	0.427758
654.634365	0.424567
654.976836	0.427656
655.319255	0.427905
655.661622	0.429805
656.003938	0.429814
656.346203	0.432337
656.688416	0.430270
657.030577	0.433704
657.372687	0.435311
657.714746	0.436607
658.056753	0.433697
658.398708	0.436664
658.740612	0.438458
659.082465	0.434403
659.424266	0.435382
659.766016	0.434370
660.107715	0.437296
660.449362	0.436228
660.790958	0.436736
661.132503	0.436989
661.473996	0.435073
661.815438	0.435733
662.156829	0.436165
662.498168	0.436770
662.839456	0.438113
663.180693	0.436022
663.521879	0.436207
663.863013	0.436902
664.204097	0.435683
664.545129	0.432280
664.886110	0.432531
665.227040	0.429876
665.567918	0.432053
665.908746	0.430283
666.249522	0.430296
666.590248	0.431148
666.930922	0.429651
667.271545	0.428883
667.612118	0.428675
667.952639	0.430139
668.293109	0.427860
668.633528	0.431465
668.973896	0.431356
669.314213	0.432144
669.654480	0.433331
669.994695	0.433666
670.334859	0.434524
670.674973	0.434145
671.015035	0.434718
671.355047	0.434547
671.695008	0.436019
672.034918	0.437394
672.374777	0.437449
672.714585	0.438360
673.054342	0.437942
673.394049	0.438030
673.733705	0.435996
674.073310	0.437053
674.412864	0.440186
674.752368	0.440455
675.091820	0.441151
675.431223	0.445266
675.770574	0.445049
676.109875	0.448009
676.449125	0.448103
676.788324	0.450493
677.127473	0.455728
677.466571	0.455282
677.805619	0.457287
678.144616	0.458313
678.483562	0.460234
678.822458	0.462520
679.161303	0.463516
679.500098	0.463830
679.838842	0.465754
680.177535	0.465319
680.516179	0.464025
680.854771	0.463000
681.193314	0.456019
681.531805	0.447866
681.870247	0.436386
682.208638	0.428891
682.546978	0.427680
682.885268	0.429468
683.223508	0.435441
683.561697	0.439286
683.899836	0.441850
684.237925	0.445174
684.575963	0.447453
684.913951	0.450510
685.251889	0.446557
685.589776	0.448358
685.927614	0.451383
686.265401	0.445111
686.603137	0.446470
686.940824	0.441152
687.278460	0.439471
687.616046	0.437984
687.953582	0.433424
688.291068	0.434639
688.628504	0.430012
688.965889	0.432440
689.303224	0.436941
689.640510	0.440438
689.977745	0.446610
690.314930	0.454153
690.652065	0.458186
690.989150	0.466510
691.326185	0.472468
691.663170	0.477688
692.000105	0.484397
692.336990	0.491406
692.673825	0.494061
693.010610	0.501018
693.347345	0.506514
693.684030	0.507409
694.020665	0.512629
694.357251	0.520918
694.693786	0.520788
695.030272	0.524890
695.366707	0.528647
695.703093	0.532074
696.039429	0.529436
696.375716	0.531263
696.711952	0.534044
697.048139	0.536310
697.384276	0.538148
697.720363	0.536345
698.056400	0.535707
698.392388	0.541062
698.728326	0.544560
699.064214	0.546549
699.400053	0.547905
699.735842	0.551815
700.071581	0.554374
700.407270	0.556895
700.742910	0.559747
701.078501	0.565999
701.414042	0.566012
701.749533	0.569398
702.084974	0.578505
702.420366	0.570401
702.755709	0.578865
703.091002	0.585949
703.426246	0.579231
703.761440	0.585195
704.096584	0.589943
704.431679	0.587433
704.766725	0.589278
705.101721	0.590895
705.436668	0.587621
705.771565	0.593664
706.106413	0.590178
706.441212	0.586228
706.775961	0.584645
707.110661	0.587650
707.445311	0.583838
707.779913	0.580931
708.114465	0.579588
708.448967	0.575908
708.783421	0.568092
709.117825	0.562486
709.452180	0.562554
709.786485	0.556200
710.120742	0.546280
710.454949	0.548846
710.789107	0.540646
711.123216	0.531298
711.457275	0.533477
711.791286	0.524876
712.125247	0.523027
712.459159	0.533429
712.793023	0.526657
713.126837	0.530662
713.460602	0.531330
713.794318	0.540075
714.127985	0.538999
714.461602	0.549294
714.795171	0.552038
715.128691	0.560405
715.462162	0.567904
715.795584	0.573223
716.128957	0.576084
716.462281	0.582946
716.795556	0.586098
717.128782	0.591525
717.461960	0.601250
717.795088	0.599379
718.128167	0.605711
718.461198	0.614787
718.794180	0.614754
719.127113	0.617524
719.459997	0.621307
719.792833	0.627560
720.125619	0.629015
720.458357	0.634697
720.791046	0.634255
721.123686	0.638365
721.456278	0.644322
721.788821	0.641707
722.121315	0.646304
722.453761	0.650533
722.786158	0.647938
723.118506	0.644288
723.450805	0.651983
723.783056	0.648798
724.115259	0.646232
724.447412	0.645497
724.779518	0.647604
725.111574	0.645676
725.443582	0.641805
725.775542	0.643651
726.107453	0.635339
726.439315	0.635376
726.771129	0.634338
727.102895	0.627387
727.434612	0.619370
727.766281	0.617387
728.097901	0.617608
728.429473	0.617064
728.760996	0.615275
729.092471	0.615466
729.423897	0.619551
729.755276	0.617990
730.086606	0.618640
730.417887	0.613228
730.749120	0.604346
731.080305	0.594812
731.411442	0.590439
731.742530	0.594956
732.073570	0.594826
732.404562	0.587154
732.735506	0.588472
733.066401	0.592930
733.397249	0.601977
733.728048	0.613628
734.058798	0.626884
734.389501	0.637394
734.720156	0.646871
735.050762	0.655077
735.381320	0.655927
735.711831	0.665409
736.042293	0.669372
736.372707	0.665737
736.703073	0.670393
737.033391	0.671966
737.363661	0.669241
737.693883	0.664739
738.024056	0.663909
738.354182	0.663364
738.684260	0.653391
739.014290	0.648485
739.344272	0.649644
739.674207	0.643488
740.004093	0.642612
740.333931	0.643789
740.663722	0.643465
740.993464	0.643578
741.323159	0.647669
741.652806	0.652402
741.982405	0.657167
742.311956	0.663044
742.641460	0.664084
742.970915	0.668235
743.300323	0.675241
743.629683	0.682019
743.958996	0.683701
744.288260	0.688428
744.617477	0.694149
744.946647	0.695553
745.275768	0.700919
745.604842	0.700216
745.933869	0.711505
746.262847	0.711184
746.591778	0.704738
746.920662	0.710789
747.249498	0.717473
747.578286	0.708395
747.907027	0.704666
748.235720	0.706216
748.564365	0.701106
748.892963	0.700706
749.221514	0.703317
749.550017	0.708423
749.878473	0.708103
750.206881	0.714469
750.535242	0.716012
750.863555	0.715655
751.191821	0.716847
751.520039	0.720108
751.848210	0.724749
752.176334	0.717130
752.504411	0.716570
752.832440	0.724373
753.160421	0.728842
753.488356	0.726548
753.816243	0.723910
754.144082	0.732817
754.471875	0.736182
754.799620	0.731912
755.127318	0.732507
755.454969	0.733233
755.782572	0.732314
756.110129	0.736925
756.437638	0.739804
756.765100	0.735555
757.092515	0.734359
757.419882	0.732683
757.747203	0.738418
758.074477	0.737435
758.401703	0.734258
758.728882	0.729619
759.056014	0.728001
759.383099	0.726968
759.710138	0.728922
760.037129	0.725196
760.364073	0.719064
760.690970	0.722338
761.017820	0.727776
761.344623	0.723400
761.671379	0.714104
761.998088	0.702819
762.324751	0.679508
762.651366	0.638587
762.977935	0.571472
763.304456	0.518623
763.630931	0.510075
763.957359	0.548486
764.283740	0.593753
764.610074	0.620645
764.936362	0.651506
765.262602	0.677620
765.588796	0.698969
765.914943	0.717506
766.241044	0.734824
766.567097	0.741771
766.893104	0.750753
767.219064	0.757940
767.544978	0.763871
767.870845	0.777349
768.196665	0.781311
768.522438	0.780251
768.848165	0.780975
769.173846	0.789941
769.499479	0.794343
769.825066	0.796894
770.150607	0.802846
770.476101	0.797815
770.801548	0.799225
771.126949	0.810455
771.452303	0.814499
771.777611	0.813506
772.102872	0.813316
772.428087	0.818020
772.753256	0.822182
773.078378	0.823029
773.403453	0.832589
773.728482	0.836422
774.053465	0.830928
774.378401	0.833310
774.703291	0.841969
775.028135	0.841704
775.352932	0.843708
775.677683	0.845312
776.002388	0.846727
776.327046	0.846002
776.651658	0.848592
776.976224	0.852563
777.300743	0.852184
777.625216	0.855422
777.949643	0.856689
778.274024	0.858447
778.598359	0.858289
778.922647	0.857478
779.246889	0.858401
779.571086	0.861119
779.895236	0.864579
780.219339	0.861369
780.543397	0.858121
780.867409	0.856248
781.191374	0.859086
781.515294	0.860397
781.839167	0.858734
782.162995	0.862886
782.486776	0.859853
782.810511	0.860724
783.134201	0.864928
783.457844	0.861301
783.781441	0.865525
784.104993	0.870710
784.428498	0.870384
784.751958	0.866297
785.075372	0.869539
785.398739	0.873029
785.722061	0.868876
786.045337	0.864302
786.368568	0.869390
786.691752	0.871473
787.014891	0.857545
787.337983	0.848987
787.661030	0.840798
787.984031	0.823714
788.306987	0.811510
788.629897	0.813343
788.952760	0.816517
789.275579	0.821186
789.598351	0.836550
789.921078	0.849702
790.243759	0.851923
790.566395	0.856577
790.888984	0.863762
791.211529	0.869936
791.534027	0.872095
791.856480	0.874043
792.178888	0.878604
792.501249	0.881914
792.823566	0.883151
793.145836	0.883624
793.468062	0.884053
793.790241	0.885868
794.112375	0.882931
794.434464	0.878605
794.756507	0.879270
795.078505	0.877033
795.400457	0.872453
795.722364	0.860404
796.044226	0.854013
796.366042	0.852699
796.687812	0.855793
797.009538	0.850964
797.331218	0.854843
797.652852	0.859697
797.974442	0.864116
798.295986	0.864834
798.617484	0.866832
798.938938	0.871404
799.260346	0.876744
799.581709	0.877769
799.903026	0.881183
800.224299	0.881068
800.545526	0.884751
800.866708	0.888393
801.187845	0.893810
801.508936	0.891881
801.829983	0.890676
802.150984	0.893220
802.471940	0.898522
802.792851	0.898332
803.113717	0.898484
803.434538	0.896185
803.755314	0.899261
804.076045	0.900640
804.396731	0.900383
804.717372	0.900464
805.037967	0.902237
805.358518	0.899684
805.679024	0.897208
805.999485	0.897062
806.319901	0.897347
806.640272	0.897570
806.960598	0.896657
807.280879	0.892598
807.601115	0.892973
807.921306	0.895780
808.241453	0.896419
808.561554	0.893577
808.881611	0.895037
809.201623	0.896727
809.521590	0.896245
809.841513	0.897705
810.161390	0.895284
810.481223	0.898364
810.801011	0.901724
811.120755	0.902521
811.440453	0.901923
811.760107	0.899964
812.079716	0.901590
812.399281	0.904284
812.718801	0.906429
813.038276	0.907200
813.357707	0.908168
813.677093	0.904024
813.996434	0.907460
814.315731	0.907720
814.634983	0.910956
814.954191	0.908592
815.273354	0.905295
815.592473	0.900677
815.911547	0.902566
816.230577	0.899870
816.549562	0.895441
816.868502	0.897257
817.187399	0.894061
817.506250	0.887576
817.825058	0.890192
818.143821	0.887088
818.462539	0.881159
818.781213	0.873730
819.099843	0.862351
819.418429	0.846701
819.736970	0.829393
820.055466	0.810308
820.373919	0.784215
820.692327	0.751252
821.010691	0.716691
821.329011	0.640118
821.647286	0.524354
821.965517	0.411185
822.283704	0.368310
822.601847	0.369622
822.919945	0.405602
823.237999	0.438672
823.556010	0.485980
823.873976	0.541368
824.191897	0.591968
824.509775	0.634242
824.827609	0.679270
825.145398	0.702185
825.463144	0.705575
825.780845	0.687429
826.098502	0.669254
826.416116	0.623189
826.733685	0.580082
827.051210	0.571075
827.368692	0.585145
827.686129	0.623068
828.003522	0.675438
828.320872	0.723375
828.638177	0.766751
828.955439	0.799797
829.272656	0.822373
829.589830	0.839069
829.906960	0.854466
830.224046	0.867550
830.541088	0.877477
830.858086	0.882049
831.175041	0.887512
831.491952	0.886681
831.808819	0.884213
832.125642	0.877131
832.442421	0.862163
832.759157	0.840531
833.075849	0.794096
833.392497	0.730914
833.709101	0.689756
834.025662	0.700074
834.342179	0.731210
834.658653	0.770014
834.975083	0.806490
835.291469	0.832489
835.607811	0.855192
835.924110	0.871176
836.240366	0.887324
836.556578	0.901705
836.872746	0.909333
837.188871	0.915861
837.504952	0.920357
837.820990	0.924374
838.136984	0.928049
838.452935	0.931360
838.768842	0.931800
839.084706	0.925833
839.400526	0.899540
839.716303	0.859984
840.032037	0.836905
840.347727	0.841039
840.663373	0.857578
840.978977	0.880200
841.294537	0.901866
841.610054	0.918500
841.925527	0.927218
842.240957	0.933176
842.556344	0.940007
842.871687	0.946206
843.186987	0.950589
843.502244	0.949705
843.817458	0.952377
844.132629	0.955934
844.447756	0.961081
844.762840	0.962277
845.077881	0.960341
845.392879	0.960805
845.707833	0.963318
846.022745	0.965063
846.337613	0.965444
846.652438	0.966453
846.967221	0.964272
847.281960	0.965620
847.596656	0.968067
847.911309	0.966141
848.225919	0.966926
848.540485	0.968520
848.855009	0.969130
849.169490	0.968918
849.483928	0.969608
849.798323	0.970666
850.112675	0.971070
850.426984	0.970321
850.741251	0.971130
851.055474	0.969551
851.369654	0.968914
851.683792	0.970123
851.997887	0.969941
852.311938	0.972336
852.625947	0.970400
852.939914	0.967990
853.253837	0.968876
853.567718	0.972141
853.881555	0.970969
854.195350	0.968333
854.509103	0.970769
854.822812	0.970539
855.136479	0.970566
855.450103	0.969820
855.763685	0.969716
856.077224	0.968538
856.390720	0.970681
856.704173	0.971101
857.017584	0.969117
857.330953	0.967464
857.644278	0.967410
857.957561	0.968566
858.270802	0.969308
858.584000	0.968085
858.897155	0.967138
859.210268	0.967428
859.523339	0.968499
859.836367	0.970748
860.149352	0.971218
860.462295	0.969906
860.775195	0.971082
861.088054	0.970209
861.400869	0.969888
861.713642	0.971145
862.026373	0.970184
862.339062	0.970824
862.651708	0.969140
862.964312	0.968192
863.276873	0.970146
863.589392	0.969437
863.901869	0.966206
864.214303	0.965463
864.526696	0.964688
864.839045	0.964294
865.151353	0.960856
865.463619	0.963063
865.775842	0.962187
866.088023	0.962494
866.400162	0.963051
866.712258	0.962827
867.024313	0.962431
867.336325	0.964418
867.648296	0.963493
867.960224	0.962132
868.272110	0.962871
868.583954	0.964538
868.895755	0.964279
869.207515	0.962271
869.519233	0.959866
869.830909	0.961791
870.142542	0.963286
870.454134	0.962317
870.765684	0.961145
871.077191	0.959561
871.388657	0.959707
871.700081	0.958238
872.011463	0.959471
872.322803	0.958739
872.634101	0.956812
872.945357	0.955635
873.256571	0.952766
873.567744	0.953102
873.878874	0.953903
874.189963	0.952855
874.501010	0.951878
874.812015	0.950941
875.122979	0.950852
875.433900	0.953760
875.744780	0.953779
876.055618	0.952963
876.366415	0.950473
876.677169	0.951046
876.987882	0.951865
877.298554	0.951721
877.609183	0.948079
877.919771	0.945033
878.230317	0.942664
878.540822	0.942324
878.851285	0.935927
879.161707	0.927634
879.472087	0.915520
879.782425	0.899406
880.092722	0.864514
880.402977	0.814030
880.713191	0.753541
881.023363	0.693758
881.333494	0.660617
881.643583	0.632938
881.953631	0.631575
882.263637	0.660502
882.573602	0.699479
882.883526	0.726097
883.193408	0.748342
883.503248	0.771686
883.813048	0.798749
884.122806	0.828081
884.432522	0.852114
884.742197	0.871275
885.051831	0.882216
885.361424	0.892481
885.670975	0.904196
885.980485	0.914425
886.289954	0.919945
886.599382	0.924690
886.908768	0.929490
887.218113	0.934621
887.527417	0.940098
887.836680	0.942058
888.145901	0.944035
888.455082	0.947487
888.764221	0.950525
889.073319	0.953275
889.382376	0.953807
889.691392	0.955432
890.000366	0.953697
890.309300	0.954247
890.618193	0.953571
890.927044	0.952302
891.235855	0.952875
891.544625	0.951483
891.853353	0.952853
892.162041	0.950717
892.470687	0.943748
892.779293	0.938530
893.087858	0.934924
893.396381	0.926598
893.704864	0.912697
894.013306	0.890243
894.321707	0.863173
894.630068	0.848867
894.938387	0.845000
895.246665	0.844755
895.554903	0.858680
895.863100	0.870233
896.171256	0.888374
896.479371	0.906706
896.787446	0.920155
897.095480	0.925551
897.403473	0.929405
897.711425	0.932954
898.019336	0.940873
898.327207	0.943471
898.635038	0.946522
898.942827	0.946646
899.250576	0.949133
899.558284	0.953249
899.865952	0.954079
900.173579	0.956199
900.481165	0.955373
900.788711	0.960621
901.096216	0.961526
901.403681	0.960806
901.711105	0.963266
902.018489	0.965053
902.325832	0.962857
902.633135	0.962855
902.940397	0.955978
903.247619	0.944988
903.554800	0.919286
903.861941	0.879083
904.169041	0.843950
904.476101	0.827008
904.783121	0.827958
905.090100	0.843456
905.397039	0.865503
905.703938	0.886877
906.010796	0.906699
906.317614	0.922766
906.624391	0.934591
906.931129	0.944741
907.237826	0.952750
907.544483	0.959715
907.851099	0.963485
908.157675	0.968227
908.464211	0.969065
908.770707	0.973520
909.077163	0.974648
909.383578	0.974808
909.689954	0.975692
909.996289	0.977399
910.302584	0.977831
910.608839	0.980708
910.915054	0.979560
911.221229	0.978472
911.527363	0.978220
911.833458	0.976404
912.139513	0.976764
912.445527	0.976007
912.751502	0.974577
913.057436	0.972958
913.363331	0.970653
913.669186	0.966889
913.975000	0.961486
914.280775	0.956809
914.586510	0.949635
914.892205	0.936432
915.197859	0.914680
915.503475	0.886904
915.809050	0.867889
916.114585	0.862691
916.420081	0.859796
916.725536	0.856707
917.030952	0.865257
917.336328	0.876515
917.641665	0.892280
917.946961	0.907979
918.252218	0.919480
918.557435	0.928101
918.862612	0.937115
919.167750	0.942316
919.472848	0.947424
919.777906	0.952963
920.082925	0.957922
920.387904	0.962978
920.692843	0.964154
920.997743	0.964201
921.302603	0.968261
921.607423	0.968822
921.912204	0.972018
922.216946	0.971779
922.521647	0.973747
922.826310	0.974959
923.130932	0.977034
923.435516	0.978695
923.740059	0.979924
924.044564	0.979455
924.349028	0.980040
924.653454	0.983236
924.957840	0.984954
925.262186	0.984059
925.566493	0.984810
925.870761	0.985608
926.174989	0.986994
926.479178	0.987158
926.783328	0.989054
927.087438	0.988653
927.391509	0.989349
927.695541	0.990748
927.999533	0.990093
928.303486	0.990810
928.607400	0.990666
928.911275	0.990649
929.215110	0.990491
929.518906	0.991541
929.822663	0.990882
930.126381	0.991782
930.430060	0.990258
930.733699	0.990176
931.037299	0.989820
931.340861	0.989926
931.644383	0.990272
931.947866	0.990018
932.251309	0.990065
932.554714	0.991228
932.858080	0.989731
933.161407	0.990560
933.464694	0.991178
933.767943	0.989964
934.071153	0.991297
934.374323	0.992201
934.677455	0.992135
934.980548	0.991982
935.283602	0.990880
935.586617	0.992741
935.889593	0.991009
936.192530	0.990730
936.495428	0.990894
936.798287	0.991418
937.101108	0.990765
937.403890	0.989465
937.706632	0.990645
938.009336	0.987109
938.312002	0.986100
938.614628	0.984754
938.917216	0.984679
939.219765	0.981016
939.522275	0.982035
939.824747	0.983892
940.127179	0.983236
940.429573	0.985103
940.731929	0.984760
941.034246	0.985392
941.336524	0.985728
941.638763	0.986324
941.940964	0.987710
942.243126	0.986747
942.545250	0.987518
942.847335	0.988744
943.149381	0.989070
943.451389	0.987792
943.753359	0.988449
944.055290	0.991627
944.357182	0.990777
944.659036	0.988467
944.960851	0.989756
945.262628	0.990562
945.564367	0.990753
945.866067	0.990362
946.167729	0.989852
946.469352	0.990806
946.770937	0.988495
947.072484	0.989957
947.373992	0.990257
947.675462	0.990355
947.976893	0.990915
948.278286	0.990116
948.579641	0.993267
948.880958	0.990190
949.182236	0.992567
949.483476	0.990830
949.784678	0.991128
950.085841	0.991497
950.386967	0.991789
950.688054	0.991989
950.989103	0.990541
951.290114	0.989795
951.591087	0.990270
951.892021	0.989287
952.192917	0.989181
952.493776	0.989001
952.794596	0.988189
953.095378	0.988619
953.396122	0.988108
953.696828	0.988765
953.997496	0.990518
954.298126	0.992232
954.598718	0.991106
954.899272	0.991585
955.199788	0.990981
955.500266	0.991693
955.800706	0.993700
956.101108	0.994354
956.401472	0.993489
956.701798	0.994679
957.002087	0.993265
957.302337	0.994183
957.602550	0.996327
957.902724	0.994390
958.202861	0.995313
958.502960	0.994785
958.803022	0.994429
959.103045	0.996126
959.403031	0.995891
959.702979	0.996396
960.002889	0.996256
960.302762	0.994753
960.602596	0.996271
960.902393	0.995193
961.202153	0.997728
961.501875	0.996767
961.801559	0.996782
962.101205	0.996175
962.400814	0.997452
962.700385	0.997075
962.999918	0.997045
963.299414	0.997669
963.598873	0.996730
963.898293	0.996957
964.197677	0.996555
964.497022	0.997392
964.796331	0.997971
965.095601	0.997451
965.394835	0.996952
965.694030	0.996906
965.993189	0.997643
966.292309	0.997077
966.591393	0.998596
966.890439	0.997225
967.189447	0.998394
967.488419	0.997268
967.787353	0.996277
968.086249	0.996820
968.385108	0.998435
968.683930	0.996612
968.982714	0.997501
969.281462	0.998046
969.580172	0.996776
969.878844	0.997579
970.177480	0.996407
970.476078	0.997366
970.774639	0.997307
971.073162	0.997292
971.371649	0.995901
971.670098	0.995989
971.968510	0.998327
972.266885	0.996086
972.565223	0.996436
972.863524	0.997208
973.161788	0.996194
973.460014	0.998019
973.758204	0.996858
974.056356	0.996654
974.354471	0.995573
974.652550	0.996115
974.950591	0.996550
975.248595	0.996987
975.546563	0.997048
975.844493	0.997677
976.142386	0.996824
976.440243	0.998019
976.738062	0.997511
977.035845	0.999058
977.333590	0.996878
977.631299	0.996856
977.928971	0.996164
978.226606	0.997846
978.524204	0.995864
978.821765	0.998952
979.119290	0.996857
979.416777	0.997093
979.714228	0.998185
980.011642	0.996733
980.309020	0.997164
980.606360	0.997923
980.903664	0.998640
981.200931	0.995103
981.498162	0.995661
981.795356	0.994353
982.092513	0.993965
982.389633	0.994432
982.686717	0.992306
982.983764	0.993128
983.280775	0.990470
983.577749	0.991203
983.874686	0.992120
984.171587	0.992074
984.468451	0.995734
984.765279	0.995806
985.062070	0.993572
985.358824	0.996192
985.655543	0.995061
985.952224	0.995843
986.248869	0.996728
986.545478	0.997904
986.842050	0.998387
987.138586	0.996263
987.435086	0.996944
987.731549	0.998957
988.027975	0.997899
988.324366	0.997771
988.620719	0.998163
988.917037	0.996896
989.213318	0.997638
989.509563	0.999075
989.805772	0.998860
990.101944	0.998691
990.398080	0.997516
990.694180	0.998422
990.990244	0.997920
991.286271	0.999010
991.582262	0.998244
991.878217	0.998151
992.174136	0.999799
992.470019	0.998961
992.765865	0.998087
993.061676	0.997665
993.357450	0.997605
993.653188	0.997468
993.948890	0.998082
994.244556	0.999276
994.540186	0.997458
994.835780	0.996885
995.131337	0.998459
995.426859	0.996729
995.722345	0.997833
996.017795	0.996747
996.313208	0.996525
996.608586	0.995082
996.903928	0.997506
997.199234	0.996188
997.494504	0.997124
997.789738	0.996087
998.084936	0.996326
998.380099	1.000152
998.675225	0.997789
998.970316	0.998664
999.265371	0.997976
999.560390	0.998579
999.855373	0.999130
1000.150320	0.998388
1000.445232	0.997603
1000.740108	0.997912
1001.034948	0.998174
1001.329752	1.000149
1001.624521	0.999613
1001.919254	0.998505
1002.213951	0.998479
1002.508613	0.998752
1002.803239	0.999200
1003.097829	0.999390
1003.392384	0.999870
1003.686903	0.998251
1003.981386	0.998721
1004.275834	0.999529
1004.570246	0.998171
1004.864623	0.999008
1005.158964	0.998803
1005.453270	0.998374
1005.747540	0.998063
1006.041775	0.998809
1006.335974	0.999000
1006.630138	0.999964
1006.924266	0.999065
1007.218359	1.000411
1007.512416	0.998829
1007.806438	0.998704
1008.100425	0.999431
1008.394376	0.999371
1008.688292	0.999144
1008.982172	1.001071
1009.276017	0.999982
1009.569827	0.999265
1009.863602	0.998595
1010.157341	0.999503
1010.451045	0.999132
1010.744714	0.999729
1011.038347	1.000381
1011.331945	0.999231
1011.625508	0.998467
1011.919036	0.998798
1012.212528	0.998283
1012.505986	0.998122
1012.799408	0.998947
1013.092795	1.000036
1013.386147	0.999104
1013.679464	0.998830
1013.972745	0.998597
1014.265992	0.998678
1014.559204	0.998165
1014.852380	0.999949
1015.145521	0.999186
1015.438628	0.999539
1015.731699	0.998656
1016.024736	0.998999
1016.317737	0.999280
1016.610703	0.999179
1016.903635	1.000527
1017.196531	0.998426
1017.489393	0.999611
1017.782219	0.999003
1018.075011	0.997695
1018.367768	0.999537
1018.660490	0.999617
1018.953177	0.999617
1019.245829	0.999617
