Dividing Wavelength (nm)	Counts (n)	Blue Motor Position (mm): 0.000000	Red Motor Position (mm): 0.900000	
326.493990	1.001263
326.888308	1.001263
327.282561	1.001263
327.676750	1.000499
328.070874	0.999387
328.464933	1.001261
328.858929	1.000181
329.252859	1.000949
329.646726	0.998354
330.040528	0.999783
330.434265	1.000048
330.827938	1.000352
331.221547	1.001056
331.615091	0.999797
332.008571	1.000238
332.401986	1.000155
332.795338	1.000304
333.188625	0.999647
333.581847	1.001650
333.975006	1.000158
334.368100	1.000448
334.761129	0.999611
335.154095	1.000268
335.546996	0.998621
335.939833	0.992808
336.332606	0.993632
336.725315	0.993474
337.117960	0.995062
337.510540	0.994605
337.903056	0.994659
338.295508	0.993813
338.687896	0.992802
339.080220	0.994250
339.472480	0.993318
339.864676	0.993566
340.256807	0.993570
340.648875	0.996048
341.040879	0.993329
341.432818	0.994338
341.824694	0.993854
342.216506	0.994057
342.608253	0.993912
342.999937	0.993545
343.391557	0.993545
343.783113	0.991677
344.174605	0.994204
344.566033	0.994816
344.957397	0.991568
345.348697	0.993378
345.739934	0.993545
346.131106	0.994074
346.522215	0.993443
346.913260	0.992878
347.304241	0.992715
347.695159	0.993526
348.086012	0.993098
348.476802	0.993594
348.867528	0.993278
349.258191	0.991894
349.648789	0.993124
350.039324	0.993324
350.429796	0.995087
350.820203	0.993450
351.210548	0.993863
351.600828	0.993431
351.991045	0.991778
352.381198	0.991762
352.771288	0.993619
353.161314	0.992119
353.551276	0.993342
353.941175	0.993545
354.331010	0.992919
354.720782	0.993643
355.110490	0.993686
355.500135	0.993289
355.889717	0.992559
356.279235	0.992963
356.668689	0.992076
357.058080	0.992717
357.447408	0.993143
357.836672	0.994453
358.225873	0.993450
358.615010	0.992613
359.004084	0.993366
359.393095	0.992748
359.782043	0.992159
360.170927	0.993981
360.559748	0.992263
360.948505	0.992339
361.337199	0.992694
361.725830	0.992652
362.114398	0.991474
362.502903	0.992754
362.891344	0.993574
363.279722	0.992638
363.668037	0.994022
364.056289	0.991498
364.444478	0.992840
364.832603	0.992817
365.220665	0.991435
365.608665	0.991806
365.996601	0.991801
366.384474	0.991640
366.772284	0.991284
367.160031	0.989796
367.547715	0.988307
367.935336	0.988323
368.322893	0.988095
368.710388	0.987398
369.097820	0.983693
369.485189	0.983293
369.872495	0.980556
370.259738	0.976783
370.646918	0.975723
371.034035	0.973460
371.421090	0.969766
371.808081	0.964905
372.195010	0.962860
372.581875	0.957810
372.968678	0.953411
373.355418	0.948871
373.742096	0.943004
374.128710	0.939605
374.515262	0.931640
374.901751	0.927958
375.288177	0.923482
375.674540	0.915322
376.060841	0.908660
376.447079	0.903378
376.833254	0.896005
377.219367	0.891365
377.605417	0.881424
377.991404	0.877334
378.377329	0.870686
378.763191	0.864962
379.148991	0.854965
379.534727	0.848870
379.920402	0.839398
380.306013	0.837846
380.691563	0.823226
381.077049	0.816778
381.462474	0.812588
381.847835	0.802223
382.233134	0.797340
382.618371	0.797408
383.003545	0.779920
383.388657	0.778662
383.773706	0.770874
384.158693	0.766885
384.543618	0.760691
384.928480	0.752784
385.313280	0.743061
385.698017	0.743314
386.082692	0.731908
386.467305	0.730800
386.851856	0.724587
387.236344	0.718410
387.620770	0.712119
388.005133	0.708266
388.389435	0.703127
388.773674	0.700646
389.157851	0.691952
389.541965	0.689052
389.926018	0.695959
390.310008	0.682719
390.693936	0.679316
391.077802	0.671477
391.461606	0.673343
391.845348	0.662453
392.229027	0.663848
392.612645	0.660110
392.996200	0.648386
393.379694	0.641177
393.763125	0.630860
394.146494	0.636007
394.529801	0.625204
394.913047	0.619279
395.296230	0.623741
395.679351	0.615599
396.062410	0.612088
396.445408	0.614763
396.828343	0.609969
397.211217	0.604824
397.594028	0.618123
397.976778	0.607197
398.359466	0.604455
398.742092	0.598908
399.124656	0.611644
399.507158	0.600445
399.889598	0.596337
400.271977	0.587858
400.654294	0.592894
401.036549	0.591040
401.418742	0.596032
401.800874	0.580834
402.182944	0.578501
402.564952	0.570005
402.946898	0.572098
403.328783	0.572611
403.710606	0.583670
404.092367	0.558479
404.474067	0.564202
404.855705	0.561921
405.237282	0.572019
405.618797	0.556861
406.000250	0.553040
406.381642	0.544291
406.762972	0.548481
407.144240	0.547313
407.525447	0.548098
407.906593	0.540608
408.287677	0.535174
408.668700	0.544295
409.049661	0.537202
409.430560	0.533170
409.811399	0.541635
410.192176	0.522796
410.572891	0.530204
410.953545	0.518927
411.334138	0.531552
411.714669	0.524272
412.095139	0.536203
412.475547	0.520916
412.855894	0.522774
413.236180	0.522293
413.616405	0.527491
413.996568	0.517706
414.376670	0.523767
414.756711	0.528687
415.136691	0.525888
415.516609	0.517161
415.896466	0.512733
416.276262	0.509157
416.655997	0.511542
417.035670	0.492486
417.415283	0.484469
417.794834	0.489326
418.174324	0.493922
418.553753	0.504269
418.933121	0.486010
419.312428	0.479414
419.691674	0.484965
420.070859	0.474361
420.449983	0.481746
420.829045	0.471276
421.208047	0.480517
421.586988	0.473507
421.965867	0.472727
422.344686	0.461491
422.723444	0.473863
423.102141	0.490716
423.480777	0.463228
423.859352	0.484285
424.237866	0.461054
424.616319	0.462116
424.994712	0.453305
425.373044	0.462941
425.751314	0.451818
426.129524	0.467496
426.507673	0.451486
426.885762	0.444905
427.263789	0.450425
427.641756	0.460315
428.019662	0.450369
428.397508	0.449364
428.775292	0.453506
429.153016	0.445971
429.530679	0.452885
429.908282	0.445411
430.285824	0.455360
430.663305	0.433863
431.040726	0.455034
431.418086	0.455267
431.795385	0.446295
432.172624	0.445203
432.549802	0.446037
432.926920	0.444786
433.303977	0.444590
433.680974	0.441877
434.057910	0.439796
434.434786	0.439712
434.811601	0.442042
435.188355	0.424056
435.565050	0.433198
435.941683	0.434937
436.318257	0.419597
436.694770	0.420362
437.071222	0.418454
437.447614	0.422453
437.823946	0.429136
438.200218	0.418550
438.576429	0.428609
438.952580	0.421382
439.328670	0.417841
439.704700	0.424692
440.080670	0.425823
440.456580	0.407115
440.832429	0.414725
441.208218	0.425897
441.583947	0.414644
441.959616	0.414502
442.335224	0.420200
442.710773	0.410516
443.086261	0.408612
443.461689	0.422380
443.837057	0.412344
444.212365	0.402149
444.587612	0.408863
444.962800	0.399130
445.337927	0.400963
445.712995	0.427104
446.088002	0.389029
446.462949	0.399844
446.837837	0.404044
447.212664	0.393046
447.587431	0.384709
447.962139	0.354798
448.336786	0.314681
448.711374	0.324602
449.085901	0.368667
449.460369	0.372921
449.834776	0.376716
450.209124	0.355750
450.583412	0.348266
450.957640	0.341566
451.331808	0.352643
451.705917	0.376075
452.079965	0.380952
452.453954	0.369350
452.827883	0.375918
453.201752	0.370706
453.575562	0.381999
453.949311	0.370688
454.323001	0.376570
454.696632	0.372845
455.070202	0.365092
455.443713	0.356965
455.817164	0.352071
456.190556	0.347644
456.563888	0.344283
456.937160	0.341830
457.310373	0.358998
457.683526	0.358135
458.056619	0.364165
458.429653	0.364718
458.802628	0.367802
459.175542	0.361779
459.548398	0.344688
459.921194	0.336971
460.293930	0.337424
460.666607	0.314604
461.039224	0.302911
461.411782	0.298565
461.784280	0.297807
462.156719	0.302261
462.529099	0.306596
462.901419	0.322088
463.273680	0.326940
463.645882	0.326302
464.018024	0.332119
464.390106	0.325023
464.762130	0.309936
465.134094	0.293003
465.505999	0.261749
465.877845	0.232545
466.249631	0.219583
466.621358	0.227015
466.993026	0.240695
467.364634	0.246717
467.736184	0.256059
468.107674	0.264289
468.479105	0.263394
468.850477	0.270499
469.221790	0.277079
469.593043	0.287430
469.964238	0.291910
470.335373	0.291383
470.706449	0.289780
471.077467	0.290377
471.448425	0.252464
471.819324	0.228007
472.190164	0.227467
472.560945	0.256058
472.931667	0.278521
473.302330	0.282415
473.672934	0.294293
474.043479	0.282547
474.413965	0.284604
474.784393	0.288284
475.154761	0.282981
475.525070	0.279910
475.895321	0.285758
476.265513	0.280263
476.635645	0.275534
477.005719	0.275461
477.375734	0.271743
477.745691	0.265111
478.115588	0.261813
478.485427	0.255138
478.855207	0.241973
479.224928	0.224686
479.594591	0.212648
479.964194	0.216250
480.333739	0.217188
480.703226	0.218863
481.072653	0.217478
481.442022	0.212853
481.811333	0.209459
482.180584	0.212908
482.549777	0.218230
482.918912	0.221706
483.287988	0.221302
483.657005	0.220936
484.025964	0.227469
484.394864	0.224723
484.763706	0.225348
485.132489	0.230352
485.501213	0.230972
485.869879	0.229528
486.238487	0.232782
486.607036	0.230385
486.975527	0.235345
487.343959	0.231028
487.712333	0.230239
488.080648	0.231351
488.448905	0.230677
488.817104	0.232148
489.185244	0.226296
489.553326	0.223527
489.921350	0.213423
490.289315	0.195767
490.657222	0.190701
491.025070	0.192076
491.392861	0.193977
491.760593	0.199790
492.128267	0.205279
492.495883	0.210965
492.863440	0.217243
493.230939	0.223504
493.598380	0.224852
493.965763	0.227058
494.333088	0.229071
494.700354	0.230830
495.067563	0.229801
495.434713	0.232938
495.801805	0.230615
496.168839	0.232456
496.535815	0.233696
496.902733	0.233767
497.269593	0.235174
497.636395	0.233177
498.003139	0.233690
498.369825	0.236240
498.736453	0.233098
499.103023	0.234489
499.469535	0.233564
499.835989	0.233874
500.202385	0.234988
500.568723	0.238191
500.935003	0.233385
501.301226	0.237561
501.667390	0.232320
502.033497	0.230228
502.399546	0.233331
502.765537	0.234711
503.131470	0.233137
503.497345	0.229391
503.863163	0.238421
504.228923	0.231083
504.594625	0.229704
504.960269	0.235422
505.325856	0.230423
505.691385	0.234933
506.056856	0.231736
506.422270	0.231167
506.787625	0.233577
507.152924	0.231004
507.518164	0.231379
507.883347	0.233226
508.248472	0.234943
508.613540	0.229878
508.978550	0.232463
509.343503	0.232770
509.708398	0.230436
510.073236	0.228112
510.438016	0.227996
510.802738	0.228936
511.167403	0.227794
511.532010	0.230064
511.896561	0.225263
512.261053	0.224508
512.625488	0.226353
512.989866	0.226568
513.354186	0.226986
513.718449	0.228660
514.082655	0.224982
514.446803	0.227229
514.810894	0.225049
515.174927	0.227843
515.538904	0.226979
515.902822	0.223924
516.266684	0.226215
516.630488	0.227559
516.994235	0.226254
517.357925	0.224971
517.721558	0.223419
518.085133	0.222706
518.448651	0.222964
518.812112	0.225082
519.175516	0.224572
519.538863	0.222586
519.902152	0.224064
520.265385	0.221070
520.628560	0.222456
520.991678	0.223197
521.354739	0.221992
521.717743	0.223016
522.080690	0.223827
522.443580	0.220902
522.806413	0.221983
523.169189	0.220883
523.531908	0.220195
523.894569	0.223702
524.257174	0.223745
524.619722	0.221357
524.982213	0.222559
525.344647	0.221500
525.707025	0.222105
526.069345	0.220345
526.431608	0.221952
526.793815	0.219970
527.155964	0.224168
527.518057	0.223194
527.880093	0.224067
528.242072	0.222496
528.603995	0.224661
528.965860	0.226357
529.327669	0.225276
529.689421	0.225978
530.051117	0.226798
530.412755	0.224498
530.774337	0.227067
531.135862	0.227340
531.497331	0.226641
531.858743	0.229426
532.220098	0.226118
532.581396	0.228771
532.942638	0.229240
533.303824	0.230268
533.664953	0.229748
534.026025	0.231886
534.387040	0.229441
534.747999	0.229638
535.108902	0.228400
535.469748	0.233275
535.830537	0.231469
536.191270	0.231834
536.551947	0.230931
536.912567	0.231200
537.273131	0.233066
537.633638	0.232931
537.994089	0.233575
538.354483	0.234664
538.714821	0.231417
539.075103	0.231393
539.435328	0.231870
539.795497	0.235865
540.155609	0.232351
540.515665	0.230603
540.875665	0.236296
541.235609	0.234504
541.595496	0.234792
541.955328	0.231308
542.315102	0.234016
542.674821	0.234950
543.034483	0.234904
543.394090	0.234910
543.753640	0.236759
544.113134	0.231613
544.472571	0.235096
544.831953	0.231653
545.191278	0.235974
545.550548	0.235479
545.909761	0.232248
546.268918	0.232929
546.628019	0.231245
546.987064	0.233806
547.346053	0.235894
547.704986	0.233639
548.063863	0.233790
548.422684	0.234068
548.781449	0.235970
549.140158	0.233587
549.498811	0.236369
549.857408	0.239646
550.215949	0.234660
550.574434	0.237165
550.932864	0.235220
551.291237	0.234370
551.649555	0.235362
552.007817	0.234911
552.366022	0.236161
552.724173	0.236311
553.082267	0.236458
553.440305	0.232959
553.798288	0.237800
554.156215	0.234221
554.514086	0.234914
554.871902	0.238323
555.229661	0.237447
555.587365	0.237913
555.945014	0.240375
556.302606	0.237276
556.660143	0.240023
557.017625	0.236436
557.375050	0.238601
557.732421	0.235619
558.089735	0.237782
558.446994	0.237991
558.804197	0.236903
559.161345	0.236928
559.518437	0.240145
559.875474	0.238210
560.232455	0.237713
560.589381	0.238617
560.946251	0.238732
561.303065	0.236334
561.659825	0.237725
562.016528	0.239347
562.373177	0.242173
562.729770	0.239432
563.086307	0.241636
563.442789	0.239085
563.799216	0.242109
564.155587	0.240580
564.511904	0.242142
564.868164	0.242131
565.224370	0.241726
565.580520	0.243851
565.936615	0.243558
566.292654	0.246741
566.648638	0.243427
567.004567	0.244607
567.360441	0.244874
567.716260	0.246998
568.072023	0.245060
568.427732	0.245653
568.783385	0.247995
569.138982	0.246245
569.494525	0.245917
569.850013	0.248312
570.205445	0.247138
570.560823	0.249546
570.916145	0.251313
571.271412	0.250023
571.626625	0.251308
571.981782	0.251756
572.336884	0.252663
572.691931	0.252249
573.046923	0.253716
573.401860	0.255083
573.756743	0.256429
574.111570	0.255335
574.466342	0.255842
574.821059	0.254986
575.175722	0.257743
575.530330	0.257792
575.884882	0.257635
576.239380	0.259920
576.593823	0.260582
576.948211	0.259956
577.302544	0.263290
577.656823	0.262670
578.011047	0.262679
578.365216	0.263460
578.719330	0.265671
579.073389	0.265433
579.427394	0.266419
579.781344	0.267599
580.135239	0.268924
580.489080	0.268607
580.842866	0.271575
581.196597	0.271146
581.550273	0.270185
581.903895	0.270955
582.257463	0.269272
582.610975	0.272328
582.964434	0.271878
583.317837	0.274698
583.671186	0.274821
584.024481	0.274760
584.377721	0.277411
584.730906	0.277780
585.084037	0.276922
585.437113	0.278726
585.790135	0.278601
586.143103	0.281255
586.496016	0.282409
586.848874	0.280062
587.201679	0.280434
587.554428	0.284014
587.907124	0.282973
588.259765	0.283358
588.612352	0.284077
588.964884	0.287611
589.317362	0.287545
589.669786	0.287285
590.022155	0.285996
590.374470	0.284823
590.726731	0.287160
591.078937	0.291894
591.431090	0.287928
591.783188	0.292392
592.135232	0.292947
592.487222	0.292879
592.839157	0.290980
593.191038	0.293360
593.542866	0.295155
593.894639	0.298918
594.246358	0.296848
594.598022	0.296047
594.949633	0.300057
595.301190	0.300503
595.652692	0.300256
596.004141	0.296044
596.355535	0.303933
596.706876	0.304527
597.058162	0.307253
597.409395	0.304385
597.760573	0.302081
598.111698	0.305315
598.462768	0.305507
598.813785	0.306899
599.164748	0.308369
599.515657	0.308339
599.866511	0.312089
600.217312	0.307283
600.568060	0.312433
600.918753	0.309228
601.269392	0.309764
601.619978	0.312840
601.970510	0.310708
602.320988	0.311081
602.671412	0.308782
603.021783	0.311029
603.372100	0.312217
603.722363	0.312269
604.072572	0.312923
604.422728	0.312556
604.772830	0.314562
605.122878	0.314450
605.472872	0.314937
605.822813	0.313242
606.172701	0.315708
606.522534	0.313229
606.872314	0.313323
607.222041	0.314220
607.571714	0.312297
607.921333	0.313805
608.270899	0.313586
608.620411	0.310676
608.969870	0.313816
609.319276	0.314426
609.668627	0.314117
610.017926	0.312697
610.367171	0.311328
610.716362	0.311759
611.065500	0.312304
611.414585	0.311196
611.763616	0.311600
612.112594	0.312262
612.461518	0.311407
612.810389	0.309229
613.159207	0.311395
613.507971	0.313236
613.856682	0.308880
614.205340	0.310113
614.553945	0.307457
614.902496	0.311034
615.250994	0.309504
615.599439	0.309868
615.947830	0.309695
616.296169	0.310372
616.644454	0.310152
616.992686	0.310077
617.340864	0.307489
617.688990	0.311584
618.037063	0.308020
618.385082	0.309834
618.733048	0.306678
619.080961	0.309117
619.428821	0.308678
619.776628	0.308195
620.124382	0.310319
620.472083	0.310593
620.819731	0.309636
621.167326	0.313379
621.514868	0.313163
621.862357	0.317681
622.209793	0.317093
622.557176	0.319082
622.904506	0.320433
623.251783	0.322998
623.599007	0.325062
623.946179	0.324749
624.293297	0.326388
624.640363	0.330673
624.987376	0.331399
625.334336	0.333651
625.681243	0.335890
626.028097	0.336570
626.374899	0.337648
626.721647	0.337689
627.068343	0.341344
627.414987	0.342095
627.761577	0.344663
628.108115	0.342540
628.454600	0.347726
628.801032	0.345114
629.147412	0.347442
629.493739	0.347769
629.840014	0.350785
630.186236	0.348201
630.532405	0.353325
630.878521	0.351464
631.224585	0.353429
631.570597	0.356971
631.916556	0.355440
632.262462	0.355554
632.608316	0.357667
632.954117	0.358346
633.299866	0.359455
633.645562	0.359509
633.991206	0.363897
634.336797	0.367173
634.682336	0.369264
635.027823	0.370391
635.373257	0.371276
635.718639	0.375067
636.063968	0.374066
636.409245	0.379998
636.754470	0.380491
637.099642	0.383056
637.444762	0.386836
637.789829	0.385291
638.134845	0.388488
638.479808	0.389864
638.824719	0.389389
639.169577	0.393730
639.514383	0.392120
639.859137	0.396758
640.203839	0.396566
640.548489	0.396857
640.893086	0.398263
641.237632	0.400209
641.582125	0.398603
641.926566	0.400131
642.270955	0.400160
642.615292	0.400462
642.959576	0.399676
643.303809	0.400150
643.647990	0.400020
643.992118	0.400061
644.336195	0.403930
644.680219	0.402177
645.024192	0.403372
645.368112	0.396700
645.711981	0.395616
646.055797	0.390562
646.399562	0.393044
646.743274	0.385228
647.086935	0.382826
647.430544	0.382781
647.774101	0.381720
648.117606	0.381396
648.461059	0.382166
648.804460	0.384039
649.147810	0.389015
649.491108	0.391666
649.834354	0.392240
650.177548	0.398111
650.520690	0.403721
650.863781	0.404668
651.206820	0.403933
651.549807	0.408730
651.892742	0.412670
652.235626	0.412237
652.578458	0.412645
652.921238	0.419343
653.263967	0.416630
653.606644	0.420964
653.949269	0.420319
654.291843	0.424294
654.634365	0.421088
654.976836	0.423933
655.319255	0.424607
655.661622	0.426495
656.003938	0.426559
656.346203	0.429066
656.688416	0.427287
657.030577	0.430493
657.372687	0.432420
657.714746	0.433685
658.056753	0.430782
658.398708	0.434235
658.740612	0.435104
659.082465	0.430891
659.424266	0.432333
659.766016	0.431078
660.107715	0.434339
660.449362	0.433073
660.790958	0.433846
661.132503	0.434137
661.473996	0.431239
661.815438	0.433007
662.156829	0.432777
662.498168	0.433743
662.839456	0.435292
663.180693	0.432608
663.521879	0.432957
663.863013	0.433802
664.204097	0.432099
664.545129	0.429073
664.886110	0.429926
665.227040	0.426637
665.567918	0.429431
665.908746	0.427948
666.249522	0.426645
666.590248	0.427911
666.930922	0.426459
667.271545	0.425323
667.612118	0.425566
667.952639	0.426988
668.293109	0.425207
668.633528	0.428664
668.973896	0.427791
669.314213	0.428511
669.654480	0.430639
669.994695	0.430350
670.334859	0.431257
670.674973	0.431337
671.015035	0.431719
671.355047	0.431154
671.695008	0.432688
672.034918	0.434506
672.374777	0.433809
672.714585	0.435374
673.054342	0.434604
673.394049	0.435515
673.733705	0.432179
674.073310	0.434005
674.412864	0.436828
674.752368	0.437599
675.091820	0.437678
675.431223	0.441810
675.770574	0.441874
676.109875	0.444972
676.449125	0.445398
676.788324	0.447220
677.127473	0.453441
677.466571	0.452394
677.805619	0.454085
678.144616	0.455155
678.483562	0.457313
678.822458	0.459041
679.161303	0.460726
679.500098	0.460705
679.838842	0.462580
680.177535	0.461942
680.516179	0.460747
680.854771	0.459653
681.193314	0.452936
681.531805	0.444561
681.870247	0.432917
682.208638	0.425237
682.546978	0.424808
682.885268	0.425507
683.223508	0.431980
683.561697	0.436391
683.899836	0.438812
684.237925	0.442582
684.575963	0.444757
684.913951	0.447341
685.251889	0.443728
685.589776	0.445433
685.927614	0.447895
686.265401	0.442407
686.603137	0.443179
686.940824	0.437912
687.278460	0.436080
687.616046	0.434645
687.953582	0.429552
688.291068	0.431779
688.628504	0.427446
688.965889	0.429421
689.303224	0.433443
689.640510	0.437525
689.977745	0.443332
690.314930	0.451200
690.652065	0.455595
690.989150	0.463222
691.326185	0.469802
691.663170	0.474177
692.000105	0.481516
692.336990	0.489123
692.673825	0.490864
693.010610	0.498201
693.347345	0.502743
693.684030	0.505392
694.020665	0.509773
694.357251	0.517945
694.693786	0.518046
695.030272	0.522675
695.366707	0.526400
695.703093	0.529087
696.039429	0.527060
696.375716	0.528831
696.711952	0.531647
697.048139	0.533741
697.384276	0.535622
697.720363	0.533272
698.056400	0.532787
698.392388	0.538310
698.728326	0.541272
699.064214	0.544068
699.400053	0.544465
699.735842	0.548953
700.071581	0.551137
700.407270	0.554371
700.742910	0.556528
701.078501	0.563455
701.414042	0.563941
701.749533	0.566656
702.084974	0.575764
702.420366	0.567593
702.755709	0.576127
703.091002	0.583194
703.426246	0.576678
703.761440	0.582562
704.096584	0.587543
704.431679	0.583878
704.766725	0.586374
705.101721	0.587425
705.436668	0.583951
705.771565	0.590896
706.106413	0.587522
706.441212	0.583228
706.775961	0.582354
707.110661	0.584707
707.445311	0.581335
707.779913	0.578187
708.114465	0.577067
708.448967	0.573502
708.783421	0.565605
709.117825	0.560475
709.452180	0.559801
709.786485	0.553908
710.120742	0.543608
710.454949	0.545627
710.789107	0.537677
711.123216	0.528819
711.457275	0.530626
711.791286	0.522001
712.125247	0.520586
712.459159	0.530927
712.793023	0.523010
713.126837	0.527840
713.460602	0.528472
713.794318	0.537675
714.127985	0.536022
714.461602	0.546131
714.795171	0.549544
715.128691	0.557490
715.462162	0.565123
715.795584	0.571046
716.128957	0.574221
716.462281	0.580125
716.795556	0.583600
717.128782	0.588863
717.461960	0.597998
717.795088	0.596684
718.128167	0.602901
718.461198	0.611894
718.794180	0.612337
719.127113	0.614880
719.459997	0.619384
719.792833	0.624488
720.125619	0.626376
720.458357	0.632495
720.791046	0.632064
721.123686	0.635100
721.456278	0.642044
721.788821	0.638523
722.121315	0.643383
722.453761	0.647809
722.786158	0.645745
723.118506	0.642721
723.450805	0.650217
723.783056	0.646179
724.115259	0.643099
724.447412	0.642828
724.779518	0.644576
725.111574	0.642445
725.443582	0.638277
725.775542	0.640227
726.107453	0.632903
726.439315	0.632769
726.771129	0.631373
727.102895	0.623963
727.434612	0.617974
727.766281	0.615123
728.097901	0.614389
728.429473	0.614900
728.760996	0.613053
729.092471	0.612432
729.423897	0.617170
729.755276	0.615911
730.086606	0.615769
730.417887	0.609930
730.749120	0.600395
731.080305	0.591878
731.411442	0.587700
731.742530	0.592741
732.073570	0.591664
732.404562	0.584004
732.735506	0.586028
733.066401	0.589860
733.397249	0.599410
733.728048	0.611376
734.058798	0.623952
734.389501	0.634516
734.720156	0.644364
735.050762	0.652398
735.381320	0.652651
735.711831	0.662997
736.042293	0.667962
736.372707	0.663137
736.703073	0.667681
737.033391	0.670305
737.363661	0.666626
737.693883	0.661952
738.024056	0.661046
738.354182	0.661009
738.684260	0.650151
739.014290	0.646801
739.344272	0.647276
739.674207	0.640742
740.004093	0.640177
740.333931	0.640529
740.663722	0.639785
740.993464	0.641396
741.323159	0.644868
741.652806	0.650150
741.982405	0.654462
742.311956	0.660170
742.641460	0.662525
742.970915	0.665011
743.300323	0.673314
743.629683	0.679232
743.958996	0.681414
744.288260	0.685135
744.617477	0.692249
744.946647	0.693510
745.275768	0.698898
745.604842	0.698372
745.933869	0.708541
746.262847	0.708973
746.591778	0.703482
746.920662	0.708827
747.249498	0.715246
747.578286	0.706261
747.907027	0.702088
748.235720	0.703082
748.564365	0.698200
748.892963	0.698093
749.221514	0.700688
749.550017	0.705092
749.878473	0.705931
750.206881	0.712422
750.535242	0.714237
750.863555	0.713067
751.191821	0.714031
751.520039	0.717763
751.848210	0.722167
752.176334	0.715086
752.504411	0.714034
752.832440	0.721747
753.160421	0.726047
753.488356	0.724739
753.816243	0.721925
754.144082	0.730385
754.471875	0.734362
754.799620	0.728792
755.127318	0.730139
755.454969	0.729439
755.782572	0.729055
756.110129	0.734833
756.437638	0.737736
756.765100	0.733156
757.092515	0.731915
757.419882	0.731580
757.747203	0.736066
758.074477	0.735514
758.401703	0.732000
758.728882	0.727037
759.056014	0.726631
759.383099	0.725380
759.710138	0.726789
760.037129	0.723337
760.364073	0.717143
760.690970	0.719016
761.017820	0.725846
761.344623	0.720900
761.671379	0.711592
761.998088	0.700070
762.324751	0.676358
762.651366	0.634316
762.977935	0.567480
763.304456	0.515340
763.630931	0.505623
763.957359	0.544875
764.283740	0.589151
764.610074	0.616935
764.936362	0.648269
765.262602	0.675783
765.588796	0.696743
765.914943	0.715041
766.241044	0.733176
766.567097	0.739583
766.893104	0.749047
767.219064	0.755921
767.544978	0.762033
767.870845	0.776014
768.196665	0.779421
768.522438	0.777523
768.848165	0.779366
769.173846	0.787410
769.499479	0.793381
769.825066	0.796160
770.150607	0.800370
770.476101	0.796003
770.801548	0.797138
771.126949	0.808737
771.452303	0.812495
771.777611	0.811453
772.102872	0.810080
772.428087	0.816352
772.753256	0.819115
773.078378	0.821464
773.403453	0.830118
773.728482	0.834907
774.053465	0.827835
774.378401	0.831860
774.703291	0.840029
775.028135	0.840176
775.352932	0.842018
775.677683	0.843897
776.002388	0.845977
776.327046	0.844432
776.651658	0.847837
776.976224	0.851445
777.300743	0.850009
777.625216	0.853342
777.949643	0.855168
778.274024	0.855076
778.598359	0.856275
778.922647	0.856403
779.246889	0.855422
779.571086	0.860028
779.895236	0.862591
780.219339	0.859121
780.543397	0.857390
780.867409	0.854680
781.191374	0.857407
781.515294	0.859355
781.839167	0.857041
782.162995	0.860408
782.486776	0.858144
782.810511	0.859012
783.134201	0.862695
783.457844	0.860018
783.781441	0.862144
784.104993	0.868707
784.428498	0.869320
784.751958	0.863958
785.075372	0.867466
785.398739	0.872036
785.722061	0.867560
786.045337	0.862821
786.368568	0.867965
786.691752	0.870717
787.014891	0.855809
787.337983	0.847151
787.661030	0.839746
787.984031	0.821531
788.306987	0.808517
788.629897	0.810508
788.952760	0.815688
789.275579	0.819891
789.598351	0.834656
789.921078	0.847637
790.243759	0.850418
790.566395	0.854702
790.888984	0.862041
791.211529	0.866852
791.534027	0.870296
791.856480	0.872159
792.178888	0.877184
792.501249	0.880678
792.823566	0.882084
793.145836	0.881795
793.468062	0.884231
793.790241	0.883407
794.112375	0.881739
794.434464	0.877166
794.756507	0.875812
795.078505	0.876631
795.400457	0.870976
795.722364	0.858206
796.044226	0.850690
796.366042	0.849963
796.687812	0.854332
797.009538	0.849240
797.331218	0.853399
797.652852	0.857165
797.974442	0.861870
798.295986	0.862988
798.617484	0.865311
798.938938	0.869806
799.260346	0.874005
799.581709	0.877158
799.903026	0.877736
800.224299	0.879799
800.545526	0.882176
800.866708	0.887029
801.187845	0.891320
801.508936	0.890428
801.829983	0.888413
802.150984	0.891968
802.471940	0.896633
802.792851	0.895380
803.113717	0.896355
803.434538	0.894287
803.755314	0.896335
804.076045	0.898627
804.396731	0.899901
804.717372	0.898856
805.037967	0.900254
805.358518	0.898323
805.679024	0.895362
805.999485	0.895269
806.319901	0.896593
806.640272	0.896363
806.960598	0.895025
807.280879	0.892722
807.601115	0.890309
807.921306	0.893922
808.241453	0.893868
808.561554	0.892407
808.881611	0.892804
809.201623	0.894628
809.521590	0.895409
809.841513	0.895326
810.161390	0.895251
810.481223	0.896242
810.801011	0.900915
811.120755	0.901153
811.440453	0.901645
811.760107	0.899895
812.079716	0.898718
812.399281	0.903471
812.718801	0.904831
813.038276	0.906117
813.357707	0.905644
813.677093	0.902910
813.996434	0.907106
814.315731	0.907518
814.634983	0.908694
814.954191	0.906144
815.273354	0.903173
815.592473	0.900633
815.911547	0.900464
816.230577	0.897062
816.549562	0.895361
816.868502	0.895190
817.187399	0.891762
817.506250	0.886451
817.825058	0.888536
818.143821	0.884426
818.462539	0.879823
818.781213	0.871253
819.099843	0.859885
819.418429	0.844568
819.736970	0.827143
820.055466	0.807042
820.373919	0.780951
820.692327	0.747946
821.010691	0.712524
821.329011	0.633015
821.647286	0.516591
821.965517	0.401559
822.283704	0.358476
822.601847	0.359016
822.919945	0.394739
823.237999	0.429736
823.556010	0.477193
823.873976	0.533362
824.191897	0.585057
824.509775	0.628052
824.827609	0.673993
825.145398	0.696558
825.463144	0.700274
825.780845	0.682837
826.098502	0.664474
826.416116	0.616967
826.733685	0.572973
827.051210	0.563282
827.368692	0.578676
827.686129	0.616624
828.003522	0.670134
828.320872	0.718685
828.638177	0.763440
828.955439	0.796939
829.272656	0.818749
829.589830	0.835829
829.906960	0.852567
830.224046	0.864953
830.541088	0.875325
830.858086	0.879348
831.175041	0.885111
831.491952	0.885305
831.808819	0.881620
832.125642	0.874529
832.442421	0.859898
832.759157	0.836172
833.075849	0.790669
833.392497	0.726193
833.709101	0.685068
834.025662	0.694391
834.342179	0.726110
834.658653	0.765512
834.975083	0.803191
835.291469	0.828985
835.607811	0.852150
835.924110	0.867904
836.240366	0.885514
836.556578	0.899654
836.872746	0.907139
837.188871	0.913100
837.504952	0.917967
837.820990	0.922331
838.136984	0.926118
838.452935	0.929121
838.768842	0.929884
839.084706	0.923396
839.400526	0.897683
839.716303	0.857295
840.032037	0.833589
840.347727	0.836733
840.663373	0.855896
840.978977	0.878053
841.294537	0.900229
841.610054	0.917776
841.925527	0.925208
842.240957	0.932619
842.556344	0.938427
842.871687	0.945463
843.186987	0.949729
843.502244	0.949549
843.817458	0.950938
844.132629	0.954837
844.447756	0.959831
844.762840	0.960018
845.077881	0.958903
845.392879	0.959905
845.707833	0.963240
846.022745	0.963605
846.337613	0.965480
846.652438	0.964523
846.967221	0.963579
847.281960	0.964632
847.596656	0.965664
847.911309	0.965761
848.225919	0.968122
848.540485	0.967790
848.855009	0.968414
849.169490	0.968191
849.483928	0.968501
849.798323	0.968172
850.112675	0.968208
850.426984	0.969844
850.741251	0.969258
851.055474	0.970400
851.369654	0.967514
851.683792	0.970173
851.997887	0.969474
852.311938	0.970345
852.625947	0.969747
852.939914	0.966315
853.253837	0.969647
853.567718	0.968917
853.881555	0.970377
854.195350	0.967578
854.509103	0.969945
854.822812	0.970100
855.136479	0.969072
855.450103	0.969321
855.763685	0.966718
856.077224	0.967015
856.390720	0.969467
856.704173	0.969486
857.017584	0.969432
857.330953	0.965568
857.644278	0.967198
857.957561	0.967791
858.270802	0.968374
858.584000	0.967903
858.897155	0.966464
859.210268	0.967031
859.523339	0.967167
859.836367	0.969512
860.149352	0.970454
860.462295	0.968643
860.775195	0.969888
861.088054	0.967668
861.400869	0.969104
861.713642	0.969408
862.026373	0.969846
862.339062	0.970657
862.651708	0.968038
862.964312	0.967437
863.276873	0.969015
863.589392	0.968157
863.901869	0.966244
864.214303	0.964347
864.526696	0.963834
864.839045	0.962165
865.151353	0.962051
865.463619	0.961257
865.775842	0.961452
866.088023	0.960855
866.400162	0.961644
866.712258	0.961356
867.024313	0.962837
867.336325	0.963732
867.648296	0.962883
867.960224	0.962013
868.272110	0.961149
868.583954	0.963194
868.895755	0.962770
869.207515	0.960857
869.519233	0.958178
869.830909	0.959552
870.142542	0.962429
870.454134	0.961328
870.765684	0.960294
871.077191	0.956535
871.388657	0.958576
871.700081	0.957045
872.011463	0.957746
872.322803	0.956621
872.634101	0.956139
872.945357	0.953339
873.256571	0.952581
873.567744	0.952490
873.878874	0.952718
874.189963	0.951676
874.501010	0.950194
874.812015	0.948618
875.122979	0.950447
875.433900	0.952518
875.744780	0.952150
876.055618	0.949926
876.366415	0.948960
876.677169	0.949605
876.987882	0.950361
877.298554	0.949714
877.609183	0.946045
877.919771	0.943265
878.230317	0.941676
878.540822	0.938922
878.851285	0.932438
879.161707	0.925137
879.472087	0.912369
879.782425	0.896345
880.092722	0.860659
880.402977	0.806631
880.713191	0.745201
881.023363	0.684262
881.333494	0.649214
881.643583	0.621057
881.953631	0.621681
882.263637	0.650302
882.573602	0.688864
882.883526	0.716500
883.193408	0.741187
883.503248	0.764921
883.813048	0.793073
884.122806	0.822811
884.432522	0.846881
884.742197	0.866848
885.051831	0.876772
885.361424	0.888998
885.670975	0.901322
885.980485	0.911485
886.289954	0.917384
886.599382	0.922641
886.908768	0.925537
887.218113	0.933190
887.527417	0.937300
887.836680	0.941166
888.145901	0.941528
888.455082	0.944799
888.764221	0.948824
889.073319	0.951151
889.382376	0.951117
889.691392	0.951326
890.000366	0.952441
890.309300	0.952228
890.618193	0.951712
890.927044	0.950076
891.235855	0.949557
891.544625	0.950382
891.853353	0.949513
892.162041	0.948235
892.470687	0.941498
892.779293	0.936860
893.087858	0.932190
893.396381	0.924235
893.704864	0.911230
894.013306	0.885754
894.321707	0.858738
894.630068	0.843271
894.938387	0.838279
895.246665	0.839586
895.554903	0.853231
895.863100	0.865700
896.171256	0.883525
896.479371	0.903151
896.787446	0.916279
897.095480	0.922180
897.403473	0.926666
897.711425	0.930297
898.019336	0.937983
898.327207	0.940397
898.635038	0.943330
898.942827	0.943567
899.250576	0.945975
899.558284	0.951072
899.865952	0.952861
900.173579	0.953319
900.481165	0.954637
900.788711	0.958680
901.096216	0.960677
901.403681	0.959727
901.711105	0.961317
902.018489	0.962172
902.325832	0.961760
902.633135	0.961048
902.940397	0.954890
903.247619	0.941763
903.554800	0.914968
903.861941	0.874660
904.169041	0.837545
904.476101	0.819904
904.783121	0.819481
905.090100	0.837485
905.397039	0.859872
905.703938	0.881903
906.010796	0.902692
906.317614	0.919813
906.624391	0.932947
906.931129	0.942077
907.237826	0.951044
907.544483	0.957944
907.851099	0.961611
908.157675	0.966600
908.464211	0.969432
908.770707	0.971933
909.077163	0.973044
909.383578	0.974680
909.689954	0.975049
909.996289	0.974937
910.302584	0.976877
910.608839	0.978517
910.915054	0.977676
911.221229	0.977863
911.527363	0.977520
911.833458	0.975799
912.139513	0.977707
912.445527	0.974322
912.751502	0.971664
913.057436	0.971024
913.363331	0.968858
913.669186	0.965498
913.975000	0.958886
914.280775	0.953487
914.586510	0.945912
914.892205	0.931726
915.197859	0.910883
915.503475	0.883140
915.809050	0.862460
916.114585	0.854763
916.420081	0.852476
916.725536	0.849631
917.030952	0.858954
917.336328	0.872287
917.641665	0.887499
917.946961	0.903391
918.252218	0.915869
918.557435	0.924123
918.862612	0.933941
919.167750	0.939608
919.472848	0.944825
919.777906	0.949811
920.082925	0.957333
920.387904	0.960513
920.692843	0.961345
920.997743	0.962879
921.302603	0.966140
921.607423	0.967493
921.912204	0.970824
922.216946	0.971872
922.521647	0.972474
922.826310	0.974047
923.130932	0.975474
923.435516	0.977627
923.740059	0.978638
924.044564	0.978209
924.349028	0.980954
924.653454	0.982634
924.957840	0.985278
925.262186	0.983474
925.566493	0.984631
925.870761	0.984453
926.174989	0.985351
926.479178	0.987443
926.783328	0.988529
927.087438	0.987697
927.391509	0.988043
927.695541	0.989524
927.999533	0.989556
928.303486	0.989031
928.607400	0.990878
928.911275	0.989264
929.215110	0.990155
929.518906	0.990967
929.822663	0.990057
930.126381	0.990257
930.430060	0.990136
930.733699	0.989757
931.037299	0.989301
931.340861	0.991111
931.644383	0.989128
931.947866	0.988142
932.251309	0.990717
932.554714	0.990889
932.858080	0.989504
933.161407	0.990248
933.464694	0.990070
933.767943	0.989613
934.071153	0.990837
934.374323	0.990656
934.677455	0.991746
934.980548	0.991391
935.283602	0.990102
935.586617	0.990419
935.889593	0.990057
936.192530	0.989767
936.495428	0.989544
936.798287	0.989943
937.101108	0.988986
937.403890	0.988072
937.706632	0.987991
938.009336	0.986668
938.312002	0.985368
938.614628	0.983669
938.917216	0.982284
939.219765	0.981039
939.522275	0.982465
939.824747	0.982354
940.127179	0.983279
940.429573	0.983796
940.731929	0.982668
941.034246	0.983201
941.336524	0.983850
941.638763	0.985208
941.940964	0.986098
942.243126	0.986287
942.545250	0.987218
942.847335	0.987805
943.149381	0.987404
943.451389	0.987523
943.753359	0.987702
944.055290	0.989986
944.357182	0.989359
944.659036	0.988354
944.960851	0.989277
945.262628	0.990041
945.564367	0.990368
945.866067	0.990562
946.167729	0.989580
946.469352	0.988729
946.770937	0.989494
947.072484	0.989457
947.373992	0.989800
947.675462	0.989113
947.976893	0.991449
948.278286	0.990697
948.579641	0.990666
948.880958	0.991030
949.182236	0.991570
949.483476	0.991469
949.784678	0.990330
950.085841	0.991058
950.386967	0.991465
950.688054	0.990871
950.989103	0.991109
951.290114	0.988473
951.591087	0.990375
951.892021	0.989125
952.192917	0.988868
952.493776	0.988417
952.794596	0.987525
953.095378	0.988034
953.396122	0.987548
953.696828	0.987454
953.997496	0.988754
954.298126	0.990399
954.598718	0.990468
954.899272	0.991460
955.199788	0.990148
955.500266	0.991467
955.800706	0.993263
956.101108	0.993348
956.401472	0.993148
956.701798	0.992740
957.002087	0.993544
957.302337	0.993961
957.602550	0.994279
957.902724	0.994642
958.202861	0.995694
958.502960	0.996126
958.803022	0.993575
959.103045	0.996425
959.403031	0.995760
959.702979	0.995165
960.002889	0.996163
960.302762	0.994737
960.602596	0.995408
960.902393	0.995013
961.202153	0.996442
961.501875	0.996707
961.801559	0.996131
962.101205	0.994759
962.400814	0.996700
962.700385	0.995966
962.999918	0.996979
963.299414	0.996274
963.598873	0.996267
963.898293	0.996069
964.197677	0.995697
964.497022	0.996024
964.796331	0.997485
965.095601	0.996862
965.394835	0.996985
965.694030	0.997348
965.993189	0.997711
966.292309	0.996877
966.591393	0.997129
966.890439	0.996489
967.189447	0.996517
967.488419	0.997056
967.787353	0.996235
968.086249	0.995718
968.385108	0.996149
968.683930	0.998286
968.982714	0.997465
969.281462	0.997117
969.580172	0.997164
969.878844	0.997404
970.177480	0.996003
970.476078	0.997342
970.774639	0.996867
971.073162	0.997961
971.371649	0.996040
971.670098	0.995997
971.968510	0.997950
972.266885	0.995653
972.565223	0.996347
972.863524	0.996257
973.161788	0.997072
973.460014	0.997288
973.758204	0.995921
974.056356	0.996536
974.354471	0.994716
974.652550	0.995584
974.950591	0.997140
975.248595	0.995928
975.546563	0.997064
975.844493	0.997937
976.142386	0.996939
976.440243	0.996620
976.738062	0.997603
977.035845	0.997527
977.333590	0.996896
977.631299	0.998703
977.928971	0.995945
978.226606	0.996191
978.524204	0.995694
978.821765	0.998351
979.119290	0.996743
979.416777	0.996806
979.714228	0.997398
980.011642	0.996372
980.309020	0.997373
980.606360	0.996927
980.903664	0.998561
981.200931	0.995866
981.498162	0.994366
981.795356	0.993737
982.092513	0.993440
982.389633	0.995640
982.686717	0.990096
982.983764	0.992085
983.280775	0.990486
983.577749	0.989785
983.874686	0.991708
984.171587	0.991491
984.468451	0.994046
984.765279	0.994792
985.062070	0.994838
985.358824	0.994902
985.655543	0.993980
985.952224	0.996855
986.248869	0.996175
986.545478	0.996813
986.842050	0.996385
987.138586	0.995585
987.435086	0.996810
987.731549	0.998165
988.027975	0.998118
988.324366	0.998602
988.620719	0.998178
988.917037	0.996022
989.213318	0.998373
989.509563	0.998582
989.805772	0.998288
990.101944	0.999470
990.398080	0.997686
990.694180	0.997903
990.990244	0.998506
991.286271	0.997775
991.582262	0.997977
991.878217	0.998528
992.174136	1.000029
992.470019	0.999642
992.765865	0.998697
993.061676	0.998202
993.357450	0.997687
993.653188	0.997563
993.948890	0.997417
994.244556	0.997955
994.540186	0.997580
994.835780	0.996985
995.131337	0.997451
995.426859	0.996785
995.722345	0.997242
996.017795	0.996101
996.313208	0.996206
996.608586	0.997016
996.903928	0.995703
997.199234	0.996479
997.494504	0.996828
997.789738	0.995432
998.084936	0.996774
998.380099	0.998098
998.675225	0.997579
998.970316	0.997221
999.265371	0.997902
999.560390	0.998522
999.855373	0.999507
1000.150320	0.998975
1000.445232	0.998376
1000.740108	0.998221
1001.034948	0.998376
1001.329752	0.999558
1001.624521	0.999093
1001.919254	0.998631
1002.213951	0.998021
1002.508613	0.997742
1002.803239	0.999200
1003.097829	0.999617
1003.392384	0.999468
1003.686903	0.998472
1003.981386	0.999107
1004.275834	0.999903
1004.570246	0.998621
1004.864623	0.999643
1005.158964	0.999797
1005.453270	0.999451
1005.747540	0.997393
1006.041775	0.999062
1006.335974	0.999840
1006.630138	0.998412
1006.924266	0.999598
1007.218359	1.000474
1007.512416	0.999783
1007.806438	0.999398
1008.100425	0.999212
1008.394376	1.000460
1008.688292	0.998169
1008.982172	1.001184
1009.276017	0.999663
1009.569827	0.999893
1009.863602	0.999635
1010.157341	1.000980
1010.451045	1.000520
1010.744714	0.999134
1011.038347	0.999160
1011.331945	0.999336
1011.625508	0.997919
1011.919036	0.998888
1012.212528	0.998544
1012.505986	0.998427
1012.799408	0.999252
1013.092795	1.000105
1013.386147	0.999432
1013.679464	0.999768
1013.972745	0.997818
1014.265992	0.998229
1014.559204	0.999493
1014.852380	0.999092
1015.145521	0.999753
1015.438628	1.000132
1015.731699	0.999405
1016.024736	0.998380
1016.317737	0.999256
1016.610703	0.999271
1016.903635	0.999713
1017.196531	0.999498
1017.489393	0.999939
1017.782219	1.000322
1018.075011	0.998369
1018.367768	0.998396
1018.660490	1.000258
1018.953177	1.000258
1019.245829	1.000258
