Dividing Wavelength (nm)	Counts (n)	Blue Motor Position (mm): 0.000000	Red Motor Position (mm): 34.800000	
326.493990	1.001437
326.888308	1.001437
327.282561	1.001437
327.676750	1.000908
328.070874	0.999630
328.464933	0.999528
328.858929	0.999038
329.252859	0.999624
329.646726	1.000417
330.040528	1.000395
330.434265	0.997882
330.827938	1.000964
331.221547	1.001371
331.615091	0.999184
332.008571	0.999725
332.401986	1.000067
332.795338	1.000844
333.188625	0.998825
333.581847	0.999903
333.975006	0.998752
334.368100	1.000236
334.761129	0.999905
335.154095	1.000516
335.546996	0.998002
335.939833	0.995546
336.332606	0.995822
336.725315	0.997601
337.117960	0.998414
337.510540	0.995434
337.903056	0.996169
338.295508	0.994955
338.687896	0.996282
339.080220	0.996697
339.472480	0.995409
339.864676	0.996325
340.256807	0.996270
340.648875	0.996886
341.040879	0.997777
341.432818	0.995995
341.824694	0.995789
342.216506	0.997062
342.608253	0.997544
342.999937	0.996189
343.391557	0.996843
343.783113	0.996034
344.174605	0.996242
344.566033	0.996317
344.957397	0.996244
345.348697	0.995185
345.739934	0.996438
346.131106	0.996356
346.522215	0.996381
346.913260	0.995818
347.304241	0.996382
347.695159	0.996221
348.086012	0.995464
348.476802	0.997581
348.867528	0.997456
349.258191	0.995791
349.648789	0.996027
350.039324	0.996383
350.429796	0.997046
350.820203	0.996391
351.210548	0.996596
351.600828	0.995953
351.991045	0.996823
352.381198	0.996671
352.771288	0.995783
353.161314	0.996288
353.551276	0.997375
353.941175	0.996447
354.331010	0.996665
354.720782	0.996907
355.110490	0.995691
355.500135	0.997780
355.889717	0.995974
356.279235	0.995721
356.668689	0.995624
357.058080	0.996242
357.447408	0.998015
357.836672	0.996693
358.225873	0.996302
358.615010	0.996230
359.004084	0.998256
359.393095	0.997491
359.782043	0.997024
360.170927	0.997232
360.559748	0.999067
360.948505	0.995813
361.337199	0.996679
361.725830	0.997233
362.114398	0.996744
362.502903	0.997385
362.891344	0.997195
363.279722	0.995913
363.668037	0.997478
364.056289	0.996135
364.444478	0.997399
364.832603	0.996481
365.220665	0.996264
365.608665	0.996595
365.996601	0.996125
366.384474	0.996779
366.772284	0.996400
367.160031	0.995662
367.547715	0.995497
367.935336	0.996716
368.322893	0.996070
368.710388	0.995912
369.097820	0.997747
369.485189	0.996970
369.872495	0.995078
370.259738	0.996033
370.646918	0.997286
371.034035	0.997252
371.421090	0.997042
371.808081	0.995761
372.195010	0.997344
372.581875	0.997879
372.968678	0.997042
373.355418	0.997250
373.742096	0.996599
374.128710	0.997978
374.515262	0.995730
374.901751	0.996791
375.288177	0.997870
375.674540	0.998156
376.060841	0.997067
376.447079	0.997767
376.833254	0.998184
377.219367	0.997409
377.605417	0.997845
377.991404	0.997827
378.377329	0.997025
378.763191	0.996731
379.148991	0.998287
379.534727	0.997463
379.920402	0.997212
380.306013	0.997824
380.691563	0.998131
381.077049	0.996802
381.462474	0.997549
381.847835	0.998396
382.233134	0.997154
382.618371	0.997711
383.003545	0.996696
383.388657	0.997081
383.773706	0.999582
384.158693	0.998455
384.543618	0.997600
384.928480	0.997879
385.313280	0.997148
385.698017	0.999262
386.082692	0.998868
386.467305	0.997995
386.851856	0.997720
387.236344	0.997997
387.620770	0.996924
388.005133	0.998320
388.389435	0.998835
388.773674	0.996903
389.157851	0.998036
389.541965	0.997835
389.926018	0.997626
390.310008	0.999831
390.693936	0.997679
391.077802	0.998408
391.461606	0.997994
391.845348	0.998036
392.229027	0.999189
392.612645	0.998798
392.996200	0.999654
393.379694	0.998438
393.763125	1.000051
394.146494	0.999178
394.529801	0.998409
394.913047	0.999218
395.296230	0.998471
395.679351	0.998202
396.062410	0.998090
396.445408	0.998912
396.828343	0.998319
397.211217	0.998241
397.594028	0.999350
397.976778	0.999221
398.359466	0.998474
398.742092	0.998876
399.124656	0.998899
399.507158	0.998529
399.889598	0.999128
400.271977	0.998864
400.654294	0.999322
401.036549	0.999533
401.418742	0.998518
401.800874	0.997676
402.182944	0.999065
402.564952	0.998224
402.946898	0.999826
403.328783	0.999138
403.710606	0.998432
404.092367	0.999869
404.474067	0.999639
404.855705	0.998669
405.237282	0.999558
405.618797	0.998529
406.000250	0.998239
406.381642	0.999771
406.762972	0.999309
407.144240	0.999851
407.525447	0.999130
407.906593	0.999032
408.287677	0.998892
408.668700	0.999227
409.049661	0.997827
409.430560	0.999342
409.811399	0.999082
410.192176	0.998905
410.572891	0.998592
410.953545	0.999029
411.334138	0.998137
411.714669	0.999574
412.095139	0.999073
412.475547	0.999786
412.855894	0.999744
413.236180	0.999875
413.616405	0.999121
413.996568	0.999679
414.376670	0.998967
414.756711	0.998656
415.136691	0.999574
415.516609	0.998888
415.896466	0.998523
416.276262	0.997792
416.655997	0.999483
417.035670	0.998780
417.415283	0.998819
417.794834	0.999031
418.174324	0.998804
418.553753	0.999299
418.933121	0.999430
419.312428	0.999186
419.691674	0.999139
420.070859	0.999632
420.449983	0.999555
420.829045	0.999947
421.208047	1.000322
421.586988	1.000102
421.965867	0.998754
422.344686	1.000194
422.723444	1.000035
423.102141	0.999632
423.480777	0.999729
423.859352	0.998893
424.237866	0.998339
424.616319	0.999514
424.994712	0.999794
425.373044	0.999985
425.751314	0.999696
426.129524	0.998954
426.507673	1.000056
426.885762	0.999552
427.263789	0.999775
427.641756	0.999552
428.019662	1.000425
428.397508	0.999072
428.775292	0.998104
429.153016	0.999170
429.530679	0.999587
429.908282	0.999849
430.285824	0.999414
430.663305	0.999651
431.040726	0.999326
431.418086	1.001271
431.795385	1.000458
432.172624	0.999802
432.549802	1.000223
432.926920	0.999667
433.303977	0.998566
433.680974	1.000655
434.057910	0.999374
434.434786	1.000582
434.811601	0.999259
435.188355	0.999581
435.565050	0.999467
435.941683	0.999633
436.318257	1.000120
436.694770	0.998901
437.071222	0.999306
437.447614	0.999595
437.823946	0.999541
438.200218	1.000239
438.576429	0.999964
438.952580	1.000613
439.328670	0.998956
439.704700	0.999705
440.080670	0.999928
440.456580	0.999205
440.832429	0.998979
441.208218	1.000466
441.583947	1.000013
441.959616	1.000384
442.335224	1.000041
442.710773	1.000746
443.086261	0.999522
443.461689	0.999382
443.837057	0.999587
444.212365	0.999674
444.587612	0.999951
444.962800	0.999457
445.337927	0.999707
445.712995	0.999289
446.088002	1.000398
446.462949	1.000048
446.837837	1.000150
447.212664	1.000146
447.587431	1.000281
447.962139	0.999598
448.336786	1.000397
448.711374	0.999808
449.085901	0.999767
449.460369	1.000028
449.834776	0.999709
450.209124	1.000351
450.583412	0.999811
450.957640	1.000107
451.331808	0.999864
451.705917	0.999854
452.079965	0.999650
452.453954	1.000337
452.827883	0.999573
453.201752	0.999720
453.575562	0.999892
453.949311	1.000260
454.323001	0.999592
454.696632	0.999263
455.070202	0.999750
455.443713	0.999621
455.817164	0.999754
456.190556	0.999293
456.563888	0.999275
456.937160	1.000324
457.310373	1.000340
457.683526	0.999461
458.056619	0.999381
458.429653	0.999743
458.802628	0.999050
459.175542	0.999317
459.548398	0.999624
459.921194	0.999429
460.293930	1.000104
460.666607	0.999222
461.039224	0.998371
461.411782	1.000307
461.784280	0.999135
462.156719	1.000129
462.529099	0.999792
462.901419	0.999425
463.273680	0.999872
463.645882	0.999850
464.018024	0.999433
464.390106	0.999816
464.762130	1.000543
465.134094	1.000144
465.505999	1.000610
465.877845	0.999968
466.249631	1.000915
466.621358	1.000232
466.993026	1.000596
467.364634	0.999657
467.736184	1.000471
468.107674	0.999770
468.479105	1.000171
468.850477	1.000200
469.221790	0.999865
469.593043	1.000725
469.964238	1.000548
470.335373	0.999425
470.706449	0.999584
471.077467	1.000535
471.448425	0.999865
471.819324	1.001123
472.190164	0.999718
472.560945	0.999519
472.931667	1.000085
473.302330	0.999478
473.672934	1.000268
474.043479	1.000198
474.413965	0.999926
474.784393	1.000344
475.154761	0.999334
475.525070	0.999442
475.895321	0.999985
476.265513	0.999572
476.635645	1.000168
477.005719	0.999992
477.375734	0.999342
477.745691	1.000229
478.115588	1.000236
478.485427	1.000207
478.855207	0.999685
479.224928	1.000230
479.594591	1.000317
479.964194	1.000895
480.333739	1.000409
480.703226	0.999888
481.072653	1.000730
481.442022	1.000791
481.811333	0.999574
482.180584	1.000867
482.549777	0.999744
482.918912	1.000016
483.287988	1.000411
483.657005	1.000089
484.025964	1.000829
484.394864	1.000069
484.763706	1.000442
485.132489	0.999996
485.501213	1.000109
485.869879	1.000264
486.238487	1.000252
486.607036	1.000426
486.975527	0.999599
487.343959	1.000153
487.712333	1.000231
488.080648	0.999328
488.448905	0.999307
488.817104	1.000233
489.185244	1.000310
489.553326	1.000465
489.921350	0.999285
490.289315	1.000223
490.657222	1.000266
491.025070	0.999925
491.392861	1.000605
491.760593	0.999880
492.128267	0.999399
492.495883	0.999455
492.863440	0.999843
493.230939	0.999804
493.598380	0.999994
493.965763	0.999457
494.333088	0.999998
494.700354	0.998915
495.067563	0.999776
495.434713	0.999370
495.801805	0.999885
496.168839	0.999498
496.535815	0.999485
496.902733	0.998984
497.269593	0.999009
497.636395	0.999101
498.003139	0.999429
498.369825	0.998843
498.736453	0.998470
499.103023	0.997986
499.469535	0.998192
499.835989	0.997434
500.202385	0.998274
500.568723	0.998648
500.935003	0.997908
501.301226	0.997699
501.667390	0.997269
502.033497	0.997322
502.399546	0.997725
502.765537	0.996377
503.131470	0.996839
503.497345	0.995982
503.863163	0.997137
504.228923	0.996336
504.594625	0.995256
504.960269	0.995237
505.325856	0.994509
505.691385	0.993972
506.056856	0.993919
506.422270	0.993211
506.787625	0.992890
507.152924	0.991965
507.518164	0.991726
507.883347	0.991676
508.248472	0.990099
508.613540	0.989777
508.978550	0.989549
509.343503	0.987947
509.708398	0.987814
510.073236	0.987268
510.438016	0.987175
510.802738	0.985723
511.167403	0.984557
511.532010	0.983499
511.896561	0.982947
512.261053	0.983159
512.625488	0.980999
512.989866	0.980061
513.354186	0.978642
513.718449	0.977311
514.082655	0.976492
514.446803	0.976029
514.810894	0.974717
515.174927	0.972758
515.538904	0.971684
515.902822	0.969919
516.266684	0.968908
516.630488	0.967778
516.994235	0.965796
517.357925	0.963768
517.721558	0.963013
518.085133	0.960198
518.448651	0.959942
518.812112	0.957819
519.175516	0.955169
519.538863	0.953622
519.902152	0.951586
520.265385	0.949218
520.628560	0.947689
520.991678	0.945588
521.354739	0.943844
521.717743	0.941620
522.080690	0.939592
522.443580	0.936531
522.806413	0.933983
523.169189	0.931011
523.531908	0.928766
523.894569	0.926633
524.257174	0.924843
524.619722	0.920973
524.982213	0.919393
525.344647	0.915146
525.707025	0.912627
526.069345	0.909615
526.431608	0.906376
526.793815	0.904478
527.155964	0.900392
527.518057	0.898218
527.880093	0.894694
528.242072	0.890764
528.603995	0.887372
528.965860	0.885254
529.327669	0.880494
529.689421	0.877838
530.051117	0.875052
530.412755	0.869692
530.774337	0.867234
531.135862	0.862650
531.497331	0.859355
531.858743	0.855761
532.220098	0.851344
532.581396	0.848233
532.942638	0.844593
533.303824	0.840399
533.664953	0.835498
534.026025	0.831493
534.387040	0.827389
534.747999	0.823645
535.108902	0.819068
535.469748	0.815977
535.830537	0.811526
536.191270	0.807064
536.551947	0.802239
536.912567	0.798203
537.273131	0.795076
537.633638	0.789766
537.994089	0.785355
538.354483	0.781674
538.714821	0.776042
539.075103	0.771678
539.435328	0.767055
539.795497	0.764691
540.155609	0.757224
540.515665	0.752881
540.875665	0.749870
541.235609	0.744255
541.595496	0.739895
541.955328	0.732913
542.315102	0.729900
542.674821	0.725237
543.034483	0.720044
543.394090	0.715121
543.753640	0.711284
544.113134	0.703915
544.472571	0.700627
544.831953	0.693671
545.191278	0.690271
545.550548	0.686098
545.909761	0.678738
546.268918	0.674249
546.628019	0.669149
546.987064	0.664287
547.346053	0.662162
547.704986	0.654926
548.063863	0.650890
548.422684	0.647475
548.781449	0.642732
549.140158	0.636380
549.498811	0.633521
549.857408	0.631279
550.215949	0.622125
550.574434	0.619237
550.932864	0.612807
551.291237	0.608696
551.649555	0.602926
552.007817	0.598636
552.366022	0.594537
552.724173	0.589914
553.082267	0.586107
553.440305	0.577482
553.798288	0.577300
554.156215	0.569096
554.514086	0.564982
554.871902	0.562400
555.229661	0.557644
555.587365	0.553204
555.945014	0.551464
556.302606	0.542870
556.660143	0.541808
557.017625	0.533292
557.375050	0.531249
557.732421	0.524268
558.089735	0.521212
558.446994	0.517402
558.804197	0.512130
559.161345	0.507651
559.518437	0.506295
559.875474	0.498843
560.232455	0.494458
560.589381	0.491784
560.946251	0.485638
561.303065	0.482041
561.659825	0.477396
562.016528	0.475295
562.373177	0.473578
562.729770	0.466235
563.086307	0.464828
563.442789	0.459903
563.799216	0.456019
564.155587	0.452285
564.511904	0.448538
564.868164	0.445440
565.224370	0.442126
565.580520	0.438705
565.936615	0.436502
566.292654	0.434206
566.648638	0.428715
567.004567	0.425659
567.360441	0.423392
567.716260	0.420741
568.072023	0.416026
568.427732	0.413098
568.783385	0.413111
569.138982	0.407102
569.494525	0.403757
569.850013	0.403156
570.205445	0.398217
570.560823	0.398388
570.916145	0.396132
571.271412	0.391957
571.626625	0.390421
571.981782	0.387963
572.336884	0.385321
572.691931	0.383225
573.046923	0.380602
573.401860	0.378938
573.756743	0.377607
574.111570	0.373667
574.466342	0.371973
574.821059	0.368574
575.175722	0.368472
575.530330	0.365441
575.884882	0.363945
576.239380	0.362901
576.593823	0.360911
576.948211	0.358145
577.302544	0.359013
577.656823	0.355789
578.011047	0.354082
578.365216	0.352312
578.719330	0.352423
579.073389	0.349647
579.427394	0.349133
579.781344	0.348264
580.135239	0.347408
580.489080	0.345754
580.842866	0.346394
581.196597	0.344172
581.550273	0.341401
581.903895	0.340707
582.257463	0.337801
582.610975	0.339078
582.964434	0.337125
583.317837	0.337906
583.671186	0.336762
584.024481	0.335143
584.377721	0.336223
584.730906	0.335262
585.084037	0.333087
585.437113	0.333831
585.790135	0.331296
586.143103	0.332973
586.496016	0.332839
586.848874	0.329153
587.201679	0.329203
587.554428	0.330978
587.907124	0.328419
588.259765	0.327815
588.612352	0.327411
588.964884	0.330328
589.317362	0.328800
589.669786	0.327543
590.022155	0.325524
590.374470	0.323432
590.726731	0.324798
591.078937	0.327948
591.431090	0.323848
591.783188	0.326792
592.135232	0.326168
592.487222	0.325817
592.839157	0.322797
593.191038	0.324368
593.542866	0.325559
593.894639	0.328320
594.246358	0.325605
594.598022	0.324508
594.949633	0.327067
595.301190	0.327371
595.652692	0.326010
596.004141	0.321382
596.355535	0.328641
596.706876	0.328650
597.058162	0.330458
597.409395	0.327282
597.760573	0.324392
598.111698	0.327066
598.462768	0.326799
598.813785	0.327497
599.164748	0.328585
599.515657	0.328384
599.866511	0.331398
600.217312	0.326504
600.568060	0.331471
600.918753	0.327333
601.269392	0.327877
601.619978	0.330479
601.970510	0.328001
602.320988	0.327776
602.671412	0.325113
603.021783	0.327492
603.372100	0.328365
603.722363	0.327912
604.072572	0.328154
604.422728	0.328293
604.772830	0.330122
605.122878	0.329282
605.472872	0.329502
605.822813	0.327839
606.172701	0.330262
606.522534	0.327158
606.872314	0.326965
607.222041	0.327750
607.571714	0.325553
607.921333	0.327112
608.270899	0.326593
608.620411	0.323046
608.969870	0.326521
609.319276	0.326889
609.668627	0.326446
610.017926	0.324592
610.367171	0.323202
610.716362	0.324074
611.065500	0.324050
611.414585	0.322827
611.763616	0.323234
612.112594	0.323329
612.461518	0.322597
612.810389	0.320522
613.159207	0.322792
613.507971	0.324348
613.856682	0.319819
614.205340	0.321526
614.553945	0.318142
614.902496	0.322011
615.250994	0.319837
615.599439	0.320585
615.947830	0.320077
616.296169	0.320602
616.644454	0.320389
616.992686	0.320519
617.340864	0.317933
617.688990	0.321725
618.037063	0.318359
618.385082	0.320183
618.733048	0.316528
619.080961	0.319134
619.428821	0.318386
619.776628	0.317933
620.124382	0.320030
620.472083	0.320216
620.819731	0.319573
621.167326	0.323551
621.514868	0.323095
621.862357	0.326798
622.209793	0.326629
622.557176	0.328848
622.904506	0.329936
623.251783	0.332240
623.599007	0.334551
623.946179	0.334159
624.293297	0.335974
624.640363	0.339460
624.987376	0.340568
625.334336	0.342912
625.681243	0.344679
626.028097	0.345662
626.374899	0.346451
626.721647	0.346395
627.068343	0.349928
627.414987	0.350717
627.761577	0.352940
628.108115	0.350891
628.454600	0.356475
628.801032	0.353651
629.147412	0.355431
629.493739	0.355887
629.840014	0.358953
630.186236	0.356752
630.532405	0.361698
630.878521	0.359521
631.224585	0.361650
631.570597	0.365598
631.916556	0.363662
632.262462	0.363506
632.608316	0.365608
632.954117	0.366452
633.299866	0.367536
633.645562	0.367648
633.991206	0.372055
634.336797	0.374895
634.682336	0.377334
635.027823	0.379003
635.373257	0.379253
635.718639	0.383077
636.063968	0.382241
636.409245	0.388338
636.754470	0.388028
637.099642	0.390629
637.444762	0.393872
637.789829	0.392696
638.134845	0.396410
638.479808	0.397546
638.824719	0.397225
639.169577	0.401251
639.514383	0.399957
639.859137	0.404111
640.203839	0.404039
640.548489	0.404482
640.893086	0.406000
641.237632	0.407379
641.582125	0.405674
641.926566	0.407141
642.270955	0.407642
642.615292	0.407711
642.959576	0.406888
643.303809	0.407853
643.647990	0.407058
643.992118	0.407635
644.336195	0.411492
644.680219	0.409284
645.024192	0.410243
645.368112	0.403849
645.711981	0.402662
646.055797	0.398315
646.399562	0.400774
646.743274	0.392422
647.086935	0.390075
647.430544	0.390068
647.774101	0.389180
648.117606	0.388945
648.461059	0.388990
648.804460	0.391503
649.147810	0.396592
649.491108	0.398758
649.834354	0.400151
650.177548	0.405590
650.520690	0.410675
650.863781	0.412229
651.206820	0.411531
651.549807	0.415985
651.892742	0.419423
652.235626	0.419327
652.578458	0.420279
652.921238	0.426215
653.263967	0.424249
653.606644	0.427838
653.949269	0.427828
654.291843	0.431880
654.634365	0.428366
654.976836	0.431297
655.319255	0.431496
655.661622	0.433640
656.003938	0.433425
656.346203	0.436169
656.688416	0.434096
657.030577	0.437625
657.372687	0.439620
657.714746	0.440296
658.056753	0.437272
658.398708	0.441081
658.740612	0.442142
659.082465	0.438403
659.424266	0.438943
659.766016	0.438170
660.107715	0.440625
660.449362	0.440374
660.790958	0.440763
661.132503	0.441015
661.473996	0.438727
661.815438	0.439682
662.156829	0.439801
662.498168	0.440505
662.839456	0.441892
663.180693	0.439836
663.521879	0.439492
663.863013	0.440362
664.204097	0.438900
664.545129	0.435838
664.886110	0.436483
665.227040	0.433884
665.567918	0.436492
665.908746	0.434409
666.249522	0.433746
666.590248	0.434719
666.930922	0.433088
667.271545	0.432435
667.612118	0.432249
667.952639	0.433562
668.293109	0.432533
668.633528	0.435589
668.973896	0.435922
669.314213	0.435789
669.654480	0.437732
669.994695	0.437237
670.334859	0.438564
670.674973	0.438538
671.015035	0.438640
671.355047	0.438530
671.695008	0.439983
672.034918	0.441558
672.374777	0.441361
672.714585	0.442299
673.054342	0.441812
673.394049	0.442328
673.733705	0.439721
674.073310	0.440937
674.412864	0.443849
674.752368	0.444495
675.091820	0.444378
675.431223	0.449049
675.770574	0.448899
676.109875	0.451827
676.449125	0.451635
676.788324	0.454079
677.127473	0.459388
677.466571	0.459315
677.805619	0.461161
678.144616	0.461919
678.483562	0.463437
678.822458	0.466475
679.161303	0.467467
679.500098	0.467375
679.838842	0.468924
680.177535	0.468854
680.516179	0.467631
680.854771	0.466596
681.193314	0.459774
681.531805	0.451272
681.870247	0.439709
682.208638	0.432394
682.546978	0.431102
682.885268	0.433690
683.223508	0.439281
683.561697	0.443518
683.899836	0.445737
684.237925	0.449152
684.575963	0.451096
684.913951	0.454745
685.251889	0.450377
685.589776	0.452388
685.927614	0.454630
686.265401	0.449377
686.603137	0.450807
686.940824	0.444416
687.278460	0.442952
687.616046	0.441926
687.953582	0.437751
688.291068	0.438465
688.628504	0.434622
688.965889	0.436611
689.303224	0.440635
689.640510	0.444484
689.977745	0.450198
690.314930	0.458346
690.652065	0.462623
690.989150	0.470007
691.326185	0.476310
691.663170	0.481131
692.000105	0.488356
692.336990	0.495037
692.673825	0.496979
693.010610	0.504886
693.347345	0.509490
693.684030	0.511192
694.020665	0.516275
694.357251	0.525271
694.693786	0.524538
695.030272	0.529197
695.366707	0.532303
695.703093	0.535610
696.039429	0.533196
696.375716	0.534397
696.711952	0.538030
697.048139	0.540233
697.384276	0.542486
697.720363	0.540416
698.056400	0.539177
698.392388	0.544598
698.728326	0.547403
699.064214	0.550978
699.400053	0.551332
699.735842	0.554711
700.071581	0.557431
700.407270	0.560532
700.742910	0.563122
701.078501	0.569789
701.414042	0.569535
701.749533	0.572198
702.084974	0.581559
702.420366	0.574350
702.755709	0.581837
703.091002	0.589135
703.426246	0.582702
703.761440	0.588868
704.096584	0.593560
704.431679	0.590398
704.766725	0.592460
705.101721	0.593815
705.436668	0.590020
705.771565	0.596988
706.106413	0.593858
706.441212	0.589266
706.775961	0.587598
707.110661	0.590792
707.445311	0.586707
707.779913	0.584046
708.114465	0.583519
708.448967	0.579397
708.783421	0.571394
709.117825	0.566416
709.452180	0.566549
709.786485	0.560290
710.120742	0.549996
710.454949	0.551749
710.789107	0.544098
711.123216	0.535954
711.457275	0.537528
711.791286	0.528261
712.125247	0.526932
712.459159	0.538204
712.793023	0.530530
713.126837	0.534599
713.460602	0.534562
713.794318	0.543428
714.127985	0.542397
714.461602	0.552341
714.795171	0.556410
715.128691	0.563918
715.462162	0.571157
715.795584	0.577503
716.128957	0.579768
716.462281	0.585901
716.795556	0.589645
717.128782	0.594799
717.461960	0.603690
717.795088	0.602576
718.128167	0.608410
718.461198	0.617285
718.794180	0.618347
719.127113	0.620786
719.459997	0.624095
719.792833	0.631117
720.125619	0.632033
720.458357	0.638010
720.791046	0.637281
721.123686	0.640529
721.456278	0.647464
721.788821	0.644508
722.121315	0.648789
722.453761	0.652738
722.786158	0.650797
723.118506	0.647934
723.450805	0.655567
723.783056	0.652363
724.115259	0.648945
724.447412	0.648585
724.779518	0.650295
725.111574	0.648725
725.443582	0.644365
725.775542	0.646547
726.107453	0.638607
726.439315	0.638270
726.771129	0.637361
727.102895	0.630565
727.434612	0.622885
727.766281	0.621356
728.097901	0.620533
728.429473	0.620597
728.760996	0.619179
729.092471	0.618644
729.423897	0.622589
729.755276	0.621829
730.086606	0.622139
730.417887	0.617188
730.749120	0.607282
731.080305	0.597759
731.411442	0.594244
731.742530	0.598800
732.073570	0.598208
732.404562	0.590251
732.735506	0.591978
733.066401	0.596316
733.397249	0.605549
733.728048	0.616618
734.058798	0.629708
734.389501	0.639622
734.720156	0.650683
735.050762	0.657415
735.381320	0.658899
735.711831	0.668514
736.042293	0.672979
736.372707	0.668714
736.703073	0.673341
737.033391	0.675516
737.363661	0.672304
737.693883	0.667733
738.024056	0.665927
738.354182	0.667417
738.684260	0.656705
739.014290	0.652010
739.344272	0.653389
739.674207	0.646161
740.004093	0.646328
740.333931	0.646355
740.663722	0.646791
740.993464	0.646743
741.323159	0.650439
741.652806	0.656461
741.982405	0.660868
742.311956	0.665070
742.641460	0.667416
742.970915	0.671389
743.300323	0.679125
743.629683	0.684883
743.958996	0.687285
744.288260	0.691035
744.617477	0.696943
744.946647	0.699057
745.275768	0.703745
745.604842	0.704425
745.933869	0.714198
746.262847	0.714438
746.591778	0.708201
746.920662	0.714347
747.249498	0.720454
747.578286	0.711992
747.907027	0.707357
748.235720	0.708661
748.564365	0.703507
748.892963	0.703358
749.221514	0.705309
749.550017	0.711357
749.878473	0.711159
750.206881	0.717379
750.535242	0.719217
750.863555	0.718808
751.191821	0.719956
751.520039	0.723072
751.848210	0.728193
752.176334	0.721424
752.504411	0.719116
752.832440	0.727931
753.160421	0.731823
753.488356	0.729884
753.816243	0.726566
754.144082	0.736097
754.471875	0.739205
754.799620	0.734191
755.127318	0.735939
755.454969	0.736009
755.782572	0.734939
756.110129	0.740184
756.437638	0.742108
756.765100	0.739655
757.092515	0.736451
757.419882	0.736425
757.747203	0.740891
758.074477	0.740734
758.401703	0.737295
758.728882	0.733257
759.056014	0.731562
759.383099	0.731009
759.710138	0.732008
760.037129	0.728176
760.364073	0.722499
760.690970	0.724491
761.017820	0.730953
761.344623	0.725601
761.671379	0.717203
761.998088	0.706317
762.324751	0.682877
762.651366	0.642587
762.977935	0.576027
763.304456	0.524538
763.630931	0.514936
763.957359	0.553642
764.283740	0.597346
764.610074	0.624128
764.936362	0.655782
765.262602	0.681165
765.588796	0.702347
765.914943	0.720415
766.241044	0.738729
766.567097	0.744736
766.893104	0.754980
767.219064	0.760988
767.544978	0.767365
767.870845	0.781149
768.196665	0.785286
768.522438	0.782753
768.848165	0.783028
769.173846	0.792061
769.499479	0.797243
769.825066	0.799360
770.150607	0.805367
770.476101	0.800138
770.801548	0.801907
771.126949	0.812608
771.452303	0.816997
771.777611	0.815500
772.102872	0.814617
772.428087	0.820958
772.753256	0.823863
773.078378	0.825532
773.403453	0.835391
773.728482	0.839010
774.053465	0.832559
774.378401	0.835935
774.703291	0.844140
775.028135	0.843151
775.352932	0.845824
775.677683	0.848486
776.002388	0.848645
776.327046	0.847952
776.651658	0.851758
776.976224	0.854561
777.300743	0.854817
777.625216	0.857900
777.949643	0.858879
778.274024	0.859354
778.598359	0.860941
778.922647	0.858889
779.246889	0.859512
779.571086	0.864098
779.895236	0.866605
780.219339	0.863555
780.543397	0.861202
780.867409	0.858725
781.191374	0.860742
781.515294	0.861643
781.839167	0.861491
782.162995	0.864341
782.486776	0.861451
782.810511	0.863366
783.134201	0.866476
783.457844	0.863835
783.781441	0.866371
784.104993	0.873036
784.428498	0.873491
784.751958	0.868592
785.075372	0.871352
785.398739	0.875228
785.722061	0.870533
786.045337	0.866036
786.368568	0.871125
786.691752	0.874258
787.014891	0.859245
787.337983	0.851200
787.661030	0.843871
787.984031	0.826674
788.306987	0.813395
788.629897	0.815829
788.952760	0.819675
789.275579	0.824334
789.598351	0.838630
789.921078	0.851794
790.243759	0.853933
790.566395	0.859892
790.888984	0.866276
791.211529	0.871516
791.534027	0.873244
791.856480	0.876473
792.178888	0.881316
792.501249	0.883636
792.823566	0.883936
793.145836	0.885048
793.468062	0.887427
793.790241	0.887446
794.112375	0.885755
794.434464	0.880519
794.756507	0.880006
795.078505	0.879499
795.400457	0.874376
795.722364	0.862219
796.044226	0.856029
796.366042	0.853775
796.687812	0.857859
797.009538	0.853773
797.331218	0.857689
797.652852	0.860945
797.974442	0.866638
798.295986	0.866149
798.617484	0.869478
798.938938	0.873562
799.260346	0.879120
799.581709	0.879962
799.903026	0.882121
800.224299	0.882222
800.545526	0.886817
800.866708	0.891096
801.187845	0.895124
801.508936	0.894160
801.829983	0.892924
802.150984	0.895466
802.471940	0.900839
802.792851	0.898708
803.113717	0.899101
803.434538	0.898167
803.755314	0.901381
804.076045	0.902407
804.396731	0.901952
804.717372	0.901749
805.037967	0.903811
805.358518	0.901586
805.679024	0.899555
805.999485	0.899453
806.319901	0.899712
806.640272	0.901182
806.960598	0.898232
807.280879	0.895704
807.601115	0.894051
807.921306	0.898227
808.241453	0.897640
808.561554	0.895853
808.881611	0.895873
809.201623	0.898089
809.521590	0.898470
809.841513	0.899646
810.161390	0.898485
810.481223	0.899074
810.801011	0.902974
811.120755	0.904180
811.440453	0.904511
811.760107	0.902357
812.079716	0.902470
812.399281	0.906378
812.718801	0.909136
813.038276	0.909338
813.357707	0.906868
813.677093	0.906265
813.996434	0.909627
814.315731	0.910481
814.634983	0.911458
814.954191	0.909905
815.273354	0.906479
815.592473	0.903785
815.911547	0.901950
816.230577	0.900441
816.549562	0.898882
816.868502	0.899363
817.187399	0.895731
817.506250	0.889904
817.825058	0.892564
818.143821	0.889482
818.462539	0.883725
818.781213	0.876482
819.099843	0.865594
819.418429	0.849560
819.736970	0.833006
820.055466	0.814226
820.373919	0.789070
820.692327	0.756805
821.010691	0.722531
821.329011	0.647151
821.647286	0.533224
821.965517	0.421587
822.283704	0.379361
822.601847	0.380616
822.919945	0.416492
823.237999	0.449215
823.556010	0.494925
823.873976	0.549439
824.191897	0.599251
824.509775	0.641411
824.827609	0.686425
825.145398	0.708082
825.463144	0.710882
825.780845	0.693780
826.098502	0.675992
826.416116	0.630721
826.733685	0.587878
827.051210	0.579641
827.368692	0.593830
827.686129	0.630728
828.003522	0.682329
828.320872	0.729002
828.638177	0.772489
828.955439	0.803939
829.272656	0.826085
829.589830	0.842867
829.906960	0.857548
830.224046	0.869907
830.541088	0.880574
830.858086	0.883946
831.175041	0.890787
831.491952	0.889265
831.808819	0.885917
832.125642	0.879656
832.442421	0.865775
832.759157	0.844005
833.075849	0.798832
833.392497	0.735976
833.709101	0.696421
834.025662	0.705387
834.342179	0.736530
834.658653	0.775707
834.975083	0.809958
835.291469	0.836502
835.607811	0.858412
835.924110	0.873718
836.240366	0.891042
836.556578	0.904334
836.872746	0.910775
837.188871	0.917177
837.504952	0.921885
837.820990	0.925444
838.136984	0.929662
838.452935	0.932051
838.768842	0.934061
839.084706	0.925929
839.400526	0.901641
839.716303	0.863646
840.032037	0.840654
840.347727	0.844383
840.663373	0.861544
840.978977	0.883063
841.294537	0.905270
841.610054	0.919888
841.925527	0.927446
842.240957	0.935605
842.556344	0.941907
842.871687	0.947996
843.186987	0.951716
843.502244	0.951905
843.817458	0.953518
844.132629	0.957327
844.447756	0.962721
844.762840	0.960613
845.077881	0.961115
845.392879	0.961537
845.707833	0.963469
846.022745	0.966534
846.337613	0.965649
846.652438	0.967700
846.967221	0.966110
847.281960	0.966918
847.596656	0.969194
847.911309	0.966719
848.225919	0.969072
848.540485	0.969294
848.855009	0.970266
849.169490	0.970029
849.483928	0.970042
849.798323	0.969838
850.112675	0.969625
850.426984	0.970414
850.741251	0.970806
851.055474	0.971471
851.369654	0.969117
851.683792	0.969414
851.997887	0.971524
852.311938	0.971525
852.625947	0.971064
852.939914	0.968748
853.253837	0.970156
853.567718	0.972211
853.881555	0.972179
854.195350	0.970367
854.509103	0.969400
854.822812	0.971259
855.136479	0.970314
855.450103	0.970916
855.763685	0.970106
856.077224	0.969315
856.390720	0.971963
856.704173	0.971484
857.017584	0.969801
857.330953	0.968170
857.644278	0.968920
857.957561	0.970185
858.270802	0.969963
858.584000	0.968908
858.897155	0.969093
859.210268	0.969274
859.523339	0.969662
859.836367	0.970852
860.149352	0.972299
860.462295	0.970169
860.775195	0.972060
861.088054	0.970058
861.400869	0.971182
861.713642	0.971805
862.026373	0.971908
862.339062	0.971408
862.651708	0.969270
862.964312	0.968949
863.276873	0.970506
863.589392	0.970416
863.901869	0.968322
864.214303	0.965676
864.526696	0.966386
864.839045	0.964930
865.151353	0.963145
865.463619	0.964543
865.775842	0.963761
866.088023	0.964269
866.400162	0.963617
866.712258	0.964239
867.024313	0.964387
867.336325	0.964372
867.648296	0.965041
867.960224	0.963407
868.272110	0.963596
868.583954	0.965201
868.895755	0.965008
869.207515	0.962395
869.519233	0.960545
869.830909	0.962962
870.142542	0.963496
870.454134	0.963574
870.765684	0.962109
871.077191	0.959794
871.388657	0.959960
871.700081	0.959094
872.011463	0.960688
872.322803	0.959550
872.634101	0.957108
872.945357	0.956153
873.256571	0.954995
873.567744	0.954984
873.878874	0.955478
874.189963	0.954957
874.501010	0.953401
874.812015	0.951024
875.122979	0.953155
875.433900	0.954995
875.744780	0.957163
876.055618	0.953089
876.366415	0.953301
876.677169	0.951961
876.987882	0.954465
877.298554	0.953303
877.609183	0.949752
877.919771	0.947213
878.230317	0.944718
878.540822	0.943404
878.851285	0.937600
879.161707	0.930870
879.472087	0.919170
879.782425	0.904115
880.092722	0.870698
880.402977	0.820203
880.713191	0.762001
881.023363	0.704960
881.333494	0.672519
881.643583	0.644465
881.953631	0.644211
882.263637	0.672789
882.573602	0.711063
882.883526	0.736925
883.193408	0.758264
883.503248	0.779165
883.813048	0.805898
884.122806	0.835037
884.432522	0.857878
884.742197	0.877232
885.051831	0.886821
885.361424	0.897056
885.670975	0.907393
885.980485	0.917489
886.289954	0.924178
886.599382	0.927894
886.908768	0.932420
887.218113	0.938868
887.527417	0.941399
887.836680	0.945627
888.145901	0.945668
888.455082	0.949477
888.764221	0.953702
889.073319	0.954654
889.382376	0.955722
889.691392	0.955193
890.000366	0.955623
890.309300	0.956664
890.618193	0.955742
890.927044	0.954635
891.235855	0.954055
891.544625	0.952968
891.853353	0.953916
892.162041	0.952264
892.470687	0.945916
892.779293	0.941692
893.087858	0.937607
893.396381	0.929727
893.704864	0.917035
894.013306	0.894602
894.321707	0.869413
894.630068	0.855420
894.938387	0.851039
895.246665	0.852369
895.554903	0.864564
895.863100	0.876401
896.171256	0.892807
896.479371	0.911761
896.787446	0.925303
897.095480	0.929941
897.403473	0.931591
897.711425	0.936134
898.019336	0.943642
898.327207	0.946024
898.635038	0.948904
898.942827	0.947238
899.250576	0.950660
899.558284	0.956409
899.865952	0.957653
900.173579	0.957106
900.481165	0.958347
900.788711	0.962584
901.096216	0.963479
901.403681	0.963501
901.711105	0.965152
902.018489	0.966178
902.325832	0.965045
902.633135	0.964220
902.940397	0.958576
903.247619	0.946478
903.554800	0.922549
903.861941	0.885227
904.169041	0.851468
904.476101	0.835128
904.783121	0.836568
905.090100	0.852253
905.397039	0.872309
905.703938	0.892346
906.010796	0.911015
906.317614	0.927243
906.624391	0.938786
906.931129	0.947539
907.237826	0.954796
907.544483	0.961737
907.851099	0.965271
908.157675	0.969859
908.464211	0.971567
908.770707	0.974177
909.077163	0.976099
909.383578	0.975848
909.689954	0.976448
909.996289	0.976654
910.302584	0.979403
910.608839	0.980701
910.915054	0.979402
911.221229	0.979829
911.527363	0.978738
911.833458	0.979563
912.139513	0.979107
912.445527	0.976818
912.751502	0.975523
913.057436	0.973889
913.363331	0.972307
913.669186	0.969020
913.975000	0.964024
914.280775	0.958655
914.586510	0.952081
914.892205	0.940485
915.197859	0.919987
915.503475	0.893101
915.809050	0.874885
916.114585	0.870666
916.420081	0.868379
916.725536	0.865280
917.030952	0.873285
917.336328	0.884335
917.641665	0.898732
917.946961	0.913640
918.252218	0.925164
918.557435	0.932231
918.862612	0.939477
919.167750	0.946836
919.472848	0.950206
919.777906	0.955616
920.082925	0.960736
920.387904	0.964642
920.692843	0.965618
920.997743	0.967301
921.302603	0.969846
921.607423	0.969953
921.912204	0.973873
922.216946	0.973645
922.521647	0.975624
922.826310	0.976875
923.130932	0.978054
923.435516	0.980668
923.740059	0.981287
924.044564	0.980613
924.349028	0.981319
924.653454	0.984955
924.957840	0.985964
925.262186	0.985811
925.566493	0.984294
925.870761	0.985432
926.174989	0.988096
926.479178	0.988884
926.783328	0.988917
927.087438	0.989167
927.391509	0.990338
927.695541	0.990830
927.999533	0.989766
928.303486	0.989960
928.607400	0.992064
928.911275	0.990123
929.215110	0.990965
929.518906	0.992745
929.822663	0.990946
930.126381	0.991745
930.430060	0.991943
930.733699	0.990453
931.037299	0.990560
931.340861	0.991820
931.644383	0.991712
931.947866	0.990420
932.251309	0.991651
932.554714	0.990950
932.858080	0.990180
933.161407	0.990705
933.464694	0.992063
933.767943	0.990269
934.071153	0.991955
934.374323	0.992699
934.677455	0.991058
934.980548	0.992876
935.283602	0.992486
935.586617	0.992293
935.889593	0.990646
936.192530	0.991782
936.495428	0.992220
936.798287	0.991824
937.101108	0.991720
937.403890	0.989864
937.706632	0.990175
938.009336	0.988978
938.312002	0.988119
938.614628	0.985267
938.917216	0.984711
939.219765	0.982027
939.522275	0.984705
939.824747	0.984209
940.127179	0.984400
940.429573	0.985087
940.731929	0.985495
941.034246	0.986415
941.336524	0.987491
941.638763	0.988327
941.940964	0.988601
942.243126	0.988096
942.545250	0.988732
942.847335	0.989579
943.149381	0.989200
943.451389	0.990131
943.753359	0.988899
944.055290	0.991416
944.357182	0.990797
944.659036	0.990257
944.960851	0.989942
945.262628	0.989948
945.564367	0.991504
945.866067	0.991295
946.167729	0.990561
946.469352	0.991210
946.770937	0.988918
947.072484	0.991287
947.373992	0.991464
947.675462	0.991633
947.976893	0.991007
948.278286	0.990684
948.579641	0.992074
948.880958	0.990738
949.182236	0.991216
949.483476	0.992621
949.784678	0.992051
950.085841	0.992538
950.386967	0.991725
950.688054	0.992175
950.989103	0.992385
951.290114	0.990712
951.591087	0.991605
951.892021	0.990949
952.192917	0.990087
952.493776	0.989047
952.794596	0.989164
953.095378	0.988648
953.396122	0.989307
953.696828	0.988118
953.997496	0.991061
954.298126	0.992071
954.598718	0.992025
954.899272	0.991026
955.199788	0.990310
955.500266	0.993297
955.800706	0.993424
956.101108	0.993594
956.401472	0.994609
956.701798	0.994712
957.002087	0.993791
957.302337	0.994606
957.602550	0.995238
957.902724	0.994988
958.202861	0.995618
958.502960	0.995405
958.803022	0.995806
959.103045	0.996736
959.403031	0.996159
959.702979	0.995563
960.002889	0.997204
960.302762	0.995139
960.602596	0.996658
960.902393	0.994295
961.202153	0.997247
961.501875	0.997043
961.801559	0.996623
962.101205	0.996132
962.400814	0.996606
962.700385	0.997052
962.999918	0.997088
963.299414	0.996051
963.598873	0.995098
963.898293	0.995925
964.197677	0.996466
964.497022	0.996659
964.796331	0.998584
965.095601	0.996917
965.394835	0.996633
965.694030	0.997356
965.993189	0.998055
966.292309	0.995413
966.591393	0.996932
966.890439	0.997866
967.189447	0.996328
967.488419	0.997035
967.787353	0.996060
968.086249	0.996773
968.385108	0.997170
968.683930	0.997173
968.982714	0.997460
969.281462	0.998027
969.580172	0.996723
969.878844	0.997888
970.177480	0.996369
970.476078	0.996799
970.774639	0.996703
971.073162	0.997643
971.371649	0.997277
971.670098	0.997838
971.968510	0.997733
972.266885	0.995295
972.565223	0.996159
972.863524	0.997058
973.161788	0.996846
973.460014	0.998158
973.758204	0.995283
974.056356	0.996414
974.354471	0.994538
974.652550	0.997002
974.950591	0.996142
975.248595	0.996336
975.546563	0.996595
975.844493	0.998642
976.142386	0.996735
976.440243	0.998083
976.738062	0.997226
977.035845	0.998697
977.333590	0.996713
977.631299	0.998595
977.928971	0.995889
978.226606	0.997075
978.524204	0.996351
978.821765	0.997763
979.119290	0.996762
979.416777	0.996935
979.714228	0.997275
980.011642	0.996270
980.309020	0.997512
980.606360	0.996552
980.903664	0.998363
981.200931	0.996916
981.498162	0.995657
981.795356	0.995612
982.092513	0.994042
982.389633	0.995862
982.686717	0.991741
982.983764	0.993584
983.280775	0.990836
983.577749	0.990861
983.874686	0.991946
984.171587	0.991962
984.468451	0.995012
984.765279	0.993742
985.062070	0.994495
985.358824	0.995242
985.655543	0.994681
985.952224	0.996820
986.248869	0.996440
986.545478	0.996561
986.842050	0.998749
987.138586	0.996231
987.435086	0.997709
987.731549	0.998816
988.027975	0.998079
988.324366	0.998435
988.620719	0.998337
988.917037	0.996286
989.213318	0.998854
989.509563	0.998286
989.805772	0.998788
990.101944	0.999496
990.398080	0.998602
990.694180	0.997690
990.990244	0.997564
991.286271	0.997986
991.582262	0.998433
991.878217	0.997708
992.174136	1.000074
992.470019	0.998202
992.765865	0.998381
993.061676	0.997968
993.357450	0.997678
993.653188	0.996361
993.948890	0.996820
994.244556	0.998822
994.540186	0.996995
994.835780	0.995775
995.131337	0.998672
995.426859	0.996784
995.722345	0.998364
996.017795	0.996174
996.313208	0.997221
996.608586	0.995200
996.903928	0.996990
997.199234	0.995942
997.494504	0.996834
997.789738	0.996626
998.084936	0.995855
998.380099	0.998305
998.675225	0.995368
998.970316	0.998092
999.265371	0.997262
999.560390	0.999450
999.855373	0.999242
1000.150320	0.998761
1000.445232	0.998124
1000.740108	0.998443
1001.034948	0.998278
1001.329752	1.000351
1001.624521	0.999123
1001.919254	0.998050
1002.213951	0.998637
1002.508613	0.998267
1002.803239	0.998423
1003.097829	0.998277
1003.392384	0.999637
1003.686903	0.998288
1003.981386	0.998778
1004.275834	0.998605
1004.570246	0.998650
1004.864623	0.999745
1005.158964	0.999109
1005.453270	0.998780
1005.747540	0.997760
1006.041775	0.998680
1006.335974	0.998864
1006.630138	0.999083
1006.924266	0.999547
1007.218359	1.000390
1007.512416	0.999062
1007.806438	0.999876
1008.100425	0.999605
1008.394376	0.999264
1008.688292	0.998610
1008.982172	0.999635
1009.276017	0.998957
1009.569827	0.997723
1009.863602	0.998641
1010.157341	0.999859
1010.451045	1.000290
1010.744714	0.998569
1011.038347	0.999180
1011.331945	0.998011
1011.625508	0.999094
1011.919036	0.999654
1012.212528	0.999866
1012.505986	0.997400
1012.799408	0.998329
1013.092795	0.999336
1013.386147	0.998936
1013.679464	0.998863
1013.972745	0.999437
1014.265992	0.996952
1014.559204	0.998757
1014.852380	0.999018
1015.145521	0.999024
1015.438628	0.999872
1015.731699	0.999001
1016.024736	0.999641
1016.317737	0.999358
1016.610703	0.998391
1016.903635	0.999776
1017.196531	0.998701
1017.489393	1.000282
1017.782219	0.999039
1018.075011	0.999642
1018.367768	0.998867
1018.660490	0.999658
1018.953177	0.999658
1019.245829	0.999658
