Dividing Wavelength (nm)	Counts (n)	Blue Motor Position (mm): 0.000000	Red Motor Position (mm): 23.400000	
326.493990	0.999812
326.888308	0.999812
327.282561	0.999812
327.676750	0.998947
328.070874	0.998304
328.464933	1.000356
328.858929	0.999729
329.252859	1.000247
329.646726	0.999023
330.040528	1.000237
330.434265	0.998184
330.827938	1.001194
331.221547	0.999864
331.615091	1.000065
332.008571	0.999765
332.401986	0.999263
332.795338	0.999880
333.188625	0.999022
333.581847	1.001121
333.975006	0.999757
334.368100	0.999131
334.761129	0.999913
335.154095	1.000199
335.546996	0.997271
335.939833	0.993316
336.332606	0.994519
336.725315	0.994951
337.117960	0.995744
337.510540	0.994934
337.903056	0.996045
338.295508	0.993875
338.687896	0.995323
339.080220	0.994920
339.472480	0.994586
339.864676	0.994357
340.256807	0.994342
340.648875	0.995534
341.040879	0.995105
341.432818	0.995068
341.824694	0.994314
342.216506	0.995131
342.608253	0.994188
342.999937	0.993955
343.391557	0.994893
343.783113	0.994101
344.174605	0.993434
344.566033	0.995297
344.957397	0.993218
345.348697	0.993607
345.739934	0.994302
346.131106	0.994271
346.522215	0.994348
346.913260	0.994270
347.304241	0.994322
347.695159	0.995184
348.086012	0.993240
348.476802	0.994426
348.867528	0.993942
349.258191	0.993931
349.648789	0.995177
350.039324	0.995321
350.429796	0.994307
350.820203	0.994360
351.210548	0.994739
351.600828	0.994135
351.991045	0.994663
352.381198	0.992708
352.771288	0.994860
353.161314	0.993709
353.551276	0.994650
353.941175	0.994367
354.331010	0.994006
354.720782	0.995725
355.110490	0.993248
355.500135	0.994747
355.889717	0.993867
356.279235	0.994724
356.668689	0.994078
357.058080	0.994645
357.447408	0.995251
357.836672	0.994702
358.225873	0.994187
358.615010	0.994441
359.004084	0.995638
359.393095	0.994116
359.782043	0.994994
360.170927	0.995984
360.559748	0.995206
360.948505	0.994570
361.337199	0.992890
361.725830	0.994595
362.114398	0.994590
362.502903	0.996088
362.891344	0.996122
363.279722	0.994001
363.668037	0.995191
364.056289	0.995145
364.444478	0.995112
364.832603	0.993166
365.220665	0.994305
365.608665	0.993064
365.996601	0.993830
366.384474	0.993929
366.772284	0.994215
367.160031	0.992720
367.547715	0.993230
367.935336	0.993840
368.322893	0.994289
368.710388	0.992121
369.097820	0.994780
369.485189	0.993491
369.872495	0.994093
370.259738	0.993073
370.646918	0.995949
371.034035	0.995159
371.421090	0.994512
371.808081	0.993672
372.195010	0.994954
372.581875	0.994941
372.968678	0.994026
373.355418	0.994841
373.742096	0.995447
374.128710	0.995845
374.515262	0.994391
374.901751	0.995176
375.288177	0.994490
375.674540	0.995591
376.060841	0.994780
376.447079	0.994862
376.833254	0.995682
377.219367	0.995859
377.605417	0.995415
377.991404	0.994852
378.377329	0.994185
378.763191	0.995438
379.148991	0.996256
379.534727	0.993911
379.920402	0.994999
380.306013	0.995922
380.691563	0.995830
381.077049	0.994405
381.462474	0.995878
381.847835	0.995872
382.233134	0.994998
382.618371	0.995990
383.003545	0.995266
383.388657	0.995101
383.773706	0.996174
384.158693	0.996342
384.543618	0.995565
384.928480	0.996826
385.313280	0.996205
385.698017	0.996822
386.082692	0.995614
386.467305	0.996853
386.851856	0.995484
387.236344	0.995411
387.620770	0.995862
388.005133	0.997107
388.389435	0.996874
388.773674	0.995423
389.157851	0.996497
389.541965	0.996897
389.926018	0.995099
390.310008	0.997663
390.693936	0.996026
391.077802	0.995984
391.461606	0.996269
391.845348	0.996317
392.229027	0.997028
392.612645	0.996237
392.996200	0.997821
393.379694	0.996065
393.763125	0.997806
394.146494	0.996232
394.529801	0.995439
394.913047	0.996515
395.296230	0.997124
395.679351	0.996360
396.062410	0.995592
396.445408	0.996507
396.828343	0.995967
397.211217	0.995238
397.594028	0.996492
397.976778	0.995520
398.359466	0.996312
398.742092	0.995631
399.124656	0.996235
399.507158	0.996403
399.889598	0.996374
400.271977	0.997431
400.654294	0.996642
401.036549	0.996763
401.418742	0.997067
401.800874	0.995805
402.182944	0.996404
402.564952	0.996188
402.946898	0.997442
403.328783	0.997214
403.710606	0.996323
404.092367	0.996601
404.474067	0.997451
404.855705	0.996846
405.237282	0.996787
405.618797	0.996827
406.000250	0.996310
406.381642	0.997143
406.762972	0.996625
407.144240	0.997690
407.525447	0.996495
407.906593	0.996108
408.287677	0.996880
408.668700	0.996929
409.049661	0.995745
409.430560	0.996782
409.811399	0.996285
410.192176	0.996547
410.572891	0.996220
410.953545	0.996300
411.334138	0.995903
411.714669	0.996867
412.095139	0.995879
412.475547	0.997032
412.855894	0.996565
413.236180	0.996938
413.616405	0.996313
413.996568	0.996690
414.376670	0.995825
414.756711	0.996227
415.136691	0.996430
415.516609	0.995623
415.896466	0.996268
416.276262	0.995203
416.655997	0.997107
417.035670	0.995848
417.415283	0.996758
417.794834	0.996526
418.174324	0.995660
418.553753	0.996569
418.933121	0.996010
419.312428	0.995779
419.691674	0.995274
420.070859	0.995668
420.449983	0.995543
420.829045	0.996508
421.208047	0.996309
421.586988	0.996653
421.965867	0.995739
422.344686	0.997197
422.723444	0.994923
423.102141	0.995683
423.480777	0.995696
423.859352	0.994801
424.237866	0.994354
424.616319	0.994221
424.994712	0.993795
425.373044	0.993648
425.751314	0.992276
426.129524	0.991491
426.507673	0.991599
426.885762	0.990598
427.263789	0.989024
427.641756	0.988492
428.019662	0.987535
428.397508	0.984935
428.775292	0.983426
429.153016	0.981946
429.530679	0.982034
429.908282	0.979665
430.285824	0.976741
430.663305	0.974631
431.040726	0.973446
431.418086	0.971687
431.795385	0.968613
432.172624	0.966123
432.549802	0.963179
432.926920	0.959895
433.303977	0.957027
433.680974	0.954509
434.057910	0.949694
434.434786	0.947386
434.811601	0.943087
435.188355	0.937828
435.565050	0.935473
435.941683	0.931031
436.318257	0.925607
436.694770	0.919384
437.071222	0.915318
437.447614	0.910818
437.823946	0.907372
438.200218	0.900774
438.576429	0.896758
438.952580	0.889547
439.328670	0.882709
439.704700	0.878183
440.080670	0.873449
440.456580	0.862008
440.832429	0.856508
441.208218	0.853249
441.583947	0.843074
441.959616	0.836783
442.335224	0.830974
442.710773	0.821287
443.086261	0.811960
443.461689	0.810140
443.837057	0.798672
444.212365	0.787767
444.587612	0.782834
444.962800	0.771039
445.337927	0.764181
445.712995	0.766138
446.088002	0.742290
446.462949	0.739048
446.837837	0.732433
447.212664	0.720368
447.587431	0.705793
447.962139	0.682328
448.336786	0.654574
448.711374	0.652027
449.085901	0.665561
449.460369	0.658573
449.834776	0.651014
450.209124	0.631120
450.583412	0.617362
450.957640	0.607304
451.331808	0.604357
451.705917	0.609920
452.079965	0.604757
452.453954	0.589060
452.827883	0.585906
453.201752	0.574805
453.575562	0.575691
453.949311	0.558902
454.323001	0.557469
454.696632	0.547017
455.070202	0.533953
455.443713	0.521791
455.817164	0.511101
456.190556	0.501232
456.563888	0.491976
456.937160	0.483826
457.310373	0.490726
457.683526	0.483300
458.056619	0.481730
458.429653	0.476809
458.802628	0.473623
459.175542	0.464139
459.548398	0.444139
459.921194	0.433763
460.293930	0.429762
460.666607	0.405866
461.039224	0.391981
461.411782	0.383891
461.784280	0.377753
462.156719	0.376178
462.529099	0.375324
462.901419	0.385119
463.273680	0.385150
463.645882	0.380967
464.018024	0.382124
464.390106	0.372533
464.762130	0.355622
465.134094	0.338276
465.505999	0.308913
465.877845	0.278747
466.249631	0.263152
466.621358	0.266296
466.993026	0.275960
467.364634	0.278995
467.736184	0.285078
468.107674	0.291425
468.479105	0.288883
468.850477	0.294070
469.221790	0.298985
469.593043	0.307597
469.964238	0.311007
470.335373	0.309014
470.706449	0.306192
471.077467	0.306085
471.448425	0.267827
471.819324	0.242928
472.190164	0.242026
472.560945	0.269226
472.931667	0.290590
473.302330	0.294249
473.672934	0.305082
474.043479	0.293270
474.413965	0.294477
474.784393	0.297854
475.154761	0.292273
475.525070	0.289304
475.895321	0.295005
476.265513	0.288609
476.635645	0.283521
477.005719	0.283555
477.375734	0.279982
477.745691	0.273071
478.115588	0.269281
478.485427	0.262788
478.855207	0.249666
479.224928	0.231999
479.594591	0.220119
479.964194	0.223453
480.333739	0.224380
480.703226	0.226033
481.072653	0.224286
481.442022	0.219858
481.811333	0.216223
482.180584	0.219648
482.549777	0.224853
482.918912	0.228278
483.287988	0.227767
483.657005	0.227500
484.025964	0.233886
484.394864	0.231116
484.763706	0.231672
485.132489	0.236435
485.501213	0.237068
485.869879	0.235376
486.238487	0.238680
486.607036	0.236622
486.975527	0.241073
487.343959	0.236925
487.712333	0.236001
488.080648	0.237519
488.448905	0.236540
488.817104	0.237741
489.185244	0.232185
489.553326	0.229114
489.921350	0.218879
490.289315	0.201458
490.657222	0.196452
491.025070	0.197795
491.392861	0.199834
491.760593	0.205313
492.128267	0.210950
492.495883	0.216483
492.863440	0.222513
493.230939	0.229164
493.598380	0.230205
493.965763	0.232304
494.333088	0.234723
494.700354	0.235958
495.067563	0.235161
495.434713	0.238337
495.801805	0.236085
496.168839	0.237879
496.535815	0.238799
496.902733	0.238953
497.269593	0.240651
497.636395	0.238575
498.003139	0.238601
498.369825	0.241366
498.736453	0.237885
499.103023	0.239365
499.469535	0.238831
499.835989	0.239023
500.202385	0.240042
500.568723	0.243037
500.935003	0.238412
501.301226	0.242392
501.667390	0.236757
502.033497	0.234887
502.399546	0.238005
502.765537	0.239580
503.131470	0.238103
503.497345	0.234205
503.863163	0.243139
504.228923	0.235986
504.594625	0.234537
504.960269	0.240008
505.325856	0.235217
505.691385	0.239582
506.056856	0.236411
506.422270	0.235742
506.787625	0.238266
507.152924	0.235674
507.518164	0.236053
507.883347	0.237613
508.248472	0.239516
508.613540	0.234475
508.978550	0.236798
509.343503	0.237242
509.708398	0.235017
510.073236	0.232600
510.438016	0.232673
510.802738	0.233709
511.167403	0.232535
511.532010	0.234715
511.896561	0.229790
512.261053	0.228745
512.625488	0.231001
512.989866	0.231257
513.354186	0.231423
513.718449	0.233393
514.082655	0.229783
514.446803	0.232003
514.810894	0.229595
515.174927	0.232292
515.538904	0.231493
515.902822	0.228712
516.266684	0.230967
516.630488	0.232312
516.994235	0.231139
517.357925	0.229775
517.721558	0.228023
518.085133	0.227366
518.448651	0.227658
518.812112	0.229766
519.175516	0.229292
519.538863	0.227048
519.902152	0.228768
520.265385	0.225654
520.628560	0.227061
520.991678	0.227785
521.354739	0.226787
521.717743	0.227659
522.080690	0.228319
522.443580	0.225726
522.806413	0.226649
523.169189	0.225770
523.531908	0.224787
523.894569	0.228450
524.257174	0.228342
524.619722	0.225982
524.982213	0.227274
525.344647	0.226464
525.707025	0.227020
526.069345	0.225070
526.431608	0.226940
526.793815	0.224892
527.155964	0.229029
527.518057	0.227776
527.880093	0.228777
528.242072	0.227416
528.603995	0.229015
528.965860	0.231072
529.327669	0.229680
529.689421	0.230762
530.051117	0.231590
530.412755	0.229319
530.774337	0.231880
531.135862	0.232125
531.497331	0.231355
531.858743	0.234221
532.220098	0.230768
532.581396	0.233505
532.942638	0.233740
533.303824	0.234885
533.664953	0.234736
534.026025	0.236326
534.387040	0.234382
534.747999	0.234333
535.108902	0.233176
535.469748	0.238109
535.830537	0.235990
536.191270	0.236384
536.551947	0.236045
536.912567	0.235812
537.273131	0.237836
537.633638	0.237984
537.994089	0.238438
538.354483	0.239241
538.714821	0.236470
539.075103	0.235845
539.435328	0.236882
539.795497	0.240506
540.155609	0.236978
540.515665	0.234962
540.875665	0.240975
541.235609	0.239465
541.595496	0.239668
541.955328	0.236044
542.315102	0.238672
542.674821	0.239489
543.034483	0.239723
543.394090	0.239654
543.753640	0.241620
544.113134	0.236614
544.472571	0.239856
544.831953	0.236443
545.191278	0.240806
545.550548	0.240095
545.909761	0.237223
546.268918	0.237642
546.628019	0.236017
546.987064	0.238828
547.346053	0.240589
547.704986	0.238441
548.063863	0.238781
548.422684	0.239101
548.781449	0.240870
549.140158	0.238476
549.498811	0.241141
549.857408	0.244357
550.215949	0.239272
550.574434	0.242056
550.932864	0.240355
551.291237	0.239109
551.649555	0.240473
552.007817	0.240113
552.366022	0.241048
552.724173	0.241092
553.082267	0.241055
553.440305	0.238402
553.798288	0.242978
554.156215	0.239273
554.514086	0.239867
554.871902	0.243172
555.229661	0.242527
555.587365	0.242955
555.945014	0.245333
556.302606	0.242457
556.660143	0.245103
557.017625	0.241512
557.375050	0.243752
557.732421	0.240831
558.089735	0.242834
558.446994	0.242926
558.804197	0.241810
559.161345	0.241619
559.518437	0.245461
559.875474	0.243184
560.232455	0.242560
560.589381	0.243589
560.946251	0.243834
561.303065	0.241428
561.659825	0.242804
562.016528	0.244254
562.373177	0.247133
562.729770	0.244259
563.086307	0.246492
563.442789	0.244405
563.799216	0.247116
564.155587	0.245876
564.511904	0.247032
564.868164	0.247130
565.224370	0.247117
565.580520	0.248820
565.936615	0.248351
566.292654	0.251570
566.648638	0.248442
567.004567	0.249614
567.360441	0.249825
567.716260	0.252013
568.072023	0.249920
568.427732	0.250537
568.783385	0.252926
569.138982	0.251276
569.494525	0.250753
569.850013	0.253793
570.205445	0.252307
570.560823	0.254403
570.916145	0.256721
571.271412	0.254852
571.626625	0.255958
571.981782	0.256953
572.336884	0.257343
572.691931	0.257513
573.046923	0.258404
573.401860	0.260043
573.756743	0.261509
574.111570	0.260524
574.466342	0.260907
574.821059	0.260040
575.175722	0.262857
575.530330	0.262630
575.884882	0.262954
576.239380	0.264817
576.593823	0.265608
576.948211	0.265174
577.302544	0.267972
577.656823	0.268031
578.011047	0.267767
578.365216	0.268400
578.719330	0.270832
579.073389	0.270146
579.427394	0.271576
579.781344	0.272257
580.135239	0.273806
580.489080	0.273263
580.842866	0.276087
581.196597	0.276201
581.550273	0.274956
581.903895	0.276081
582.257463	0.273931
582.610975	0.277674
582.964434	0.276801
583.317837	0.279203
583.671186	0.279667
584.024481	0.279655
584.377721	0.282093
584.730906	0.283051
585.084037	0.281823
585.437113	0.283874
585.790135	0.283057
586.143103	0.286274
586.496016	0.287267
586.848874	0.284769
587.201679	0.285526
587.554428	0.288965
587.907124	0.287873
588.259765	0.288317
588.612352	0.288637
588.964884	0.292692
589.317362	0.292270
589.669786	0.292082
590.022155	0.290927
590.374470	0.289625
590.726731	0.292127
591.078937	0.296515
591.431090	0.293058
591.783188	0.297221
592.135232	0.297656
592.487222	0.297782
592.839157	0.295867
593.191038	0.298290
593.542866	0.299959
593.894639	0.303667
594.246358	0.301452
594.598022	0.301366
594.949633	0.305015
595.301190	0.305470
595.652692	0.304686
596.004141	0.300599
596.355535	0.308897
596.706876	0.309004
597.058162	0.311704
597.409395	0.309094
597.760573	0.306554
598.111698	0.309979
598.462768	0.310257
598.813785	0.311949
599.164748	0.312923
599.515657	0.312746
599.866511	0.316701
600.217312	0.312245
600.568060	0.317462
600.918753	0.313903
601.269392	0.314362
601.619978	0.317513
601.970510	0.315506
602.320988	0.315696
602.671412	0.313310
603.021783	0.315673
603.372100	0.317291
603.722363	0.317043
604.072572	0.317668
604.422728	0.317376
604.772830	0.319344
605.122878	0.319334
605.472872	0.319438
605.822813	0.318102
606.172701	0.320491
606.522534	0.318271
606.872314	0.317789
607.222041	0.318886
607.571714	0.317449
607.921333	0.318570
608.270899	0.318474
608.620411	0.314711
608.969870	0.318857
609.319276	0.319248
609.668627	0.319102
610.017926	0.317451
610.367171	0.315779
610.716362	0.316611
611.065500	0.316977
611.414585	0.315532
611.763616	0.316056
612.112594	0.316788
612.461518	0.316132
612.810389	0.313775
613.159207	0.316192
613.507971	0.318032
613.856682	0.313796
614.205340	0.315253
614.553945	0.311894
614.902496	0.316045
615.250994	0.313854
615.599439	0.314988
615.947830	0.314230
616.296169	0.315111
616.644454	0.314362
616.992686	0.314743
617.340864	0.312177
617.688990	0.316149
618.037063	0.312678
618.385082	0.314829
618.733048	0.311516
619.080961	0.313960
619.428821	0.313373
619.776628	0.312379
620.124382	0.314759
620.472083	0.314785
620.819731	0.314374
621.167326	0.318326
621.514868	0.318028
621.862357	0.322241
622.209793	0.321780
622.557176	0.324060
622.904506	0.325227
623.251783	0.327540
623.599007	0.329800
623.946179	0.329623
624.293297	0.331117
624.640363	0.334995
624.987376	0.335678
625.334336	0.338324
625.681243	0.340504
626.028097	0.340897
626.374899	0.342088
626.721647	0.341752
627.068343	0.345497
627.414987	0.346498
627.761577	0.348550
628.108115	0.346725
628.454600	0.351754
628.801032	0.349558
629.147412	0.351258
629.493739	0.351940
629.840014	0.355182
630.186236	0.352696
630.532405	0.357894
630.878521	0.355785
631.224585	0.357670
631.570597	0.361315
631.916556	0.359219
632.262462	0.359967
632.608316	0.361675
632.954117	0.362592
633.299866	0.363332
633.645562	0.364208
633.991206	0.368146
634.336797	0.371140
634.682336	0.373425
635.027823	0.374957
635.373257	0.375603
635.718639	0.378935
636.063968	0.378148
636.409245	0.384450
636.754470	0.384173
637.099642	0.386690
637.444762	0.390611
637.789829	0.388923
638.134845	0.393159
638.479808	0.393790
638.824719	0.393892
639.169577	0.397684
639.514383	0.396535
639.859137	0.400735
640.203839	0.400406
640.548489	0.401169
640.893086	0.402493
641.237632	0.403937
641.582125	0.402685
641.926566	0.404270
642.270955	0.404039
642.615292	0.404240
642.959576	0.403500
643.303809	0.404430
643.647990	0.403345
643.992118	0.404352
644.336195	0.408048
644.680219	0.406323
645.024192	0.407132
645.368112	0.400224
645.711981	0.399237
646.055797	0.394837
646.399562	0.397657
646.743274	0.389410
647.086935	0.386936
647.430544	0.387060
647.774101	0.385266
648.117606	0.385480
648.461059	0.385957
648.804460	0.388060
649.147810	0.393227
649.491108	0.395754
649.834354	0.396836
650.177548	0.402266
650.520690	0.407537
650.863781	0.408503
651.206820	0.407889
651.549807	0.412909
651.892742	0.416626
652.235626	0.416217
652.578458	0.417053
652.921238	0.423691
653.263967	0.420982
653.606644	0.424879
653.949269	0.424270
654.291843	0.428366
654.634365	0.424987
654.976836	0.428414
655.319255	0.428140
655.661622	0.430367
656.003938	0.430119
656.346203	0.433503
656.688416	0.431013
657.030577	0.433890
657.372687	0.436005
657.714746	0.437426
658.056753	0.434597
658.398708	0.438065
658.740612	0.438936
659.082465	0.435457
659.424266	0.435401
659.766016	0.435070
660.107715	0.437701
660.449362	0.436938
660.790958	0.437847
661.132503	0.437824
661.473996	0.435587
661.815438	0.436711
662.156829	0.436363
662.498168	0.437248
662.839456	0.438897
663.180693	0.436479
663.521879	0.436820
663.863013	0.437674
664.204097	0.435936
664.545129	0.432704
664.886110	0.433535
665.227040	0.430337
665.567918	0.432843
665.908746	0.431358
666.249522	0.430878
666.590248	0.431603
666.930922	0.430325
667.271545	0.429030
667.612118	0.428837
667.952639	0.430964
668.293109	0.428783
668.633528	0.432128
668.973896	0.431887
669.314213	0.432580
669.654480	0.433484
669.994695	0.434267
670.334859	0.435768
670.674973	0.434895
671.015035	0.435631
671.355047	0.435158
671.695008	0.436350
672.034918	0.438330
672.374777	0.438005
672.714585	0.438876
673.054342	0.438471
673.394049	0.438840
673.733705	0.436537
674.073310	0.437581
674.412864	0.441271
674.752368	0.441399
675.091820	0.441202
675.431223	0.445950
675.770574	0.445511
676.109875	0.448645
676.449125	0.448746
676.788324	0.450999
677.127473	0.455882
677.466571	0.456281
677.805619	0.458125
678.144616	0.458249
678.483562	0.460950
678.822458	0.462738
679.161303	0.464035
679.500098	0.464693
679.838842	0.466293
680.177535	0.465644
680.516179	0.464343
680.854771	0.462913
681.193314	0.456980
681.531805	0.448432
681.870247	0.436688
682.208638	0.428990
682.546978	0.428108
682.885268	0.429499
683.223508	0.435938
683.561697	0.439536
683.899836	0.442217
684.237925	0.446059
684.575963	0.448465
684.913951	0.451051
685.251889	0.447175
685.589776	0.449081
685.927614	0.451556
686.265401	0.445636
686.603137	0.447641
686.940824	0.440789
687.278460	0.439626
687.616046	0.439018
687.953582	0.433751
688.291068	0.435894
688.628504	0.430881
688.965889	0.433563
689.303224	0.437162
689.640510	0.441463
689.977745	0.446721
690.314930	0.455032
690.652065	0.459101
690.989150	0.466899
691.326185	0.473918
691.663170	0.477777
692.000105	0.484926
692.336990	0.491812
692.673825	0.494279
693.010610	0.501405
693.347345	0.506807
693.684030	0.507983
694.020665	0.513806
694.357251	0.522197
694.693786	0.521645
695.030272	0.525934
695.366707	0.528771
695.703093	0.532465
696.039429	0.530077
696.375716	0.532024
696.711952	0.534029
697.048139	0.537348
697.384276	0.538914
697.720363	0.536072
698.056400	0.536020
698.392388	0.541272
698.728326	0.545343
699.064214	0.547733
699.400053	0.548028
699.735842	0.551410
700.071581	0.554767
700.407270	0.557056
700.742910	0.560030
701.078501	0.566493
701.414042	0.566574
701.749533	0.569984
702.084974	0.578264
702.420366	0.570537
702.755709	0.578642
703.091002	0.586569
703.426246	0.579211
703.761440	0.585893
704.096584	0.590140
704.431679	0.587389
704.766725	0.589953
705.101721	0.590763
705.436668	0.586675
705.771565	0.594452
706.106413	0.590166
706.441212	0.586392
706.775961	0.584707
707.110661	0.587567
707.445311	0.583841
707.779913	0.581541
708.114465	0.580057
708.448967	0.576475
708.783421	0.568613
709.117825	0.562674
709.452180	0.563346
709.786485	0.557761
710.120742	0.546992
710.454949	0.548804
710.789107	0.541403
711.123216	0.532394
711.457275	0.533832
711.791286	0.524465
712.125247	0.523482
712.459159	0.534579
712.793023	0.526757
713.126837	0.531604
713.460602	0.531667
713.794318	0.541720
714.127985	0.539505
714.461602	0.550119
714.795171	0.552953
715.128691	0.560503
715.462162	0.568101
715.795584	0.573783
716.128957	0.576327
716.462281	0.583092
716.795556	0.587125
717.128782	0.592105
717.461960	0.601200
717.795088	0.599531
718.128167	0.606150
718.461198	0.615536
718.794180	0.614991
719.127113	0.618096
719.459997	0.622308
719.792833	0.627698
720.125619	0.628954
720.458357	0.634781
720.791046	0.634047
721.123686	0.637732
721.456278	0.645060
721.788821	0.642105
722.121315	0.646663
722.453761	0.650633
722.786158	0.648890
723.118506	0.645147
723.450805	0.653156
723.783056	0.648415
724.115259	0.645930
724.447412	0.645307
724.779518	0.647277
725.111574	0.645641
725.443582	0.641656
725.775542	0.643539
726.107453	0.635710
726.439315	0.634829
726.771129	0.635012
727.102895	0.627345
727.434612	0.620698
727.766281	0.617797
728.097901	0.617930
728.429473	0.617438
728.760996	0.615874
729.092471	0.616037
729.423897	0.619477
729.755276	0.619138
730.086606	0.618854
730.417887	0.613367
730.749120	0.604612
731.080305	0.595005
731.411442	0.591114
731.742530	0.596153
732.073570	0.594865
732.404562	0.587634
732.735506	0.588959
733.066401	0.593695
733.397249	0.602408
733.728048	0.614474
734.058798	0.626872
734.389501	0.637670
734.720156	0.646937
735.050762	0.654853
735.381320	0.656527
735.711831	0.665524
736.042293	0.670258
736.372707	0.665348
736.703073	0.670806
737.033391	0.672337
737.363661	0.669280
737.693883	0.664261
738.024056	0.663599
738.354182	0.664386
738.684260	0.653901
739.014290	0.649547
739.344272	0.650278
739.674207	0.644620
740.004093	0.642563
740.333931	0.643754
740.663722	0.643788
740.993464	0.644179
741.323159	0.648189
741.652806	0.653176
741.982405	0.657329
742.311956	0.661961
742.641460	0.664243
742.970915	0.668394
743.300323	0.675952
743.629683	0.681733
743.958996	0.684733
744.288260	0.688133
744.617477	0.694327
744.946647	0.695537
745.275768	0.701685
745.604842	0.701922
745.933869	0.710199
746.262847	0.712037
746.591778	0.705105
746.920662	0.711694
747.249498	0.718136
747.578286	0.708830
747.907027	0.704196
748.235720	0.705386
748.564365	0.701138
748.892963	0.701175
749.221514	0.703702
749.550017	0.708629
749.878473	0.708100
750.206881	0.714355
750.535242	0.716416
750.863555	0.715873
751.191821	0.716976
751.520039	0.720864
751.848210	0.725695
752.176334	0.717253
752.504411	0.716852
752.832440	0.725043
753.160421	0.729040
753.488356	0.726978
753.816243	0.724772
754.144082	0.731731
754.471875	0.736927
754.799620	0.731786
755.127318	0.733295
755.454969	0.732314
755.782572	0.731980
756.110129	0.737569
756.437638	0.739793
756.765100	0.735442
757.092515	0.735245
757.419882	0.732923
757.747203	0.738804
758.074477	0.738000
758.401703	0.735972
758.728882	0.729430
759.056014	0.729734
759.383099	0.727925
759.710138	0.729272
760.037129	0.726350
760.364073	0.719227
760.690970	0.722254
761.017820	0.727397
761.344623	0.722351
761.671379	0.715205
761.998088	0.702548
762.324751	0.680012
762.651366	0.639251
762.977935	0.572284
763.304456	0.520098
763.630931	0.510950
763.957359	0.549443
764.283740	0.593815
764.610074	0.620568
764.936362	0.652403
765.262602	0.677939
765.588796	0.700190
765.914943	0.717860
766.241044	0.736235
766.567097	0.741900
766.893104	0.751467
767.219064	0.757783
767.544978	0.764147
767.870845	0.778288
768.196665	0.781398
768.522438	0.778999
768.848165	0.781490
769.173846	0.789370
769.499479	0.794668
769.825066	0.797435
770.150607	0.802691
770.476101	0.798177
770.801548	0.798914
771.126949	0.810402
771.452303	0.814581
771.777611	0.813379
772.102872	0.812945
772.428087	0.817959
772.753256	0.822041
773.078378	0.823662
773.403453	0.832598
773.728482	0.835849
774.053465	0.830015
774.378401	0.834556
774.703291	0.842010
775.028135	0.841459
775.352932	0.843310
775.677683	0.846340
776.002388	0.847213
776.327046	0.846104
776.651658	0.849900
776.976224	0.852635
777.300743	0.852860
777.625216	0.855270
777.949643	0.856975
778.274024	0.857797
778.598359	0.859372
778.922647	0.857133
779.246889	0.857539
779.571086	0.862003
779.895236	0.864044
780.219339	0.861777
780.543397	0.858071
780.867409	0.856615
781.191374	0.858949
781.515294	0.859769
781.839167	0.858541
782.162995	0.862292
782.486776	0.859547
782.810511	0.859902
783.134201	0.864043
783.457844	0.861653
783.781441	0.864596
784.104993	0.870802
784.428498	0.870537
784.751958	0.865439
785.075372	0.869193
785.398739	0.872993
785.722061	0.868715
786.045337	0.864197
786.368568	0.870262
786.691752	0.872055
787.014891	0.857381
787.337983	0.849504
787.661030	0.842097
787.984031	0.823610
788.306987	0.811011
788.629897	0.812721
788.952760	0.817688
789.275579	0.821644
789.598351	0.837139
789.921078	0.849497
790.243759	0.852680
790.566395	0.856608
790.888984	0.864530
791.211529	0.868851
791.534027	0.871936
791.856480	0.873742
792.178888	0.878526
792.501249	0.881884
792.823566	0.882838
793.145836	0.882769
793.468062	0.885112
793.790241	0.885544
794.112375	0.883559
794.434464	0.879401
794.756507	0.877413
795.078505	0.877968
795.400457	0.871945
795.722364	0.860037
796.044226	0.852667
796.366042	0.852536
796.687812	0.855068
797.009538	0.851958
797.331218	0.854919
797.652852	0.858732
797.974442	0.864892
798.295986	0.864040
798.617484	0.866959
798.938938	0.869501
799.260346	0.876474
799.581709	0.878438
799.903026	0.880407
800.224299	0.880275
800.545526	0.883432
800.866708	0.889143
801.187845	0.892814
801.508936	0.892603
801.829983	0.889936
802.150984	0.892613
802.471940	0.897722
802.792851	0.897291
803.113717	0.898190
803.434538	0.896266
803.755314	0.898339
804.076045	0.899589
804.396731	0.900361
804.717372	0.899898
805.037967	0.902290
805.358518	0.899374
805.679024	0.896593
805.999485	0.897438
806.319901	0.897847
806.640272	0.898955
806.960598	0.896759
807.280879	0.893773
807.601115	0.892419
807.921306	0.896105
808.241453	0.896222
808.561554	0.893953
808.881611	0.894241
809.201623	0.895880
809.521590	0.895767
809.841513	0.896762
810.161390	0.895865
810.481223	0.898823
810.801011	0.901100
811.120755	0.903088
811.440453	0.901666
811.760107	0.900224
812.079716	0.900576
812.399281	0.904281
812.718801	0.907102
813.038276	0.907494
813.357707	0.906892
813.677093	0.903064
813.996434	0.907271
814.315731	0.908422
814.634983	0.909926
814.954191	0.908235
815.273354	0.904720
815.592473	0.900627
815.911547	0.901836
816.230577	0.899662
816.549562	0.896570
816.868502	0.898217
817.187399	0.893736
817.506250	0.887953
817.825058	0.889983
818.143821	0.886645
818.462539	0.881332
818.781213	0.873226
819.099843	0.862752
819.418429	0.846595
819.736970	0.830605
820.055466	0.810465
820.373919	0.784560
820.692327	0.752242
821.010691	0.717751
821.329011	0.641043
821.647286	0.525729
821.965517	0.412309
822.283704	0.369875
822.601847	0.371345
822.919945	0.407076
823.237999	0.440411
823.556010	0.486914
823.873976	0.542601
824.191897	0.592944
824.509775	0.635780
824.827609	0.680862
825.145398	0.703790
825.463144	0.705350
825.780845	0.688538
826.098502	0.669922
826.416116	0.623922
826.733685	0.580905
827.051210	0.572188
827.368692	0.587410
827.686129	0.623972
828.003522	0.676950
828.320872	0.723960
828.638177	0.768300
828.955439	0.800009
829.272656	0.822198
829.589830	0.839657
829.906960	0.854059
830.224046	0.867176
830.541088	0.877115
830.858086	0.881664
831.175041	0.888225
831.491952	0.887120
831.808819	0.883278
832.125642	0.877600
832.442421	0.862417
832.759157	0.840276
833.075849	0.794134
833.392497	0.731136
833.709101	0.690815
834.025662	0.699680
834.342179	0.731462
834.658653	0.771006
834.975083	0.806255
835.291469	0.833973
835.607811	0.854543
835.924110	0.871423
836.240366	0.887695
836.556578	0.901549
836.872746	0.909821
837.188871	0.914982
837.504952	0.920489
837.820990	0.923517
838.136984	0.927477
838.452935	0.930095
838.768842	0.931817
839.084706	0.925112
839.400526	0.900817
839.716303	0.860451
840.032037	0.838001
840.347727	0.840336
840.663373	0.859318
840.978977	0.880193
841.294537	0.902895
841.610054	0.918220
841.925527	0.925717
842.240957	0.933915
842.556344	0.939729
842.871687	0.946027
843.186987	0.950387
843.502244	0.950606
843.817458	0.952071
844.132629	0.956386
844.447756	0.959705
844.762840	0.960544
845.077881	0.959039
845.392879	0.959471
845.707833	0.962590
846.022745	0.964290
846.337613	0.964752
846.652438	0.966309
846.967221	0.964261
847.281960	0.965472
847.596656	0.967217
847.911309	0.966244
848.225919	0.967485
848.540485	0.968084
848.855009	0.969336
849.169490	0.967987
849.483928	0.969387
849.798323	0.968918
850.112675	0.969902
850.426984	0.969944
850.741251	0.970584
851.055474	0.969316
851.369654	0.967729
851.683792	0.969877
851.997887	0.969738
852.311938	0.969962
852.625947	0.970487
852.939914	0.967348
853.253837	0.969618
853.567718	0.970734
853.881555	0.971481
854.195350	0.967839
854.509103	0.969311
854.822812	0.969739
855.136479	0.970740
855.450103	0.969252
855.763685	0.968459
856.077224	0.968925
856.390720	0.970617
856.704173	0.970124
857.017584	0.968949
857.330953	0.966836
857.644278	0.967646
857.957561	0.969640
858.270802	0.969337
858.584000	0.967750
858.897155	0.965967
859.210268	0.966996
859.523339	0.967445
859.836367	0.970041
860.149352	0.970995
860.462295	0.968407
860.775195	0.970429
861.088054	0.969408
861.400869	0.969693
861.713642	0.970974
862.026373	0.969545
862.339062	0.971586
862.651708	0.968175
862.964312	0.968159
863.276873	0.969931
863.589392	0.969252
863.901869	0.966586
864.214303	0.965669
864.526696	0.963544
864.839045	0.963689
865.151353	0.962221
865.463619	0.962702
865.775842	0.963114
866.088023	0.961915
866.400162	0.962768
866.712258	0.962163
867.024313	0.962515
867.336325	0.962846
867.648296	0.963296
867.960224	0.962597
868.272110	0.962322
868.583954	0.963967
868.895755	0.964373
869.207515	0.960755
869.519233	0.959081
869.830909	0.960983
870.142542	0.963238
870.454134	0.962445
870.765684	0.960629
871.077191	0.958194
871.388657	0.958943
871.700081	0.958499
872.011463	0.958157
872.322803	0.957975
872.634101	0.957255
872.945357	0.954742
873.256571	0.953245
873.567744	0.953570
873.878874	0.954024
874.189963	0.951429
874.501010	0.952619
874.812015	0.949485
875.122979	0.951488
875.433900	0.953864
875.744780	0.953586
876.055618	0.952657
876.366415	0.949956
876.677169	0.950214
876.987882	0.951617
877.298554	0.951780
877.609183	0.947596
877.919771	0.945901
878.230317	0.943214
878.540822	0.941151
878.851285	0.935728
879.161707	0.928491
879.472087	0.916249
879.782425	0.899833
880.092722	0.866973
880.402977	0.814517
880.713191	0.753667
881.023363	0.695605
881.333494	0.661904
881.643583	0.633634
881.953631	0.632759
882.263637	0.662923
882.573602	0.701441
882.883526	0.726819
883.193408	0.750743
883.503248	0.772967
883.813048	0.800199
884.122806	0.828097
884.432522	0.852779
884.742197	0.871495
885.051831	0.882508
885.361424	0.891846
885.670975	0.903999
885.980485	0.914206
886.289954	0.920661
886.599382	0.926536
886.908768	0.929320
887.218113	0.934856
887.527417	0.939965
887.836680	0.942668
888.145901	0.944322
888.455082	0.947166
888.764221	0.950388
889.073319	0.953311
889.382376	0.953374
889.691392	0.953225
890.000366	0.952036
890.309300	0.954184
890.618193	0.953707
890.927044	0.951284
891.235855	0.951797
891.544625	0.952261
891.853353	0.952935
892.162041	0.949903
892.470687	0.943043
892.779293	0.938792
893.087858	0.934226
893.396381	0.926789
893.704864	0.913610
894.013306	0.890258
894.321707	0.864571
894.630068	0.849885
894.938387	0.845873
895.246665	0.846197
895.554903	0.858438
895.863100	0.871271
896.171256	0.888414
896.479371	0.906455
896.787446	0.920042
897.095480	0.925379
897.403473	0.929267
897.711425	0.932978
898.019336	0.940693
898.327207	0.944678
898.635038	0.945761
898.942827	0.945762
899.250576	0.948172
899.558284	0.951857
899.865952	0.954585
900.173579	0.956178
900.481165	0.956102
900.788711	0.960885
901.096216	0.961856
901.403681	0.961999
901.711105	0.963466
902.018489	0.963661
902.325832	0.962567
902.633135	0.962049
902.940397	0.955682
903.247619	0.944683
903.554800	0.919067
903.861941	0.879818
904.169041	0.844450
904.476101	0.827790
904.783121	0.828215
905.090100	0.844405
905.397039	0.865446
905.703938	0.887966
906.010796	0.908005
906.317614	0.923751
906.624391	0.934853
906.931129	0.944389
907.237826	0.952241
907.544483	0.958965
907.851099	0.961862
908.157675	0.968511
908.464211	0.969737
908.770707	0.973247
909.077163	0.974008
909.383578	0.974038
909.689954	0.974835
909.996289	0.975634
910.302584	0.978654
910.608839	0.979454
910.915054	0.978419
911.221229	0.978529
911.527363	0.977774
911.833458	0.976856
912.139513	0.978153
912.445527	0.975623
912.751502	0.974167
913.057436	0.972488
913.363331	0.971767
913.669186	0.966965
913.975000	0.962391
914.280775	0.956150
914.586510	0.948888
914.892205	0.936606
915.197859	0.915681
915.503475	0.887352
915.809050	0.869265
916.114585	0.862978
916.420081	0.861449
916.725536	0.857345
917.030952	0.865334
917.336328	0.878317
917.641665	0.893382
917.946961	0.908276
918.252218	0.920883
918.557435	0.928794
918.862612	0.937934
919.167750	0.943616
919.472848	0.947728
919.777906	0.952817
920.082925	0.959010
920.387904	0.961790
920.692843	0.963962
920.997743	0.963885
921.302603	0.967629
921.607423	0.969278
921.912204	0.971575
922.216946	0.972017
922.521647	0.972725
922.826310	0.975852
923.130932	0.976153
923.435516	0.979046
923.740059	0.979814
924.044564	0.979385
924.349028	0.980891
924.653454	0.983135
924.957840	0.985395
925.262186	0.983921
925.566493	0.983118
925.870761	0.984655
926.174989	0.985822
926.479178	0.988262
926.783328	0.988251
927.087438	0.988748
927.391509	0.987685
927.695541	0.990062
927.999533	0.989515
928.303486	0.989194
928.607400	0.990821
928.911275	0.987988
929.215110	0.990410
929.518906	0.991351
929.822663	0.988901
930.126381	0.991063
930.430060	0.989509
930.733699	0.988671
931.037299	0.989264
931.340861	0.989730
931.644383	0.989941
931.947866	0.989593
932.251309	0.989998
932.554714	0.990011
932.858080	0.990057
933.161407	0.989405
933.464694	0.990506
933.767943	0.989096
934.071153	0.990213
934.374323	0.990870
934.677455	0.991494
934.980548	0.990390
935.283602	0.989970
935.586617	0.990530
935.889593	0.991043
936.192530	0.991345
936.495428	0.989465
936.798287	0.990881
937.101108	0.990429
937.403890	0.988435
937.706632	0.989693
938.009336	0.986660
938.312002	0.986439
938.614628	0.983931
938.917216	0.983115
939.219765	0.981246
939.522275	0.983411
939.824747	0.984395
940.127179	0.983572
940.429573	0.984663
940.731929	0.984258
941.034246	0.985133
941.336524	0.986057
941.638763	0.986400
941.940964	0.985916
942.243126	0.986630
942.545250	0.989571
942.847335	0.987490
943.149381	0.987965
943.451389	0.987843
943.753359	0.988725
944.055290	0.991056
944.357182	0.989138
944.659036	0.989237
944.960851	0.989460
945.262628	0.989539
945.564367	0.991758
945.866067	0.989221
946.167729	0.990921
946.469352	0.990077
946.770937	0.988186
947.072484	0.990274
947.373992	0.990601
947.675462	0.990141
947.976893	0.990486
948.278286	0.990006
948.579641	0.991296
948.880958	0.989888
949.182236	0.990993
949.483476	0.991582
949.784678	0.990337
950.085841	0.991316
950.386967	0.990428
950.688054	0.991196
950.989103	0.991540
951.290114	0.988173
951.591087	0.989614
951.892021	0.989900
952.192917	0.987961
952.493776	0.987823
952.794596	0.987815
953.095378	0.987354
953.396122	0.988324
953.696828	0.986781
953.997496	0.990082
954.298126	0.990921
954.598718	0.991128
954.899272	0.991073
955.199788	0.990015
955.500266	0.992177
955.800706	0.993300
956.101108	0.993439
956.401472	0.993438
956.701798	0.994630
957.002087	0.993023
957.302337	0.993789
957.602550	0.994906
957.902724	0.994405
958.202861	0.995799
958.502960	0.994538
958.803022	0.993469
959.103045	0.995853
959.403031	0.995753
959.702979	0.995322
960.002889	0.995437
960.302762	0.994233
960.602596	0.995446
960.902393	0.993874
961.202153	0.997457
961.501875	0.995752
961.801559	0.996145
962.101205	0.995638
962.400814	0.995420
962.700385	0.996541
962.999918	0.995629
963.299414	0.997643
963.598873	0.996104
963.898293	0.996596
964.197677	0.996116
964.497022	0.995630
964.796331	0.997237
965.095601	0.997317
965.394835	0.995630
965.694030	0.997456
965.993189	0.995801
966.292309	0.996251
966.591393	0.997092
966.890439	0.997335
967.189447	0.996254
967.488419	0.997479
967.787353	0.995817
968.086249	0.995890
968.385108	0.997136
968.683930	0.998368
968.982714	0.996446
969.281462	0.997545
969.580172	0.995389
969.878844	0.997137
970.177480	0.996142
970.476078	0.997330
970.774639	0.996926
971.073162	0.997104
971.371649	0.995637
971.670098	0.996449
971.968510	0.997056
972.266885	0.996334
972.565223	0.996932
972.863524	0.996171
973.161788	0.995994
973.460014	0.996882
973.758204	0.996164
974.056356	0.996401
974.354471	0.994468
974.652550	0.995652
974.950591	0.995699
975.248595	0.996221
975.546563	0.996423
975.844493	0.998171
976.142386	0.996687
976.440243	0.997100
976.738062	0.996600
977.035845	0.998218
977.333590	0.996604
977.631299	0.997659
977.928971	0.996899
978.226606	0.996463
978.524204	0.995068
978.821765	0.998297
979.119290	0.996734
979.416777	0.997930
979.714228	0.996520
980.011642	0.995679
980.309020	0.997059
980.606360	0.996419
980.903664	0.999191
981.200931	0.995498
981.498162	0.995354
981.795356	0.993911
982.092513	0.994350
982.389633	0.995048
982.686717	0.992513
982.983764	0.992009
983.280775	0.990202
983.577749	0.989826
983.874686	0.992664
984.171587	0.992066
984.468451	0.994694
984.765279	0.994756
985.062070	0.994103
985.358824	0.995283
985.655543	0.995233
985.952224	0.996034
986.248869	0.997706
986.545478	0.997242
986.842050	0.997980
987.138586	0.996371
987.435086	0.996841
987.731549	0.997600
988.027975	0.998809
988.324366	0.997652
988.620719	0.998301
988.917037	0.997203
989.213318	0.998009
989.509563	0.998534
989.805772	0.999630
990.101944	0.998014
990.398080	0.996504
990.694180	0.998115
990.990244	0.997167
991.286271	0.997324
991.582262	0.998616
991.878217	0.996584
992.174136	0.998572
992.470019	0.999352
992.765865	0.998547
993.061676	0.997432
993.357450	0.997177
993.653188	0.996276
993.948890	0.997488
994.244556	0.998084
994.540186	0.997582
994.835780	0.996137
995.131337	0.997453
995.426859	0.996398
995.722345	0.996785
996.017795	0.995802
996.313208	0.995362
996.608586	0.995860
996.903928	0.997822
997.199234	0.996185
997.494504	0.997206
997.789738	0.996461
998.084936	0.996457
998.380099	0.997774
998.675225	0.996706
998.970316	0.998258
999.265371	0.997889
999.560390	0.998809
999.855373	0.997717
1000.150320	0.997559
1000.445232	0.998542
1000.740108	0.997636
1001.034948	0.997953
1001.329752	0.999358
1001.624521	0.998225
1001.919254	0.998244
1002.213951	0.999075
1002.508613	0.998184
1002.803239	0.998834
1003.097829	0.998826
1003.392384	0.997719
1003.686903	0.997116
1003.981386	0.998326
1004.275834	0.998621
1004.570246	0.999484
1004.864623	0.998812
1005.158964	0.999896
1005.453270	0.999351
1005.747540	0.997450
1006.041775	0.998774
1006.335974	0.999146
1006.630138	0.999119
1006.924266	0.998787
1007.218359	0.999713
1007.512416	1.000239
1007.806438	0.998997
1008.100425	0.999274
1008.394376	0.996747
1008.688292	0.998228
1008.982172	1.000528
1009.276017	0.999522
1009.569827	0.998938
1009.863602	0.999164
1010.157341	0.999292
1010.451045	0.999401
1010.744714	0.998705
1011.038347	0.999714
1011.331945	0.998502
1011.625508	0.997498
1011.919036	0.997894
1012.212528	0.999111
1012.505986	0.997609
1012.799408	0.998600
1013.092795	0.998629
1013.386147	0.998006
1013.679464	0.999795
1013.972745	0.998435
1014.265992	0.997173
1014.559204	0.998208
1014.852380	0.999853
1015.145521	0.998447
1015.438628	0.999315
1015.731699	0.999189
1016.024736	0.998824
1016.317737	0.998413
1016.610703	0.998823
1016.903635	1.000217
1017.196531	0.999237
1017.489393	0.999166
1017.782219	0.997965
1018.075011	0.997429
1018.367768	0.998345
1018.660490	0.999253
1018.953177	0.999253
1019.245829	0.999253
