Dividing Wavelength (nm)	Counts (n)	Blue Motor Position (mm): 0.000000	Red Motor Position (mm): 20.000000	
326.493990	1.001362
326.888308	1.001362
327.282561	1.001362
327.676750	1.000830
328.070874	0.999153
328.464933	1.000230
328.858929	0.999802
329.252859	1.000893
329.646726	1.000857
330.040528	0.999291
330.434265	0.998577
330.827938	1.001804
331.221547	1.000128
331.615091	1.000175
332.008571	1.000446
332.401986	1.000544
332.795338	0.999542
333.188625	0.998439
333.581847	1.000877
333.975006	0.998956
334.368100	0.998515
334.761129	1.000245
335.154095	1.001073
335.546996	0.997716
335.939833	0.994163
336.332606	0.992957
336.725315	0.994759
337.117960	0.995518
337.510540	0.994034
337.903056	0.994544
338.295508	0.992965
338.687896	0.995252
339.080220	0.995274
339.472480	0.994175
339.864676	0.994787
340.256807	0.994520
340.648875	0.995772
341.040879	0.994926
341.432818	0.995034
341.824694	0.993542
342.216506	0.995633
342.608253	0.994367
342.999937	0.995003
343.391557	0.993949
343.783113	0.994577
344.174605	0.994790
344.566033	0.994611
344.957397	0.993848
345.348697	0.995239
345.739934	0.994271
346.131106	0.993675
346.522215	0.993226
346.913260	0.994392
347.304241	0.993918
347.695159	0.994560
348.086012	0.992809
348.476802	0.994569
348.867528	0.995096
349.258191	0.993160
349.648789	0.994004
350.039324	0.994231
350.429796	0.994071
350.820203	0.994702
351.210548	0.994688
351.600828	0.994004
351.991045	0.994348
352.381198	0.993224
352.771288	0.994238
353.161314	0.993635
353.551276	0.995989
353.941175	0.994421
354.331010	0.993644
354.720782	0.996026
355.110490	0.993071
355.500135	0.995447
355.889717	0.994610
356.279235	0.993504
356.668689	0.992819
357.058080	0.994299
357.447408	0.995991
357.836672	0.994658
358.225873	0.995140
358.615010	0.995346
359.004084	0.995148
359.393095	0.995275
359.782043	0.993756
360.170927	0.996027
360.559748	0.994939
360.948505	0.993627
361.337199	0.995830
361.725830	0.995153
362.114398	0.994681
362.502903	0.995565
362.891344	0.996496
363.279722	0.992573
363.668037	0.995614
364.056289	0.994688
364.444478	0.993974
364.832603	0.994381
365.220665	0.994912
365.608665	0.994153
365.996601	0.994283
366.384474	0.993551
366.772284	0.993107
367.160031	0.993126
367.547715	0.993385
367.935336	0.994118
368.322893	0.994764
368.710388	0.992886
369.097820	0.993955
369.485189	0.994055
369.872495	0.993186
370.259738	0.992115
370.646918	0.995638
371.034035	0.994515
371.421090	0.993860
371.808081	0.994183
372.195010	0.996221
372.581875	0.994305
372.968678	0.994771
373.355418	0.994005
373.742096	0.993730
374.128710	0.994879
374.515262	0.994191
374.901751	0.994371
375.288177	0.994809
375.674540	0.995655
376.060841	0.994141
376.447079	0.994427
376.833254	0.994733
377.219367	0.994500
377.605417	0.995484
377.991404	0.995239
378.377329	0.994367
378.763191	0.994692
379.148991	0.995656
379.534727	0.994291
379.920402	0.995204
380.306013	0.995288
380.691563	0.995805
381.077049	0.995157
381.462474	0.995404
381.847835	0.995786
382.233134	0.994536
382.618371	0.995173
383.003545	0.995772
383.388657	0.994743
383.773706	0.995696
384.158693	0.996514
384.543618	0.996057
384.928480	0.995869
385.313280	0.995367
385.698017	0.996506
386.082692	0.997090
386.467305	0.995265
386.851856	0.995643
387.236344	0.994894
387.620770	0.995107
388.005133	0.995960
388.389435	0.996552
388.773674	0.995643
389.157851	0.996930
389.541965	0.995993
389.926018	0.995688
390.310008	0.997263
390.693936	0.995707
391.077802	0.995998
391.461606	0.995677
391.845348	0.996891
392.229027	0.996713
392.612645	0.995969
392.996200	0.996811
393.379694	0.995157
393.763125	0.996508
394.146494	0.996712
394.529801	0.995790
394.913047	0.996053
395.296230	0.996066
395.679351	0.995670
396.062410	0.994913
396.445408	0.995314
396.828343	0.996327
397.211217	0.996244
397.594028	0.995849
397.976778	0.995160
398.359466	0.996330
398.742092	0.995020
399.124656	0.994952
399.507158	0.995391
399.889598	0.995767
400.271977	0.996060
400.654294	0.995533
401.036549	0.995953
401.418742	0.996424
401.800874	0.995141
402.182944	0.995295
402.564952	0.994992
402.946898	0.996006
403.328783	0.995435
403.710606	0.995851
404.092367	0.996549
404.474067	0.995415
404.855705	0.995516
405.237282	0.995941
405.618797	0.995254
406.000250	0.994710
406.381642	0.995740
406.762972	0.994712
407.144240	0.995308
407.525447	0.994680
407.906593	0.995329
408.287677	0.994898
408.668700	0.995020
409.049661	0.993498
409.430560	0.993751
409.811399	0.992095
410.192176	0.992506
410.572891	0.991520
410.953545	0.991176
411.334138	0.989447
411.714669	0.990377
412.095139	0.988042
412.475547	0.987872
412.855894	0.986456
413.236180	0.984683
413.616405	0.983216
413.996568	0.980790
414.376670	0.979031
414.756711	0.976099
415.136691	0.973940
415.516609	0.970412
415.896466	0.968059
416.276262	0.964729
416.655997	0.962053
417.035670	0.957049
417.415283	0.952693
417.794834	0.950278
418.174324	0.946031
418.553753	0.944035
418.933121	0.937239
419.312428	0.932168
419.691674	0.927000
420.070859	0.922249
420.449983	0.918008
420.829045	0.910802
421.208047	0.907290
421.586988	0.900152
421.965867	0.893260
422.344686	0.884908
422.723444	0.881085
423.102141	0.878727
423.480777	0.865579
423.859352	0.862839
424.237866	0.848661
424.616319	0.841990
424.994712	0.832669
425.373044	0.827773
425.751314	0.815300
426.129524	0.812547
426.507673	0.798445
426.885762	0.789885
427.263789	0.781374
427.641756	0.778255
428.019662	0.764513
428.397508	0.755428
428.775292	0.746913
429.153016	0.734703
429.530679	0.729878
429.908282	0.718085
430.285824	0.714593
430.663305	0.693680
431.040726	0.696116
431.418086	0.689318
431.795385	0.675522
432.172624	0.664889
432.549802	0.657342
432.926920	0.648152
433.303977	0.639760
433.680974	0.629757
434.057910	0.620079
434.434786	0.612390
434.811601	0.606701
435.188355	0.586084
435.565050	0.585531
435.941683	0.579574
436.318257	0.560692
436.694770	0.553696
437.071222	0.545282
437.447614	0.541880
437.823946	0.540831
438.200218	0.526136
438.576429	0.527970
438.952580	0.515823
439.328670	0.507612
439.704700	0.508394
440.080670	0.504320
440.456580	0.482037
440.832429	0.484278
441.208218	0.489584
441.583947	0.475825
441.959616	0.471511
442.335224	0.472457
442.710773	0.460049
443.086261	0.454109
443.461689	0.463759
443.837057	0.451154
444.212365	0.438756
444.587612	0.443363
444.962800	0.430475
445.337927	0.429399
445.712995	0.452467
446.088002	0.414061
446.462949	0.422523
446.837837	0.425176
447.212664	0.412568
447.587431	0.402834
447.962139	0.372833
448.336786	0.331910
448.711374	0.340377
449.085901	0.382145
449.460369	0.385508
449.834776	0.388173
450.209124	0.367182
450.583412	0.358750
450.957640	0.351377
451.331808	0.361986
451.705917	0.384477
452.079965	0.388535
452.453954	0.376513
452.827883	0.382902
453.201752	0.377183
453.575562	0.388595
453.949311	0.376712
454.323001	0.382582
454.696632	0.378302
455.070202	0.370778
455.443713	0.362101
455.817164	0.357162
456.190556	0.352752
456.563888	0.349176
456.937160	0.346757
457.310373	0.363761
457.683526	0.362356
458.056619	0.368024
458.429653	0.368799
458.802628	0.371684
459.175542	0.366055
459.548398	0.348786
459.921194	0.341465
460.293930	0.341135
460.666607	0.318682
461.039224	0.307092
461.411782	0.302826
461.784280	0.302063
462.156719	0.305822
462.529099	0.310522
462.901419	0.326142
463.273680	0.330395
463.645882	0.330109
464.018024	0.335677
464.390106	0.329177
464.762130	0.314045
465.134094	0.296824
465.505999	0.266277
465.877845	0.236524
466.249631	0.223919
466.621358	0.231213
466.993026	0.244884
467.364634	0.250803
467.736184	0.259789
468.107674	0.268671
468.479105	0.267556
468.850477	0.274392
469.221790	0.281048
469.593043	0.291487
469.964238	0.296213
470.335373	0.295320
470.706449	0.293664
471.077467	0.294348
471.448425	0.256506
471.819324	0.232384
472.190164	0.231729
472.560945	0.260503
472.931667	0.282393
473.302330	0.286508
473.672934	0.298394
474.043479	0.286413
474.413965	0.288341
474.784393	0.291954
475.154761	0.287314
475.525070	0.284188
475.895321	0.289852
476.265513	0.284086
476.635645	0.279486
477.005719	0.279558
477.375734	0.276113
477.745691	0.269539
478.115588	0.266085
478.485427	0.259515
478.855207	0.246197
479.224928	0.228953
479.594591	0.217183
479.964194	0.220714
480.333739	0.221806
480.703226	0.223232
481.072653	0.221858
481.442022	0.217237
481.811333	0.213764
482.180584	0.217278
482.549777	0.222782
482.918912	0.225986
483.287988	0.225609
483.657005	0.225186
484.025964	0.231748
484.394864	0.229176
484.763706	0.229674
485.132489	0.234801
485.501213	0.235412
485.869879	0.233929
486.238487	0.237024
486.607036	0.234695
486.975527	0.239115
487.343959	0.235092
487.712333	0.234474
488.080648	0.235596
488.448905	0.234726
488.817104	0.236410
489.185244	0.230706
489.553326	0.227593
489.921350	0.217465
490.289315	0.199889
490.657222	0.195003
491.025070	0.196251
491.392861	0.198218
491.760593	0.203865
492.128267	0.209205
492.495883	0.215043
492.863440	0.221210
493.230939	0.227337
493.598380	0.228787
493.965763	0.231111
494.333088	0.233172
494.700354	0.234763
495.067563	0.233380
495.434713	0.236863
495.801805	0.234506
496.168839	0.236358
496.535815	0.237515
496.902733	0.237470
497.269593	0.238982
497.636395	0.236601
498.003139	0.237085
498.369825	0.240145
498.736453	0.236734
499.103023	0.238010
499.469535	0.237382
499.835989	0.237588
500.202385	0.238686
500.568723	0.241711
500.935003	0.237308
501.301226	0.241093
501.667390	0.235702
502.033497	0.233829
502.399546	0.236796
502.765537	0.238451
503.131470	0.236893
503.497345	0.233143
503.863163	0.241934
504.228923	0.234820
504.594625	0.233815
504.960269	0.238988
505.325856	0.234349
505.691385	0.238702
506.056856	0.235461
506.422270	0.234943
506.787625	0.237231
507.152924	0.234562
507.518164	0.234952
507.883347	0.236795
508.248472	0.238708
508.613540	0.233560
508.978550	0.236258
509.343503	0.236486
509.708398	0.234195
510.073236	0.231781
510.438016	0.231771
510.802738	0.232709
511.167403	0.231781
511.532010	0.233806
511.896561	0.229263
512.261053	0.228199
512.625488	0.230061
512.989866	0.230299
513.354186	0.230739
513.718449	0.232642
514.082655	0.228858
514.446803	0.231231
514.810894	0.228832
515.174927	0.231681
515.538904	0.231121
515.902822	0.227796
516.266684	0.230119
516.630488	0.231522
516.994235	0.230195
517.357925	0.228932
517.721558	0.227385
518.085133	0.226621
518.448651	0.226789
518.812112	0.228682
519.175516	0.228512
519.538863	0.226273
519.902152	0.228080
520.265385	0.224876
520.628560	0.226691
520.991678	0.226940
521.354739	0.225795
521.717743	0.227277
522.080690	0.227841
522.443580	0.224740
522.806413	0.225785
523.169189	0.225001
523.531908	0.223999
523.894569	0.227644
524.257174	0.227675
524.619722	0.225340
524.982213	0.226568
525.344647	0.225412
525.707025	0.226131
526.069345	0.224550
526.431608	0.225981
526.793815	0.224072
527.155964	0.228070
527.518057	0.226926
527.880093	0.227852
528.242072	0.226600
528.603995	0.228708
528.965860	0.230008
529.327669	0.229023
529.689421	0.229853
530.051117	0.230837
530.412755	0.228570
530.774337	0.230887
531.135862	0.231095
531.497331	0.230234
531.858743	0.233168
532.220098	0.230055
532.581396	0.232653
532.942638	0.232957
533.303824	0.233914
533.664953	0.234027
534.026025	0.235486
534.387040	0.233713
534.747999	0.233588
535.108902	0.232525
535.469748	0.237188
535.830537	0.235231
536.191270	0.235649
536.551947	0.235018
536.912567	0.235202
537.273131	0.236875
537.633638	0.236900
537.994089	0.237306
538.354483	0.238322
538.714821	0.235645
539.075103	0.235366
539.435328	0.236125
539.795497	0.239824
540.155609	0.236291
540.515665	0.234799
540.875665	0.239881
541.235609	0.238469
541.595496	0.238690
541.955328	0.235470
542.315102	0.237862
542.674821	0.239326
543.034483	0.239059
543.394090	0.238715
543.753640	0.240643
544.113134	0.235297
544.472571	0.238935
544.831953	0.235912
545.191278	0.239867
545.550548	0.239319
545.909761	0.236167
546.268918	0.236777
546.628019	0.235278
546.987064	0.237936
547.346053	0.239691
547.704986	0.237485
548.063863	0.237886
548.422684	0.237754
548.781449	0.239966
549.140158	0.237561
549.498811	0.240403
549.857408	0.243429
550.215949	0.238302
550.574434	0.241290
550.932864	0.239088
551.291237	0.237796
551.649555	0.239276
552.007817	0.239039
552.366022	0.239912
552.724173	0.240236
553.082267	0.240382
553.440305	0.237436
553.798288	0.241670
554.156215	0.238299
554.514086	0.238890
554.871902	0.242003
555.229661	0.241494
555.587365	0.241925
555.945014	0.244381
556.302606	0.241339
556.660143	0.243989
557.017625	0.240346
557.375050	0.242683
557.732421	0.239719
558.089735	0.241525
558.446994	0.241914
558.804197	0.240756
559.161345	0.240579
559.518437	0.244721
559.875474	0.242041
560.232455	0.241535
560.589381	0.242587
560.946251	0.242734
561.303065	0.240183
561.659825	0.241660
562.016528	0.243439
562.373177	0.246227
562.729770	0.243489
563.086307	0.245537
563.442789	0.243186
563.799216	0.246114
564.155587	0.244771
564.511904	0.245759
564.868164	0.246251
565.224370	0.246118
565.580520	0.247786
565.936615	0.247567
566.292654	0.250566
566.648638	0.247308
567.004567	0.248505
567.360441	0.248891
567.716260	0.250867
568.072023	0.248713
568.427732	0.249527
568.783385	0.251904
569.138982	0.250012
569.494525	0.249732
569.850013	0.252415
570.205445	0.250896
570.560823	0.253472
570.916145	0.255555
571.271412	0.253694
571.626625	0.254975
571.981782	0.255752
572.336884	0.256686
572.691931	0.256409
573.046923	0.257591
573.401860	0.258665
573.756743	0.260641
574.111570	0.259491
574.466342	0.259811
574.821059	0.258736
575.175722	0.261778
575.530330	0.261490
575.884882	0.261779
576.239380	0.263885
576.593823	0.264096
576.948211	0.263556
577.302544	0.266998
577.656823	0.266670
578.011047	0.266743
578.365216	0.267521
578.719330	0.269584
579.073389	0.268944
579.427394	0.270557
579.781344	0.270884
580.135239	0.272485
580.489080	0.272343
580.842866	0.275455
581.196597	0.275318
581.550273	0.273572
581.903895	0.274945
582.257463	0.272987
582.610975	0.276291
582.964434	0.275839
583.317837	0.278116
583.671186	0.278494
584.024481	0.278295
584.377721	0.280799
584.730906	0.281602
585.084037	0.280914
585.437113	0.282852
585.790135	0.282191
586.143103	0.285152
586.496016	0.286411
586.848874	0.283508
587.201679	0.284300
587.554428	0.287609
587.907124	0.286357
588.259765	0.287290
588.612352	0.287520
588.964884	0.291488
589.317362	0.291259
589.669786	0.291136
590.022155	0.289479
590.374470	0.288652
590.726731	0.291079
591.078937	0.295497
591.431090	0.291623
591.783188	0.296004
592.135232	0.296294
592.487222	0.296395
592.839157	0.294604
593.191038	0.296983
593.542866	0.298989
593.894639	0.302620
594.246358	0.300563
594.598022	0.299835
594.949633	0.303270
595.301190	0.304436
595.652692	0.303427
596.004141	0.299609
596.355535	0.307678
596.706876	0.308168
597.058162	0.310384
597.409395	0.307645
597.760573	0.305553
598.111698	0.309035
598.462768	0.308966
598.813785	0.310632
599.164748	0.312061
599.515657	0.312177
599.866511	0.315540
600.217312	0.310863
600.568060	0.315848
600.918753	0.312429
601.269392	0.313419
601.619978	0.316847
601.970510	0.314370
602.320988	0.314773
602.671412	0.311994
603.021783	0.314457
603.372100	0.315913
603.722363	0.315794
604.072572	0.316617
604.422728	0.316294
604.772830	0.318027
605.122878	0.318337
605.472872	0.318781
605.822813	0.316822
606.172701	0.319694
606.522534	0.316855
606.872314	0.316787
607.222041	0.317708
607.571714	0.316034
607.921333	0.317005
608.270899	0.317227
608.620411	0.313970
608.969870	0.317746
609.319276	0.317860
609.668627	0.317846
610.017926	0.316252
610.367171	0.314981
610.716362	0.315497
611.065500	0.315432
611.414585	0.314694
611.763616	0.315182
612.112594	0.315331
612.461518	0.315061
612.810389	0.312386
613.159207	0.314872
613.507971	0.316736
613.856682	0.312330
614.205340	0.314233
614.553945	0.311113
614.902496	0.314638
615.250994	0.312915
615.599439	0.313774
615.947830	0.312796
616.296169	0.314155
616.644454	0.313577
616.992686	0.313707
617.340864	0.311583
617.688990	0.314628
618.037063	0.311256
618.385082	0.313326
618.733048	0.310190
619.080961	0.312529
619.428821	0.312137
619.776628	0.311555
620.124382	0.313752
620.472083	0.313778
620.819731	0.313282
621.167326	0.317089
621.514868	0.316569
621.862357	0.321032
622.209793	0.320667
622.557176	0.322924
622.904506	0.323945
623.251783	0.326238
623.599007	0.328753
623.946179	0.328274
624.293297	0.329804
624.640363	0.334161
624.987376	0.334574
625.334336	0.336959
625.681243	0.339507
626.028097	0.339459
626.374899	0.341043
626.721647	0.341175
627.068343	0.344574
627.414987	0.345268
627.761577	0.347710
628.108115	0.346120
628.454600	0.350896
628.801032	0.348239
629.147412	0.350109
629.493739	0.350692
629.840014	0.353952
630.186236	0.351355
630.532405	0.356854
630.878521	0.354543
631.224585	0.356567
631.570597	0.360127
631.916556	0.358668
632.262462	0.358613
632.608316	0.360432
632.954117	0.361792
633.299866	0.362194
633.645562	0.362906
633.991206	0.367142
634.336797	0.370299
634.682336	0.372385
635.027823	0.373693
635.373257	0.374047
635.718639	0.377802
636.063968	0.377697
636.409245	0.383417
636.754470	0.383248
637.099642	0.385556
637.444762	0.389640
637.789829	0.388527
638.134845	0.391707
638.479808	0.392734
638.824719	0.392561
639.169577	0.396372
639.514383	0.395070
639.859137	0.400173
640.203839	0.399299
640.548489	0.400144
640.893086	0.401598
641.237632	0.403133
641.582125	0.401697
641.926566	0.403109
642.270955	0.403544
642.615292	0.403870
642.959576	0.402353
643.303809	0.403064
643.647990	0.402583
643.992118	0.403145
644.336195	0.406943
644.680219	0.405055
645.024192	0.406040
645.368112	0.399624
645.711981	0.398273
646.055797	0.393469
646.399562	0.396307
646.743274	0.388462
647.086935	0.385709
647.430544	0.385792
647.774101	0.384825
648.117606	0.384539
648.461059	0.384784
648.804460	0.387437
649.147810	0.392113
649.491108	0.394281
649.834354	0.395614
650.177548	0.401101
650.520690	0.406196
650.863781	0.407614
651.206820	0.406822
651.549807	0.411475
651.892742	0.414897
652.235626	0.414527
652.578458	0.416222
652.921238	0.421659
653.263967	0.420008
653.606644	0.423614
653.949269	0.423510
654.291843	0.427678
654.634365	0.423651
654.976836	0.427087
655.319255	0.427208
655.661622	0.429030
656.003938	0.429438
656.346203	0.432358
656.688416	0.430083
657.030577	0.433746
657.372687	0.435420
657.714746	0.436471
658.056753	0.432959
658.398708	0.436851
658.740612	0.438417
659.082465	0.434131
659.424266	0.434340
659.766016	0.434067
660.107715	0.436708
660.449362	0.435994
660.790958	0.436248
661.132503	0.437011
661.473996	0.434460
661.815438	0.435328
662.156829	0.435676
662.498168	0.436512
662.839456	0.438049
663.180693	0.435849
663.521879	0.435744
663.863013	0.436723
664.204097	0.435088
664.545129	0.432124
664.886110	0.431944
665.227040	0.429484
665.567918	0.432149
665.908746	0.430186
666.249522	0.429344
666.590248	0.430879
666.930922	0.428955
667.271545	0.428060
667.612118	0.427686
667.952639	0.429550
668.293109	0.428314
668.633528	0.430772
668.973896	0.430654
669.314213	0.431145
669.654480	0.433035
669.994695	0.432986
670.334859	0.434521
670.674973	0.434694
671.015035	0.434994
671.355047	0.434166
671.695008	0.435782
672.034918	0.437387
672.374777	0.436991
672.714585	0.437856
673.054342	0.437621
673.394049	0.438086
673.733705	0.435517
674.073310	0.436942
674.412864	0.439522
674.752368	0.440605
675.091820	0.440484
675.431223	0.445525
675.770574	0.444480
676.109875	0.447667
676.449125	0.448202
676.788324	0.449662
677.127473	0.455958
677.466571	0.454803
677.805619	0.456961
678.144616	0.457912
678.483562	0.459658
678.822458	0.461692
679.161303	0.463723
679.500098	0.463169
679.838842	0.465055
680.177535	0.465098
680.516179	0.463799
680.854771	0.462490
681.193314	0.455872
681.531805	0.447213
681.870247	0.435181
682.208638	0.428031
682.546978	0.427368
682.885268	0.428777
683.223508	0.435462
683.561697	0.438769
683.899836	0.441669
684.237925	0.444885
684.575963	0.447374
684.913951	0.450758
685.251889	0.446490
685.589776	0.448389
685.927614	0.450892
686.265401	0.444893
686.603137	0.446453
686.940824	0.440178
687.278460	0.438700
687.616046	0.438272
687.953582	0.432822
688.291068	0.433946
688.628504	0.430106
688.965889	0.431910
689.303224	0.436000
689.640510	0.440598
689.977745	0.445944
690.314930	0.453654
690.652065	0.458545
690.989150	0.466345
691.326185	0.471978
691.663170	0.476874
692.000105	0.484366
692.336990	0.490893
692.673825	0.493766
693.010610	0.500871
693.347345	0.505915
693.684030	0.507544
694.020665	0.512406
694.357251	0.521547
694.693786	0.521054
695.030272	0.524831
695.366707	0.528319
695.703093	0.531942
696.039429	0.529206
696.375716	0.531496
696.711952	0.534101
697.048139	0.536310
697.384276	0.538212
697.720363	0.536514
698.056400	0.534969
698.392388	0.540519
698.728326	0.544348
699.064214	0.546477
699.400053	0.548008
699.735842	0.550847
700.071581	0.554020
700.407270	0.556876
700.742910	0.559140
701.078501	0.565629
701.414042	0.566227
701.749533	0.569291
702.084974	0.578180
702.420366	0.569498
702.755709	0.578056
703.091002	0.585995
703.426246	0.578991
703.761440	0.585018
704.096584	0.589237
704.431679	0.586682
704.766725	0.588553
705.101721	0.590152
705.436668	0.586278
705.771565	0.593286
706.106413	0.590463
706.441212	0.585523
706.775961	0.584048
707.110661	0.586880
707.445311	0.583755
707.779913	0.580469
708.114465	0.578798
708.448967	0.576095
708.783421	0.567688
709.117825	0.562065
709.452180	0.562329
709.786485	0.556640
710.120742	0.546197
710.454949	0.548240
710.789107	0.540132
711.123216	0.531800
711.457275	0.532909
711.791286	0.523708
712.125247	0.522388
712.459159	0.533856
712.793023	0.526225
713.126837	0.530382
713.460602	0.530098
713.794318	0.540373
714.127985	0.538889
714.461602	0.549107
714.795171	0.552599
715.128691	0.559570
715.462162	0.568001
715.795584	0.572817
716.128957	0.575861
716.462281	0.582636
716.795556	0.586577
717.128782	0.591453
717.461960	0.600897
717.795088	0.598896
718.128167	0.605388
718.461198	0.614251
718.794180	0.614663
719.127113	0.616480
719.459997	0.621298
719.792833	0.626963
720.125619	0.628310
720.458357	0.634649
720.791046	0.633911
721.123686	0.637039
721.456278	0.644479
721.788821	0.641409
722.121315	0.645445
722.453761	0.649856
722.786158	0.648406
723.118506	0.644175
723.450805	0.653158
723.783056	0.648102
724.115259	0.645588
724.447412	0.645368
724.779518	0.646890
725.111574	0.645339
725.443582	0.640510
725.775542	0.643243
726.107453	0.635404
726.439315	0.635205
726.771129	0.632950
727.102895	0.626668
727.434612	0.619625
727.766281	0.618012
728.097901	0.617246
728.429473	0.616964
728.760996	0.615191
729.092471	0.615105
729.423897	0.618968
729.755276	0.618022
730.086606	0.617884
730.417887	0.612299
730.749120	0.603783
731.080305	0.594435
731.411442	0.590700
731.742530	0.595067
732.073570	0.594632
732.404562	0.586659
732.735506	0.588532
733.066401	0.592850
733.397249	0.602395
733.728048	0.613461
734.058798	0.626987
734.389501	0.637238
734.720156	0.645830
735.050762	0.654555
735.381320	0.655926
735.711831	0.664897
736.042293	0.669856
736.372707	0.664759
736.703073	0.669675
737.033391	0.672607
737.363661	0.668633
737.693883	0.663808
738.024056	0.663539
738.354182	0.663985
738.684260	0.652466
739.014290	0.649074
739.344272	0.650020
739.674207	0.643556
740.004093	0.642601
740.333931	0.643032
740.663722	0.643395
740.993464	0.644011
741.323159	0.647262
741.652806	0.651979
741.982405	0.657091
742.311956	0.661334
742.641460	0.664655
742.970915	0.667503
743.300323	0.675246
743.629683	0.681929
743.958996	0.683382
744.288260	0.687449
744.617477	0.693384
744.946647	0.695787
745.275768	0.700839
745.604842	0.700994
745.933869	0.711002
746.262847	0.710867
746.591778	0.705172
746.920662	0.710741
747.249498	0.716345
747.578286	0.708286
747.907027	0.704898
748.235720	0.705541
748.564365	0.699554
748.892963	0.699812
749.221514	0.703222
749.550017	0.708267
749.878473	0.708232
750.206881	0.714306
750.535242	0.714706
750.863555	0.715477
751.191821	0.716101
751.520039	0.719318
751.848210	0.724657
752.176334	0.717743
752.504411	0.715919
752.832440	0.724002
753.160421	0.728259
753.488356	0.726114
753.816243	0.724347
754.144082	0.732048
754.471875	0.735726
754.799620	0.730853
755.127318	0.732621
755.454969	0.732310
755.782572	0.731852
756.110129	0.736813
756.437638	0.739431
756.765100	0.735527
757.092515	0.734287
757.419882	0.732036
757.747203	0.737693
758.074477	0.737675
758.401703	0.734703
758.728882	0.729832
759.056014	0.728495
759.383099	0.727887
759.710138	0.728824
760.037129	0.725457
760.364073	0.719016
760.690970	0.721124
761.017820	0.727452
761.344623	0.722607
761.671379	0.713646
761.998088	0.702145
762.324751	0.679733
762.651366	0.638076
762.977935	0.571392
763.304456	0.518728
763.630931	0.509613
763.957359	0.548139
764.283740	0.593130
764.610074	0.619757
764.936362	0.651422
765.262602	0.677624
765.588796	0.699129
765.914943	0.716772
766.241044	0.735172
766.567097	0.741544
766.893104	0.751602
767.219064	0.757386
767.544978	0.763757
767.870845	0.777082
768.196665	0.781557
768.522438	0.779598
768.848165	0.780487
769.173846	0.789238
769.499479	0.794552
769.825066	0.796852
770.150607	0.802518
770.476101	0.798504
770.801548	0.798738
771.126949	0.810108
771.452303	0.813470
771.777611	0.813208
772.102872	0.812274
772.428087	0.818615
772.753256	0.821723
773.078378	0.822328
773.403453	0.831760
773.728482	0.835508
774.053465	0.829810
774.378401	0.833359
774.703291	0.842215
775.028135	0.841303
775.352932	0.843031
775.677683	0.846473
776.002388	0.846934
776.327046	0.845699
776.651658	0.849711
776.976224	0.852460
777.300743	0.852315
777.625216	0.854786
777.949643	0.857486
778.274024	0.855328
778.598359	0.859083
778.922647	0.857528
779.246889	0.857614
779.571086	0.862172
779.895236	0.863393
780.219339	0.860555
780.543397	0.858354
780.867409	0.856151
781.191374	0.858814
781.515294	0.859603
781.839167	0.858418
782.162995	0.863037
782.486776	0.859040
782.810511	0.859722
783.134201	0.862542
783.457844	0.861659
783.781441	0.864107
784.104993	0.869990
784.428498	0.870439
784.751958	0.865968
785.075372	0.868863
785.398739	0.872393
785.722061	0.869208
786.045337	0.864864
786.368568	0.869467
786.691752	0.872037
787.014891	0.856410
787.337983	0.848844
787.661030	0.841900
787.984031	0.823543
788.306987	0.811408
788.629897	0.812586
788.952760	0.816436
789.275579	0.821346
789.598351	0.835978
789.921078	0.849186
790.243759	0.851595
790.566395	0.855874
790.888984	0.863661
791.211529	0.868856
791.534027	0.871660
791.856480	0.874786
792.178888	0.879478
792.501249	0.882194
792.823566	0.882470
793.145836	0.883109
793.468062	0.883572
793.790241	0.885609
794.112375	0.882787
794.434464	0.878335
794.756507	0.878229
795.078505	0.878569
795.400457	0.872225
795.722364	0.859834
796.044226	0.852435
796.366042	0.852433
796.687812	0.855013
797.009538	0.851642
797.331218	0.854260
797.652852	0.860018
797.974442	0.864092
798.295986	0.864539
798.617484	0.867118
798.938938	0.871384
799.260346	0.876410
799.581709	0.877275
799.903026	0.879923
800.224299	0.880507
800.545526	0.884587
800.866708	0.889479
801.187845	0.892341
801.508936	0.892356
801.829983	0.889899
802.150984	0.891943
802.471940	0.897234
802.792851	0.896915
803.113717	0.898636
803.434538	0.895969
803.755314	0.897225
804.076045	0.900002
804.396731	0.900596
804.717372	0.899890
805.037967	0.901532
805.358518	0.899012
805.679024	0.896274
805.999485	0.896449
806.319901	0.897846
806.640272	0.898816
806.960598	0.896615
807.280879	0.894305
807.601115	0.891794
807.921306	0.896460
808.241453	0.896012
808.561554	0.893845
808.881611	0.894093
809.201623	0.895998
809.521590	0.895796
809.841513	0.897532
810.161390	0.895979
810.481223	0.897574
810.801011	0.901311
811.120755	0.902122
811.440453	0.901738
811.760107	0.899863
812.079716	0.899637
812.399281	0.903473
812.718801	0.906248
813.038276	0.907901
813.357707	0.905803
813.677093	0.904449
813.996434	0.907182
814.315731	0.908417
814.634983	0.908625
814.954191	0.907529
815.273354	0.905286
815.592473	0.901300
815.911547	0.901426
816.230577	0.899129
816.549562	0.896514
816.868502	0.896966
817.187399	0.893596
817.506250	0.887686
817.825058	0.890268
818.143821	0.886498
818.462539	0.880994
818.781213	0.873450
819.099843	0.862274
819.418429	0.845889
819.736970	0.829431
820.055466	0.809244
820.373919	0.783971
820.692327	0.750755
821.010691	0.716817
821.329011	0.639726
821.647286	0.523659
821.965517	0.409910
822.283704	0.367120
822.601847	0.369132
822.919945	0.404922
823.237999	0.437953
823.556010	0.484585
823.873976	0.541054
824.191897	0.590973
824.509775	0.633888
824.827609	0.678968
825.145398	0.702357
825.463144	0.705283
825.780845	0.687347
826.098502	0.669074
826.416116	0.622920
826.733685	0.578485
827.051210	0.570867
827.368692	0.585900
827.686129	0.622788
828.003522	0.675686
828.320872	0.723325
828.638177	0.767224
828.955439	0.799339
829.272656	0.821895
829.589830	0.838495
829.906960	0.854837
830.224046	0.867568
830.541088	0.877215
830.858086	0.880891
831.175041	0.887747
831.491952	0.887536
831.808819	0.883322
832.125642	0.876954
832.442421	0.861925
832.759157	0.840607
833.075849	0.794243
833.392497	0.729542
833.709101	0.689546
834.025662	0.699808
834.342179	0.730321
834.658653	0.769106
834.975083	0.805669
835.291469	0.831582
835.607811	0.853767
835.924110	0.870446
836.240366	0.887816
836.556578	0.901673
836.872746	0.908438
837.188871	0.914640
837.504952	0.920488
837.820990	0.923837
838.136984	0.926884
838.452935	0.931031
838.768842	0.931165
839.084706	0.924770
839.400526	0.899149
839.716303	0.858549
840.032037	0.836084
840.347727	0.841002
840.663373	0.858902
840.978977	0.879214
841.294537	0.903112
841.610054	0.918671
841.925527	0.926231
842.240957	0.932841
842.556344	0.940448
842.871687	0.945668
843.186987	0.950721
843.502244	0.949744
843.817458	0.952328
844.132629	0.955471
844.447756	0.960655
844.762840	0.960686
845.077881	0.960014
845.392879	0.959673
845.707833	0.962800
846.022745	0.964153
846.337613	0.965255
846.652438	0.965865
846.967221	0.965122
847.281960	0.966068
847.596656	0.967843
847.911309	0.966367
848.225919	0.967073
848.540485	0.968000
848.855009	0.968762
849.169490	0.968514
849.483928	0.969862
849.798323	0.969221
850.112675	0.969752
850.426984	0.969748
850.741251	0.970247
851.055474	0.971163
851.369654	0.968778
851.683792	0.969248
851.997887	0.969535
852.311938	0.970812
852.625947	0.970108
852.939914	0.967148
853.253837	0.969549
853.567718	0.970327
853.881555	0.971309
854.195350	0.968489
854.509103	0.969404
854.822812	0.970337
855.136479	0.969734
855.450103	0.969655
855.763685	0.968497
856.077224	0.970006
856.390720	0.970561
856.704173	0.969146
857.017584	0.969686
857.330953	0.966256
857.644278	0.968316
857.957561	0.967424
858.270802	0.968725
858.584000	0.967845
858.897155	0.966718
859.210268	0.967581
859.523339	0.969043
859.836367	0.969946
860.149352	0.971504
860.462295	0.967915
860.775195	0.969493
861.088054	0.969722
861.400869	0.969325
861.713642	0.970914
862.026373	0.971254
862.339062	0.971881
862.651708	0.967889
862.964312	0.968568
863.276873	0.969158
863.589392	0.968586
863.901869	0.966114
864.214303	0.965004
864.526696	0.963311
864.839045	0.963773
865.151353	0.962653
865.463619	0.961481
865.775842	0.963344
866.088023	0.961783
866.400162	0.962799
866.712258	0.962690
867.024313	0.962855
867.336325	0.962993
867.648296	0.963623
867.960224	0.962772
868.272110	0.962438
868.583954	0.963681
868.895755	0.964674
869.207515	0.962476
869.519233	0.959552
869.830909	0.960909
870.142542	0.963646
870.454134	0.962994
870.765684	0.960620
871.077191	0.958475
871.388657	0.958707
871.700081	0.957544
872.011463	0.960143
872.322803	0.958474
872.634101	0.956386
872.945357	0.953937
873.256571	0.953673
873.567744	0.952071
873.878874	0.953530
874.189963	0.950916
874.501010	0.951613
874.812015	0.949831
875.122979	0.951313
875.433900	0.952516
875.744780	0.953271
876.055618	0.950746
876.366415	0.950483
876.677169	0.949609
876.987882	0.951691
877.298554	0.951330
877.609183	0.948332
877.919771	0.944832
878.230317	0.941431
878.540822	0.941173
878.851285	0.935832
879.161707	0.928003
879.472087	0.915122
879.782425	0.898942
880.092722	0.865440
880.402977	0.812904
880.713191	0.752669
881.023363	0.692716
881.333494	0.660036
881.643583	0.631524
881.953631	0.632347
882.263637	0.659285
882.573602	0.699236
882.883526	0.724942
883.193408	0.748234
883.503248	0.771308
883.813048	0.798528
884.122806	0.828817
884.432522	0.851659
884.742197	0.870853
885.051831	0.881831
885.361424	0.892369
885.670975	0.903147
885.980485	0.914210
886.289954	0.919471
886.599382	0.925157
886.908768	0.929076
887.218113	0.935378
887.527417	0.938963
887.836680	0.941410
888.145901	0.944092
888.455082	0.946615
888.764221	0.951158
889.073319	0.952527
889.382376	0.954168
889.691392	0.954055
890.000366	0.952516
890.309300	0.954886
890.618193	0.952838
890.927044	0.951840
891.235855	0.951311
891.544625	0.952058
891.853353	0.953113
892.162041	0.949106
892.470687	0.942687
892.779293	0.937959
893.087858	0.934796
893.396381	0.926117
893.704864	0.913441
894.013306	0.888555
894.321707	0.862981
894.630068	0.848715
894.938387	0.843524
895.246665	0.844526
895.554903	0.857853
895.863100	0.870792
896.171256	0.888138
896.479371	0.906694
896.787446	0.920209
897.095480	0.925476
897.403473	0.929213
897.711425	0.933547
898.019336	0.940673
898.327207	0.942358
898.635038	0.944758
898.942827	0.945642
899.250576	0.948508
899.558284	0.952517
899.865952	0.954317
900.173579	0.955457
900.481165	0.955334
900.788711	0.960091
901.096216	0.961608
901.403681	0.961916
901.711105	0.963160
902.018489	0.963586
902.325832	0.961831
902.633135	0.961866
902.940397	0.955392
903.247619	0.944339
903.554800	0.918742
903.861941	0.879191
904.169041	0.844245
904.476101	0.826922
904.783121	0.826851
905.090100	0.843170
905.397039	0.865139
905.703938	0.885954
906.010796	0.906771
906.317614	0.923343
906.624391	0.934817
906.931129	0.944546
907.237826	0.951724
907.544483	0.959211
907.851099	0.963412
908.157675	0.967598
908.464211	0.970589
908.770707	0.972425
909.077163	0.975333
909.383578	0.974920
909.689954	0.974499
909.996289	0.975649
910.302584	0.977981
910.608839	0.979969
910.915054	0.978461
911.221229	0.977755
911.527363	0.977878
911.833458	0.977662
912.139513	0.977023
912.445527	0.975531
912.751502	0.973830
913.057436	0.973269
913.363331	0.971285
913.669186	0.965596
913.975000	0.960769
914.280775	0.955061
914.586510	0.948509
914.892205	0.935156
915.197859	0.914584
915.503475	0.887519
915.809050	0.867809
916.114585	0.862323
916.420081	0.858917
916.725536	0.856551
917.030952	0.864153
917.336328	0.877420
917.641665	0.892390
917.946961	0.907734
918.252218	0.919151
918.557435	0.927996
918.862612	0.936441
919.167750	0.942875
919.472848	0.946782
919.777906	0.952751
920.082925	0.958224
920.387904	0.961410
920.692843	0.962986
920.997743	0.964617
921.302603	0.967462
921.607423	0.968385
921.912204	0.971657
922.216946	0.971618
922.521647	0.973381
922.826310	0.973931
923.130932	0.977579
923.435516	0.979761
923.740059	0.979214
924.044564	0.979360
924.349028	0.980622
924.653454	0.984137
924.957840	0.984544
925.262186	0.984756
925.566493	0.984541
925.870761	0.984718
926.174989	0.986837
926.479178	0.986540
926.783328	0.988314
927.087438	0.989015
927.391509	0.988422
927.695541	0.989908
927.999533	0.989907
928.303486	0.989021
928.607400	0.991406
928.911275	0.989387
929.215110	0.990484
929.518906	0.991081
929.822663	0.988492
930.126381	0.991056
930.430060	0.989838
930.733699	0.990544
931.037299	0.989616
931.340861	0.990358
931.644383	0.989571
931.947866	0.989349
932.251309	0.990704
932.554714	0.990588
932.858080	0.990390
933.161407	0.991158
933.464694	0.990579
933.767943	0.988930
934.071153	0.991522
934.374323	0.992630
934.677455	0.991144
934.980548	0.992247
935.283602	0.991769
935.586617	0.990494
935.889593	0.991036
936.192530	0.990403
936.495428	0.991404
936.798287	0.990727
937.101108	0.989854
937.403890	0.989389
937.706632	0.989145
938.009336	0.987391
938.312002	0.986751
938.614628	0.984205
938.917216	0.982851
939.219765	0.981915
939.522275	0.984154
939.824747	0.982533
940.127179	0.983538
940.429573	0.985183
940.731929	0.983727
941.034246	0.985279
941.336524	0.987029
941.638763	0.985854
941.940964	0.985861
942.243126	0.986408
942.545250	0.987578
942.847335	0.989139
943.149381	0.988553
943.451389	0.987452
943.753359	0.987683
944.055290	0.991414
944.357182	0.990170
944.659036	0.987899
944.960851	0.989121
945.262628	0.989843
945.564367	0.990491
945.866067	0.990262
946.167729	0.990771
946.469352	0.989936
946.770937	0.989198
947.072484	0.991178
947.373992	0.990391
947.675462	0.990286
947.976893	0.990315
948.278286	0.989540
948.579641	0.991752
948.880958	0.990567
949.182236	0.991118
949.483476	0.991624
949.784678	0.990068
950.085841	0.991618
950.386967	0.991020
950.688054	0.990361
950.989103	0.991132
951.290114	0.988854
951.591087	0.990018
951.892021	0.988690
952.192917	0.989574
952.493776	0.988283
952.794596	0.988463
953.095378	0.988007
953.396122	0.988137
953.696828	0.987691
953.997496	0.989329
954.298126	0.991029
954.598718	0.990549
954.899272	0.991467
955.199788	0.991159
955.500266	0.991065
955.800706	0.992389
956.101108	0.993884
956.401472	0.993865
956.701798	0.993735
957.002087	0.993770
957.302337	0.994850
957.602550	0.995384
957.902724	0.995699
958.202861	0.995673
958.502960	0.994443
958.803022	0.994969
959.103045	0.995490
959.403031	0.996726
959.702979	0.994900
960.002889	0.995861
960.302762	0.993953
960.602596	0.997088
960.902393	0.994746
961.202153	0.996807
961.501875	0.996692
961.801559	0.995568
962.101205	0.996152
962.400814	0.996465
962.700385	0.997649
962.999918	0.996922
963.299414	0.997155
963.598873	0.996825
963.898293	0.995949
964.197677	0.996112
964.497022	0.996982
964.796331	0.997456
965.095601	0.997458
965.394835	0.996543
965.694030	0.996005
965.993189	0.998043
966.292309	0.996611
966.591393	0.997877
966.890439	0.997324
967.189447	0.996603
967.488419	0.997102
967.787353	0.996528
968.086249	0.996173
968.385108	0.997524
968.683930	0.995939
968.982714	0.997635
969.281462	0.997704
969.580172	0.996079
969.878844	0.996687
970.177480	0.996658
970.476078	0.997334
970.774639	0.996981
971.073162	0.996873
971.371649	0.995738
971.670098	0.996631
971.968510	0.997573
972.266885	0.996158
972.565223	0.996595
972.863524	0.995929
973.161788	0.996217
973.460014	0.997274
973.758204	0.996673
974.056356	0.996926
974.354471	0.994899
974.652550	0.996857
974.950591	0.997072
975.248595	0.996528
975.546563	0.996555
975.844493	0.998383
976.142386	0.997093
976.440243	0.997283
976.738062	0.997084
977.035845	0.997970
977.333590	0.996081
977.631299	0.997505
977.928971	0.996987
978.226606	0.997735
978.524204	0.996450
978.821765	0.997962
979.119290	0.996908
979.416777	0.997011
979.714228	0.997322
980.011642	0.996561
980.309020	0.997256
980.606360	0.996514
980.903664	0.999085
981.200931	0.996334
981.498162	0.995902
981.795356	0.994795
982.092513	0.995266
982.389633	0.995459
982.686717	0.992279
982.983764	0.991511
983.280775	0.990666
983.577749	0.991148
983.874686	0.992111
984.171587	0.992742
984.468451	0.993738
984.765279	0.995772
985.062070	0.994252
985.358824	0.996694
985.655543	0.994422
985.952224	0.996137
986.248869	0.997432
986.545478	0.996995
986.842050	0.999349
987.138586	0.995857
987.435086	0.997982
987.731549	0.998595
988.027975	0.996747
988.324366	0.998350
988.620719	0.997299
988.917037	0.995935
989.213318	0.998330
989.509563	0.999040
989.805772	0.998081
990.101944	0.997720
990.398080	0.997657
990.694180	0.998615
990.990244	0.997914
991.286271	0.998141
991.582262	0.997953
991.878217	0.998053
992.174136	0.999147
992.470019	0.999017
992.765865	0.997827
993.061676	0.998473
993.357450	0.998126
993.653188	0.997243
993.948890	0.997347
994.244556	0.998394
994.540186	0.997336
994.835780	0.996288
995.131337	0.998036
995.426859	0.996596
995.722345	0.997054
996.017795	0.995900
996.313208	0.996298
996.608586	0.996918
996.903928	0.996664
997.199234	0.996188
997.494504	0.997268
997.789738	0.995592
998.084936	0.996880
998.380099	0.997078
998.675225	0.997346
998.970316	0.998593
999.265371	0.998639
999.560390	0.998030
999.855373	0.998974
1000.150320	0.998296
1000.445232	0.997637
1000.740108	0.997775
1001.034948	0.999050
1001.329752	0.999701
1001.624521	1.000071
1001.919254	0.997847
1002.213951	0.998478
1002.508613	0.998055
1002.803239	1.000249
1003.097829	0.999440
1003.392384	0.999335
1003.686903	0.998940
1003.981386	0.998157
1004.275834	0.999913
1004.570246	0.998834
1004.864623	1.000208
1005.158964	1.000181
1005.453270	0.998119
1005.747540	0.997247
1006.041775	0.998689
1006.335974	1.000141
1006.630138	0.999138
1006.924266	0.999952
1007.218359	0.999782
1007.512416	0.999839
1007.806438	0.998801
1008.100425	0.999564
1008.394376	0.998561
1008.688292	0.998363
1008.982172	1.001621
1009.276017	0.999131
1009.569827	0.998501
1009.863602	0.998696
1010.157341	0.999691
1010.451045	0.998330
1010.744714	0.998830
1011.038347	0.998817
1011.331945	0.998777
1011.625508	0.997955
1011.919036	0.998837
1012.212528	0.999333
1012.505986	0.998336
1012.799408	0.998662
1013.092795	0.999675
1013.386147	0.998287
1013.679464	1.000097
1013.972745	0.998148
1014.265992	0.997034
1014.559204	0.999592
1014.852380	0.998986
1015.145521	0.999270
1015.438628	0.999156
1015.731699	0.997714
1016.024736	0.998888
1016.317737	0.998997
1016.610703	0.998057
1016.903635	0.999839
1017.196531	0.998087
1017.489393	0.999622
1017.782219	0.999521
1018.075011	0.998532
1018.367768	0.999495
1018.660490	0.999619
1018.953177	0.999619
1019.245829	0.999619
