Dividing Wavelength (nm)	Counts (n)	Blue Motor Position (mm): 0.000000	Red Motor Position (mm): 22.100000	
326.493990	1.001138
326.888308	1.001138
327.282561	1.001138
327.676750	1.001104
328.070874	0.999657
328.464933	1.000684
328.858929	0.999517
329.252859	1.000218
329.646726	0.999166
330.040528	0.999094
330.434265	0.999606
330.827938	1.000501
331.221547	1.000511
331.615091	0.999895
332.008571	0.999580
332.401986	0.999446
332.795338	1.000306
333.188625	0.998373
333.581847	1.000104
333.975006	0.999238
334.368100	0.999587
334.761129	1.000139
335.154095	1.000562
335.546996	0.997374
335.939833	0.992917
336.332606	0.993216
336.725315	0.993889
337.117960	0.995407
337.510540	0.994416
337.903056	0.995938
338.295508	0.993140
338.687896	0.994630
339.080220	0.994102
339.472480	0.994717
339.864676	0.993943
340.256807	0.995035
340.648875	0.994874
341.040879	0.995326
341.432818	0.993554
341.824694	0.993934
342.216506	0.995681
342.608253	0.994398
342.999937	0.993889
343.391557	0.993977
343.783113	0.994264
344.174605	0.994873
344.566033	0.994989
344.957397	0.993761
345.348697	0.994455
345.739934	0.994268
346.131106	0.993871
346.522215	0.993000
346.913260	0.994641
347.304241	0.994611
347.695159	0.994412
348.086012	0.993214
348.476802	0.993426
348.867528	0.994671
349.258191	0.991961
349.648789	0.994528
350.039324	0.994311
350.429796	0.994365
350.820203	0.994630
351.210548	0.995066
351.600828	0.994739
351.991045	0.994663
352.381198	0.993437
352.771288	0.995143
353.161314	0.993933
353.551276	0.994687
353.941175	0.994547
354.331010	0.993831
354.720782	0.994857
355.110490	0.993964
355.500135	0.995319
355.889717	0.993780
356.279235	0.993705
356.668689	0.994386
357.058080	0.994662
357.447408	0.995194
357.836672	0.994823
358.225873	0.993875
358.615010	0.994306
359.004084	0.994685
359.393095	0.995739
359.782043	0.994630
360.170927	0.995579
360.559748	0.995109
360.948505	0.992979
361.337199	0.993875
361.725830	0.994476
362.114398	0.993186
362.502903	0.994938
362.891344	0.994967
363.279722	0.994134
363.668037	0.995848
364.056289	0.994143
364.444478	0.994932
364.832603	0.995272
365.220665	0.994190
365.608665	0.993605
365.996601	0.993646
366.384474	0.995231
366.772284	0.994339
367.160031	0.993172
367.547715	0.993187
367.935336	0.994571
368.322893	0.994536
368.710388	0.993726
369.097820	0.994156
369.485189	0.993690
369.872495	0.993473
370.259738	0.992364
370.646918	0.994276
371.034035	0.994300
371.421090	0.993743
371.808081	0.993546
372.195010	0.995218
372.581875	0.994087
372.968678	0.993467
373.355418	0.994987
373.742096	0.993729
374.128710	0.995397
374.515262	0.993428
374.901751	0.994637
375.288177	0.994845
375.674540	0.995067
376.060841	0.994366
376.447079	0.995034
376.833254	0.995051
377.219367	0.994958
377.605417	0.994340
377.991404	0.994585
378.377329	0.993563
378.763191	0.994286
379.148991	0.995406
379.534727	0.995329
379.920402	0.995275
380.306013	0.994694
380.691563	0.996061
381.077049	0.993836
381.462474	0.996046
381.847835	0.994858
382.233134	0.995553
382.618371	0.996246
383.003545	0.995301
383.388657	0.995130
383.773706	0.994916
384.158693	0.996434
384.543618	0.995121
384.928480	0.996410
385.313280	0.994885
385.698017	0.995770
386.082692	0.997085
386.467305	0.995251
386.851856	0.995337
387.236344	0.996201
387.620770	0.995495
388.005133	0.995639
388.389435	0.996572
388.773674	0.995578
389.157851	0.995168
389.541965	0.995539
389.926018	0.996082
390.310008	0.995959
390.693936	0.996872
391.077802	0.995984
391.461606	0.996108
391.845348	0.997375
392.229027	0.997626
392.612645	0.996908
392.996200	0.997272
393.379694	0.995443
393.763125	0.996324
394.146494	0.997052
394.529801	0.995733
394.913047	0.996736
395.296230	0.995822
395.679351	0.996353
396.062410	0.995523
396.445408	0.997021
396.828343	0.996110
397.211217	0.996224
397.594028	0.996332
397.976778	0.995421
398.359466	0.995778
398.742092	0.996106
399.124656	0.995283
399.507158	0.996028
399.889598	0.996193
400.271977	0.996504
400.654294	0.996267
401.036549	0.997005
401.418742	0.995945
401.800874	0.995492
402.182944	0.996288
402.564952	0.995394
402.946898	0.997027
403.328783	0.996089
403.710606	0.996464
404.092367	0.996543
404.474067	0.995378
404.855705	0.996272
405.237282	0.997037
405.618797	0.995990
406.000250	0.995922
406.381642	0.995870
406.762972	0.995771
407.144240	0.996956
407.525447	0.996609
407.906593	0.995995
408.287677	0.995943
408.668700	0.997300
409.049661	0.995087
409.430560	0.996315
409.811399	0.996579
410.192176	0.996714
410.572891	0.995338
410.953545	0.995923
411.334138	0.994384
411.714669	0.996357
412.095139	0.994726
412.475547	0.996553
412.855894	0.995616
413.236180	0.996588
413.616405	0.995765
413.996568	0.996316
414.376670	0.995493
414.756711	0.995259
415.136691	0.995315
415.516609	0.995183
415.896466	0.994930
416.276262	0.994787
416.655997	0.995939
417.035670	0.994831
417.415283	0.995103
417.794834	0.994289
418.174324	0.994480
418.553753	0.993921
418.933121	0.993228
419.312428	0.992431
419.691674	0.991881
420.070859	0.992089
420.449983	0.989563
420.829045	0.988972
421.208047	0.989267
421.586988	0.987508
421.965867	0.984884
422.344686	0.984517
422.723444	0.983027
423.102141	0.981290
423.480777	0.979566
423.859352	0.977711
424.237866	0.974324
424.616319	0.972218
424.994712	0.970092
425.373044	0.967973
425.751314	0.964341
426.129524	0.961840
426.507673	0.959012
426.885762	0.955180
427.263789	0.951528
427.641756	0.948864
428.019662	0.944000
428.397508	0.939667
428.775292	0.935945
429.153016	0.931836
429.530679	0.928597
429.908282	0.922777
430.285824	0.918824
430.663305	0.910338
431.040726	0.908499
431.418086	0.904340
431.795385	0.896131
432.172624	0.889546
432.549802	0.885102
432.926920	0.878714
433.303977	0.870817
433.680974	0.864557
434.057910	0.856594
434.434786	0.849769
434.811601	0.843281
435.188355	0.831530
435.565050	0.826895
435.941683	0.820054
436.318257	0.807730
436.694770	0.798787
437.071222	0.790378
437.447614	0.783773
437.823946	0.778664
438.200218	0.765809
438.576429	0.762207
438.952580	0.750263
439.328670	0.740085
439.704700	0.734943
440.080670	0.727797
440.456580	0.709006
440.832429	0.703798
441.208218	0.701679
441.583947	0.686938
441.959616	0.679238
442.335224	0.673203
442.710773	0.659915
443.086261	0.648719
443.461689	0.650162
443.837057	0.635087
444.212365	0.620485
444.587612	0.617679
444.962800	0.602660
445.337927	0.596049
445.712995	0.605975
446.088002	0.571848
446.462949	0.572298
446.837837	0.567208
447.212664	0.553669
447.587431	0.538724
447.962139	0.510630
448.336786	0.473250
448.711374	0.474899
449.085901	0.501690
449.460369	0.497280
449.834776	0.493462
450.209124	0.470773
450.583412	0.458660
450.957640	0.448616
451.331808	0.451965
451.705917	0.466340
452.079965	0.464800
452.453954	0.449454
452.827883	0.451166
453.201752	0.442066
453.575562	0.448249
453.949311	0.433304
454.323001	0.434932
454.696632	0.428350
455.070202	0.417473
455.443713	0.406737
455.817164	0.398812
456.190556	0.391674
456.563888	0.385599
456.937160	0.380992
457.310373	0.394098
457.683526	0.390267
458.056619	0.393586
458.429653	0.392288
458.802628	0.393130
459.175542	0.386109
459.548398	0.367692
459.921194	0.358870
460.293930	0.357901
460.666607	0.334685
461.039224	0.321989
461.411782	0.316657
461.784280	0.314448
462.156719	0.317231
462.529099	0.320408
462.901419	0.335257
463.273680	0.338457
463.645882	0.337706
464.018024	0.342548
464.390106	0.335445
464.762130	0.319519
465.134094	0.302369
465.505999	0.271366
465.877845	0.242041
466.249631	0.228964
466.621358	0.235760
466.993026	0.248993
467.364634	0.254813
467.736184	0.263264
468.107674	0.271679
468.479105	0.270419
468.850477	0.277050
469.221790	0.283565
469.593043	0.293844
469.964238	0.298294
470.335373	0.297374
470.706449	0.295303
471.077467	0.296155
471.448425	0.258696
471.819324	0.234180
472.190164	0.233638
472.560945	0.261959
472.931667	0.283948
473.302330	0.288070
473.672934	0.300093
474.043479	0.288154
474.413965	0.289608
474.784393	0.293326
475.154761	0.288326
475.525070	0.285327
475.895321	0.291304
476.265513	0.285313
476.635645	0.280535
477.005719	0.280610
477.375734	0.277008
477.745691	0.270388
478.115588	0.266933
478.485427	0.260200
478.855207	0.247471
479.224928	0.229677
479.594591	0.218169
479.964194	0.221577
480.333739	0.222417
480.703226	0.224078
481.072653	0.222610
481.442022	0.218140
481.811333	0.214512
482.180584	0.218201
482.549777	0.223430
482.918912	0.226783
483.287988	0.226367
483.657005	0.225775
484.025964	0.232634
484.394864	0.229551
484.763706	0.230427
485.132489	0.235469
485.501213	0.236196
485.869879	0.234377
486.238487	0.237986
486.607036	0.235816
486.975527	0.240025
487.343959	0.235845
487.712333	0.235150
488.080648	0.236404
488.448905	0.235660
488.817104	0.236901
489.185244	0.231367
489.553326	0.228273
489.921350	0.218292
490.289315	0.200825
490.657222	0.195831
491.025070	0.196969
491.392861	0.199100
491.760593	0.204586
492.128267	0.210378
492.495883	0.215729
492.863440	0.222026
493.230939	0.228389
493.598380	0.229632
493.965763	0.231790
494.333088	0.233927
494.700354	0.235311
495.067563	0.234467
495.434713	0.237691
495.801805	0.235816
496.168839	0.237224
496.535815	0.238303
496.902733	0.238186
497.269593	0.239959
497.636395	0.237726
498.003139	0.237776
498.369825	0.240834
498.736453	0.237190
499.103023	0.238711
499.469535	0.238137
499.835989	0.238402
500.202385	0.238992
500.568723	0.242529
500.935003	0.237774
501.301226	0.241785
501.667390	0.236139
502.033497	0.234264
502.399546	0.237272
502.765537	0.238769
503.131470	0.237562
503.497345	0.233594
503.863163	0.242634
504.228923	0.235678
504.594625	0.234012
504.960269	0.239599
505.325856	0.234728
505.691385	0.239153
506.056856	0.236092
506.422270	0.235293
506.787625	0.237729
507.152924	0.235202
507.518164	0.235597
507.883347	0.237360
508.248472	0.239106
508.613540	0.233992
508.978550	0.236593
509.343503	0.236688
509.708398	0.234447
510.073236	0.232370
510.438016	0.232424
510.802738	0.233181
511.167403	0.232155
511.532010	0.234303
511.896561	0.229571
512.261053	0.228574
512.625488	0.230464
512.989866	0.230748
513.354186	0.231105
513.718449	0.233084
514.082655	0.229411
514.446803	0.231657
514.810894	0.229314
515.174927	0.232002
515.538904	0.231331
515.902822	0.228254
516.266684	0.230684
516.630488	0.231513
516.994235	0.230393
517.357925	0.229366
517.721558	0.227730
518.085133	0.227258
518.448651	0.227342
518.812112	0.229615
519.175516	0.229115
519.538863	0.226895
519.902152	0.228413
520.265385	0.225231
520.628560	0.227029
520.991678	0.227604
521.354739	0.226211
521.717743	0.227979
522.080690	0.228273
522.443580	0.225422
522.806413	0.226335
523.169189	0.225402
523.531908	0.224290
523.894569	0.227945
524.257174	0.228046
524.619722	0.225432
524.982213	0.226861
525.344647	0.225818
525.707025	0.226661
526.069345	0.224963
526.431608	0.226559
526.793815	0.224415
527.155964	0.228378
527.518057	0.227410
527.880093	0.228382
528.242072	0.227308
528.603995	0.228858
528.965860	0.230903
529.327669	0.229515
529.689421	0.230196
530.051117	0.231295
530.412755	0.228948
530.774337	0.231540
531.135862	0.231611
531.497331	0.230819
531.858743	0.233877
532.220098	0.230598
532.581396	0.232907
532.942638	0.233642
533.303824	0.234388
533.664953	0.234256
534.026025	0.235935
534.387040	0.234194
534.747999	0.234105
535.108902	0.232747
535.469748	0.237748
535.830537	0.235839
536.191270	0.236032
536.551947	0.235599
536.912567	0.235805
537.273131	0.237407
537.633638	0.237517
537.994089	0.238226
538.354483	0.239207
538.714821	0.236117
539.075103	0.235689
539.435328	0.236481
539.795497	0.240318
540.155609	0.236890
540.515665	0.235054
540.875665	0.240457
541.235609	0.239147
541.595496	0.239227
541.955328	0.235802
542.315102	0.238245
542.674821	0.239417
543.034483	0.239450
543.394090	0.239296
543.753640	0.241176
544.113134	0.236152
544.472571	0.239285
544.831953	0.236491
545.191278	0.240505
545.550548	0.239982
545.909761	0.236721
546.268918	0.237483
546.628019	0.235956
546.987064	0.238689
547.346053	0.240500
547.704986	0.238179
548.063863	0.238471
548.422684	0.238617
548.781449	0.240579
549.140158	0.238112
549.498811	0.241058
549.857408	0.243882
550.215949	0.239039
550.574434	0.241841
550.932864	0.239845
551.291237	0.238734
551.649555	0.239774
552.007817	0.239787
552.366022	0.240719
552.724173	0.240837
553.082267	0.241314
553.440305	0.238010
553.798288	0.242587
554.156215	0.239212
554.514086	0.240034
554.871902	0.242739
555.229661	0.241990
555.587365	0.242455
555.945014	0.245177
556.302606	0.241879
556.660143	0.244661
557.017625	0.240858
557.375050	0.243111
557.732421	0.240158
558.089735	0.242226
558.446994	0.242144
558.804197	0.241688
559.161345	0.241411
559.518437	0.245025
559.875474	0.242463
560.232455	0.241964
560.589381	0.243256
560.946251	0.243174
561.303065	0.241140
561.659825	0.242385
562.016528	0.243578
562.373177	0.246723
562.729770	0.243915
563.086307	0.246068
563.442789	0.243819
563.799216	0.246799
564.155587	0.245442
564.511904	0.246637
564.868164	0.246770
565.224370	0.246807
565.580520	0.248352
565.936615	0.248191
566.292654	0.251327
566.648638	0.248343
567.004567	0.249341
567.360441	0.249659
567.716260	0.251687
568.072023	0.249362
568.427732	0.250290
568.783385	0.252581
569.138982	0.250819
569.494525	0.250425
569.850013	0.253020
570.205445	0.251561
570.560823	0.254305
570.916145	0.256210
571.271412	0.254376
571.626625	0.255792
571.981782	0.256371
572.336884	0.257130
572.691931	0.257145
573.046923	0.258096
573.401860	0.259334
573.756743	0.260989
574.111570	0.260003
574.466342	0.260408
574.821059	0.259585
575.175722	0.262311
575.530330	0.262320
575.884882	0.262540
576.239380	0.264205
576.593823	0.264938
576.948211	0.264185
577.302544	0.267526
577.656823	0.267458
578.011047	0.267400
578.365216	0.268116
578.719330	0.270045
579.073389	0.269916
579.427394	0.271274
579.781344	0.271866
580.135239	0.273466
580.489080	0.272845
580.842866	0.276062
581.196597	0.276010
581.550273	0.274694
581.903895	0.275552
582.257463	0.273442
582.610975	0.277296
582.964434	0.276333
583.317837	0.278673
583.671186	0.279230
584.024481	0.279251
584.377721	0.281639
584.730906	0.282404
585.084037	0.281528
585.437113	0.283330
585.790135	0.283091
586.143103	0.285812
586.496016	0.286825
586.848874	0.284696
587.201679	0.285055
587.554428	0.288318
587.907124	0.287092
588.259765	0.287822
588.612352	0.288358
588.964884	0.292073
589.317362	0.291774
589.669786	0.291518
590.022155	0.290206
590.374470	0.289446
590.726731	0.291495
591.078937	0.296203
591.431090	0.292690
591.783188	0.297134
592.135232	0.297412
592.487222	0.297116
592.839157	0.295624
593.191038	0.297344
593.542866	0.299767
593.894639	0.303076
594.246358	0.300707
594.598022	0.300743
594.949633	0.304357
595.301190	0.305049
595.652692	0.304089
596.004141	0.300200
596.355535	0.308451
596.706876	0.308650
597.058162	0.311289
597.409395	0.308597
597.760573	0.306154
598.111698	0.309401
598.462768	0.310049
598.813785	0.311241
599.164748	0.312427
599.515657	0.312883
599.866511	0.316134
600.217312	0.311449
600.568060	0.316702
600.918753	0.313123
601.269392	0.314135
601.619978	0.317599
601.970510	0.314846
602.320988	0.315362
602.671412	0.312889
603.021783	0.315111
603.372100	0.316710
603.722363	0.316131
604.072572	0.316922
604.422728	0.317028
604.772830	0.319037
605.122878	0.318352
605.472872	0.319283
605.822813	0.317499
606.172701	0.320359
606.522534	0.317580
606.872314	0.317434
607.222041	0.318185
607.571714	0.316481
607.921333	0.318347
608.270899	0.317492
608.620411	0.314518
608.969870	0.318471
609.319276	0.318584
609.668627	0.318610
610.017926	0.316782
610.367171	0.315450
610.716362	0.315982
611.065500	0.316390
611.414585	0.315341
611.763616	0.315819
612.112594	0.316157
612.461518	0.315531
612.810389	0.313149
613.159207	0.315768
613.507971	0.317436
613.856682	0.312843
614.205340	0.314495
614.553945	0.311397
614.902496	0.315656
615.250994	0.313468
615.599439	0.314276
615.947830	0.313473
616.296169	0.314694
616.644454	0.314021
616.992686	0.314144
617.340864	0.311773
617.688990	0.315399
618.037063	0.312126
618.385082	0.313887
618.733048	0.310738
619.080961	0.313298
619.428821	0.312509
619.776628	0.311884
620.124382	0.314076
620.472083	0.314572
620.819731	0.314021
621.167326	0.317729
621.514868	0.317250
621.862357	0.321608
622.209793	0.321322
622.557176	0.323266
622.904506	0.324154
623.251783	0.327044
623.599007	0.329486
623.946179	0.328785
624.293297	0.330457
624.640363	0.334550
624.987376	0.334958
625.334336	0.337498
625.681243	0.339697
626.028097	0.340782
626.374899	0.341484
626.721647	0.341705
627.068343	0.344929
627.414987	0.346100
627.761577	0.348382
628.108115	0.346560
628.454600	0.351521
628.801032	0.348630
629.147412	0.351122
629.493739	0.351054
629.840014	0.354925
630.186236	0.351993
630.532405	0.357004
630.878521	0.354822
631.224585	0.357132
631.570597	0.360554
631.916556	0.359124
632.262462	0.359291
632.608316	0.361168
632.954117	0.361845
633.299866	0.362956
633.645562	0.363240
633.991206	0.367673
634.336797	0.370588
634.682336	0.372756
635.027823	0.374833
635.373257	0.375160
635.718639	0.378369
636.063968	0.377732
636.409245	0.383903
636.754470	0.383692
637.099642	0.386674
637.444762	0.389886
637.789829	0.388511
638.134845	0.391961
638.479808	0.393326
638.824719	0.393310
639.169577	0.397129
639.514383	0.396363
639.859137	0.400203
640.203839	0.400234
640.548489	0.400885
640.893086	0.401999
641.237632	0.403292
641.582125	0.402173
641.926566	0.403380
642.270955	0.403630
642.615292	0.404241
642.959576	0.403272
643.303809	0.403598
643.647990	0.403121
643.992118	0.404128
644.336195	0.407443
644.680219	0.405457
645.024192	0.406350
645.368112	0.399882
645.711981	0.398934
646.055797	0.394129
646.399562	0.396780
646.743274	0.388628
647.086935	0.385956
647.430544	0.386207
647.774101	0.385098
648.117606	0.384711
648.461059	0.384943
648.804460	0.387744
649.147810	0.392998
649.491108	0.394718
649.834354	0.395878
650.177548	0.401521
650.520690	0.407135
650.863781	0.408119
651.206820	0.407113
651.549807	0.412057
651.892742	0.416002
652.235626	0.415708
652.578458	0.416531
652.921238	0.422366
653.263967	0.420264
653.606644	0.424408
653.949269	0.424053
654.291843	0.427542
654.634365	0.425224
654.976836	0.427627
655.319255	0.427745
655.661622	0.429747
656.003938	0.429762
656.346203	0.433011
656.688416	0.430219
657.030577	0.433604
657.372687	0.435587
657.714746	0.436498
658.056753	0.433815
658.398708	0.437536
658.740612	0.438393
659.082465	0.434776
659.424266	0.435315
659.766016	0.434670
660.107715	0.437070
660.449362	0.436525
660.790958	0.436790
661.132503	0.437120
661.473996	0.435327
661.815438	0.436124
662.156829	0.436303
662.498168	0.436838
662.839456	0.438469
663.180693	0.436084
663.521879	0.436004
663.863013	0.436737
664.204097	0.436027
664.545129	0.432312
664.886110	0.432885
665.227040	0.430007
665.567918	0.432588
665.908746	0.430870
666.249522	0.430572
666.590248	0.431525
666.930922	0.429694
667.271545	0.428177
667.612118	0.428263
667.952639	0.430351
668.293109	0.428415
668.633528	0.431604
668.973896	0.431605
669.314213	0.431934
669.654480	0.433812
669.994695	0.433659
670.334859	0.434499
670.674973	0.435508
671.015035	0.435102
671.355047	0.434696
671.695008	0.436203
672.034918	0.437794
672.374777	0.436975
672.714585	0.438746
673.054342	0.438457
673.394049	0.438352
673.733705	0.436459
674.073310	0.436956
674.412864	0.440516
674.752368	0.441387
675.091820	0.440996
675.431223	0.445549
675.770574	0.445511
676.109875	0.448111
676.449125	0.448234
676.788324	0.450537
677.127473	0.456408
677.466571	0.455903
677.805619	0.457719
678.144616	0.458570
678.483562	0.459786
678.822458	0.462430
679.161303	0.464124
679.500098	0.463958
679.838842	0.465348
680.177535	0.464987
680.516179	0.464025
680.854771	0.462701
681.193314	0.456965
681.531805	0.447655
681.870247	0.436338
682.208638	0.428254
682.546978	0.428030
682.885268	0.429417
683.223508	0.435642
683.561697	0.438915
683.899836	0.442226
684.237925	0.445836
684.575963	0.447551
684.913951	0.450531
685.251889	0.446603
685.589776	0.448496
685.927614	0.450951
686.265401	0.445127
686.603137	0.446782
686.940824	0.440762
687.278460	0.439196
687.616046	0.439050
687.953582	0.433078
688.291068	0.434963
688.628504	0.430018
688.965889	0.432146
689.303224	0.436498
689.640510	0.440710
689.977745	0.446440
690.314930	0.454472
690.652065	0.459066
690.989150	0.466591
691.326185	0.473227
691.663170	0.477154
692.000105	0.484501
692.336990	0.491880
692.673825	0.493536
693.010610	0.501185
693.347345	0.506258
693.684030	0.508006
694.020665	0.512630
694.357251	0.521708
694.693786	0.521892
695.030272	0.525595
695.366707	0.528530
695.703093	0.532054
696.039429	0.530067
696.375716	0.531505
696.711952	0.534286
697.048139	0.536545
697.384276	0.538173
697.720363	0.536298
698.056400	0.536087
698.392388	0.541455
698.728326	0.544283
699.064214	0.546933
699.400053	0.547544
699.735842	0.550561
700.071581	0.554272
700.407270	0.557072
700.742910	0.559613
701.078501	0.565934
701.414042	0.565934
701.749533	0.569207
702.084974	0.578112
702.420366	0.570164
702.755709	0.578499
703.091002	0.585509
703.426246	0.579101
703.761440	0.585059
704.096584	0.589993
704.431679	0.587117
704.766725	0.588912
705.101721	0.590231
705.436668	0.586073
705.771565	0.593799
706.106413	0.590363
706.441212	0.585455
706.775961	0.584444
707.110661	0.587552
707.445311	0.583849
707.779913	0.580878
708.114465	0.579442
708.448967	0.576155
708.783421	0.568234
709.117825	0.562657
709.452180	0.562678
709.786485	0.556610
710.120742	0.546527
710.454949	0.548350
710.789107	0.540085
711.123216	0.531481
711.457275	0.533759
711.791286	0.524406
712.125247	0.522958
712.459159	0.534147
712.793023	0.526850
713.126837	0.530408
713.460602	0.530936
713.794318	0.540958
714.127985	0.539187
714.461602	0.549311
714.795171	0.552747
715.128691	0.559671
715.462162	0.567916
715.795584	0.573178
716.128957	0.576585
716.462281	0.582711
716.795556	0.585739
717.128782	0.591198
717.461960	0.601272
717.795088	0.599459
718.128167	0.605192
718.461198	0.614517
718.794180	0.614890
719.127113	0.617573
719.459997	0.621706
719.792833	0.627607
720.125619	0.628958
720.458357	0.635031
720.791046	0.634190
721.123686	0.638239
721.456278	0.644435
721.788821	0.641668
722.121315	0.645886
722.453761	0.649960
722.786158	0.648151
723.118506	0.644478
723.450805	0.652241
723.783056	0.649138
724.115259	0.646140
724.447412	0.645588
724.779518	0.646366
725.111574	0.645728
725.443582	0.641788
725.775542	0.643243
726.107453	0.635906
726.439315	0.634448
726.771129	0.634255
727.102895	0.627557
727.434612	0.620214
727.766281	0.617889
728.097901	0.617727
728.429473	0.617231
728.760996	0.615301
729.092471	0.615365
729.423897	0.619301
729.755276	0.618415
730.086606	0.618160
730.417887	0.613379
730.749120	0.603873
731.080305	0.595062
731.411442	0.590822
731.742530	0.595468
732.073570	0.595066
732.404562	0.586771
732.735506	0.588306
733.066401	0.592559
733.397249	0.602285
733.728048	0.613448
734.058798	0.626098
734.389501	0.637075
734.720156	0.646638
735.050762	0.654594
735.381320	0.656261
735.711831	0.665152
736.042293	0.669957
736.372707	0.664780
736.703073	0.669964
737.033391	0.672043
737.363661	0.669509
737.693883	0.664945
738.024056	0.663739
738.354182	0.664475
738.684260	0.653131
739.014290	0.649228
739.344272	0.649590
739.674207	0.643124
740.004093	0.642720
740.333931	0.642961
740.663722	0.643216
740.993464	0.643502
741.323159	0.647872
741.652806	0.652561
741.982405	0.657899
742.311956	0.662141
742.641460	0.664227
742.970915	0.667548
743.300323	0.675711
743.629683	0.682234
743.958996	0.683805
744.288260	0.688685
744.617477	0.693875
744.946647	0.695004
745.275768	0.701096
745.604842	0.700747
745.933869	0.711445
746.262847	0.711462
746.591778	0.704782
746.920662	0.710895
747.249498	0.717266
747.578286	0.708587
747.907027	0.704344
748.235720	0.705896
748.564365	0.700616
748.892963	0.700255
749.221514	0.703344
749.550017	0.708347
749.878473	0.708476
750.206881	0.714401
750.535242	0.715909
750.863555	0.715191
751.191821	0.716411
751.520039	0.719695
751.848210	0.724894
752.176334	0.716868
752.504411	0.716497
752.832440	0.724223
753.160421	0.728682
753.488356	0.726691
753.816243	0.723200
754.144082	0.732930
754.471875	0.735775
754.799620	0.730637
755.127318	0.732044
755.454969	0.732599
755.782572	0.731671
756.110129	0.736553
756.437638	0.739043
756.765100	0.736045
757.092515	0.733420
757.419882	0.733198
757.747203	0.738967
758.074477	0.737164
758.401703	0.734850
758.728882	0.730056
759.056014	0.728413
759.383099	0.727176
759.710138	0.728764
760.037129	0.725020
760.364073	0.719665
760.690970	0.721642
761.017820	0.727839
761.344623	0.723395
761.671379	0.714473
761.998088	0.702243
762.324751	0.679462
762.651366	0.637835
762.977935	0.571630
763.304456	0.519174
763.630931	0.510244
763.957359	0.549420
764.283740	0.593032
764.610074	0.620815
764.936362	0.651570
765.262602	0.678317
765.588796	0.698377
765.914943	0.716526
766.241044	0.734889
766.567097	0.741397
766.893104	0.751543
767.219064	0.758504
767.544978	0.764207
767.870845	0.777099
768.196665	0.781109
768.522438	0.779015
768.848165	0.781398
769.173846	0.788648
769.499479	0.794526
769.825066	0.797871
770.150607	0.802948
770.476101	0.797322
770.801548	0.799494
771.126949	0.810576
771.452303	0.813586
771.777611	0.812418
772.102872	0.812214
772.428087	0.817601
772.753256	0.821186
773.078378	0.822445
773.403453	0.831534
773.728482	0.835801
774.053465	0.829683
774.378401	0.832452
774.703291	0.841862
775.028135	0.841097
775.352932	0.842261
775.677683	0.847093
776.002388	0.846276
776.327046	0.844838
776.651658	0.849389
776.976224	0.851907
777.300743	0.852451
777.625216	0.854749
777.949643	0.856920
778.274024	0.857253
778.598359	0.859607
778.922647	0.857172
779.246889	0.857053
779.571086	0.861119
779.895236	0.864091
780.219339	0.860676
780.543397	0.857928
780.867409	0.856030
781.191374	0.858890
781.515294	0.859910
781.839167	0.859124
782.162995	0.862657
782.486776	0.859745
782.810511	0.860468
783.134201	0.863472
783.457844	0.861823
783.781441	0.864484
784.104993	0.870072
784.428498	0.870950
784.751958	0.866824
785.075372	0.868579
785.398739	0.872413
785.722061	0.868305
786.045337	0.863762
786.368568	0.868715
786.691752	0.871521
787.014891	0.857004
787.337983	0.848327
787.661030	0.840321
787.984031	0.822772
788.306987	0.811105
788.629897	0.812835
788.952760	0.817146
789.275579	0.820172
789.598351	0.836278
789.921078	0.848752
790.243759	0.851574
790.566395	0.855962
790.888984	0.863943
791.211529	0.868897
791.534027	0.871443
791.856480	0.874146
792.178888	0.878827
792.501249	0.881247
792.823566	0.883077
793.145836	0.882335
793.468062	0.885861
793.790241	0.884866
794.112375	0.883127
794.434464	0.877192
794.756507	0.877657
795.078505	0.877597
795.400457	0.872289
795.722364	0.860421
796.044226	0.853456
796.366042	0.852192
796.687812	0.856588
797.009538	0.850909
797.331218	0.854848
797.652852	0.859009
797.974442	0.864899
798.295986	0.864255
798.617484	0.866919
798.938938	0.870653
799.260346	0.876083
799.581709	0.878551
799.903026	0.879951
800.224299	0.880068
800.545526	0.883222
800.866708	0.888923
801.187845	0.892645
801.508936	0.891668
801.829983	0.890107
802.150984	0.892592
802.471940	0.897603
802.792851	0.896553
803.113717	0.897096
803.434538	0.896234
803.755314	0.898425
804.076045	0.899719
804.396731	0.899541
804.717372	0.899393
805.037967	0.901779
805.358518	0.899771
805.679024	0.896896
805.999485	0.896353
806.319901	0.896517
806.640272	0.898536
806.960598	0.896871
807.280879	0.894416
807.601115	0.891312
807.921306	0.895661
808.241453	0.896903
808.561554	0.893721
808.881611	0.894461
809.201623	0.895593
809.521590	0.896128
809.841513	0.897224
810.161390	0.895849
810.481223	0.897939
810.801011	0.902182
811.120755	0.903096
811.440453	0.901970
811.760107	0.900589
812.079716	0.900173
812.399281	0.903633
812.718801	0.905435
813.038276	0.907785
813.357707	0.906472
813.677093	0.903340
813.996434	0.906271
814.315731	0.907839
814.634983	0.909854
814.954191	0.907300
815.273354	0.904461
815.592473	0.900317
815.911547	0.901606
816.230577	0.898169
816.549562	0.895797
816.868502	0.896992
817.187399	0.892700
817.506250	0.887115
817.825058	0.889697
818.143821	0.887428
818.462539	0.881106
818.781213	0.873747
819.099843	0.861796
819.418429	0.846445
819.736970	0.829486
820.055466	0.810171
820.373919	0.783960
820.692327	0.751035
821.010691	0.716847
821.329011	0.639961
821.647286	0.525118
821.965517	0.411491
822.283704	0.368894
822.601847	0.370180
822.919945	0.406052
823.237999	0.439354
823.556010	0.485676
823.873976	0.541797
824.191897	0.591982
824.509775	0.633951
824.827609	0.680132
825.145398	0.702495
825.463144	0.705189
825.780845	0.687901
826.098502	0.669298
826.416116	0.623353
826.733685	0.579550
827.051210	0.571089
827.368692	0.585962
827.686129	0.623253
828.003522	0.675733
828.320872	0.722856
828.638177	0.768127
828.955439	0.799474
829.272656	0.820959
829.589830	0.839400
829.906960	0.854671
830.224046	0.867149
830.541088	0.876636
830.858086	0.881310
831.175041	0.887390
831.491952	0.886134
831.808819	0.883201
832.125642	0.878127
832.442421	0.861727
832.759157	0.840253
833.075849	0.794634
833.392497	0.730176
833.709101	0.690626
834.025662	0.699397
834.342179	0.731336
834.658653	0.770320
834.975083	0.805375
835.291469	0.832530
835.607811	0.854844
835.924110	0.870076
836.240366	0.887423
836.556578	0.901773
836.872746	0.908845
837.188871	0.914397
837.504952	0.919241
837.820990	0.923454
838.136984	0.927025
838.452935	0.929611
838.768842	0.932003
839.084706	0.925320
839.400526	0.899592
839.716303	0.858757
840.032037	0.836907
840.347727	0.840571
840.663373	0.858527
840.978977	0.879902
841.294537	0.902516
841.610054	0.917858
841.925527	0.926534
842.240957	0.932481
842.556344	0.940172
842.871687	0.945876
843.186987	0.950421
843.502244	0.950875
843.817458	0.951875
844.132629	0.955337
844.447756	0.960019
844.762840	0.961466
845.077881	0.960218
845.392879	0.960540
845.707833	0.962868
846.022745	0.965912
846.337613	0.964503
846.652438	0.965856
846.967221	0.964363
847.281960	0.964339
847.596656	0.966894
847.911309	0.965649
848.225919	0.967123
848.540485	0.968167
848.855009	0.969788
849.169490	0.968094
849.483928	0.968904
849.798323	0.968978
850.112675	0.970151
850.426984	0.969870
850.741251	0.970025
851.055474	0.970331
851.369654	0.967827
851.683792	0.969324
851.997887	0.969686
852.311938	0.970470
852.625947	0.970851
852.939914	0.968213
853.253837	0.969193
853.567718	0.970386
853.881555	0.970493
854.195350	0.967826
854.509103	0.968891
854.822812	0.970165
855.136479	0.969595
855.450103	0.969269
855.763685	0.967882
856.077224	0.967549
856.390720	0.971074
856.704173	0.970360
857.017584	0.969262
857.330953	0.966762
857.644278	0.968425
857.957561	0.968655
858.270802	0.968802
858.584000	0.967222
858.897155	0.967624
859.210268	0.967289
859.523339	0.968142
859.836367	0.970313
860.149352	0.970987
860.462295	0.969067
860.775195	0.969500
861.088054	0.969018
861.400869	0.968362
861.713642	0.971538
862.026373	0.969984
862.339062	0.970196
862.651708	0.967890
862.964312	0.968389
863.276873	0.969857
863.589392	0.967834
863.901869	0.965948
864.214303	0.964983
864.526696	0.964189
864.839045	0.961934
865.151353	0.961360
865.463619	0.962572
865.775842	0.963003
866.088023	0.963215
866.400162	0.962279
866.712258	0.962146
867.024313	0.962194
867.336325	0.963833
867.648296	0.963495
867.960224	0.962067
868.272110	0.961530
868.583954	0.964255
868.895755	0.964074
869.207515	0.961982
869.519233	0.959063
869.830909	0.961627
870.142542	0.962254
870.454134	0.962417
870.765684	0.959810
871.077191	0.957808
871.388657	0.958649
871.700081	0.958516
872.011463	0.958849
872.322803	0.958448
872.634101	0.957775
872.945357	0.954264
873.256571	0.952152
873.567744	0.953478
873.878874	0.954300
874.189963	0.951258
874.501010	0.952095
874.812015	0.949840
875.122979	0.951508
875.433900	0.953875
875.744780	0.953828
876.055618	0.950966
876.366415	0.949621
876.677169	0.949835
876.987882	0.952554
877.298554	0.951043
877.609183	0.947601
877.919771	0.944652
878.230317	0.943076
878.540822	0.941500
878.851285	0.935773
879.161707	0.927914
879.472087	0.915683
879.782425	0.899146
880.092722	0.865818
880.402977	0.812839
880.713191	0.752807
881.023363	0.694839
881.333494	0.660537
881.643583	0.633163
881.953631	0.632486
882.263637	0.661334
882.573602	0.701313
882.883526	0.726030
883.193408	0.749696
883.503248	0.772141
883.813048	0.798960
884.122806	0.827898
884.432522	0.851441
884.742197	0.871575
885.051831	0.881912
885.361424	0.892050
885.670975	0.904170
885.980485	0.913822
886.289954	0.919677
886.599382	0.924295
886.908768	0.929435
887.218113	0.935060
887.527417	0.939357
887.836680	0.941425
888.145901	0.944204
888.455082	0.946917
888.764221	0.951175
889.073319	0.953210
889.382376	0.953320
889.691392	0.953656
890.000366	0.952822
890.309300	0.954527
890.618193	0.953625
890.927044	0.951573
891.235855	0.952021
891.544625	0.951834
891.853353	0.952223
892.162041	0.949263
892.470687	0.942327
892.779293	0.937991
893.087858	0.934181
893.396381	0.926757
893.704864	0.913546
894.013306	0.890105
894.321707	0.862788
894.630068	0.849003
894.938387	0.844619
895.246665	0.845053
895.554903	0.856761
895.863100	0.870302
896.171256	0.887055
896.479371	0.906861
896.787446	0.919904
897.095480	0.926212
897.403473	0.928437
897.711425	0.932732
898.019336	0.941043
898.327207	0.943477
898.635038	0.945577
898.942827	0.945208
899.250576	0.948905
899.558284	0.952717
899.865952	0.954811
900.173579	0.954765
900.481165	0.956247
900.788711	0.960221
901.096216	0.961240
901.403681	0.961438
901.711105	0.962767
902.018489	0.963363
902.325832	0.963204
902.633135	0.961053
902.940397	0.954582
903.247619	0.943325
903.554800	0.917411
903.861941	0.880030
904.169041	0.843739
904.476101	0.827711
904.783121	0.827090
905.090100	0.844362
905.397039	0.865253
905.703938	0.887319
906.010796	0.906132
906.317614	0.923807
906.624391	0.935444
906.931129	0.944141
907.237826	0.951765
907.544483	0.959875
907.851099	0.963140
908.157675	0.968586
908.464211	0.971209
908.770707	0.972192
909.077163	0.975010
909.383578	0.973667
909.689954	0.974421
909.996289	0.976067
910.302584	0.977870
910.608839	0.979773
910.915054	0.979222
911.221229	0.977347
911.527363	0.976809
911.833458	0.976777
912.139513	0.977646
912.445527	0.974940
912.751502	0.973608
913.057436	0.972607
913.363331	0.970968
913.669186	0.966941
913.975000	0.961909
914.280775	0.955758
914.586510	0.948937
914.892205	0.936022
915.197859	0.915445
915.503475	0.887273
915.809050	0.867918
916.114585	0.862937
916.420081	0.861118
916.725536	0.857491
917.030952	0.864728
917.336328	0.877943
917.641665	0.892862
917.946961	0.907453
918.252218	0.919073
918.557435	0.929508
918.862612	0.936815
919.167750	0.943345
919.472848	0.947369
919.777906	0.953048
920.082925	0.958661
920.387904	0.963075
920.692843	0.963248
920.997743	0.964255
921.302603	0.967600
921.607423	0.969630
921.912204	0.972197
922.216946	0.971270
922.521647	0.973353
922.826310	0.975043
923.130932	0.977242
923.435516	0.978546
923.740059	0.978875
924.044564	0.978361
924.349028	0.981368
924.653454	0.982916
924.957840	0.984293
925.262186	0.983656
925.566493	0.984406
925.870761	0.985412
926.174989	0.985937
926.479178	0.986771
926.783328	0.988626
927.087438	0.988675
927.391509	0.988085
927.695541	0.990343
927.999533	0.988478
928.303486	0.989479
928.607400	0.990852
928.911275	0.988940
929.215110	0.990741
929.518906	0.990341
929.822663	0.989384
930.126381	0.990584
930.430060	0.991400
930.733699	0.990953
931.037299	0.988972
931.340861	0.991655
931.644383	0.989918
931.947866	0.988977
932.251309	0.990729
932.554714	0.990688
932.858080	0.990266
933.161407	0.990423
933.464694	0.991144
933.767943	0.989959
934.071153	0.991051
934.374323	0.991842
934.677455	0.991599
934.980548	0.992147
935.283602	0.991068
935.586617	0.992031
935.889593	0.990519
936.192530	0.990310
936.495428	0.990722
936.798287	0.990602
937.101108	0.990269
937.403890	0.987991
937.706632	0.989521
938.009336	0.987378
938.312002	0.985962
938.614628	0.984917
938.917216	0.983784
939.219765	0.981441
939.522275	0.983278
939.824747	0.983616
940.127179	0.984041
940.429573	0.984752
940.731929	0.985237
941.034246	0.983908
941.336524	0.985773
941.638763	0.985571
941.940964	0.985716
942.243126	0.986814
942.545250	0.987778
942.847335	0.987662
943.149381	0.988333
943.451389	0.988326
943.753359	0.987521
944.055290	0.990522
944.357182	0.989841
944.659036	0.988159
944.960851	0.989708
945.262628	0.988826
945.564367	0.988659
945.866067	0.990262
946.167729	0.989080
946.469352	0.989616
946.770937	0.989084
947.072484	0.990503
947.373992	0.990399
947.675462	0.990227
947.976893	0.990249
948.278286	0.990079
948.579641	0.991003
948.880958	0.990429
949.182236	0.991419
949.483476	0.991728
949.784678	0.989914
950.085841	0.990499
950.386967	0.991000
950.688054	0.990459
950.989103	0.990594
951.290114	0.989347
951.591087	0.989801
951.892021	0.989582
952.192917	0.988444
952.493776	0.987663
952.794596	0.988620
953.095378	0.988057
953.396122	0.988428
953.696828	0.987028
953.997496	0.989765
954.298126	0.990445
954.598718	0.990756
954.899272	0.990333
955.199788	0.990474
955.500266	0.991599
955.800706	0.992634
956.101108	0.992582
956.401472	0.992737
956.701798	0.993859
957.002087	0.993676
957.302337	0.992859
957.602550	0.995428
957.902724	0.994454
958.202861	0.995246
958.502960	0.994157
958.803022	0.993110
959.103045	0.995962
959.403031	0.996733
959.702979	0.995243
960.002889	0.995302
960.302762	0.994230
960.602596	0.995674
960.902393	0.995045
961.202153	0.996977
961.501875	0.996453
961.801559	0.995554
962.101205	0.996331
962.400814	0.997092
962.700385	0.996183
962.999918	0.997286
963.299414	0.996835
963.598873	0.995828
963.898293	0.996588
964.197677	0.996588
964.497022	0.996235
964.796331	0.997171
965.095601	0.996199
965.394835	0.996483
965.694030	0.996901
965.993189	0.996651
966.292309	0.996818
966.591393	0.996820
966.890439	0.996584
967.189447	0.995882
967.488419	0.997131
967.787353	0.995471
968.086249	0.995676
968.385108	0.997047
968.683930	0.997590
968.982714	0.997234
969.281462	0.996668
969.580172	0.995814
969.878844	0.997030
970.177480	0.995148
970.476078	0.997324
970.774639	0.996875
971.073162	0.996789
971.371649	0.995719
971.670098	0.996951
971.968510	0.996588
972.266885	0.995872
972.565223	0.996108
972.863524	0.994936
973.161788	0.995111
973.460014	0.996981
973.758204	0.995617
974.056356	0.995661
974.354471	0.994080
974.652550	0.995100
974.950591	0.996578
975.248595	0.995434
975.546563	0.996176
975.844493	0.997799
976.142386	0.997774
976.440243	0.997472
976.738062	0.996723
977.035845	0.998340
977.333590	0.995510
977.631299	0.997425
977.928971	0.996654
978.226606	0.996922
978.524204	0.996684
978.821765	0.998117
979.119290	0.995902
979.416777	0.995825
979.714228	0.997587
980.011642	0.995516
980.309020	0.996560
980.606360	0.996866
980.903664	0.996655
981.200931	0.996827
981.498162	0.994844
981.795356	0.994801
982.092513	0.994924
982.389633	0.994247
982.686717	0.990862
982.983764	0.991699
983.280775	0.991372
983.577749	0.990537
983.874686	0.991989
984.171587	0.992105
984.468451	0.995287
984.765279	0.994978
985.062070	0.993371
985.358824	0.994976
985.655543	0.994333
985.952224	0.995889
986.248869	0.996504
986.545478	0.996368
986.842050	0.997508
987.138586	0.995721
987.435086	0.997180
987.731549	0.996782
988.027975	0.998104
988.324366	0.998335
988.620719	0.996751
988.917037	0.996158
989.213318	0.996680
989.509563	0.998826
989.805772	0.997490
990.101944	0.999339
990.398080	0.996753
990.694180	0.997005
990.990244	0.996580
991.286271	0.997515
991.582262	0.996987
991.878217	0.997229
992.174136	0.998821
992.470019	0.999059
992.765865	0.997045
993.061676	0.998280
993.357450	0.997158
993.653188	0.997569
993.948890	0.995884
994.244556	0.998104
994.540186	0.997098
994.835780	0.996566
995.131337	0.996837
995.426859	0.997031
995.722345	0.996916
996.017795	0.996351
996.313208	0.996297
996.608586	0.996147
996.903928	0.997915
997.199234	0.997062
997.494504	0.996784
997.789738	0.996992
998.084936	0.996563
998.380099	0.998062
998.675225	0.997112
998.970316	0.997588
999.265371	0.997542
999.560390	0.997541
999.855373	0.999043
1000.150320	0.998480
1000.445232	0.998124
1000.740108	0.997374
1001.034948	0.997954
1001.329752	0.999485
1001.624521	0.999198
1001.919254	0.998685
1002.213951	0.998166
1002.508613	0.998570
1002.803239	0.998872
1003.097829	0.998013
1003.392384	0.998662
1003.686903	0.997875
1003.981386	0.999349
1004.275834	0.999132
1004.570246	0.998136
1004.864623	0.998818
1005.158964	0.999009
1005.453270	0.997905
1005.747540	0.997240
1006.041775	0.998143
1006.335974	1.000555
1006.630138	0.998170
1006.924266	0.999575
1007.218359	0.999864
1007.512416	0.999589
1007.806438	0.997821
1008.100425	0.999493
1008.394376	0.998594
1008.688292	0.997885
1008.982172	1.000644
1009.276017	0.999403
1009.569827	0.998383
1009.863602	0.997791
1010.157341	0.999717
1010.451045	0.999462
1010.744714	0.999102
1011.038347	0.998408
1011.331945	0.999420
1011.625508	0.996790
1011.919036	0.999232
1012.212528	0.999584
1012.505986	0.997729
1012.799408	0.997531
1013.092795	0.999390
1013.386147	0.998433
1013.679464	0.998557
1013.972745	0.998074
1014.265992	0.998129
1014.559204	0.998360
1014.852380	0.999190
1015.145521	0.998969
1015.438628	0.998798
1015.731699	0.998428
1016.024736	0.999439
1016.317737	0.998540
1016.610703	0.998911
1016.903635	0.999505
1017.196531	0.998480
1017.489393	0.999414
1017.782219	0.997687
1018.075011	0.997796
1018.367768	0.999215
1018.660490	0.999231
1018.953177	0.999231
1019.245829	0.999231
