Dividing Wavelength (nm)	Counts (n)	Blue Motor Position (mm): 0.000000	Red Motor Position (mm): 31.500000	
326.493990	1.000006
326.888308	1.000006
327.282561	1.000006
327.676750	1.000172
328.070874	0.999204
328.464933	0.999770
328.858929	0.998672
329.252859	0.999054
329.646726	0.999541
330.040528	1.000388
330.434265	0.998561
330.827938	1.000279
331.221547	0.999707
331.615091	1.000928
332.008571	1.000348
332.401986	0.999430
332.795338	1.000265
333.188625	0.998016
333.581847	1.000323
333.975006	0.999174
334.368100	0.999537
334.761129	0.999291
335.154095	1.001183
335.546996	0.997828
335.939833	0.995246
336.332606	0.994707
336.725315	0.997077
337.117960	0.996166
337.510540	0.995374
337.903056	0.995740
338.295508	0.994582
338.687896	0.994973
339.080220	0.996611
339.472480	0.996396
339.864676	0.995858
340.256807	0.995953
340.648875	0.996327
341.040879	0.995939
341.432818	0.994400
341.824694	0.995907
342.216506	0.996313
342.608253	0.996565
342.999937	0.994852
343.391557	0.995454
343.783113	0.994537
344.174605	0.995416
344.566033	0.996013
344.957397	0.995131
345.348697	0.994956
345.739934	0.996131
346.131106	0.995805
346.522215	0.995183
346.913260	0.996018
347.304241	0.995736
347.695159	0.995164
348.086012	0.993797
348.476802	0.995390
348.867528	0.995410
349.258191	0.994448
349.648789	0.996521
350.039324	0.995116
350.429796	0.997246
350.820203	0.995360
351.210548	0.995770
351.600828	0.995838
351.991045	0.995904
352.381198	0.994125
352.771288	0.996154
353.161314	0.995115
353.551276	0.995395
353.941175	0.995734
354.331010	0.995341
354.720782	0.996610
355.110490	0.995846
355.500135	0.996569
355.889717	0.994419
356.279235	0.996042
356.668689	0.994532
357.058080	0.995088
357.447408	0.995976
357.836672	0.995929
358.225873	0.997106
358.615010	0.996404
359.004084	0.995866
359.393095	0.996148
359.782043	0.995171
360.170927	0.996026
360.559748	0.996258
360.948505	0.995006
361.337199	0.995446
361.725830	0.995486
362.114398	0.995468
362.502903	0.995780
362.891344	0.996762
363.279722	0.995058
363.668037	0.996993
364.056289	0.995383
364.444478	0.996801
364.832603	0.996342
365.220665	0.995646
365.608665	0.996387
365.996601	0.996130
366.384474	0.995304
366.772284	0.994986
367.160031	0.994065
367.547715	0.995192
367.935336	0.995780
368.322893	0.995522
368.710388	0.995324
369.097820	0.995249
369.485189	0.995993
369.872495	0.994348
370.259738	0.994196
370.646918	0.996537
371.034035	0.996325
371.421090	0.995526
371.808081	0.994829
372.195010	0.996713
372.581875	0.996903
372.968678	0.997016
373.355418	0.995024
373.742096	0.996258
374.128710	0.997323
374.515262	0.995351
374.901751	0.996207
375.288177	0.996855
375.674540	0.995803
376.060841	0.996305
376.447079	0.996729
376.833254	0.996373
377.219367	0.996048
377.605417	0.997090
377.991404	0.996739
378.377329	0.996461
378.763191	0.996261
379.148991	0.997457
379.534727	0.997735
379.920402	0.996862
380.306013	0.997022
380.691563	0.998438
381.077049	0.996204
381.462474	0.996941
381.847835	0.997307
382.233134	0.996750
382.618371	0.997975
383.003545	0.997524
383.388657	0.997198
383.773706	0.997804
384.158693	0.997672
384.543618	0.997065
384.928480	0.998484
385.313280	0.997919
385.698017	0.998441
386.082692	0.997794
386.467305	0.998054
386.851856	0.997417
387.236344	0.997247
387.620770	0.997031
388.005133	0.997656
388.389435	0.998322
388.773674	0.997902
389.157851	0.998293
389.541965	0.997707
389.926018	0.997278
390.310008	0.999548
390.693936	0.997733
391.077802	0.998009
391.461606	0.997893
391.845348	0.997257
392.229027	0.999249
392.612645	0.998303
392.996200	0.998888
393.379694	0.998501
393.763125	0.998720
394.146494	0.998747
394.529801	0.998633
394.913047	0.999641
395.296230	0.999075
395.679351	0.998578
396.062410	0.997869
396.445408	0.998379
396.828343	0.997749
397.211217	0.999300
397.594028	0.998579
397.976778	0.997972
398.359466	0.998147
398.742092	0.998044
399.124656	0.997278
399.507158	0.998349
399.889598	0.998809
400.271977	0.999709
400.654294	0.998290
401.036549	0.998902
401.418742	0.998792
401.800874	0.997328
402.182944	0.998931
402.564952	0.997767
402.946898	0.999586
403.328783	0.998802
403.710606	0.999094
404.092367	0.998995
404.474067	0.998687
404.855705	0.997950
405.237282	0.998625
405.618797	0.998967
406.000250	0.997747
406.381642	0.999420
406.762972	0.998903
407.144240	0.999755
407.525447	0.998778
407.906593	0.998962
408.287677	1.000013
408.668700	0.999384
409.049661	0.998693
409.430560	0.999929
409.811399	0.998488
410.192176	0.999157
410.572891	0.998258
410.953545	0.998889
411.334138	0.998330
411.714669	0.998298
412.095139	0.997633
412.475547	0.999852
412.855894	0.999157
413.236180	1.000098
413.616405	0.999904
413.996568	0.999440
414.376670	0.998898
414.756711	0.998415
415.136691	0.999093
415.516609	0.998732
415.896466	0.999454
416.276262	0.998202
416.655997	0.998777
417.035670	0.998733
417.415283	0.998461
417.794834	0.998973
418.174324	0.999375
418.553753	1.000077
418.933121	0.999914
419.312428	0.999378
419.691674	0.999547
420.070859	0.999363
420.449983	0.999286
420.829045	0.999282
421.208047	0.998983
421.586988	1.000179
421.965867	0.998623
422.344686	0.999929
422.723444	0.999151
423.102141	0.999378
423.480777	0.999273
423.859352	0.998646
424.237866	0.998027
424.616319	0.999314
424.994712	0.999786
425.373044	0.999581
425.751314	0.999277
426.129524	0.999958
426.507673	0.999702
426.885762	1.000071
427.263789	0.999520
427.641756	0.999377
428.019662	0.999429
428.397508	0.998128
428.775292	0.998351
429.153016	0.998760
429.530679	0.999716
429.908282	0.999411
430.285824	0.999136
430.663305	0.999110
431.040726	0.998876
431.418086	1.000309
431.795385	1.000128
432.172624	0.999209
432.549802	1.000251
432.926920	1.000415
433.303977	0.998482
433.680974	0.999995
434.057910	0.999354
434.434786	0.999335
434.811601	0.998728
435.188355	0.999123
435.565050	0.999109
435.941683	0.999103
436.318257	1.000445
436.694770	0.999472
437.071222	1.000918
437.447614	0.999439
437.823946	0.999383
438.200218	0.999632
438.576429	0.999041
438.952580	1.000258
439.328670	0.999148
439.704700	0.999757
440.080670	0.999821
440.456580	0.999837
440.832429	0.999163
441.208218	1.000273
441.583947	0.999550
441.959616	0.999993
442.335224	0.999474
442.710773	1.000328
443.086261	0.999157
443.461689	0.999332
443.837057	0.999289
444.212365	1.000055
444.587612	0.999688
444.962800	0.998911
445.337927	0.999106
445.712995	1.000379
446.088002	1.000610
446.462949	0.999762
446.837837	0.999878
447.212664	1.000333
447.587431	0.999079
447.962139	0.999590
448.336786	1.000551
448.711374	0.999162
449.085901	0.999751
449.460369	0.999840
449.834776	0.999293
450.209124	1.000550
450.583412	0.999917
450.957640	0.999274
451.331808	0.999788
451.705917	0.999685
452.079965	0.999218
452.453954	0.999355
452.827883	0.999173
453.201752	0.999849
453.575562	1.000124
453.949311	0.999461
454.323001	0.999143
454.696632	0.999352
455.070202	0.999722
455.443713	0.998925
455.817164	0.999607
456.190556	0.999764
456.563888	0.999559
456.937160	1.000079
457.310373	0.999474
457.683526	0.999212
458.056619	0.998971
458.429653	0.999561
458.802628	0.998399
459.175542	0.998826
459.548398	0.999213
459.921194	0.999018
460.293930	0.999367
460.666607	0.999144
461.039224	0.998536
461.411782	0.999216
461.784280	0.998983
462.156719	0.999696
462.529099	0.999430
462.901419	0.999095
463.273680	0.999204
463.645882	0.999537
464.018024	0.999539
464.390106	0.999110
464.762130	0.999859
465.134094	0.999343
465.505999	0.999464
465.877845	0.999379
466.249631	1.000042
466.621358	0.999708
466.993026	0.999565
467.364634	0.999214
467.736184	0.999293
468.107674	0.999269
468.479105	0.998793
468.850477	0.998868
469.221790	0.998883
469.593043	0.998538
469.964238	0.999110
470.335373	0.998379
470.706449	0.998004
471.077467	0.998956
471.448425	0.997775
471.819324	0.998822
472.190164	0.997550
472.560945	0.997430
472.931667	0.997266
473.302330	0.997064
473.672934	0.997343
474.043479	0.996537
474.413965	0.996334
474.784393	0.996070
475.154761	0.995678
475.525070	0.994201
475.895321	0.995468
476.265513	0.994336
476.635645	0.993294
477.005719	0.993475
477.375734	0.992038
477.745691	0.991788
478.115588	0.991170
478.485427	0.990750
478.855207	0.988861
479.224928	0.988221
479.594591	0.987071
479.964194	0.986117
480.333739	0.985410
480.703226	0.984329
481.072653	0.983767
481.442022	0.982151
481.811333	0.979820
482.180584	0.980066
482.549777	0.978335
482.918912	0.976660
483.287988	0.975254
483.657005	0.972638
484.025964	0.972946
484.394864	0.971873
484.763706	0.969772
485.132489	0.968996
485.501213	0.966390
485.869879	0.964793
486.238487	0.962416
486.607036	0.960329
486.975527	0.958033
487.343959	0.956005
487.712333	0.952987
488.080648	0.951231
488.448905	0.948705
488.817104	0.946092
489.185244	0.943067
489.553326	0.939196
489.921350	0.934775
490.289315	0.927173
490.657222	0.924122
491.025070	0.920442
491.392861	0.918706
491.760593	0.917712
492.128267	0.915257
492.495883	0.912730
492.863440	0.910425
493.230939	0.907516
493.598380	0.902758
493.965763	0.898775
494.333088	0.896112
494.700354	0.890753
495.067563	0.888408
495.434713	0.883472
495.801805	0.879222
496.168839	0.874820
496.535815	0.869366
496.902733	0.865761
497.269593	0.860271
497.636395	0.855649
498.003139	0.849636
498.369825	0.846452
498.736453	0.839465
499.103023	0.835324
499.469535	0.829098
499.835989	0.824879
500.202385	0.818908
500.568723	0.814287
500.935003	0.808932
501.301226	0.801668
501.667390	0.796320
502.033497	0.789279
502.399546	0.785124
502.765537	0.779017
503.131470	0.771882
503.497345	0.765232
503.863163	0.762856
504.228923	0.753246
504.594625	0.747630
504.960269	0.742737
505.325856	0.734629
505.691385	0.729174
506.056856	0.722178
506.422270	0.715079
506.787625	0.711671
507.152924	0.702479
507.518164	0.696602
507.883347	0.690520
508.248472	0.684352
508.613540	0.675724
508.978550	0.670568
509.343503	0.664200
509.708398	0.657768
510.073236	0.649063
510.438016	0.643394
510.802738	0.636355
511.167403	0.629355
511.532010	0.623321
511.896561	0.615342
512.261053	0.608740
512.625488	0.602225
512.989866	0.595842
513.354186	0.589293
513.718449	0.583282
514.082655	0.575423
514.446803	0.570890
514.810894	0.563317
515.174927	0.557368
515.538904	0.551765
515.902822	0.542773
516.266684	0.539200
516.630488	0.533111
516.994235	0.526840
517.357925	0.519194
517.721558	0.512184
518.085133	0.505242
518.448651	0.500899
518.812112	0.496354
519.175516	0.488756
519.538863	0.481858
519.902152	0.478167
520.265385	0.469015
520.628560	0.465662
520.991678	0.459592
521.354739	0.453793
521.717743	0.449647
522.080690	0.444370
522.443580	0.435986
522.806413	0.431789
523.169189	0.425905
523.531908	0.419841
523.894569	0.417908
524.257174	0.412518
524.619722	0.405403
524.982213	0.402673
525.344647	0.396303
525.707025	0.392890
526.069345	0.386281
526.431608	0.382748
526.793815	0.377339
527.155964	0.376169
527.518057	0.371293
527.880093	0.367687
528.242072	0.362162
528.603995	0.359445
528.965860	0.357328
529.327669	0.352176
529.689421	0.349504
530.051117	0.346251
530.412755	0.340350
530.774337	0.339780
531.135862	0.335589
531.497331	0.332218
531.858743	0.331077
532.220098	0.325231
532.581396	0.324011
532.942638	0.321727
533.303824	0.319683
533.664953	0.316187
534.026025	0.314964
534.387040	0.310077
534.747999	0.307431
535.108902	0.304139
535.469748	0.306046
535.830537	0.301831
536.191270	0.299824
536.551947	0.296922
536.912567	0.294649
537.273131	0.294498
537.633638	0.292381
537.994089	0.290248
538.354483	0.289305
538.714821	0.284677
539.075103	0.282669
539.435328	0.281515
539.795497	0.283671
540.155609	0.278075
540.515665	0.274866
540.875665	0.278833
541.235609	0.275862
541.595496	0.274714
541.955328	0.269603
542.315102	0.271038
542.674821	0.270626
543.034483	0.269027
543.394090	0.267656
543.753640	0.268330
544.113134	0.262309
544.472571	0.264686
544.831953	0.260138
545.191278	0.263294
545.550548	0.261892
545.909761	0.258156
546.268918	0.257693
546.628019	0.255328
546.987064	0.257033
547.346053	0.258160
547.704986	0.255113
548.063863	0.255026
548.422684	0.254621
548.781449	0.255582
549.140158	0.252707
549.498811	0.254939
549.857408	0.257521
550.215949	0.251842
550.574434	0.254619
550.932864	0.251944
551.291237	0.250024
551.649555	0.250959
552.007817	0.250607
552.366022	0.250934
552.724173	0.250612
553.082267	0.250859
553.440305	0.247305
553.798288	0.251724
554.156215	0.247583
554.514086	0.248293
554.871902	0.251139
555.229661	0.250191
555.587365	0.250451
555.945014	0.252999
556.302606	0.249598
556.660143	0.252034
557.017625	0.248139
557.375050	0.250094
557.732421	0.247087
558.089735	0.248657
558.446994	0.248495
558.804197	0.247934
559.161345	0.247636
559.518437	0.251010
559.875474	0.248631
560.232455	0.248001
560.589381	0.249000
560.946251	0.248839
561.303065	0.246303
561.659825	0.247673
562.016528	0.249174
562.373177	0.251734
562.729770	0.249178
563.086307	0.251022
563.442789	0.248712
563.799216	0.251619
564.155587	0.250017
564.511904	0.251299
564.868164	0.251631
565.224370	0.250980
565.580520	0.252563
565.936615	0.252800
566.292654	0.255266
566.648638	0.252285
567.004567	0.253032
567.360441	0.253872
567.716260	0.255541
568.072023	0.253359
568.427732	0.254223
568.783385	0.256793
569.138982	0.254415
569.494525	0.253986
569.850013	0.256828
570.205445	0.255200
570.560823	0.257769
570.916145	0.259594
571.271412	0.258065
571.626625	0.259582
571.981782	0.259838
572.336884	0.260591
572.691931	0.260391
573.046923	0.261476
573.401860	0.262785
573.756743	0.264258
574.111570	0.263333
574.466342	0.263795
574.821059	0.262704
575.175722	0.265755
575.530330	0.265593
575.884882	0.265700
576.239380	0.267498
576.593823	0.268278
576.948211	0.267291
577.302544	0.270614
577.656823	0.270334
578.011047	0.270638
578.365216	0.271212
578.719330	0.272906
579.073389	0.272801
579.427394	0.274297
579.781344	0.274615
580.135239	0.276624
580.489080	0.276043
580.842866	0.279155
581.196597	0.278777
581.550273	0.277448
581.903895	0.278302
582.257463	0.276325
582.610975	0.279915
582.964434	0.279249
583.317837	0.281902
583.671186	0.282276
584.024481	0.282001
584.377721	0.284696
584.730906	0.284997
585.084037	0.284310
585.437113	0.286412
585.790135	0.285517
586.143103	0.288598
586.496016	0.289892
586.848874	0.287376
587.201679	0.287913
587.554428	0.291214
587.907124	0.289704
588.259765	0.290682
588.612352	0.291079
588.964884	0.294936
589.317362	0.294217
589.669786	0.294420
590.022155	0.293082
590.374470	0.292156
590.726731	0.294050
591.078937	0.298945
591.431090	0.295063
591.783188	0.299800
592.135232	0.299620
592.487222	0.300379
592.839157	0.298186
593.191038	0.300342
593.542866	0.302299
593.894639	0.305709
594.246358	0.303628
594.598022	0.303006
594.949633	0.306619
595.301190	0.307885
595.652692	0.306687
596.004141	0.303195
596.355535	0.310994
596.706876	0.311731
597.058162	0.314020
597.409395	0.310978
597.760573	0.309022
598.111698	0.311869
598.462768	0.312766
598.813785	0.313717
599.164748	0.314900
599.515657	0.315598
599.866511	0.318703
600.217312	0.314102
600.568060	0.319682
600.918753	0.315839
601.269392	0.316536
601.619978	0.319893
601.970510	0.317548
602.320988	0.317943
602.671412	0.316011
603.021783	0.317714
603.372100	0.319361
603.722363	0.318799
604.072572	0.319957
604.422728	0.319405
604.772830	0.321431
605.122878	0.320921
605.472872	0.321485
605.822813	0.320242
606.172701	0.322579
606.522534	0.320203
606.872314	0.320078
607.222041	0.320927
607.571714	0.319270
607.921333	0.320763
608.270899	0.320130
608.620411	0.317070
608.969870	0.320810
609.319276	0.321263
609.668627	0.321338
610.017926	0.319526
610.367171	0.318061
610.716362	0.318828
611.065500	0.318773
611.414585	0.318145
611.763616	0.318379
612.112594	0.318817
612.461518	0.318296
612.810389	0.315748
613.159207	0.318151
613.507971	0.320158
613.856682	0.316009
614.205340	0.317570
614.553945	0.314196
614.902496	0.318286
615.250994	0.316093
615.599439	0.316777
615.947830	0.316355
616.296169	0.317097
616.644454	0.316351
616.992686	0.316955
617.340864	0.314811
617.688990	0.318124
618.037063	0.315018
618.385082	0.316972
618.733048	0.313761
619.080961	0.316015
619.428821	0.315045
619.776628	0.315208
620.124382	0.316533
620.472083	0.317337
620.819731	0.316545
621.167326	0.320628
621.514868	0.320122
621.862357	0.324450
622.209793	0.324262
622.557176	0.326250
622.904506	0.327259
623.251783	0.329570
623.599007	0.331990
623.946179	0.331556
624.293297	0.333332
624.640363	0.337282
624.987376	0.337777
625.334336	0.340564
625.681243	0.342446
626.028097	0.343206
626.374899	0.343759
626.721647	0.344264
627.068343	0.347530
627.414987	0.348546
627.761577	0.351122
628.108115	0.349113
628.454600	0.354414
628.801032	0.351500
629.147412	0.353617
629.493739	0.353944
629.840014	0.357256
630.186236	0.354746
630.532405	0.359867
630.878521	0.357416
631.224585	0.359724
631.570597	0.363235
631.916556	0.361813
632.262462	0.362561
632.608316	0.363866
632.954117	0.364907
633.299866	0.365250
633.645562	0.366314
633.991206	0.370216
634.336797	0.373327
634.682336	0.375604
635.027823	0.377578
635.373257	0.377906
635.718639	0.380867
636.063968	0.380431
636.409245	0.386169
636.754470	0.386393
637.099642	0.389358
637.444762	0.392222
637.789829	0.391375
638.134845	0.394766
638.479808	0.396198
638.824719	0.395662
639.169577	0.399699
639.514383	0.398377
639.859137	0.402978
640.203839	0.402419
640.548489	0.402942
640.893086	0.404414
641.237632	0.405909
641.582125	0.404963
641.926566	0.406498
642.270955	0.406246
642.615292	0.406381
642.959576	0.405985
643.303809	0.406376
643.647990	0.405665
643.992118	0.406277
644.336195	0.409804
644.680219	0.408572
645.024192	0.409505
645.368112	0.402895
645.711981	0.402246
646.055797	0.396760
646.399562	0.399230
646.743274	0.391015
647.086935	0.388864
647.430544	0.388793
647.774101	0.387876
648.117606	0.387544
648.461059	0.388161
648.804460	0.390599
649.147810	0.395483
649.491108	0.397788
649.834354	0.399052
650.177548	0.404433
650.520690	0.409783
650.863781	0.410739
651.206820	0.410157
651.549807	0.414385
651.892742	0.418804
652.235626	0.418391
652.578458	0.419685
652.921238	0.425165
653.263967	0.423430
653.606644	0.426988
653.949269	0.426626
654.291843	0.430474
654.634365	0.427259
654.976836	0.430323
655.319255	0.430741
655.661622	0.432715
656.003938	0.432324
656.346203	0.435129
656.688416	0.433372
657.030577	0.436290
657.372687	0.438400
657.714746	0.439584
658.056753	0.436193
658.398708	0.439909
658.740612	0.440825
659.082465	0.437328
659.424266	0.438056
659.766016	0.437202
660.107715	0.439727
660.449362	0.439053
660.790958	0.439889
661.132503	0.439927
661.473996	0.437533
661.815438	0.438339
662.156829	0.438791
662.498168	0.439456
662.839456	0.441338
663.180693	0.438865
663.521879	0.438877
663.863013	0.439412
664.204097	0.438057
664.545129	0.434830
664.886110	0.435907
665.227040	0.432479
665.567918	0.435620
665.908746	0.433553
666.249522	0.433234
666.590248	0.434041
666.930922	0.432411
667.271545	0.430658
667.612118	0.431500
667.952639	0.432598
668.293109	0.431307
668.633528	0.434305
668.973896	0.434128
669.314213	0.435000
669.654480	0.436002
669.994695	0.436826
670.334859	0.437498
670.674973	0.437543
671.015035	0.437465
671.355047	0.437186
671.695008	0.438540
672.034918	0.440390
672.374777	0.440023
672.714585	0.441112
673.054342	0.440949
673.394049	0.441458
673.733705	0.438763
674.073310	0.439789
674.412864	0.443054
674.752368	0.443347
675.091820	0.443611
675.431223	0.448222
675.770574	0.448008
676.109875	0.450588
676.449125	0.451029
676.788324	0.453348
677.127473	0.458486
677.466571	0.458853
677.805619	0.459989
678.144616	0.460646
678.483562	0.462683
678.822458	0.465618
679.161303	0.466185
679.500098	0.466722
679.838842	0.468693
680.177535	0.468097
680.516179	0.466427
680.854771	0.465965
681.193314	0.458718
681.531805	0.450289
681.870247	0.438675
682.208638	0.431327
682.546978	0.430206
682.885268	0.432548
683.223508	0.438337
683.561697	0.442190
683.899836	0.445111
684.237925	0.448357
684.575963	0.450533
684.913951	0.453716
685.251889	0.449701
685.589776	0.451579
685.927614	0.453819
686.265401	0.448725
686.603137	0.449739
686.940824	0.443648
687.278460	0.441882
687.616046	0.441063
687.953582	0.436317
688.291068	0.437788
688.628504	0.433247
688.965889	0.435281
689.303224	0.439954
689.640510	0.443277
689.977745	0.449101
690.314930	0.456765
690.652065	0.461378
690.989150	0.469286
691.326185	0.475525
691.663170	0.480132
692.000105	0.487310
692.336990	0.494606
692.673825	0.496747
693.010610	0.503939
693.347345	0.508856
693.684030	0.510840
694.020665	0.515379
694.357251	0.524292
694.693786	0.523818
695.030272	0.527805
695.366707	0.530843
695.703093	0.534520
696.039429	0.532388
696.375716	0.534301
696.711952	0.536837
697.048139	0.539151
697.384276	0.540527
697.720363	0.538914
698.056400	0.538180
698.392388	0.544043
698.728326	0.546980
699.064214	0.548997
699.400053	0.550244
699.735842	0.553631
700.071581	0.556566
700.407270	0.559561
700.742910	0.562185
701.078501	0.568989
701.414042	0.568839
701.749533	0.571622
702.084974	0.580577
702.420366	0.572217
702.755709	0.579943
703.091002	0.588778
703.426246	0.581754
703.761440	0.587652
704.096584	0.592712
704.431679	0.589581
704.766725	0.591193
705.101721	0.593385
705.436668	0.589359
705.771565	0.596976
706.106413	0.592840
706.441212	0.588659
706.775961	0.586949
707.110661	0.589820
707.445311	0.586133
707.779913	0.583147
708.114465	0.581995
708.448967	0.578726
708.783421	0.570865
709.117825	0.565593
709.452180	0.565764
709.786485	0.559388
710.120742	0.549516
710.454949	0.551424
710.789107	0.543467
711.123216	0.534620
711.457275	0.535871
711.791286	0.527239
712.125247	0.525537
712.459159	0.537014
712.793023	0.529070
713.126837	0.532948
713.460602	0.533852
713.794318	0.543120
714.127985	0.542811
714.461602	0.551991
714.795171	0.555019
715.128691	0.563013
715.462162	0.570184
715.795584	0.576268
716.128957	0.578800
716.462281	0.585978
716.795556	0.588772
717.128782	0.594084
717.461960	0.604080
717.795088	0.601546
718.128167	0.607968
718.461198	0.616841
718.794180	0.617443
719.127113	0.619906
719.459997	0.623951
719.792833	0.629489
720.125619	0.631203
720.458357	0.637131
720.791046	0.636850
721.123686	0.640060
721.456278	0.647049
721.788821	0.644316
722.121315	0.648521
722.453761	0.652452
722.786158	0.650173
723.118506	0.646806
723.450805	0.654943
723.783056	0.651004
724.115259	0.648423
724.447412	0.647644
724.779518	0.649283
725.111574	0.647678
725.443582	0.643411
725.775542	0.646108
726.107453	0.637788
726.439315	0.638306
726.771129	0.636252
727.102895	0.630291
727.434612	0.622553
727.766281	0.619956
728.097901	0.619093
728.429473	0.619884
728.760996	0.618180
729.092471	0.618251
729.423897	0.622397
729.755276	0.620884
730.086606	0.621354
730.417887	0.615951
730.749120	0.606629
731.080305	0.597275
731.411442	0.593946
731.742530	0.597735
732.073570	0.597803
732.404562	0.589800
732.735506	0.591367
733.066401	0.596294
733.397249	0.605182
733.728048	0.616112
734.058798	0.629384
734.389501	0.639101
734.720156	0.649417
735.050762	0.657511
735.381320	0.657561
735.711831	0.666417
736.042293	0.672286
736.372707	0.667095
736.703073	0.672857
737.033391	0.674735
737.363661	0.671778
737.693883	0.667058
738.024056	0.665544
738.354182	0.666306
738.684260	0.656189
739.014290	0.651545
739.344272	0.652799
739.674207	0.645713
740.004093	0.645389
740.333931	0.645370
740.663722	0.645750
740.993464	0.647294
741.323159	0.650191
741.652806	0.654957
741.982405	0.659844
742.311956	0.663887
742.641460	0.667203
742.970915	0.670656
743.300323	0.677400
743.629683	0.684756
743.958996	0.685821
744.288260	0.690530
744.617477	0.696378
744.946647	0.698122
745.275768	0.703470
745.604842	0.702646
745.933869	0.713173
746.262847	0.713836
746.591778	0.706575
746.920662	0.714052
747.249498	0.719575
747.578286	0.710801
747.907027	0.707467
748.235720	0.707711
748.564365	0.702542
748.892963	0.702483
749.221514	0.705208
749.550017	0.710851
749.878473	0.710079
750.206881	0.715920
750.535242	0.718419
750.863555	0.717646
751.191821	0.718693
751.520039	0.722430
751.848210	0.727196
752.176334	0.720035
752.504411	0.718087
752.832440	0.726227
753.160421	0.729856
753.488356	0.729248
753.816243	0.726469
754.144082	0.734162
754.471875	0.738200
754.799620	0.732867
755.127318	0.735093
755.454969	0.734562
755.782572	0.734804
756.110129	0.739154
756.437638	0.741747
756.765100	0.738790
757.092515	0.736226
757.419882	0.735365
757.747203	0.740733
758.074477	0.739952
758.401703	0.736475
758.728882	0.732465
759.056014	0.732067
759.383099	0.729813
759.710138	0.731552
760.037129	0.728066
760.364073	0.721069
760.690970	0.724531
761.017820	0.730054
761.344623	0.725883
761.671379	0.716234
761.998088	0.705122
762.324751	0.682521
762.651366	0.641199
762.977935	0.574834
763.304456	0.523109
763.630931	0.513775
763.957359	0.552438
764.283740	0.597048
764.610074	0.624263
764.936362	0.654379
765.262602	0.680369
765.588796	0.702010
765.914943	0.719487
766.241044	0.737518
766.567097	0.743871
766.893104	0.753705
767.219064	0.760253
767.544978	0.766266
767.870845	0.779369
768.196665	0.783391
768.522438	0.781198
768.848165	0.783137
769.173846	0.792167
769.499479	0.795761
769.825066	0.799801
770.150607	0.804997
770.476101	0.799627
770.801548	0.801227
771.126949	0.812212
771.452303	0.815869
771.777611	0.815116
772.102872	0.815353
772.428087	0.819114
772.753256	0.822216
773.078378	0.825340
773.403453	0.833484
773.728482	0.838631
774.053465	0.830550
774.378401	0.835401
774.703291	0.843900
775.028135	0.843045
775.352932	0.844854
775.677683	0.847488
776.002388	0.847749
776.327046	0.846800
776.651658	0.850762
776.976224	0.853926
777.300743	0.853607
777.625216	0.856697
777.949643	0.859190
778.274024	0.859006
778.598359	0.859495
778.922647	0.858114
779.246889	0.859007
779.571086	0.862611
779.895236	0.865743
780.219339	0.862104
780.543397	0.859292
780.867409	0.858062
781.191374	0.860381
781.515294	0.861329
781.839167	0.860007
782.162995	0.863197
782.486776	0.861364
782.810511	0.860865
783.134201	0.865673
783.457844	0.863163
783.781441	0.865844
784.104993	0.872661
784.428498	0.872727
784.751958	0.867584
785.075372	0.870547
785.398739	0.873940
785.722061	0.869782
786.045337	0.866514
786.368568	0.871347
786.691752	0.873310
787.014891	0.858955
787.337983	0.849895
787.661030	0.843123
787.984031	0.825744
788.306987	0.812559
788.629897	0.814967
788.952760	0.818992
789.275579	0.823450
789.598351	0.837648
789.921078	0.851276
790.243759	0.852933
790.566395	0.858965
790.888984	0.865629
791.211529	0.870103
791.534027	0.872894
791.856480	0.875492
792.178888	0.880550
792.501249	0.882860
792.823566	0.883698
793.145836	0.883900
793.468062	0.885117
793.790241	0.886630
794.112375	0.884775
794.434464	0.879758
794.756507	0.878955
795.078505	0.878215
795.400457	0.873998
795.722364	0.862093
796.044226	0.854933
796.366042	0.854142
796.687812	0.857663
797.009538	0.853762
797.331218	0.856105
797.652852	0.861244
797.974442	0.865759
798.295986	0.865340
798.617484	0.868259
798.938938	0.872999
799.260346	0.877308
799.581709	0.879978
799.903026	0.880884
800.224299	0.881748
800.545526	0.886213
800.866708	0.890272
801.187845	0.894253
801.508936	0.893292
801.829983	0.891055
802.150984	0.893370
802.471940	0.899519
802.792851	0.899323
803.113717	0.899057
803.434538	0.896903
803.755314	0.899442
804.076045	0.900486
804.396731	0.901020
804.717372	0.901200
805.037967	0.902801
805.358518	0.900916
805.679024	0.897802
805.999485	0.897739
806.319901	0.897362
806.640272	0.899975
806.960598	0.897917
807.280879	0.894773
807.601115	0.893136
807.921306	0.897671
808.241453	0.896664
808.561554	0.895064
808.881611	0.895793
809.201623	0.897659
809.521590	0.898104
809.841513	0.899337
810.161390	0.898621
810.481223	0.899116
810.801011	0.902397
811.120755	0.904214
811.440453	0.902565
811.760107	0.902220
812.079716	0.901880
812.399281	0.906765
812.718801	0.907433
813.038276	0.909220
813.357707	0.907650
813.677093	0.905675
813.996434	0.909313
814.315731	0.909512
814.634983	0.910687
814.954191	0.909603
815.273354	0.906323
815.592473	0.901645
815.911547	0.903271
816.230577	0.900934
816.549562	0.897683
816.868502	0.899039
817.187399	0.894053
817.506250	0.890462
817.825058	0.891698
818.143821	0.888462
818.462539	0.882963
818.781213	0.875161
819.099843	0.864686
819.418429	0.849096
819.736970	0.831781
820.055466	0.812469
820.373919	0.786851
820.692327	0.755510
821.010691	0.720941
821.329011	0.645749
821.647286	0.532224
821.965517	0.419525
822.283704	0.377205
822.601847	0.379306
822.919945	0.414585
823.237999	0.447187
823.556010	0.493445
823.873976	0.548345
824.191897	0.598475
824.509775	0.639676
824.827609	0.684245
825.145398	0.706016
825.463144	0.710129
825.780845	0.692171
826.098502	0.673753
826.416116	0.629840
826.733685	0.585874
827.051210	0.577498
827.368692	0.591661
827.686129	0.629456
828.003522	0.680918
828.320872	0.727888
828.638177	0.770756
828.955439	0.803321
829.272656	0.825236
829.589830	0.841642
829.906960	0.855796
830.224046	0.869876
830.541088	0.879109
830.858086	0.882738
831.175041	0.890012
831.491952	0.888841
831.808819	0.885182
832.125642	0.878585
832.442421	0.864938
832.759157	0.843640
833.075849	0.797471
833.392497	0.735583
833.709101	0.694769
834.025662	0.704077
834.342179	0.734703
834.658653	0.773451
834.975083	0.809211
835.291469	0.835567
835.607811	0.857353
835.924110	0.872486
836.240366	0.888705
836.556578	0.903434
836.872746	0.910997
837.188871	0.917010
837.504952	0.921997
837.820990	0.924394
838.136984	0.928346
838.452935	0.931514
838.768842	0.932113
839.084706	0.926841
839.400526	0.900435
839.716303	0.861345
840.032037	0.840393
840.347727	0.843995
840.663373	0.860781
840.978977	0.881309
841.294537	0.904046
841.610054	0.919634
841.925527	0.927937
842.240957	0.933617
842.556344	0.942476
842.871687	0.946988
843.186987	0.950907
843.502244	0.952106
843.817458	0.952409
844.132629	0.957027
844.447756	0.961288
844.762840	0.962016
845.077881	0.960439
845.392879	0.959820
845.707833	0.963406
846.022745	0.963917
846.337613	0.966131
846.652438	0.966611
846.967221	0.965262
847.281960	0.966138
847.596656	0.968130
847.911309	0.966056
848.225919	0.968641
848.540485	0.968464
848.855009	0.969728
849.169490	0.969884
849.483928	0.968798
849.798323	0.968960
850.112675	0.970399
850.426984	0.970092
850.741251	0.969951
851.055474	0.971190
851.369654	0.969116
851.683792	0.970269
851.997887	0.969978
852.311938	0.970797
852.625947	0.970802
852.939914	0.968657
853.253837	0.969721
853.567718	0.970501
853.881555	0.970431
854.195350	0.968060
854.509103	0.970404
854.822812	0.970721
855.136479	0.970539
855.450103	0.971033
855.763685	0.968432
856.077224	0.970040
856.390720	0.970993
856.704173	0.970265
857.017584	0.970138
857.330953	0.968360
857.644278	0.970594
857.957561	0.970429
858.270802	0.968693
858.584000	0.968346
858.897155	0.967960
859.210268	0.968353
859.523339	0.968333
859.836367	0.971105
860.149352	0.971033
860.462295	0.968805
860.775195	0.971397
861.088054	0.969031
861.400869	0.969901
861.713642	0.970999
862.026373	0.971061
862.339062	0.971477
862.651708	0.968585
862.964312	0.968721
863.276873	0.969522
863.589392	0.968286
863.901869	0.967858
864.214303	0.966566
864.526696	0.965246
864.839045	0.963829
865.151353	0.963296
865.463619	0.963756
865.775842	0.963343
866.088023	0.962623
866.400162	0.962430
866.712258	0.961818
867.024313	0.963828
867.336325	0.964129
867.648296	0.964541
867.960224	0.962674
868.272110	0.962284
868.583954	0.964176
868.895755	0.965498
869.207515	0.962926
869.519233	0.960644
869.830909	0.962212
870.142542	0.962722
870.454134	0.962859
870.765684	0.961534
871.077191	0.959485
871.388657	0.959922
871.700081	0.959011
872.011463	0.959853
872.322803	0.959193
872.634101	0.957260
872.945357	0.955515
873.256571	0.954230
873.567744	0.954604
873.878874	0.955684
874.189963	0.953800
874.501010	0.952894
874.812015	0.950461
875.122979	0.953236
875.433900	0.954270
875.744780	0.955765
876.055618	0.952782
876.366415	0.951328
876.677169	0.951158
876.987882	0.953361
877.298554	0.951818
877.609183	0.949440
877.919771	0.946968
878.230317	0.944475
878.540822	0.942626
878.851285	0.937651
879.161707	0.930386
879.472087	0.917765
879.782425	0.902274
880.092722	0.868980
880.402977	0.818213
880.713191	0.760293
881.023363	0.702676
881.333494	0.670260
881.643583	0.642454
881.953631	0.641591
882.263637	0.670328
882.573602	0.710199
882.883526	0.733967
883.193408	0.757106
883.503248	0.778528
883.813048	0.803815
884.122806	0.832301
884.432522	0.856133
884.742197	0.875425
885.051831	0.885303
885.361424	0.894944
885.670975	0.906398
885.980485	0.916979
886.289954	0.922833
886.599382	0.926420
886.908768	0.930462
887.218113	0.936514
887.527417	0.941896
887.836680	0.943880
888.145901	0.944910
888.455082	0.949127
888.764221	0.952614
889.073319	0.954988
889.382376	0.954569
889.691392	0.953866
890.000366	0.952811
890.309300	0.955162
890.618193	0.955871
890.927044	0.953037
891.235855	0.952988
891.544625	0.953138
891.853353	0.954329
892.162041	0.951490
892.470687	0.945010
892.779293	0.939600
893.087858	0.937262
893.396381	0.929498
893.704864	0.916652
894.013306	0.893114
894.321707	0.868055
894.630068	0.853210
894.938387	0.849760
895.246665	0.850001
895.554903	0.863058
895.863100	0.874769
896.171256	0.891426
896.479371	0.910923
896.787446	0.922746
897.095480	0.928566
897.403473	0.931112
897.711425	0.935931
898.019336	0.942925
898.327207	0.945485
898.635038	0.946362
898.942827	0.947407
899.250576	0.950031
899.558284	0.953533
899.865952	0.956511
900.173579	0.956441
900.481165	0.956735
900.788711	0.960633
901.096216	0.962464
901.403681	0.963509
901.711105	0.964756
902.018489	0.964971
902.325832	0.964051
902.633135	0.963711
902.940397	0.957757
903.247619	0.946251
903.554800	0.921845
903.861941	0.883387
904.169041	0.850234
904.476101	0.833682
904.783121	0.834167
905.090100	0.850489
905.397039	0.869719
905.703938	0.891222
906.010796	0.909225
906.317614	0.926126
906.624391	0.937748
906.931129	0.947150
907.237826	0.953322
907.544483	0.960171
907.851099	0.963716
908.157675	0.967835
908.464211	0.971658
908.770707	0.974381
909.077163	0.975634
909.383578	0.976112
909.689954	0.975946
909.996289	0.976063
910.302584	0.978987
910.608839	0.980155
910.915054	0.979600
911.221229	0.978237
911.527363	0.977880
911.833458	0.977055
912.139513	0.978060
912.445527	0.975881
912.751502	0.974793
913.057436	0.973902
913.363331	0.970990
913.669186	0.966739
913.975000	0.963298
914.280775	0.957682
914.586510	0.951188
914.892205	0.938506
915.197859	0.919037
915.503475	0.891923
915.809050	0.873856
916.114585	0.868372
916.420081	0.866961
916.725536	0.863085
917.030952	0.870985
917.336328	0.882941
917.641665	0.896433
917.946961	0.912497
918.252218	0.923316
918.557435	0.930995
918.862612	0.940064
919.167750	0.945515
919.472848	0.948970
919.777906	0.955282
920.082925	0.959905
920.387904	0.964025
920.692843	0.966151
920.997743	0.964546
921.302603	0.969176
921.607423	0.970287
921.912204	0.973478
922.216946	0.972463
922.521647	0.974228
922.826310	0.976024
923.130932	0.977568
923.435516	0.979214
923.740059	0.980433
924.044564	0.978524
924.349028	0.980977
924.653454	0.983943
924.957840	0.987058
925.262186	0.984831
925.566493	0.984835
925.870761	0.983885
926.174989	0.987798
926.479178	0.988105
926.783328	0.988541
927.087438	0.989570
927.391509	0.987367
927.695541	0.989397
927.999533	0.989770
928.303486	0.990517
928.607400	0.992414
928.911275	0.989355
929.215110	0.990538
929.518906	0.989595
929.822663	0.990979
930.126381	0.991692
930.430060	0.990744
930.733699	0.990730
931.037299	0.989632
931.340861	0.991222
931.644383	0.989110
931.947866	0.990447
932.251309	0.990702
932.554714	0.991068
932.858080	0.990076
933.161407	0.989860
933.464694	0.991688
933.767943	0.989436
934.071153	0.990986
934.374323	0.992171
934.677455	0.991519
934.980548	0.992236
935.283602	0.990941
935.586617	0.991069
935.889593	0.990679
936.192530	0.990899
936.495428	0.991079
936.798287	0.991028
937.101108	0.990469
937.403890	0.989928
937.706632	0.989532
938.009336	0.988594
938.312002	0.986246
938.614628	0.985308
938.917216	0.983949
939.219765	0.982460
939.522275	0.984415
939.824747	0.984622
940.127179	0.983976
940.429573	0.986072
940.731929	0.983789
941.034246	0.985566
941.336524	0.985933
941.638763	0.986888
941.940964	0.986591
942.243126	0.986834
942.545250	0.987347
942.847335	0.988592
943.149381	0.988834
943.451389	0.988272
943.753359	0.989577
944.055290	0.990978
944.357182	0.990263
944.659036	0.989251
944.960851	0.990019
945.262628	0.990262
945.564367	0.990594
945.866067	0.990289
946.167729	0.991545
946.469352	0.991152
946.770937	0.989551
947.072484	0.992602
947.373992	0.990455
947.675462	0.990703
947.976893	0.990269
948.278286	0.991114
948.579641	0.991355
948.880958	0.989718
949.182236	0.990805
949.483476	0.991869
949.784678	0.990027
950.085841	0.991410
950.386967	0.990463
950.688054	0.990921
950.989103	0.990714
951.290114	0.988876
951.591087	0.989859
951.892021	0.990147
952.192917	0.990031
952.493776	0.988296
952.794596	0.988880
953.095378	0.987908
953.396122	0.988551
953.696828	0.987472
953.997496	0.990426
954.298126	0.992317
954.598718	0.991350
954.899272	0.990542
955.199788	0.989882
955.500266	0.992569
955.800706	0.993307
956.101108	0.992811
956.401472	0.993655
956.701798	0.994431
957.002087	0.992581
957.302337	0.994198
957.602550	0.994732
957.902724	0.995694
958.202861	0.994953
958.502960	0.995327
958.803022	0.994383
959.103045	0.995586
959.403031	0.994904
959.702979	0.995457
960.002889	0.995548
960.302762	0.994726
960.602596	0.995929
960.902393	0.995522
961.202153	0.996658
961.501875	0.995858
961.801559	0.996334
962.101205	0.996688
962.400814	0.997516
962.700385	0.996414
962.999918	0.995939
963.299414	0.997040
963.598873	0.996440
963.898293	0.994404
964.197677	0.996360
964.497022	0.995778
964.796331	0.997768
965.095601	0.996277
965.394835	0.995667
965.694030	0.996454
965.993189	0.996666
966.292309	0.996434
966.591393	0.997159
966.890439	0.997064
967.189447	0.996886
967.488419	0.997627
967.787353	0.995594
968.086249	0.996673
968.385108	0.996951
968.683930	0.996986
968.982714	0.997108
969.281462	0.997155
969.580172	0.995606
969.878844	0.998104
970.177480	0.995225
970.476078	0.997620
970.774639	0.997662
971.073162	0.997545
971.371649	0.996500
971.670098	0.996325
971.968510	0.997120
972.266885	0.994915
972.565223	0.996207
972.863524	0.996313
973.161788	0.996236
973.460014	0.997621
973.758204	0.994723
974.056356	0.995946
974.354471	0.994421
974.652550	0.996866
974.950591	0.995728
975.248595	0.995481
975.546563	0.996862
975.844493	0.997471
976.142386	0.996254
976.440243	0.996930
976.738062	0.996850
977.035845	0.997689
977.333590	0.996316
977.631299	0.997912
977.928971	0.997300
978.226606	0.996858
978.524204	0.996845
978.821765	0.996748
979.119290	0.996289
979.416777	0.995588
979.714228	0.997310
980.011642	0.996427
980.309020	0.997248
980.606360	0.996619
980.903664	0.999008
981.200931	0.996279
981.498162	0.994976
981.795356	0.994053
982.092513	0.994233
982.389633	0.995310
982.686717	0.991666
982.983764	0.991898
983.280775	0.990881
983.577749	0.989956
983.874686	0.992387
984.171587	0.991821
984.468451	0.994712
984.765279	0.995433
985.062070	0.993737
985.358824	0.995056
985.655543	0.995550
985.952224	0.995392
986.248869	0.996407
986.545478	0.995890
986.842050	0.997907
987.138586	0.996023
987.435086	0.997544
987.731549	0.998480
988.027975	0.997481
988.324366	0.997120
988.620719	0.997728
988.917037	0.995624
989.213318	0.997558
989.509563	0.998631
989.805772	0.997415
990.101944	0.998759
990.398080	0.997260
990.694180	0.996542
990.990244	0.996882
991.286271	0.997162
991.582262	0.997630
991.878217	0.997907
992.174136	0.998845
992.470019	0.997707
992.765865	0.997752
993.061676	0.997765
993.357450	0.998307
993.653188	0.997507
993.948890	0.996022
994.244556	0.997291
994.540186	0.997188
994.835780	0.996543
995.131337	0.997467
995.426859	0.996396
995.722345	0.997139
996.017795	0.996255
996.313208	0.995800
996.608586	0.994900
996.903928	0.997731
997.199234	0.996336
997.494504	0.996689
997.789738	0.995668
998.084936	0.996761
998.380099	0.997570
998.675225	0.997601
998.970316	0.997944
999.265371	0.997168
999.560390	0.996090
999.855373	0.998631
1000.150320	0.997893
1000.445232	0.998200
1000.740108	0.997744
1001.034948	0.997416
1001.329752	0.999014
1001.624521	0.998772
1001.919254	0.997602
1002.213951	0.998191
1002.508613	0.997881
1002.803239	0.998465
1003.097829	0.998603
1003.392384	0.999319
1003.686903	0.997815
1003.981386	0.998399
1004.275834	0.998847
1004.570246	0.998916
1004.864623	0.998064
1005.158964	0.999682
1005.453270	0.998669
1005.747540	0.997920
1006.041775	0.997854
1006.335974	0.999572
1006.630138	0.999294
1006.924266	0.998772
1007.218359	1.001050
1007.512416	0.999792
1007.806438	0.999040
1008.100425	0.998882
1008.394376	0.998322
1008.688292	0.998177
1008.982172	0.999662
1009.276017	0.998326
1009.569827	0.998355
1009.863602	0.998082
1010.157341	0.999182
1010.451045	0.998947
1010.744714	0.998759
1011.038347	0.997802
1011.331945	0.999002
1011.625508	0.996985
1011.919036	0.997895
1012.212528	0.998453
1012.505986	0.998407
1012.799408	0.997960
1013.092795	0.999445
1013.386147	0.998567
1013.679464	0.999620
1013.972745	0.997724
1014.265992	0.996902
1014.559204	0.998700
1014.852380	0.998642
1015.145521	0.997045
1015.438628	0.998976
1015.731699	0.997969
1016.024736	0.997831
1016.317737	0.998082
1016.610703	0.998821
1016.903635	0.999704
1017.196531	0.998178
1017.489393	0.999606
1017.782219	0.998461
1018.075011	0.998867
1018.367768	0.998507
1018.660490	0.998563
1018.953177	0.998563
1019.245829	0.998563
