Dividing Wavelength (nm)	Counts (n)	Blue Motor Position (mm): 0.000000	Red Motor Position (mm): 13.900000	
326.493990	1.000411
326.888308	1.000411
327.282561	1.000411
327.676750	0.999574
328.070874	0.999636
328.464933	0.999294
328.858929	1.000017
329.252859	0.998726
329.646726	0.999155
330.040528	1.000471
330.434265	0.999804
330.827938	1.000279
331.221547	1.001409
331.615091	0.999747
332.008571	1.001039
332.401986	0.999846
332.795338	1.000595
333.188625	0.998251
333.581847	1.000805
333.975006	0.999654
334.368100	0.999516
334.761129	0.999927
335.154095	1.001443
335.546996	0.997520
335.939833	0.992921
336.332606	0.994164
336.725315	0.993502
337.117960	0.994545
337.510540	0.992640
337.903056	0.993741
338.295508	0.993577
338.687896	0.994669
339.080220	0.993631
339.472480	0.993902
339.864676	0.995086
340.256807	0.993271
340.648875	0.994408
341.040879	0.994601
341.432818	0.994037
341.824694	0.993280
342.216506	0.995381
342.608253	0.994121
342.999937	0.993306
343.391557	0.993637
343.783113	0.992571
344.174605	0.993972
344.566033	0.994733
344.957397	0.992374
345.348697	0.993640
345.739934	0.993104
346.131106	0.994369
346.522215	0.993588
346.913260	0.994096
347.304241	0.993250
347.695159	0.993769
348.086012	0.993149
348.476802	0.993255
348.867528	0.993371
349.258191	0.992595
349.648789	0.994872
350.039324	0.994070
350.429796	0.995109
350.820203	0.994216
351.210548	0.993667
351.600828	0.993834
351.991045	0.993871
352.381198	0.992017
352.771288	0.993328
353.161314	0.992394
353.551276	0.994975
353.941175	0.993493
354.331010	0.994225
354.720782	0.994490
355.110490	0.993816
355.500135	0.995121
355.889717	0.993319
356.279235	0.993985
356.668689	0.992612
357.058080	0.994336
357.447408	0.994460
357.836672	0.994016
358.225873	0.994446
358.615010	0.994540
359.004084	0.995404
359.393095	0.994350
359.782043	0.993865
360.170927	0.994388
360.559748	0.993993
360.948505	0.993188
361.337199	0.993966
361.725830	0.994061
362.114398	0.993597
362.502903	0.994407
362.891344	0.994644
363.279722	0.993256
363.668037	0.993657
364.056289	0.993844
364.444478	0.994362
364.832603	0.993802
365.220665	0.993852
365.608665	0.992702
365.996601	0.993808
366.384474	0.992543
366.772284	0.993887
367.160031	0.991282
367.547715	0.992684
367.935336	0.993589
368.322893	0.993412
368.710388	0.991560
369.097820	0.991962
369.485189	0.993734
369.872495	0.992819
370.259738	0.991756
370.646918	0.993952
371.034035	0.993703
371.421090	0.992864
371.808081	0.993233
372.195010	0.994093
372.581875	0.993821
372.968678	0.993159
373.355418	0.993838
373.742096	0.992771
374.128710	0.993806
374.515262	0.992756
374.901751	0.992831
375.288177	0.993262
375.674540	0.992715
376.060841	0.993109
376.447079	0.993547
376.833254	0.993342
377.219367	0.993169
377.605417	0.993274
377.991404	0.993531
378.377329	0.992637
378.763191	0.993133
379.148991	0.994391
379.534727	0.993700
379.920402	0.994260
380.306013	0.993158
380.691563	0.993858
381.077049	0.992839
381.462474	0.993557
381.847835	0.993461
382.233134	0.993134
382.618371	0.993219
383.003545	0.993104
383.388657	0.993355
383.773706	0.993797
384.158693	0.993441
384.543618	0.993463
384.928480	0.994300
385.313280	0.993304
385.698017	0.993868
386.082692	0.993609
386.467305	0.993831
386.851856	0.993794
387.236344	0.992189
387.620770	0.992719
388.005133	0.994311
388.389435	0.993653
388.773674	0.993130
389.157851	0.992765
389.541965	0.991867
389.926018	0.991436
390.310008	0.992384
390.693936	0.990504
391.077802	0.989085
391.461606	0.987751
391.845348	0.984982
392.229027	0.985679
392.612645	0.981572
392.996200	0.979035
393.379694	0.975214
393.763125	0.971600
394.146494	0.968081
394.529801	0.963262
394.913047	0.958117
395.296230	0.953923
395.679351	0.948603
396.062410	0.942689
396.445408	0.937847
396.828343	0.931344
397.211217	0.924587
397.594028	0.920932
397.976778	0.912088
398.359466	0.905734
398.742092	0.896749
399.124656	0.892881
399.507158	0.883505
399.889598	0.874613
400.271977	0.864146
400.654294	0.857927
401.036549	0.849128
401.418742	0.842788
401.800874	0.828426
402.182944	0.819107
402.564952	0.805881
402.946898	0.799902
403.328783	0.790563
403.710606	0.787078
404.092367	0.765210
404.474067	0.759103
404.855705	0.749960
405.237282	0.747764
405.618797	0.730567
406.000250	0.719130
406.381642	0.706246
406.762972	0.700078
407.144240	0.691553
407.525447	0.683744
407.906593	0.670797
408.287677	0.658962
408.668700	0.658428
409.049661	0.645555
409.430560	0.635723
409.811399	0.635488
410.192176	0.613852
410.572891	0.614134
410.953545	0.597649
411.334138	0.603723
411.714669	0.592104
412.095139	0.596573
412.475547	0.578911
412.855894	0.575134
413.236180	0.570201
413.616405	0.570996
413.996568	0.558848
414.376670	0.561026
414.756711	0.561857
415.136691	0.556187
415.516609	0.544700
415.896466	0.538690
416.276262	0.532265
416.655997	0.531854
417.035670	0.511474
417.415283	0.502118
417.794834	0.504882
418.174324	0.507992
418.553753	0.516271
418.933121	0.496586
419.312428	0.489874
419.691674	0.493804
420.070859	0.481703
420.449983	0.489286
420.829045	0.477776
421.208047	0.486439
421.586988	0.479184
421.965867	0.477180
422.344686	0.465573
422.723444	0.477910
423.102141	0.494961
423.480777	0.467285
423.859352	0.487468
424.237866	0.464335
424.616319	0.464796
424.994712	0.455822
425.373044	0.466094
425.751314	0.454016
426.129524	0.470666
426.507673	0.454228
426.885762	0.447486
427.263789	0.452735
427.641756	0.462593
428.019662	0.452629
428.397508	0.451271
428.775292	0.455728
429.153016	0.447824
429.530679	0.454033
429.908282	0.447747
430.285824	0.457192
430.663305	0.435912
431.040726	0.456502
431.418086	0.457210
431.795385	0.448333
432.172624	0.446791
432.549802	0.448072
432.926920	0.446546
433.303977	0.446116
433.680974	0.443409
434.057910	0.441475
434.434786	0.441633
434.811601	0.443502
435.188355	0.426324
435.565050	0.435096
435.941683	0.436878
436.318257	0.421094
436.694770	0.421457
437.071222	0.420162
437.447614	0.424974
437.823946	0.430175
438.200218	0.419784
438.576429	0.430444
438.952580	0.423235
439.328670	0.420183
439.704700	0.426017
440.080670	0.427557
440.456580	0.408057
440.832429	0.416442
441.208218	0.427400
441.583947	0.416341
441.959616	0.416148
442.335224	0.421427
442.710773	0.412280
443.086261	0.409906
443.461689	0.423804
443.837057	0.413736
444.212365	0.404288
444.587612	0.410959
444.962800	0.400997
445.337927	0.402053
445.712995	0.428078
446.088002	0.390667
446.462949	0.400799
446.837837	0.405246
447.212664	0.394658
447.587431	0.386276
447.962139	0.356926
448.336786	0.316350
448.711374	0.326571
449.085901	0.370158
449.460369	0.374759
449.834776	0.378242
450.209124	0.358015
450.583412	0.349923
450.957640	0.343050
451.331808	0.354176
451.705917	0.377850
452.079965	0.382553
452.453954	0.370398
452.827883	0.376980
453.201752	0.372402
453.575562	0.383697
453.949311	0.372233
454.323001	0.378402
454.696632	0.373784
455.070202	0.366626
455.443713	0.358609
455.817164	0.353244
456.190556	0.349475
456.563888	0.346185
456.937160	0.343605
457.310373	0.360639
457.683526	0.359464
458.056619	0.365551
458.429653	0.366039
458.802628	0.369162
459.175542	0.363752
459.548398	0.346119
459.921194	0.338802
460.293930	0.338970
460.666607	0.316303
461.039224	0.304693
461.411782	0.300642
461.784280	0.300311
462.156719	0.304000
462.529099	0.308581
462.901419	0.324183
463.273680	0.328894
463.645882	0.328340
464.018024	0.334246
464.390106	0.327048
464.762130	0.311979
465.134094	0.294970
465.505999	0.264062
465.877845	0.234488
466.249631	0.221840
466.621358	0.229130
466.993026	0.243049
467.364634	0.249070
467.736184	0.257901
468.107674	0.266476
468.479105	0.265710
468.850477	0.272365
469.221790	0.279133
469.593043	0.289278
469.964238	0.293961
470.335373	0.293482
470.706449	0.291770
471.077467	0.292531
471.448425	0.254952
471.819324	0.230451
472.190164	0.229810
472.560945	0.258361
472.931667	0.280756
473.302330	0.284778
473.672934	0.296519
474.043479	0.284864
474.413965	0.286546
474.784393	0.290106
475.154761	0.285129
475.525070	0.281933
475.895321	0.288029
476.265513	0.282257
476.635645	0.277474
477.005719	0.277565
477.375734	0.274058
477.745691	0.267301
478.115588	0.264263
478.485427	0.257265
478.855207	0.244310
479.224928	0.226845
479.594591	0.215247
479.964194	0.218342
480.333739	0.219551
480.703226	0.221123
481.072653	0.219549
481.442022	0.215088
481.811333	0.211492
482.180584	0.215232
482.549777	0.220395
482.918912	0.223888
483.287988	0.223631
483.657005	0.223191
484.025964	0.229474
484.394864	0.227108
484.763706	0.227412
485.132489	0.232366
485.501213	0.233306
485.869879	0.231604
486.238487	0.234876
486.607036	0.232480
486.975527	0.236797
487.343959	0.233089
487.712333	0.232170
488.080648	0.233584
488.448905	0.232781
488.817104	0.233888
489.185244	0.228552
489.553326	0.225399
489.921350	0.215338
490.289315	0.198277
490.657222	0.192745
491.025070	0.194248
491.392861	0.195941
491.760593	0.201916
492.128267	0.207568
492.495883	0.213130
492.863440	0.219040
493.230939	0.225464
493.598380	0.226910
493.965763	0.229179
494.333088	0.231521
494.700354	0.232811
495.067563	0.231745
495.434713	0.234920
495.801805	0.232959
496.168839	0.234347
496.535815	0.235857
496.902733	0.235801
497.269593	0.237605
497.636395	0.235064
498.003139	0.235480
498.369825	0.238415
498.736453	0.234836
499.103023	0.236049
499.469535	0.235862
499.835989	0.235689
500.202385	0.236905
500.568723	0.240410
500.935003	0.235346
501.301226	0.239332
501.667390	0.234030
502.033497	0.232073
502.399546	0.234833
502.765537	0.236653
503.131470	0.235318
503.497345	0.231483
503.863163	0.239915
504.228923	0.233213
504.594625	0.231880
504.960269	0.237346
505.325856	0.232373
505.691385	0.236858
506.056856	0.233704
506.422270	0.233173
506.787625	0.235485
507.152924	0.232911
507.518164	0.233266
507.883347	0.235009
508.248472	0.236934
508.613540	0.231453
508.978550	0.234251
509.343503	0.234903
509.708398	0.232354
510.073236	0.230104
510.438016	0.230112
510.802738	0.230933
511.167403	0.229988
511.532010	0.231971
511.896561	0.227318
512.261053	0.226100
512.625488	0.228171
512.989866	0.228404
513.354186	0.228890
513.718449	0.230368
514.082655	0.226937
514.446803	0.229361
514.810894	0.226819
515.174927	0.229598
515.538904	0.228869
515.902822	0.225925
516.266684	0.228279
516.630488	0.229439
516.994235	0.228220
517.357925	0.226804
517.721558	0.225260
518.085133	0.225024
518.448651	0.224986
518.812112	0.226876
519.175516	0.226629
519.538863	0.224321
519.902152	0.225950
520.265385	0.222784
520.628560	0.224479
520.991678	0.225002
521.354739	0.223943
521.717743	0.225093
522.080690	0.225525
522.443580	0.222956
522.806413	0.223737
523.169189	0.223023
523.531908	0.221931
523.894569	0.225681
524.257174	0.225699
524.619722	0.223496
524.982213	0.224295
525.344647	0.223215
525.707025	0.224006
526.069345	0.222240
526.431608	0.224068
526.793815	0.221829
527.155964	0.225990
527.518057	0.224901
527.880093	0.226274
528.242072	0.224410
528.603995	0.226551
528.965860	0.228159
529.327669	0.226891
529.689421	0.228157
530.051117	0.228838
530.412755	0.226394
530.774337	0.228728
531.135862	0.229275
531.497331	0.228209
531.858743	0.231143
532.220098	0.228140
532.581396	0.230663
532.942638	0.230996
533.303824	0.232013
533.664953	0.231832
534.026025	0.233606
534.387040	0.231507
534.747999	0.231424
535.108902	0.230592
535.469748	0.235121
535.830537	0.233056
536.191270	0.233645
536.551947	0.233115
536.912567	0.233375
537.273131	0.234880
537.633638	0.235076
537.994089	0.235127
538.354483	0.236350
538.714821	0.233475
539.075103	0.233238
539.435328	0.233787
539.795497	0.237756
540.155609	0.234107
540.515665	0.232372
540.875665	0.238241
541.235609	0.236458
541.595496	0.236702
541.955328	0.233198
542.315102	0.236131
542.674821	0.236880
543.034483	0.236807
543.394090	0.236567
543.753640	0.238705
544.113134	0.233534
544.472571	0.237012
544.831953	0.233404
545.191278	0.237623
545.550548	0.237245
545.909761	0.233986
546.268918	0.234654
546.628019	0.233055
546.987064	0.235953
547.346053	0.237524
547.704986	0.235613
548.063863	0.235892
548.422684	0.235831
548.781449	0.237870
549.140158	0.235721
549.498811	0.238348
549.857408	0.241408
550.215949	0.235954
550.574434	0.239200
550.932864	0.237254
551.291237	0.235698
551.649555	0.237321
552.007817	0.237184
552.366022	0.237957
552.724173	0.238044
553.082267	0.238480
553.440305	0.235370
553.798288	0.240004
554.156215	0.235945
554.514086	0.237013
554.871902	0.240410
555.229661	0.239317
555.587365	0.239924
555.945014	0.242310
556.302606	0.239215
556.660143	0.241910
557.017625	0.238634
557.375050	0.240431
557.732421	0.237817
558.089735	0.239600
558.446994	0.239771
558.804197	0.238850
559.161345	0.239105
559.518437	0.242167
559.875474	0.240131
560.232455	0.239587
560.589381	0.240767
560.946251	0.240680
561.303065	0.238081
561.659825	0.239610
562.016528	0.241405
562.373177	0.244076
562.729770	0.241165
563.086307	0.243291
563.442789	0.241086
563.799216	0.244131
564.155587	0.242882
564.511904	0.243951
564.868164	0.244313
565.224370	0.243973
565.580520	0.245788
565.936615	0.245358
566.292654	0.248195
566.648638	0.245467
567.004567	0.246259
567.360441	0.247009
567.716260	0.249005
568.072023	0.246785
568.427732	0.247606
568.783385	0.249835
569.138982	0.248225
569.494525	0.247591
569.850013	0.250595
570.205445	0.249087
570.560823	0.251498
570.916145	0.253188
571.271412	0.251626
571.626625	0.253490
571.981782	0.253664
572.336884	0.254515
572.691931	0.254210
573.046923	0.255504
573.401860	0.256653
573.756743	0.258431
574.111570	0.257276
574.466342	0.257572
574.821059	0.256991
575.175722	0.259624
575.530330	0.259486
575.884882	0.259776
576.239380	0.261955
576.593823	0.262381
576.948211	0.261679
577.302544	0.264961
577.656823	0.264765
578.011047	0.264642
578.365216	0.265460
578.719330	0.267078
579.073389	0.267278
579.427394	0.268621
579.781344	0.269115
580.135239	0.270892
580.489080	0.270364
580.842866	0.273240
581.196597	0.273243
581.550273	0.272072
581.903895	0.273038
582.257463	0.270731
582.610975	0.274707
582.964434	0.273377
583.317837	0.276575
583.671186	0.276757
584.024481	0.276845
584.377721	0.279261
584.730906	0.279765
585.084037	0.278992
585.437113	0.280795
585.790135	0.280326
586.143103	0.283389
586.496016	0.284445
586.848874	0.282014
587.201679	0.282652
587.554428	0.285831
587.907124	0.284524
588.259765	0.285424
588.612352	0.285972
588.964884	0.289706
589.317362	0.289235
589.669786	0.289098
590.022155	0.287794
590.374470	0.286864
590.726731	0.288950
591.078937	0.293600
591.431090	0.290256
591.783188	0.294202
592.135232	0.294864
592.487222	0.294867
592.839157	0.293083
593.191038	0.295238
593.542866	0.296924
593.894639	0.300685
594.246358	0.298675
594.598022	0.298149
594.949633	0.301689
595.301190	0.302651
595.652692	0.301677
596.004141	0.298128
596.355535	0.305626
596.706876	0.306512
597.058162	0.308667
597.409395	0.306044
597.760573	0.303830
598.111698	0.307085
598.462768	0.307355
598.813785	0.308715
599.164748	0.310025
599.515657	0.310441
599.866511	0.313435
600.217312	0.309149
600.568060	0.314523
600.918753	0.310644
601.269392	0.311713
601.619978	0.315017
601.970510	0.313004
602.320988	0.312696
602.671412	0.310292
603.021783	0.313076
603.372100	0.314161
603.722363	0.314065
604.072572	0.314815
604.422728	0.314681
604.772830	0.316588
605.122878	0.316129
605.472872	0.316855
605.822813	0.314887
606.172701	0.317986
606.522534	0.315056
606.872314	0.315173
607.222041	0.316265
607.571714	0.314571
607.921333	0.315370
608.270899	0.315372
608.620411	0.312543
608.969870	0.315794
609.319276	0.316161
609.668627	0.315887
610.017926	0.314509
610.367171	0.313210
610.716362	0.313693
611.065500	0.313915
611.414585	0.312866
611.763616	0.313393
612.112594	0.313953
612.461518	0.313197
612.810389	0.311433
613.159207	0.313388
613.507971	0.314942
613.856682	0.310827
614.205340	0.312415
614.553945	0.309256
614.902496	0.313036
615.250994	0.311138
615.599439	0.311716
615.947830	0.311123
616.296169	0.312542
616.644454	0.311809
616.992686	0.311739
617.340864	0.309347
617.688990	0.313100
618.037063	0.309776
618.385082	0.311805
618.733048	0.308632
619.080961	0.310976
619.428821	0.310179
619.776628	0.310014
620.124382	0.311961
620.472083	0.312198
620.819731	0.311459
621.167326	0.315463
621.514868	0.315136
621.862357	0.319591
622.209793	0.319121
622.557176	0.320948
622.904506	0.322590
623.251783	0.324522
623.599007	0.327326
623.946179	0.326768
624.293297	0.328024
624.640363	0.332607
624.987376	0.333048
625.334336	0.335726
625.681243	0.337920
626.028097	0.337857
626.374899	0.339672
626.721647	0.339837
627.068343	0.342709
627.414987	0.343837
627.761577	0.345919
628.108115	0.344154
628.454600	0.349523
628.801032	0.346644
629.147412	0.349167
629.493739	0.349525
629.840014	0.352195
630.186236	0.349908
630.532405	0.355197
630.878521	0.352615
631.224585	0.354988
631.570597	0.358336
631.916556	0.356804
632.262462	0.357127
632.608316	0.359289
632.954117	0.360169
633.299866	0.360736
633.645562	0.361050
633.991206	0.365676
634.336797	0.368875
634.682336	0.370868
635.027823	0.372648
635.373257	0.373632
635.718639	0.377057
636.063968	0.376276
636.409245	0.381787
636.754470	0.382321
637.099642	0.384016
637.444762	0.387514
637.789829	0.386466
638.134845	0.390192
638.479808	0.391386
638.824719	0.390625
639.169577	0.394981
639.514383	0.394099
639.859137	0.398383
640.203839	0.398653
640.548489	0.399417
640.893086	0.399921
641.237632	0.401623
641.582125	0.400322
641.926566	0.402066
642.270955	0.401848
642.615292	0.402114
642.959576	0.401548
643.303809	0.401574
643.647990	0.401172
643.992118	0.401472
644.336195	0.405661
644.680219	0.403957
645.024192	0.404533
645.368112	0.398054
645.711981	0.396611
646.055797	0.392091
646.399562	0.394967
646.743274	0.387147
647.086935	0.384195
647.430544	0.384162
647.774101	0.383391
648.117606	0.382948
648.461059	0.383081
648.804460	0.385624
649.147810	0.391007
649.491108	0.392978
649.834354	0.394606
650.177548	0.399900
650.520690	0.405308
650.863781	0.406108
651.206820	0.405480
651.549807	0.410367
651.892742	0.414258
652.235626	0.413600
652.578458	0.414595
652.921238	0.420483
653.263967	0.418425
653.606644	0.422224
653.949269	0.422556
654.291843	0.425726
654.634365	0.422826
654.976836	0.426274
655.319255	0.426053
655.661622	0.428374
656.003938	0.428036
656.346203	0.431061
656.688416	0.428772
657.030577	0.432330
657.372687	0.434116
657.714746	0.434766
658.056753	0.432335
658.398708	0.436090
658.740612	0.436890
659.082465	0.433135
659.424266	0.433542
659.766016	0.433145
660.107715	0.435699
660.449362	0.434582
660.790958	0.435010
661.132503	0.435855
661.473996	0.433134
661.815438	0.434052
662.156829	0.434471
662.498168	0.435060
662.839456	0.436088
663.180693	0.434548
663.521879	0.434371
663.863013	0.434719
664.204097	0.433882
664.545129	0.430627
664.886110	0.431012
665.227040	0.428106
665.567918	0.430618
665.908746	0.428827
666.249522	0.428678
666.590248	0.429477
666.930922	0.427329
667.271545	0.426701
667.612118	0.426431
667.952639	0.428356
668.293109	0.426891
668.633528	0.429529
668.973896	0.429474
669.314213	0.430419
669.654480	0.431561
669.994695	0.432395
670.334859	0.432482
670.674973	0.433149
671.015035	0.433673
671.355047	0.433292
671.695008	0.434328
672.034918	0.435868
672.374777	0.435674
672.714585	0.436245
673.054342	0.436024
673.394049	0.436532
673.733705	0.434278
674.073310	0.435841
674.412864	0.438560
674.752368	0.439029
675.091820	0.439189
675.431223	0.443578
675.770574	0.443638
676.109875	0.446418
676.449125	0.446281
676.788324	0.448783
677.127473	0.454028
677.466571	0.453713
677.805619	0.455587
678.144616	0.456435
678.483562	0.458579
678.822458	0.460620
679.161303	0.461741
679.500098	0.462165
679.838842	0.464161
680.177535	0.463222
680.516179	0.462119
680.854771	0.461111
681.193314	0.454650
681.531805	0.445704
681.870247	0.434239
682.208638	0.426849
682.546978	0.425981
682.885268	0.427785
683.223508	0.434141
683.561697	0.437441
683.899836	0.440061
684.237925	0.443673
684.575963	0.446029
684.913951	0.449278
685.251889	0.444941
685.589776	0.446782
685.927614	0.449129
686.265401	0.444083
686.603137	0.445469
686.940824	0.438980
687.278460	0.437331
687.616046	0.436273
687.953582	0.431477
688.291068	0.432321
688.628504	0.428823
688.965889	0.430582
689.303224	0.434913
689.640510	0.438986
689.977745	0.444778
690.314930	0.452704
690.652065	0.457384
690.989150	0.464994
691.326185	0.471010
691.663170	0.476054
692.000105	0.482801
692.336990	0.489901
692.673825	0.492194
693.010610	0.499091
693.347345	0.504329
693.684030	0.505484
694.020665	0.511095
694.357251	0.519762
694.693786	0.519760
695.030272	0.523586
695.366707	0.526892
695.703093	0.531068
696.039429	0.528427
696.375716	0.530079
696.711952	0.532899
697.048139	0.535149
697.384276	0.537353
697.720363	0.534790
698.056400	0.534118
698.392388	0.539777
698.728326	0.542163
699.064214	0.545851
699.400053	0.546247
699.735842	0.549329
700.071581	0.552398
700.407270	0.555426
700.742910	0.558072
701.078501	0.564121
701.414042	0.564497
701.749533	0.568170
702.084974	0.576977
702.420366	0.568858
702.755709	0.576623
703.091002	0.584356
703.426246	0.577600
703.761440	0.583806
704.096584	0.588511
704.431679	0.586269
704.766725	0.587220
705.101721	0.589155
705.436668	0.585022
705.771565	0.591839
706.106413	0.588580
706.441212	0.584846
706.775961	0.583406
707.110661	0.586075
707.445311	0.582164
707.779913	0.579479
708.114465	0.577699
708.448967	0.575010
708.783421	0.566253
709.117825	0.561149
709.452180	0.561697
709.786485	0.555197
710.120742	0.544731
710.454949	0.547195
710.789107	0.539320
711.123216	0.530011
711.457275	0.532003
711.791286	0.522900
712.125247	0.521178
712.459159	0.532341
712.793023	0.525367
713.126837	0.529271
713.460602	0.529556
713.794318	0.539003
714.127985	0.537986
714.461602	0.547522
714.795171	0.551167
715.128691	0.559400
715.462162	0.566261
715.795584	0.572175
716.128957	0.575564
716.462281	0.581974
716.795556	0.584854
717.128782	0.589816
717.461960	0.599677
717.795088	0.597610
718.128167	0.604171
718.461198	0.612482
718.794180	0.612851
719.127113	0.616694
719.459997	0.619472
719.792833	0.625860
720.125619	0.627740
720.458357	0.633260
720.791046	0.632460
721.123686	0.636370
721.456278	0.643168
721.788821	0.641155
722.121315	0.644166
722.453761	0.649136
722.786158	0.647292
723.118506	0.642911
723.450805	0.651436
723.783056	0.647292
724.115259	0.644752
724.447412	0.643538
724.779518	0.644678
725.111574	0.644326
725.443582	0.639406
725.775542	0.641213
726.107453	0.633483
726.439315	0.633966
726.771129	0.632075
727.102895	0.625352
727.434612	0.619196
727.766281	0.617115
728.097901	0.615894
728.429473	0.616142
728.760996	0.614375
729.092471	0.614611
729.423897	0.617685
729.755276	0.616856
730.086606	0.616791
730.417887	0.611205
730.749120	0.602323
731.080305	0.593026
731.411442	0.589007
731.742530	0.593918
732.073570	0.593380
732.404562	0.585971
732.735506	0.587013
733.066401	0.591047
733.397249	0.601023
733.728048	0.612929
734.058798	0.624715
734.389501	0.635389
734.720156	0.644971
735.050762	0.653565
735.381320	0.654703
735.711831	0.664191
736.042293	0.667930
736.372707	0.664082
736.703073	0.668711
737.033391	0.670929
737.363661	0.667259
737.693883	0.662649
738.024056	0.662600
738.354182	0.662229
738.684260	0.652086
739.014290	0.647846
739.344272	0.647930
739.674207	0.642776
740.004093	0.641591
740.333931	0.641762
740.663722	0.641777
740.993464	0.643094
741.323159	0.645730
741.652806	0.651486
741.982405	0.655876
742.311956	0.660436
742.641460	0.662665
742.970915	0.666826
743.300323	0.674476
743.629683	0.681113
743.958996	0.683069
744.288260	0.686831
744.617477	0.693354
744.946647	0.695154
745.275768	0.699571
745.604842	0.699945
745.933869	0.709901
746.262847	0.709887
746.591778	0.703663
746.920662	0.709819
747.249498	0.716263
747.578286	0.707316
747.907027	0.702985
748.235720	0.704036
748.564365	0.699075
748.892963	0.699036
749.221514	0.702490
749.550017	0.706495
749.878473	0.706544
750.206881	0.713390
750.535242	0.714609
750.863555	0.714284
751.191821	0.715760
751.520039	0.718468
751.848210	0.723284
752.176334	0.715437
752.504411	0.715020
752.832440	0.722948
753.160421	0.727362
753.488356	0.725808
753.816243	0.722612
754.144082	0.731669
754.471875	0.734577
754.799620	0.730056
755.127318	0.731250
755.454969	0.730813
755.782572	0.730125
756.110129	0.735570
756.437638	0.738144
756.765100	0.734724
757.092515	0.733214
757.419882	0.732206
757.747203	0.737722
758.074477	0.736031
758.401703	0.733680
758.728882	0.727876
759.056014	0.727365
759.383099	0.727323
759.710138	0.727333
760.037129	0.725078
760.364073	0.717515
760.690970	0.720430
761.017820	0.726754
761.344623	0.720915
761.671379	0.712791
761.998088	0.700351
762.324751	0.679074
762.651366	0.636679
762.977935	0.569658
763.304456	0.516551
763.630931	0.507740
763.957359	0.546428
764.283740	0.591658
764.610074	0.618167
764.936362	0.649197
765.262602	0.676040
765.588796	0.698009
765.914943	0.716138
766.241044	0.733390
766.567097	0.740357
766.893104	0.750188
767.219064	0.756128
767.544978	0.762906
767.870845	0.776239
768.196665	0.780081
768.522438	0.777977
768.848165	0.778562
769.173846	0.789283
769.499479	0.792925
769.825066	0.797638
770.150607	0.802325
770.476101	0.796840
770.801548	0.798755
771.126949	0.810261
771.452303	0.813251
771.777611	0.812577
772.102872	0.811383
772.428087	0.817514
772.753256	0.820682
773.078378	0.821933
773.403453	0.831711
773.728482	0.835004
774.053465	0.829601
774.378401	0.832326
774.703291	0.841273
775.028135	0.840444
775.352932	0.841571
775.677683	0.845053
776.002388	0.845414
776.327046	0.844305
776.651658	0.848320
776.976224	0.851107
777.300743	0.851901
777.625216	0.853967
777.949643	0.856821
778.274024	0.855679
778.598359	0.858299
778.922647	0.856626
779.246889	0.856049
779.571086	0.860459
779.895236	0.863083
780.219339	0.858778
780.543397	0.857693
780.867409	0.856447
781.191374	0.857718
781.515294	0.859650
781.839167	0.857880
782.162995	0.861765
782.486776	0.859116
782.810511	0.858933
783.134201	0.863186
783.457844	0.860544
783.781441	0.863388
784.104993	0.869145
784.428498	0.869277
784.751958	0.866205
785.075372	0.867403
785.398739	0.871222
785.722061	0.868241
786.045337	0.863261
786.368568	0.868760
786.691752	0.871027
787.014891	0.856664
787.337983	0.846875
787.661030	0.840003
787.984031	0.822145
788.306987	0.809610
788.629897	0.811795
788.952760	0.815684
789.275579	0.820562
789.598351	0.835059
789.921078	0.848527
790.243759	0.850052
790.566395	0.856474
790.888984	0.862996
791.211529	0.868357
791.534027	0.870673
791.856480	0.873084
792.178888	0.878532
792.501249	0.880005
792.823566	0.882300
793.145836	0.881504
793.468062	0.883428
793.790241	0.884383
794.112375	0.882675
794.434464	0.877259
794.756507	0.877459
795.078505	0.875976
795.400457	0.871489
795.722364	0.859771
796.044226	0.851943
796.366042	0.850813
796.687812	0.854026
797.009538	0.850836
797.331218	0.852923
797.652852	0.859487
797.974442	0.863323
798.295986	0.863107
798.617484	0.865562
798.938938	0.870254
799.260346	0.875386
799.581709	0.877409
799.903026	0.879604
800.224299	0.879187
800.545526	0.883308
800.866708	0.887490
801.187845	0.891441
801.508936	0.891332
801.829983	0.888559
802.150984	0.891565
802.471940	0.897339
802.792851	0.895752
803.113717	0.896554
803.434538	0.896502
803.755314	0.897887
804.076045	0.898917
804.396731	0.899366
804.717372	0.899347
805.037967	0.900301
805.358518	0.897977
805.679024	0.896275
805.999485	0.896326
806.319901	0.896136
806.640272	0.897799
806.960598	0.894841
807.280879	0.893434
807.601115	0.892284
807.921306	0.894357
808.241453	0.895020
808.561554	0.893243
808.881611	0.893643
809.201623	0.894804
809.521590	0.895315
809.841513	0.896396
810.161390	0.896501
810.481223	0.897080
810.801011	0.899790
811.120755	0.902355
811.440453	0.900922
811.760107	0.899694
812.079716	0.898609
812.399281	0.903693
812.718801	0.905434
813.038276	0.906272
813.357707	0.904938
813.677093	0.902916
813.996434	0.905859
814.315731	0.907369
814.634983	0.908605
814.954191	0.907224
815.273354	0.904593
815.592473	0.901342
815.911547	0.901867
816.230577	0.897195
816.549562	0.895170
816.868502	0.895941
817.187399	0.892138
817.506250	0.886724
817.825058	0.888792
818.143821	0.884893
818.462539	0.880174
818.781213	0.872770
819.099843	0.861362
819.418429	0.845004
819.736970	0.827617
820.055466	0.807992
820.373919	0.782334
820.692327	0.749963
821.010691	0.714449
821.329011	0.636385
821.647286	0.521118
821.965517	0.406192
822.283704	0.363569
822.601847	0.364526
822.919945	0.399831
823.237999	0.434628
823.556010	0.481609
823.873976	0.537511
824.191897	0.589057
824.509775	0.630846
824.827609	0.676163
825.145398	0.699035
825.463144	0.701907
825.780845	0.685708
826.098502	0.666205
826.416116	0.620402
826.733685	0.576372
827.051210	0.567100
827.368692	0.582159
827.686129	0.620558
828.003522	0.672356
828.320872	0.719904
828.638177	0.765049
828.955439	0.797393
829.272656	0.819884
829.589830	0.837454
829.906960	0.853560
830.224046	0.865092
830.541088	0.876814
830.858086	0.879782
831.175041	0.886165
831.491952	0.885583
831.808819	0.883117
832.125642	0.875687
832.442421	0.860328
832.759157	0.838774
833.075849	0.791639
833.392497	0.728129
833.709101	0.687177
834.025662	0.696758
834.342179	0.728216
834.658653	0.767433
834.975083	0.803827
835.291469	0.829379
835.607811	0.853460
835.924110	0.869487
836.240366	0.886260
836.556578	0.900755
836.872746	0.907693
837.188871	0.914024
837.504952	0.919514
837.820990	0.922895
838.136984	0.926591
838.452935	0.928996
838.768842	0.930671
839.084706	0.923548
839.400526	0.898564
839.716303	0.856944
840.032037	0.834955
840.347727	0.838403
840.663373	0.856848
840.978977	0.878653
841.294537	0.901825
841.610054	0.917835
841.925527	0.924934
842.240957	0.932136
842.556344	0.939347
842.871687	0.945737
843.186987	0.949265
843.502244	0.950509
843.817458	0.952126
844.132629	0.955542
844.447756	0.960393
844.762840	0.960496
845.077881	0.959440
845.392879	0.960592
845.707833	0.961270
846.022745	0.964096
846.337613	0.965162
846.652438	0.964934
846.967221	0.964925
847.281960	0.963443
847.596656	0.967027
847.911309	0.965556
848.225919	0.967104
848.540485	0.968183
848.855009	0.968328
849.169490	0.968231
849.483928	0.968301
849.798323	0.968681
850.112675	0.969958
850.426984	0.969460
850.741251	0.969838
851.055474	0.969524
851.369654	0.967987
851.683792	0.968844
851.997887	0.968698
852.311938	0.971305
852.625947	0.969295
852.939914	0.967222
853.253837	0.967779
853.567718	0.971079
853.881555	0.969330
854.195350	0.969170
854.509103	0.968456
854.822812	0.970826
855.136479	0.969259
855.450103	0.969259
855.763685	0.967727
856.077224	0.968646
856.390720	0.969857
856.704173	0.970133
857.017584	0.968450
857.330953	0.967258
857.644278	0.967735
857.957561	0.967633
858.270802	0.967967
858.584000	0.967373
858.897155	0.966796
859.210268	0.968170
859.523339	0.967904
859.836367	0.969488
860.149352	0.969872
860.462295	0.969406
860.775195	0.969804
861.088054	0.969099
861.400869	0.968881
861.713642	0.969902
862.026373	0.970167
862.339062	0.970835
862.651708	0.967400
862.964312	0.967047
863.276873	0.968418
863.589392	0.968737
863.901869	0.965351
864.214303	0.965298
864.526696	0.963735
864.839045	0.962931
865.151353	0.961137
865.463619	0.962535
865.775842	0.961491
866.088023	0.961755
866.400162	0.962028
866.712258	0.961758
867.024313	0.961808
867.336325	0.962535
867.648296	0.963317
867.960224	0.961732
868.272110	0.960874
868.583954	0.963552
868.895755	0.963914
869.207515	0.960412
869.519233	0.958915
869.830909	0.960245
870.142542	0.962199
870.454134	0.960721
870.765684	0.958989
871.077191	0.957387
871.388657	0.957549
871.700081	0.957319
872.011463	0.956496
872.322803	0.958183
872.634101	0.956265
872.945357	0.954968
873.256571	0.952709
873.567744	0.951562
873.878874	0.953274
874.189963	0.951457
874.501010	0.950519
874.812015	0.949161
875.122979	0.950842
875.433900	0.953348
875.744780	0.953026
876.055618	0.951083
876.366415	0.949721
876.677169	0.949063
876.987882	0.950534
877.298554	0.950689
877.609183	0.948232
877.919771	0.944778
878.230317	0.941861
878.540822	0.940055
878.851285	0.933626
879.161707	0.925801
879.472087	0.913501
879.782425	0.897227
880.092722	0.861852
880.402977	0.809577
880.713191	0.749282
881.023363	0.689294
881.333494	0.654061
881.643583	0.626298
881.953631	0.626971
882.263637	0.656010
882.573602	0.694852
882.883526	0.720569
883.193408	0.744984
883.503248	0.768059
883.813048	0.795882
884.122806	0.824806
884.432522	0.848508
884.742197	0.868279
885.051831	0.879077
885.361424	0.890317
885.670975	0.901758
885.980485	0.912943
886.289954	0.918684
886.599382	0.923598
886.908768	0.927296
887.218113	0.933604
887.527417	0.938393
887.836680	0.940841
888.145901	0.943253
888.455082	0.946327
888.764221	0.949697
889.073319	0.951820
889.382376	0.951372
889.691392	0.952193
890.000366	0.952791
890.309300	0.953223
890.618193	0.951933
890.927044	0.950688
891.235855	0.950792
891.544625	0.950742
891.853353	0.951742
892.162041	0.947910
892.470687	0.942179
892.779293	0.936879
893.087858	0.933388
893.396381	0.925450
893.704864	0.911649
894.013306	0.888219
894.321707	0.860596
894.630068	0.846475
894.938387	0.840322
895.246665	0.841763
895.554903	0.854199
895.863100	0.867984
896.171256	0.885903
896.479371	0.905792
896.787446	0.917967
897.095480	0.923632
897.403473	0.927607
897.711425	0.932319
898.019336	0.939455
898.327207	0.942657
898.635038	0.943736
898.942827	0.945172
899.250576	0.947638
899.558284	0.951163
899.865952	0.952528
900.173579	0.954283
900.481165	0.955922
900.788711	0.959280
901.096216	0.961295
901.403681	0.960239
901.711105	0.962000
902.018489	0.963028
902.325832	0.962045
902.633135	0.960960
902.940397	0.954755
903.247619	0.942853
903.554800	0.917017
903.861941	0.876812
904.169041	0.840628
904.476101	0.822384
904.783121	0.823714
905.090100	0.840693
905.397039	0.861719
905.703938	0.884560
906.010796	0.904914
906.317614	0.921140
906.624391	0.933504
906.931129	0.943037
907.237826	0.950190
907.544483	0.958844
907.851099	0.962680
908.157675	0.966215
908.464211	0.968504
908.770707	0.971776
909.077163	0.974206
909.383578	0.973530
909.689954	0.973921
909.996289	0.975740
910.302584	0.976648
910.608839	0.978819
910.915054	0.977665
911.221229	0.978566
911.527363	0.975898
911.833458	0.976872
912.139513	0.976027
912.445527	0.974940
912.751502	0.973196
913.057436	0.971881
913.363331	0.969258
913.669186	0.965661
913.975000	0.961084
914.280775	0.954526
914.586510	0.947633
914.892205	0.934038
915.197859	0.912115
915.503475	0.884783
915.809050	0.865036
916.114585	0.859024
916.420081	0.856145
916.725536	0.851646
917.030952	0.860985
917.336328	0.874395
917.641665	0.889417
917.946961	0.905454
918.252218	0.917249
918.557435	0.925605
918.862612	0.935411
919.167750	0.941072
919.472848	0.946029
919.777906	0.951968
920.082925	0.956631
920.387904	0.961332
920.692843	0.961594
920.997743	0.964144
921.302603	0.967571
921.607423	0.968678
921.912204	0.970125
922.216946	0.971364
922.521647	0.972977
922.826310	0.973490
923.130932	0.976594
923.435516	0.977135
923.740059	0.979485
924.044564	0.978136
924.349028	0.979825
924.653454	0.982257
924.957840	0.984649
925.262186	0.984764
925.566493	0.982767
925.870761	0.984704
926.174989	0.986574
926.479178	0.987397
926.783328	0.988510
927.087438	0.988224
927.391509	0.987498
927.695541	0.989253
927.999533	0.989331
928.303486	0.989796
928.607400	0.990925
928.911275	0.988844
929.215110	0.990497
929.518906	0.990974
929.822663	0.989752
930.126381	0.991194
930.430060	0.990501
930.733699	0.989662
931.037299	0.988977
931.340861	0.990442
931.644383	0.990057
931.947866	0.988785
932.251309	0.990998
932.554714	0.990613
932.858080	0.990456
933.161407	0.991408
933.464694	0.990920
933.767943	0.990159
934.071153	0.990599
934.374323	0.992048
934.677455	0.990603
934.980548	0.991643
935.283602	0.990394
935.586617	0.991580
935.889593	0.990206
936.192530	0.990702
936.495428	0.991095
936.798287	0.990271
937.101108	0.989744
937.403890	0.989274
937.706632	0.988041
938.009336	0.986958
938.312002	0.986427
938.614628	0.983882
938.917216	0.983025
939.219765	0.980742
939.522275	0.982746
939.824747	0.982587
940.127179	0.983863
940.429573	0.984200
940.731929	0.983068
941.034246	0.984278
941.336524	0.985597
941.638763	0.985674
941.940964	0.986539
942.243126	0.986659
942.545250	0.987222
942.847335	0.987528
943.149381	0.987502
943.451389	0.988820
943.753359	0.987589
944.055290	0.990925
944.357182	0.989974
944.659036	0.988663
944.960851	0.988260
945.262628	0.990252
945.564367	0.989674
945.866067	0.989543
946.167729	0.989402
946.469352	0.989447
946.770937	0.988706
947.072484	0.991423
947.373992	0.990082
947.675462	0.991070
947.976893	0.990266
948.278286	0.989954
948.579641	0.991270
948.880958	0.989320
949.182236	0.991088
949.483476	0.990515
949.784678	0.990795
950.085841	0.991050
950.386967	0.989765
950.688054	0.990580
950.989103	0.990212
951.290114	0.989416
951.591087	0.989447
951.892021	0.989937
952.192917	0.988847
952.493776	0.988677
952.794596	0.988335
953.095378	0.987557
953.396122	0.987701
953.696828	0.987472
953.997496	0.989034
954.298126	0.991166
954.598718	0.990870
954.899272	0.990976
955.199788	0.990413
955.500266	0.992371
955.800706	0.992885
956.101108	0.993253
956.401472	0.992926
956.701798	0.994719
957.002087	0.993004
957.302337	0.992969
957.602550	0.994633
957.902724	0.995168
958.202861	0.994030
958.502960	0.996208
958.803022	0.993543
959.103045	0.995190
959.403031	0.996491
959.702979	0.995113
960.002889	0.997035
960.302762	0.994460
960.602596	0.996269
960.902393	0.994786
961.202153	0.996294
961.501875	0.996827
961.801559	0.995717
962.101205	0.996391
962.400814	0.996498
962.700385	0.995393
962.999918	0.996346
963.299414	0.997154
963.598873	0.996202
963.898293	0.995977
964.197677	0.995311
964.497022	0.996761
964.796331	0.997108
965.095601	0.996594
965.394835	0.995935
965.694030	0.996741
965.993189	0.997025
966.292309	0.996639
966.591393	0.997898
966.890439	0.997128
967.189447	0.996623
967.488419	0.996066
967.787353	0.995805
968.086249	0.996214
968.385108	0.997557
968.683930	0.997419
968.982714	0.998434
969.281462	0.997215
969.580172	0.995918
969.878844	0.997612
970.177480	0.997446
970.476078	0.996322
970.774639	0.996264
971.073162	0.997734
971.371649	0.994983
971.670098	0.996606
971.968510	0.997328
972.266885	0.995677
972.565223	0.996343
972.863524	0.996883
973.161788	0.995922
973.460014	0.997563
973.758204	0.995730
974.056356	0.996287
974.354471	0.994085
974.652550	0.996512
974.950591	0.995624
975.248595	0.996324
975.546563	0.996652
975.844493	0.997606
976.142386	0.996757
976.440243	0.997809
976.738062	0.996885
977.035845	0.997323
977.333590	0.995380
977.631299	0.996792
977.928971	0.996555
978.226606	0.997703
978.524204	0.996987
978.821765	0.997691
979.119290	0.997176
979.416777	0.996241
979.714228	0.996119
980.011642	0.995840
980.309020	0.997099
980.606360	0.997330
980.903664	0.998264
981.200931	0.995711
981.498162	0.994911
981.795356	0.994010
982.092513	0.993818
982.389633	0.994521
982.686717	0.990361
982.983764	0.990984
983.280775	0.989205
983.577749	0.990164
983.874686	0.991674
984.171587	0.990828
984.468451	0.995082
984.765279	0.994563
985.062070	0.993168
985.358824	0.994662
985.655543	0.995523
985.952224	0.995245
986.248869	0.997118
986.545478	0.997189
986.842050	0.997553
987.138586	0.995791
987.435086	0.997089
987.731549	0.997596
988.027975	0.997736
988.324366	0.997842
988.620719	0.997449
988.917037	0.996066
989.213318	0.998721
989.509563	0.998314
989.805772	0.998238
990.101944	0.998171
990.398080	0.997568
990.694180	0.997487
990.990244	0.998082
991.286271	0.998401
991.582262	0.999560
991.878217	0.998489
992.174136	0.998991
992.470019	0.998052
992.765865	0.999241
993.061676	0.998085
993.357450	0.998445
993.653188	0.997804
993.948890	0.997147
994.244556	0.997352
994.540186	0.996680
994.835780	0.996263
995.131337	0.997599
995.426859	0.996015
995.722345	0.998131
996.017795	0.996425
996.313208	0.995923
996.608586	0.995137
996.903928	0.995746
997.199234	0.995893
997.494504	0.996635
997.789738	0.996324
998.084936	0.996499
998.380099	0.998741
998.675225	0.996747
998.970316	0.998223
999.265371	0.997943
999.560390	0.997750
999.855373	0.998768
1000.150320	0.998036
1000.445232	0.997925
1000.740108	0.997865
1001.034948	0.997861
1001.329752	0.997217
1001.624521	0.999174
1001.919254	0.997434
1002.213951	0.998461
1002.508613	0.997267
1002.803239	0.998899
1003.097829	0.998906
1003.392384	0.999679
1003.686903	0.998572
1003.981386	0.999017
1004.275834	0.998656
1004.570246	0.998015
1004.864623	0.999075
1005.158964	0.998619
1005.453270	0.998458
1005.747540	0.997579
1006.041775	0.999194
1006.335974	0.999954
1006.630138	0.999713
1006.924266	1.000154
1007.218359	1.001075
1007.512416	0.999801
1007.806438	0.999238
1008.100425	0.998753
1008.394376	0.997909
1008.688292	0.998366
1008.982172	1.000505
1009.276017	0.999280
1009.569827	0.999440
1009.863602	0.999674
1010.157341	0.999307
1010.451045	0.999845
1010.744714	0.998212
1011.038347	0.999272
1011.331945	0.998378
1011.625508	0.997532
1011.919036	0.998756
1012.212528	0.997819
1012.505986	0.997048
1012.799408	0.998404
1013.092795	0.999136
1013.386147	0.999702
1013.679464	0.999560
1013.972745	0.997468
1014.265992	0.997975
1014.559204	0.998007
1014.852380	0.999448
1015.145521	0.998632
1015.438628	0.999740
1015.731699	0.998661
1016.024736	0.998592
1016.317737	0.998600
1016.610703	0.999180
1016.903635	0.998952
1017.196531	0.999232
1017.489393	0.999168
1017.782219	0.998440
1018.075011	0.997462
1018.367768	0.998315
1018.660490	0.999887
1018.953177	0.999887
1019.245829	0.999887
