Dividing Wavelength (nm)	Counts (n)	Blue Motor Position (mm): 0.000000	Red Motor Position (mm): 23.500000	
326.493990	1.000641
326.888308	1.000641
327.282561	1.000641
327.676750	1.000144
328.070874	1.000188
328.464933	1.001107
328.858929	0.999335
329.252859	0.999135
329.646726	1.000084
330.040528	1.000157
330.434265	0.999115
330.827938	0.999482
331.221547	1.000069
331.615091	1.001132
332.008571	1.000419
332.401986	1.000164
332.795338	1.000474
333.188625	0.998697
333.581847	1.000090
333.975006	0.999321
334.368100	0.999278
334.761129	0.998665
335.154095	1.001070
335.546996	0.997384
335.939833	0.993321
336.332606	0.994373
336.725315	0.994669
337.117960	0.995936
337.510540	0.994201
337.903056	0.993761
338.295508	0.993974
338.687896	0.994062
339.080220	0.994260
339.472480	0.994597
339.864676	0.993816
340.256807	0.995542
340.648875	0.995158
341.040879	0.994728
341.432818	0.993836
341.824694	0.995815
342.216506	0.995781
342.608253	0.994487
342.999937	0.995004
343.391557	0.995184
343.783113	0.993731
344.174605	0.994952
344.566033	0.995743
344.957397	0.994747
345.348697	0.995430
345.739934	0.994943
346.131106	0.994514
346.522215	0.995169
346.913260	0.994062
347.304241	0.995165
347.695159	0.993189
348.086012	0.993771
348.476802	0.994023
348.867528	0.994820
349.258191	0.993091
349.648789	0.995304
350.039324	0.994056
350.429796	0.994747
350.820203	0.995315
351.210548	0.994537
351.600828	0.994045
351.991045	0.993650
352.381198	0.993657
352.771288	0.994541
353.161314	0.993584
353.551276	0.995123
353.941175	0.994637
354.331010	0.994546
354.720782	0.995124
355.110490	0.993622
355.500135	0.995478
355.889717	0.993845
356.279235	0.993537
356.668689	0.993933
357.058080	0.995878
357.447408	0.994615
357.836672	0.995122
358.225873	0.994964
358.615010	0.994862
359.004084	0.994854
359.393095	0.994249
359.782043	0.995017
360.170927	0.994813
360.559748	0.995132
360.948505	0.994111
361.337199	0.994726
361.725830	0.996113
362.114398	0.994099
362.502903	0.995471
362.891344	0.996058
363.279722	0.994552
363.668037	0.995419
364.056289	0.994231
364.444478	0.995894
364.832603	0.995683
365.220665	0.994488
365.608665	0.994526
365.996601	0.993956
366.384474	0.994546
366.772284	0.994945
367.160031	0.993687
367.547715	0.993533
367.935336	0.995365
368.322893	0.994667
368.710388	0.993520
369.097820	0.994847
369.485189	0.994454
369.872495	0.994281
370.259738	0.992610
370.646918	0.994415
371.034035	0.994159
371.421090	0.994256
371.808081	0.995004
372.195010	0.995151
372.581875	0.994617
372.968678	0.994371
373.355418	0.994422
373.742096	0.993968
374.128710	0.994688
374.515262	0.993850
374.901751	0.995065
375.288177	0.994009
375.674540	0.996089
376.060841	0.994435
376.447079	0.995263
376.833254	0.995846
377.219367	0.994845
377.605417	0.995823
377.991404	0.995576
378.377329	0.993684
378.763191	0.996298
379.148991	0.996323
379.534727	0.995465
379.920402	0.995506
380.306013	0.995797
380.691563	0.996054
381.077049	0.995044
381.462474	0.995293
381.847835	0.996078
382.233134	0.994507
382.618371	0.995477
383.003545	0.996241
383.388657	0.995116
383.773706	0.996854
384.158693	0.995113
384.543618	0.995829
384.928480	0.995716
385.313280	0.996279
385.698017	0.996444
386.082692	0.996253
386.467305	0.996633
386.851856	0.996070
387.236344	0.995579
387.620770	0.994576
388.005133	0.996890
388.389435	0.997420
388.773674	0.995595
389.157851	0.996100
389.541965	0.996353
389.926018	0.995692
390.310008	0.996863
390.693936	0.995462
391.077802	0.995671
391.461606	0.995489
391.845348	0.996913
392.229027	0.997928
392.612645	0.996667
392.996200	0.998067
393.379694	0.995925
393.763125	0.997512
394.146494	0.997016
394.529801	0.996202
394.913047	0.997105
395.296230	0.996785
395.679351	0.996896
396.062410	0.996550
396.445408	0.997028
396.828343	0.996752
397.211217	0.996400
397.594028	0.997016
397.976778	0.995659
398.359466	0.996878
398.742092	0.996909
399.124656	0.996493
399.507158	0.996264
399.889598	0.996384
400.271977	0.996862
400.654294	0.996630
401.036549	0.997097
401.418742	0.997123
401.800874	0.996851
402.182944	0.996545
402.564952	0.996556
402.946898	0.996434
403.328783	0.997258
403.710606	0.995942
404.092367	0.997019
404.474067	0.996151
404.855705	0.995975
405.237282	0.996945
405.618797	0.997705
406.000250	0.996155
406.381642	0.997264
406.762972	0.996780
407.144240	0.997289
407.525447	0.997300
407.906593	0.997450
408.287677	0.997034
408.668700	0.996689
409.049661	0.995628
409.430560	0.996623
409.811399	0.995556
410.192176	0.996123
410.572891	0.996200
410.953545	0.996368
411.334138	0.995622
411.714669	0.997345
412.095139	0.995738
412.475547	0.997528
412.855894	0.997523
413.236180	0.997484
413.616405	0.997154
413.996568	0.997258
414.376670	0.996421
414.756711	0.996560
415.136691	0.996435
415.516609	0.996305
415.896466	0.995701
416.276262	0.995224
416.655997	0.997204
417.035670	0.996630
417.415283	0.996104
417.794834	0.996783
418.174324	0.996638
418.553753	0.997144
418.933121	0.995808
419.312428	0.996007
419.691674	0.995511
420.070859	0.996379
420.449983	0.996474
420.829045	0.996072
421.208047	0.996570
421.586988	0.996825
421.965867	0.995897
422.344686	0.996540
422.723444	0.995722
423.102141	0.995895
423.480777	0.995092
423.859352	0.995317
424.237866	0.994262
424.616319	0.994827
424.994712	0.994510
425.373044	0.994162
425.751314	0.993914
426.129524	0.992747
426.507673	0.992412
426.885762	0.992507
427.263789	0.991064
427.641756	0.990559
428.019662	0.989810
428.397508	0.986962
428.775292	0.986429
429.153016	0.984630
429.530679	0.984370
429.908282	0.982763
430.285824	0.980280
430.663305	0.976606
431.040726	0.976391
431.418086	0.974975
431.795385	0.972172
432.172624	0.968961
432.549802	0.966963
432.926920	0.964610
433.303977	0.961418
433.680974	0.959053
434.057910	0.954812
434.434786	0.951966
434.811601	0.948693
435.188355	0.943041
435.565050	0.940202
435.941683	0.937061
436.318257	0.931560
436.694770	0.926491
437.071222	0.922625
437.447614	0.918989
437.823946	0.914733
438.200218	0.908606
438.576429	0.904697
438.952580	0.899052
439.328670	0.891971
439.704700	0.887533
440.080670	0.882914
440.456580	0.871755
440.832429	0.866658
441.208218	0.863980
441.583947	0.855200
441.959616	0.848641
442.335224	0.842124
442.710773	0.832763
443.086261	0.824066
443.461689	0.822534
443.837057	0.811387
444.212365	0.799912
444.587612	0.795867
444.962800	0.783532
445.337927	0.776630
445.712995	0.778948
446.088002	0.756048
446.462949	0.752603
446.837837	0.745813
447.212664	0.734413
447.587431	0.720262
447.962139	0.697652
448.336786	0.669773
448.711374	0.667777
449.085901	0.680320
449.460369	0.672628
449.834776	0.665520
450.209124	0.646883
450.583412	0.632668
450.957640	0.622793
451.331808	0.619254
451.705917	0.624230
452.079965	0.618155
452.453954	0.602270
452.827883	0.599529
453.201752	0.588546
453.575562	0.588280
453.949311	0.571525
454.323001	0.569835
454.696632	0.559479
455.070202	0.546638
455.443713	0.534022
455.817164	0.523380
456.190556	0.513177
456.563888	0.503561
456.937160	0.495253
457.310373	0.502041
457.683526	0.494486
458.056619	0.492425
458.429653	0.486970
458.802628	0.483425
459.175542	0.474143
459.548398	0.453665
459.921194	0.443186
460.293930	0.439039
460.666607	0.414795
461.039224	0.400768
461.411782	0.392279
461.784280	0.386224
462.156719	0.384090
462.529099	0.382727
462.901419	0.391910
463.273680	0.392066
463.645882	0.387689
464.018024	0.388612
464.390106	0.378859
464.762130	0.361766
465.134094	0.343714
465.505999	0.314819
465.877845	0.284969
466.249631	0.269233
466.621358	0.271696
466.993026	0.280875
467.364634	0.283616
467.736184	0.289666
468.107674	0.295645
468.479105	0.292594
468.850477	0.297279
469.221790	0.301931
469.593043	0.310312
469.964238	0.313249
470.335373	0.311503
470.706449	0.308324
471.077467	0.307956
471.448425	0.269919
471.819324	0.245398
472.190164	0.243468
472.560945	0.271197
472.931667	0.292070
473.302330	0.295314
473.672934	0.306635
474.043479	0.294294
474.413965	0.295536
474.784393	0.298322
475.154761	0.293712
475.525070	0.289976
475.895321	0.295514
476.265513	0.289208
476.635645	0.284419
477.005719	0.284065
477.375734	0.280373
477.745691	0.273875
478.115588	0.269601
478.485427	0.263325
478.855207	0.250182
479.224928	0.232574
479.594591	0.220452
479.964194	0.223832
480.333739	0.225141
480.703226	0.226250
481.072653	0.224741
481.442022	0.220169
481.811333	0.216476
482.180584	0.219906
482.549777	0.225105
482.918912	0.228310
483.287988	0.227822
483.657005	0.227710
484.025964	0.233831
484.394864	0.231231
484.763706	0.231661
485.132489	0.236790
485.501213	0.237470
485.869879	0.235639
486.238487	0.238926
486.607036	0.236677
486.975527	0.241293
487.343959	0.236935
487.712333	0.236139
488.080648	0.237445
488.448905	0.236673
488.817104	0.237584
489.185244	0.232381
489.553326	0.229307
489.921350	0.219003
490.289315	0.201682
490.657222	0.196453
491.025070	0.197753
491.392861	0.199964
491.760593	0.205546
492.128267	0.211405
492.495883	0.216520
492.863440	0.222777
493.230939	0.228949
493.598380	0.230097
493.965763	0.232710
494.333088	0.234849
494.700354	0.236010
495.067563	0.234934
495.434713	0.238361
495.801805	0.236350
496.168839	0.237713
496.535815	0.239110
496.902733	0.238892
497.269593	0.240668
497.636395	0.238179
498.003139	0.238555
498.369825	0.241269
498.736453	0.237817
499.103023	0.239330
499.469535	0.239065
499.835989	0.239002
500.202385	0.239893
500.568723	0.243243
500.935003	0.238377
501.301226	0.242508
501.667390	0.236740
502.033497	0.235064
502.399546	0.237969
502.765537	0.239582
503.131470	0.238068
503.497345	0.234242
503.863163	0.243016
504.228923	0.236113
504.594625	0.234508
504.960269	0.240163
505.325856	0.235459
505.691385	0.239817
506.056856	0.236433
506.422270	0.235869
506.787625	0.238383
507.152924	0.235779
507.518164	0.236073
507.883347	0.237717
508.248472	0.239256
508.613540	0.234491
508.978550	0.236887
509.343503	0.237669
509.708398	0.235035
510.073236	0.232605
510.438016	0.232961
510.802738	0.233767
511.167403	0.232693
511.532010	0.234774
511.896561	0.230069
512.261053	0.228783
512.625488	0.230973
512.989866	0.231094
513.354186	0.231705
513.718449	0.233195
514.082655	0.229882
514.446803	0.231793
514.810894	0.229737
515.174927	0.232388
515.538904	0.231479
515.902822	0.228610
516.266684	0.230954
516.630488	0.232138
516.994235	0.230663
517.357925	0.229817
517.721558	0.228072
518.085133	0.227506
518.448651	0.227796
518.812112	0.229948
519.175516	0.229441
519.538863	0.227315
519.902152	0.228978
520.265385	0.225621
520.628560	0.227359
520.991678	0.227711
521.354739	0.226580
521.717743	0.227698
522.080690	0.228678
522.443580	0.225752
522.806413	0.226868
523.169189	0.225897
523.531908	0.225155
523.894569	0.228283
524.257174	0.228461
524.619722	0.225897
524.982213	0.227136
525.344647	0.226173
525.707025	0.227102
526.069345	0.225128
526.431608	0.226820
526.793815	0.224790
527.155964	0.228884
527.518057	0.227778
527.880093	0.228856
528.242072	0.227264
528.603995	0.229134
528.965860	0.230987
529.327669	0.229993
529.689421	0.230732
530.051117	0.231737
530.412755	0.229091
530.774337	0.231580
531.135862	0.231898
531.497331	0.231349
531.858743	0.234161
532.220098	0.230915
532.581396	0.233359
532.942638	0.233997
533.303824	0.234892
533.664953	0.234681
534.026025	0.236402
534.387040	0.234448
534.747999	0.234212
535.108902	0.233435
535.469748	0.238094
535.830537	0.235754
536.191270	0.236635
536.551947	0.236013
536.912567	0.236206
537.273131	0.237875
537.633638	0.237831
537.994089	0.238536
538.354483	0.239442
538.714821	0.236460
539.075103	0.236019
539.435328	0.237018
539.795497	0.240774
540.155609	0.237276
540.515665	0.235471
540.875665	0.240958
541.235609	0.239524
541.595496	0.239480
541.955328	0.235944
542.315102	0.238969
542.674821	0.239976
543.034483	0.239931
543.394090	0.239589
543.753640	0.241530
544.113134	0.236480
544.472571	0.239756
544.831953	0.236845
545.191278	0.240986
545.550548	0.240222
545.909761	0.237031
546.268918	0.237487
546.628019	0.236259
546.987064	0.238813
547.346053	0.240730
547.704986	0.238407
548.063863	0.238954
548.422684	0.238950
548.781449	0.241022
549.140158	0.238655
549.498811	0.241371
549.857408	0.244173
550.215949	0.239326
550.574434	0.242456
550.932864	0.240249
551.291237	0.239015
551.649555	0.240434
552.007817	0.239998
552.366022	0.240965
552.724173	0.241229
553.082267	0.241388
553.440305	0.238385
553.798288	0.242638
554.156215	0.239334
554.514086	0.239968
554.871902	0.242994
555.229661	0.242641
555.587365	0.242681
555.945014	0.245423
556.302606	0.242342
556.660143	0.245021
557.017625	0.241293
557.375050	0.243752
557.732421	0.240622
558.089735	0.242749
558.446994	0.242785
558.804197	0.242305
559.161345	0.242026
559.518437	0.245464
559.875474	0.243075
560.232455	0.242407
560.589381	0.243818
560.946251	0.243672
561.303065	0.241355
561.659825	0.242899
562.016528	0.244224
562.373177	0.247100
562.729770	0.244420
563.086307	0.246720
563.442789	0.244178
563.799216	0.247185
564.155587	0.245704
564.511904	0.247171
564.868164	0.247259
565.224370	0.247111
565.580520	0.248761
565.936615	0.248612
566.292654	0.251588
566.648638	0.248584
567.004567	0.249362
567.360441	0.249756
567.716260	0.252010
568.072023	0.250093
568.427732	0.250575
568.783385	0.253307
569.138982	0.251420
569.494525	0.250538
569.850013	0.253471
570.205445	0.251945
570.560823	0.254536
570.916145	0.256564
571.271412	0.254849
571.626625	0.256471
571.981782	0.256868
572.336884	0.257807
572.691931	0.257573
573.046923	0.258610
573.401860	0.259938
573.756743	0.261544
574.111570	0.260420
574.466342	0.260854
574.821059	0.260081
575.175722	0.262626
575.530330	0.262890
575.884882	0.263045
576.239380	0.264988
576.593823	0.265769
576.948211	0.264989
577.302544	0.268089
577.656823	0.267874
578.011047	0.267828
578.365216	0.268496
578.719330	0.270492
579.073389	0.270707
579.427394	0.271752
579.781344	0.272336
580.135239	0.273810
580.489080	0.273288
580.842866	0.276483
581.196597	0.276425
581.550273	0.275258
581.903895	0.276149
582.257463	0.274130
582.610975	0.277523
582.964434	0.276712
583.317837	0.279275
583.671186	0.279759
584.024481	0.279642
584.377721	0.282308
584.730906	0.282937
585.084037	0.282100
585.437113	0.284068
585.790135	0.283573
586.143103	0.286250
586.496016	0.287673
586.848874	0.285128
587.201679	0.285656
587.554428	0.288946
587.907124	0.287749
588.259765	0.288304
588.612352	0.288770
588.964884	0.292621
589.317362	0.292236
589.669786	0.292017
590.022155	0.290926
590.374470	0.290062
590.726731	0.292127
591.078937	0.296677
591.431090	0.293069
591.783188	0.297533
592.135232	0.297852
592.487222	0.297768
592.839157	0.296428
593.191038	0.298118
593.542866	0.300173
593.894639	0.303967
594.246358	0.301765
594.598022	0.301037
594.949633	0.304961
595.301190	0.305830
595.652692	0.304414
596.004141	0.300969
596.355535	0.308879
596.706876	0.309080
597.058162	0.311948
597.409395	0.309343
597.760573	0.306969
598.111698	0.309976
598.462768	0.310427
598.813785	0.311654
599.164748	0.313067
599.515657	0.313571
599.866511	0.316576
600.217312	0.312519
600.568060	0.317214
600.918753	0.313404
601.269392	0.314270
601.619978	0.318134
601.970510	0.315386
602.320988	0.315845
602.671412	0.313492
603.021783	0.315487
603.372100	0.317364
603.722363	0.316816
604.072572	0.317646
604.422728	0.317632
604.772830	0.319797
605.122878	0.319340
605.472872	0.319794
605.822813	0.317873
606.172701	0.320689
606.522534	0.318337
606.872314	0.318116
607.222041	0.319139
607.571714	0.316970
607.921333	0.318509
608.270899	0.318267
608.620411	0.315081
608.969870	0.319047
609.319276	0.319137
609.668627	0.318773
610.017926	0.317586
610.367171	0.316198
610.716362	0.317061
611.065500	0.317002
611.414585	0.315689
611.763616	0.316588
612.112594	0.316661
612.461518	0.316102
612.810389	0.313689
613.159207	0.316299
613.507971	0.317995
613.856682	0.313579
614.205340	0.315463
614.553945	0.312138
614.902496	0.316093
615.250994	0.313967
615.599439	0.314877
615.947830	0.314077
616.296169	0.315321
616.644454	0.314760
616.992686	0.314922
617.340864	0.312647
617.688990	0.316306
618.037063	0.312762
618.385082	0.314545
618.733048	0.311553
619.080961	0.313629
619.428821	0.313199
619.776628	0.312968
620.124382	0.314877
620.472083	0.314858
620.819731	0.314306
621.167326	0.318504
621.514868	0.317903
621.862357	0.322564
622.209793	0.322016
622.557176	0.324195
622.904506	0.325203
623.251783	0.327651
623.599007	0.330061
623.946179	0.329100
624.293297	0.331122
624.640363	0.335180
624.987376	0.335298
625.334336	0.338298
625.681243	0.340032
626.028097	0.340873
626.374899	0.342173
626.721647	0.342466
627.068343	0.345338
627.414987	0.346607
627.761577	0.348581
628.108115	0.347097
628.454600	0.352259
628.801032	0.349399
629.147412	0.351302
629.493739	0.352156
629.840014	0.354885
630.186236	0.352204
630.532405	0.358112
630.878521	0.355622
631.224585	0.357504
631.570597	0.361382
631.916556	0.359413
632.262462	0.360040
632.608316	0.362112
632.954117	0.362898
633.299866	0.363844
633.645562	0.364072
633.991206	0.368405
634.336797	0.370896
634.682336	0.373453
635.027823	0.375161
635.373257	0.375796
635.718639	0.379564
636.063968	0.378485
636.409245	0.384573
636.754470	0.384603
637.099642	0.386836
637.444762	0.390231
637.789829	0.389078
638.134845	0.392891
638.479808	0.394001
638.824719	0.393926
639.169577	0.397064
639.514383	0.396512
639.859137	0.400897
640.203839	0.400879
640.548489	0.400800
640.893086	0.402515
641.237632	0.404154
641.582125	0.402652
641.926566	0.404282
642.270955	0.404321
642.615292	0.404503
642.959576	0.403817
643.303809	0.404160
643.647990	0.404063
643.992118	0.404494
644.336195	0.407965
644.680219	0.405743
645.024192	0.406693
645.368112	0.400471
645.711981	0.399998
646.055797	0.394958
646.399562	0.397078
646.743274	0.389462
647.086935	0.386888
647.430544	0.387077
647.774101	0.385812
648.117606	0.385370
648.461059	0.385782
648.804460	0.388179
649.147810	0.393987
649.491108	0.395384
649.834354	0.396671
650.177548	0.402241
650.520690	0.407413
650.863781	0.409074
651.206820	0.408082
651.549807	0.412548
651.892742	0.416847
652.235626	0.416227
652.578458	0.416950
652.921238	0.423072
653.263967	0.421188
653.606644	0.424963
653.949269	0.424652
654.291843	0.428728
654.634365	0.425285
654.976836	0.428033
655.319255	0.428925
655.661622	0.430706
656.003938	0.430777
656.346203	0.433843
656.688416	0.430767
657.030577	0.434416
657.372687	0.436576
657.714746	0.437460
658.056753	0.434106
658.398708	0.438211
658.740612	0.439146
659.082465	0.435293
659.424266	0.435628
659.766016	0.435182
660.107715	0.438094
660.449362	0.436987
660.790958	0.437098
661.132503	0.437698
661.473996	0.435191
661.815438	0.436674
662.156829	0.436968
662.498168	0.437436
662.839456	0.438750
663.180693	0.436399
663.521879	0.436740
663.863013	0.437631
664.204097	0.435849
664.545129	0.433368
664.886110	0.433607
665.227040	0.430691
665.567918	0.432629
665.908746	0.431500
666.249522	0.431172
666.590248	0.432046
666.930922	0.430318
667.271545	0.429071
667.612118	0.428891
667.952639	0.430893
668.293109	0.429127
668.633528	0.432581
668.973896	0.431756
669.314213	0.432454
669.654480	0.434270
669.994695	0.434567
670.334859	0.435058
670.674973	0.435871
671.015035	0.435972
671.355047	0.435192
671.695008	0.436944
672.034918	0.438113
672.374777	0.437703
672.714585	0.438833
673.054342	0.438721
673.394049	0.439051
673.733705	0.436716
674.073310	0.437770
674.412864	0.440648
674.752368	0.441797
675.091820	0.441498
675.431223	0.446172
675.770574	0.445876
676.109875	0.448654
676.449125	0.448302
676.788324	0.451443
677.127473	0.455910
677.466571	0.456326
677.805619	0.457954
678.144616	0.458389
678.483562	0.460442
678.822458	0.463508
679.161303	0.463910
679.500098	0.464642
679.838842	0.466295
680.177535	0.465336
680.516179	0.464434
680.854771	0.463506
681.193314	0.457221
681.531805	0.448276
681.870247	0.436635
682.208638	0.429153
682.546978	0.428385
682.885268	0.429879
683.223508	0.436814
683.561697	0.439642
683.899836	0.442659
684.237925	0.445756
684.575963	0.448530
684.913951	0.451571
685.251889	0.447746
685.589776	0.449339
685.927614	0.451889
686.265401	0.445823
686.603137	0.447373
686.940824	0.441483
687.278460	0.439603
687.616046	0.439069
687.953582	0.433904
688.291068	0.435274
688.628504	0.430953
688.965889	0.433691
689.303224	0.437700
689.640510	0.441330
689.977745	0.446885
690.314930	0.454705
690.652065	0.459248
690.989150	0.467118
691.326185	0.474018
691.663170	0.478052
692.000105	0.485285
692.336990	0.492326
692.673825	0.495047
693.010610	0.501374
693.347345	0.506981
693.684030	0.508155
694.020665	0.513082
694.357251	0.521854
694.693786	0.521223
695.030272	0.526119
695.366707	0.529112
695.703093	0.532625
696.039429	0.530530
696.375716	0.532188
696.711952	0.534864
697.048139	0.536553
697.384276	0.538640
697.720363	0.536976
698.056400	0.535651
698.392388	0.541528
698.728326	0.544745
699.064214	0.547507
699.400053	0.548645
699.735842	0.552082
700.071581	0.554260
700.407270	0.557359
700.742910	0.560058
701.078501	0.565998
701.414042	0.567486
701.749533	0.570166
702.084974	0.579017
702.420366	0.571044
702.755709	0.578018
703.091002	0.586050
703.426246	0.579157
703.761440	0.585769
704.096584	0.590465
704.431679	0.587472
704.766725	0.589325
705.101721	0.591326
705.436668	0.587308
705.771565	0.594070
706.106413	0.590395
706.441212	0.586376
706.775961	0.584910
707.110661	0.588377
707.445311	0.584099
707.779913	0.581353
708.114465	0.580091
708.448967	0.576591
708.783421	0.568976
709.117825	0.563083
709.452180	0.563247
709.786485	0.556874
710.120742	0.546816
710.454949	0.548848
710.789107	0.541002
711.123216	0.531832
711.457275	0.533878
711.791286	0.524618
712.125247	0.523531
712.459159	0.534272
712.793023	0.526637
713.126837	0.531102
713.460602	0.531459
713.794318	0.541025
714.127985	0.540027
714.461602	0.549404
714.795171	0.553350
715.128691	0.560857
715.462162	0.568582
715.795584	0.574085
716.128957	0.577625
716.462281	0.583799
716.795556	0.586795
717.128782	0.591708
717.461960	0.601623
717.795088	0.600355
718.128167	0.606206
718.461198	0.615127
718.794180	0.615622
719.127113	0.618449
719.459997	0.621523
719.792833	0.627760
720.125619	0.629306
720.458357	0.635151
720.791046	0.634649
721.123686	0.638615
721.456278	0.645246
721.788821	0.642456
722.121315	0.645972
722.453761	0.650537
722.786158	0.649109
723.118506	0.644378
723.450805	0.653478
723.783056	0.649196
724.115259	0.646750
724.447412	0.645933
724.779518	0.647018
725.111574	0.645807
725.443582	0.641388
725.775542	0.643393
726.107453	0.636299
726.439315	0.635630
726.771129	0.634772
727.102895	0.627681
727.434612	0.620193
727.766281	0.618040
728.097901	0.617169
728.429473	0.617439
728.760996	0.615384
729.092471	0.616415
729.423897	0.619961
729.755276	0.619133
730.086606	0.619114
730.417887	0.613617
730.749120	0.604544
731.080305	0.594707
731.411442	0.591354
731.742530	0.595895
732.073570	0.594933
732.404562	0.587978
732.735506	0.589257
733.066401	0.593020
733.397249	0.603244
733.728048	0.613963
734.058798	0.627061
734.389501	0.636817
734.720156	0.646935
735.050762	0.655696
735.381320	0.655839
735.711831	0.665670
736.042293	0.670389
736.372707	0.665649
736.703073	0.670513
737.033391	0.672763
737.363661	0.669925
737.693883	0.664391
738.024056	0.664571
738.354182	0.664303
738.684260	0.653316
739.014290	0.649868
739.344272	0.650310
739.674207	0.644071
740.004093	0.643975
740.333931	0.643827
740.663722	0.643772
740.993464	0.644069
741.323159	0.647745
741.652806	0.653790
741.982405	0.657571
742.311956	0.662016
742.641460	0.664422
742.970915	0.668455
743.300323	0.675256
743.629683	0.682630
743.958996	0.684004
744.288260	0.688145
744.617477	0.694873
744.946647	0.696498
745.275768	0.701108
745.604842	0.701441
745.933869	0.711175
746.262847	0.711435
746.591778	0.706073
746.920662	0.711262
747.249498	0.717817
747.578286	0.708235
747.907027	0.705405
748.235720	0.705644
748.564365	0.700760
748.892963	0.700020
749.221514	0.703406
749.550017	0.708887
749.878473	0.708599
750.206881	0.714676
750.535242	0.716644
750.863555	0.715815
751.191821	0.717062
751.520039	0.720354
751.848210	0.725224
752.176334	0.717509
752.504411	0.715952
752.832440	0.724426
753.160421	0.728287
753.488356	0.726580
753.816243	0.723772
754.144082	0.733270
754.471875	0.736380
754.799620	0.731604
755.127318	0.732859
755.454969	0.733097
755.782572	0.733778
756.110129	0.736854
756.437638	0.739912
756.765100	0.736138
757.092515	0.734214
757.419882	0.733819
757.747203	0.738451
758.074477	0.737995
758.401703	0.734838
758.728882	0.730411
759.056014	0.729201
759.383099	0.728744
759.710138	0.729077
760.037129	0.725563
760.364073	0.719789
760.690970	0.722212
761.017820	0.728352
761.344623	0.723811
761.671379	0.714195
761.998088	0.702746
762.324751	0.679733
762.651366	0.638021
762.977935	0.571725
763.304456	0.520761
763.630931	0.510821
763.957359	0.549178
764.283740	0.594001
764.610074	0.620872
764.936362	0.651864
765.262602	0.678415
765.588796	0.699943
765.914943	0.717806
766.241044	0.735769
766.567097	0.742258
766.893104	0.751583
767.219064	0.758026
767.544978	0.764166
767.870845	0.777437
768.196665	0.782044
768.522438	0.779923
768.848165	0.781188
769.173846	0.790724
769.499479	0.793950
769.825066	0.797955
770.150607	0.802664
770.476101	0.798237
770.801548	0.799557
771.126949	0.810532
771.452303	0.814520
771.777611	0.813432
772.102872	0.812095
772.428087	0.817991
772.753256	0.821739
773.078378	0.823897
773.403453	0.831550
773.728482	0.836364
774.053465	0.829954
774.378401	0.834798
774.703291	0.842741
775.028135	0.840675
775.352932	0.843161
775.677683	0.846245
776.002388	0.846438
776.327046	0.845262
776.651658	0.849189
776.976224	0.852685
777.300743	0.853368
777.625216	0.855208
777.949643	0.857050
778.274024	0.856731
778.598359	0.858529
778.922647	0.856331
779.246889	0.857909
779.571086	0.861928
779.895236	0.864570
780.219339	0.860876
780.543397	0.858366
780.867409	0.857533
781.191374	0.859365
781.515294	0.860078
781.839167	0.858618
782.162995	0.862792
782.486776	0.859828
782.810511	0.860372
783.134201	0.862836
783.457844	0.861867
783.781441	0.864514
784.104993	0.870525
784.428498	0.871344
784.751958	0.866759
785.075372	0.868997
785.398739	0.872113
785.722061	0.868524
786.045337	0.864344
786.368568	0.869978
786.691752	0.872921
787.014891	0.858356
787.337983	0.848773
787.661030	0.841348
787.984031	0.823899
788.306987	0.811044
788.629897	0.813596
788.952760	0.816924
789.275579	0.820356
789.598351	0.837164
789.921078	0.849682
790.243759	0.852164
790.566395	0.856973
790.888984	0.864386
791.211529	0.868525
791.534027	0.872442
791.856480	0.873524
792.178888	0.880038
792.501249	0.881403
792.823566	0.883555
793.145836	0.883322
793.468062	0.884837
793.790241	0.885555
794.112375	0.882980
794.434464	0.879040
794.756507	0.877942
795.078505	0.877498
795.400457	0.872807
795.722364	0.860822
796.044226	0.852615
796.366042	0.851657
796.687812	0.855727
797.009538	0.852068
797.331218	0.855154
797.652852	0.859807
797.974442	0.864201
798.295986	0.864211
798.617484	0.866452
798.938938	0.870754
799.260346	0.875829
799.581709	0.877254
799.903026	0.881426
800.224299	0.880362
800.545526	0.884177
800.866708	0.889797
801.187845	0.891787
801.508936	0.891813
801.829983	0.890519
802.150984	0.892566
802.471940	0.897824
802.792851	0.896800
803.113717	0.898067
803.434538	0.896094
803.755314	0.898152
804.076045	0.900812
804.396731	0.900274
804.717372	0.900103
805.037967	0.902640
805.358518	0.899698
805.679024	0.897214
805.999485	0.896266
806.319901	0.895783
806.640272	0.897933
806.960598	0.896773
807.280879	0.894119
807.601115	0.892431
807.921306	0.895829
808.241453	0.897100
808.561554	0.894516
808.881611	0.894281
809.201623	0.896711
809.521590	0.896473
809.841513	0.897107
810.161390	0.897288
810.481223	0.898269
810.801011	0.901590
811.120755	0.903449
811.440453	0.901694
811.760107	0.900281
812.079716	0.900805
812.399281	0.903810
812.718801	0.906463
813.038276	0.908103
813.357707	0.906743
813.677093	0.903565
813.996434	0.908300
814.315731	0.908875
814.634983	0.909779
814.954191	0.907959
815.273354	0.905284
815.592473	0.901815
815.911547	0.902735
816.230577	0.899348
816.549562	0.894950
816.868502	0.897714
817.187399	0.893496
817.506250	0.888224
817.825058	0.889331
818.143821	0.887118
818.462539	0.881854
818.781213	0.872956
819.099843	0.862268
819.418429	0.847211
819.736970	0.830566
820.055466	0.810142
820.373919	0.785489
820.692327	0.752040
821.010691	0.717322
821.329011	0.641004
821.647286	0.526322
821.965517	0.412329
822.283704	0.369920
822.601847	0.371790
822.919945	0.407267
823.237999	0.440343
823.556010	0.486931
823.873976	0.542405
824.191897	0.593140
824.509775	0.635252
824.827609	0.680665
825.145398	0.702815
825.463144	0.705400
825.780845	0.688372
826.098502	0.670237
826.416116	0.624565
826.733685	0.581161
827.051210	0.572533
827.368692	0.586793
827.686129	0.624074
828.003522	0.677086
828.320872	0.724219
828.638177	0.768165
828.955439	0.800052
829.272656	0.822865
829.589830	0.839357
829.906960	0.854682
830.224046	0.866749
830.541088	0.877572
830.858086	0.882277
831.175041	0.887741
831.491952	0.887438
831.808819	0.884885
832.125642	0.876998
832.442421	0.862656
832.759157	0.840677
833.075849	0.794771
833.392497	0.731325
833.709101	0.689738
834.025662	0.700008
834.342179	0.731582
834.658653	0.770178
834.975083	0.806677
835.291469	0.833552
835.607811	0.855186
835.924110	0.870606
836.240366	0.888558
836.556578	0.901139
836.872746	0.908938
837.188871	0.914365
837.504952	0.920572
837.820990	0.923525
838.136984	0.928022
838.452935	0.930221
838.768842	0.932269
839.084706	0.925295
839.400526	0.899121
839.716303	0.860038
840.032037	0.837257
840.347727	0.841919
840.663373	0.859192
840.978977	0.880597
841.294537	0.902878
841.610054	0.918751
841.925527	0.926739
842.240957	0.933226
842.556344	0.939557
842.871687	0.947801
843.186987	0.950145
843.502244	0.951453
843.817458	0.951272
844.132629	0.955722
844.447756	0.959841
844.762840	0.960789
845.077881	0.959594
845.392879	0.959973
845.707833	0.962196
846.022745	0.964264
846.337613	0.964940
846.652438	0.965133
846.967221	0.965194
847.281960	0.966391
847.596656	0.967610
847.911309	0.966417
848.225919	0.968613
848.540485	0.967815
848.855009	0.968828
849.169490	0.968010
849.483928	0.968902
849.798323	0.969035
850.112675	0.970374
850.426984	0.970853
850.741251	0.969482
851.055474	0.970440
851.369654	0.967844
851.683792	0.969874
851.997887	0.968953
852.311938	0.970494
852.625947	0.970000
852.939914	0.967812
853.253837	0.969559
853.567718	0.970310
853.881555	0.971677
854.195350	0.968383
854.509103	0.970171
854.822812	0.970506
855.136479	0.971726
855.450103	0.970641
855.763685	0.969290
856.077224	0.968384
856.390720	0.971243
856.704173	0.969933
857.017584	0.968003
857.330953	0.966875
857.644278	0.968809
857.957561	0.968678
858.270802	0.968442
858.584000	0.968106
858.897155	0.965955
859.210268	0.968199
859.523339	0.968786
859.836367	0.969596
860.149352	0.970567
860.462295	0.969067
860.775195	0.969635
861.088054	0.969249
861.400869	0.970396
861.713642	0.969776
862.026373	0.970735
862.339062	0.970502
862.651708	0.968114
862.964312	0.967662
863.276873	0.970015
863.589392	0.969250
863.901869	0.967029
864.214303	0.965393
864.526696	0.963675
864.839045	0.963486
865.151353	0.962035
865.463619	0.962543
865.775842	0.961659
866.088023	0.962610
866.400162	0.962441
866.712258	0.962469
867.024313	0.964527
867.336325	0.963781
867.648296	0.963617
867.960224	0.962794
868.272110	0.962152
868.583954	0.964762
868.895755	0.964427
869.207515	0.962391
869.519233	0.960331
869.830909	0.962155
870.142542	0.963655
870.454134	0.961134
870.765684	0.960889
871.077191	0.958320
871.388657	0.958362
871.700081	0.958550
872.011463	0.958690
872.322803	0.958279
872.634101	0.956911
872.945357	0.954924
873.256571	0.953620
873.567744	0.953224
873.878874	0.954453
874.189963	0.952199
874.501010	0.952782
874.812015	0.949255
875.122979	0.951172
875.433900	0.953350
875.744780	0.954239
876.055618	0.952465
876.366415	0.951014
876.677169	0.950353
876.987882	0.952011
877.298554	0.952021
877.609183	0.946740
877.919771	0.945746
878.230317	0.942022
878.540822	0.940897
878.851285	0.935148
879.161707	0.928079
879.472087	0.915166
879.782425	0.900641
880.092722	0.866845
880.402977	0.813593
880.713191	0.754118
881.023363	0.695911
881.333494	0.662641
881.643583	0.634519
881.953631	0.633317
882.263637	0.662537
882.573602	0.701237
882.883526	0.727525
883.193408	0.750233
883.503248	0.772049
883.813048	0.800036
884.122806	0.828370
884.432522	0.851864
884.742197	0.872162
885.051831	0.882696
885.361424	0.891664
885.670975	0.903731
885.980485	0.915134
886.289954	0.919898
886.599382	0.925280
886.908768	0.928881
887.218113	0.935352
887.527417	0.940213
887.836680	0.943349
888.145901	0.943604
888.455082	0.947707
888.764221	0.951732
889.073319	0.953884
889.382376	0.953529
889.691392	0.954239
890.000366	0.953188
890.309300	0.955246
890.618193	0.953947
890.927044	0.951858
891.235855	0.952672
891.544625	0.951920
891.853353	0.952300
892.162041	0.949957
892.470687	0.943365
892.779293	0.938347
893.087858	0.934116
893.396381	0.927228
893.704864	0.913599
894.013306	0.890439
894.321707	0.863694
894.630068	0.849933
894.938387	0.845276
895.246665	0.846534
895.554903	0.858796
895.863100	0.870877
896.171256	0.888606
896.479371	0.907613
896.787446	0.920029
897.095480	0.925157
897.403473	0.929073
897.711425	0.933213
898.019336	0.941762
898.327207	0.943959
898.635038	0.946837
898.942827	0.945859
899.250576	0.948426
899.558284	0.952686
899.865952	0.955985
900.173579	0.956440
900.481165	0.955946
900.788711	0.959951
901.096216	0.961204
901.403681	0.961504
901.711105	0.963178
902.018489	0.963742
902.325832	0.963430
902.633135	0.962185
902.940397	0.956063
903.247619	0.944428
903.554800	0.919154
903.861941	0.880256
904.169041	0.845394
904.476101	0.828499
904.783121	0.829355
905.090100	0.845116
905.397039	0.866134
905.703938	0.887747
906.010796	0.906676
906.317614	0.924149
906.624391	0.935777
906.931129	0.945810
907.237826	0.952840
907.544483	0.959834
907.851099	0.962569
908.157675	0.967724
908.464211	0.970626
908.770707	0.972879
909.077163	0.974889
909.383578	0.975464
909.689954	0.975782
909.996289	0.975359
910.302584	0.977962
910.608839	0.980295
910.915054	0.978716
911.221229	0.978334
911.527363	0.977929
911.833458	0.977259
912.139513	0.977063
912.445527	0.975134
912.751502	0.974071
913.057436	0.972776
913.363331	0.969762
913.669186	0.967369
913.975000	0.961855
914.280775	0.956332
914.586510	0.949552
914.892205	0.936117
915.197859	0.914846
915.503475	0.888472
915.809050	0.868870
916.114585	0.864092
916.420081	0.861270
916.725536	0.857222
917.030952	0.864431
917.336328	0.878464
917.641665	0.892640
917.946961	0.909773
918.252218	0.920711
918.557435	0.928690
918.862612	0.937546
919.167750	0.943079
919.472848	0.948085
919.777906	0.953807
920.082925	0.958888
920.387904	0.962533
920.692843	0.963232
920.997743	0.964555
921.302603	0.967745
921.607423	0.970459
921.912204	0.971946
922.216946	0.972676
922.521647	0.974134
922.826310	0.976034
923.130932	0.977021
923.435516	0.978096
923.740059	0.979650
924.044564	0.977975
924.349028	0.980738
924.653454	0.982371
924.957840	0.984565
925.262186	0.984389
925.566493	0.984215
925.870761	0.985489
926.174989	0.986905
926.479178	0.988358
926.783328	0.988835
927.087438	0.989719
927.391509	0.988321
927.695541	0.990074
927.999533	0.989480
928.303486	0.990347
928.607400	0.991218
928.911275	0.989600
929.215110	0.990126
929.518906	0.991186
929.822663	0.989219
930.126381	0.992141
930.430060	0.991071
930.733699	0.990881
931.037299	0.989586
931.340861	0.990936
931.644383	0.990037
931.947866	0.989413
932.251309	0.990024
932.554714	0.990548
932.858080	0.990730
933.161407	0.989932
933.464694	0.991689
933.767943	0.990390
934.071153	0.991733
934.374323	0.992018
934.677455	0.991053
934.980548	0.991806
935.283602	0.990963
935.586617	0.991761
935.889593	0.990458
936.192530	0.990339
936.495428	0.989722
936.798287	0.991020
937.101108	0.990758
937.403890	0.988788
937.706632	0.989502
938.009336	0.986939
938.312002	0.984986
938.614628	0.984669
938.917216	0.982808
939.219765	0.982350
939.522275	0.984148
939.824747	0.982786
940.127179	0.983552
940.429573	0.986355
940.731929	0.984408
941.034246	0.984867
941.336524	0.984589
941.638763	0.986710
941.940964	0.986041
942.243126	0.986009
942.545250	0.987651
942.847335	0.987962
943.149381	0.988831
943.451389	0.987894
943.753359	0.988352
944.055290	0.991240
944.357182	0.990023
944.659036	0.987669
944.960851	0.988727
945.262628	0.990189
945.564367	0.991188
945.866067	0.989358
946.167729	0.990570
946.469352	0.989303
946.770937	0.989426
947.072484	0.991068
947.373992	0.990249
947.675462	0.989830
947.976893	0.989957
948.278286	0.990761
948.579641	0.991994
948.880958	0.990852
949.182236	0.991532
949.483476	0.991086
949.784678	0.990876
950.085841	0.991127
950.386967	0.990752
950.688054	0.990586
950.989103	0.990976
951.290114	0.988663
951.591087	0.989702
951.892021	0.989849
952.192917	0.989199
952.493776	0.987882
952.794596	0.988831
953.095378	0.988632
953.396122	0.987816
953.696828	0.987768
953.997496	0.989532
954.298126	0.990402
954.598718	0.990731
954.899272	0.990869
955.199788	0.990121
955.500266	0.990997
955.800706	0.993176
956.101108	0.993184
956.401472	0.994154
956.701798	0.993324
957.002087	0.991776
957.302337	0.993442
957.602550	0.995946
957.902724	0.994670
958.202861	0.995266
958.502960	0.994942
958.803022	0.993041
959.103045	0.995570
959.403031	0.996668
959.702979	0.995275
960.002889	0.996525
960.302762	0.993965
960.602596	0.995493
960.902393	0.995282
961.202153	0.995827
961.501875	0.997142
961.801559	0.995211
962.101205	0.996286
962.400814	0.995955
962.700385	0.995572
962.999918	0.997297
963.299414	0.997465
963.598873	0.995792
963.898293	0.996892
964.197677	0.996665
964.497022	0.996279
964.796331	0.997120
965.095601	0.997017
965.394835	0.996285
965.694030	0.996987
965.993189	0.997156
966.292309	0.996574
966.591393	0.997903
966.890439	0.996749
967.189447	0.997536
967.488419	0.998071
967.787353	0.995723
968.086249	0.995986
968.385108	0.996888
968.683930	0.997785
968.982714	0.996881
969.281462	0.997420
969.580172	0.996018
969.878844	0.997265
970.177480	0.996449
970.476078	0.996464
970.774639	0.996590
971.073162	0.997953
971.371649	0.996062
971.670098	0.996937
971.968510	0.997182
972.266885	0.996130
972.565223	0.995272
972.863524	0.996411
973.161788	0.995830
973.460014	0.998169
973.758204	0.996073
974.056356	0.996795
974.354471	0.994312
974.652550	0.996693
974.950591	0.996293
975.248595	0.996355
975.546563	0.997110
975.844493	0.997190
976.142386	0.997274
976.440243	0.997927
976.738062	0.996714
977.035845	0.998228
977.333590	0.996889
977.631299	0.997962
977.928971	0.996103
978.226606	0.996752
978.524204	0.995681
978.821765	0.999021
979.119290	0.996404
979.416777	0.997385
979.714228	0.997779
980.011642	0.996006
980.309020	0.997512
980.606360	0.996161
980.903664	0.997988
981.200931	0.995712
981.498162	0.995481
981.795356	0.994364
982.092513	0.994152
982.389633	0.994305
982.686717	0.990986
982.983764	0.991914
983.280775	0.990935
983.577749	0.990665
983.874686	0.991475
984.171587	0.992362
984.468451	0.993663
984.765279	0.995400
985.062070	0.994586
985.358824	0.995700
985.655543	0.994601
985.952224	0.996071
986.248869	0.996944
986.545478	0.997320
986.842050	0.998994
987.138586	0.996103
987.435086	0.997045
987.731549	0.999257
988.027975	0.999043
988.324366	0.998276
988.620719	0.997190
988.917037	0.996616
989.213318	0.997223
989.509563	0.998747
989.805772	0.998902
990.101944	0.998765
990.398080	0.997761
990.694180	0.997406
990.990244	0.997674
991.286271	0.998189
991.582262	0.997912
991.878217	0.998127
992.174136	0.998764
992.470019	0.998458
992.765865	0.999232
993.061676	0.998250
993.357450	0.997075
993.653188	0.996687
993.948890	0.998037
994.244556	0.997860
994.540186	0.996931
994.835780	0.996825
995.131337	0.997423
995.426859	0.995864
995.722345	0.998153
996.017795	0.995483
996.313208	0.996725
996.608586	0.995643
996.903928	0.997170
997.199234	0.995923
997.494504	0.997888
997.789738	0.996263
998.084936	0.996531
998.380099	0.998175
998.675225	0.997297
998.970316	0.997643
999.265371	0.998807
999.560390	0.997576
999.855373	0.999087
1000.150320	0.997841
1000.445232	0.998966
1000.740108	0.997833
1001.034948	0.998289
1001.329752	0.998521
1001.624521	0.999842
1001.919254	0.998305
1002.213951	0.998565
1002.508613	0.998767
1002.803239	0.998783
1003.097829	0.998494
1003.392384	0.998241
1003.686903	0.998339
1003.981386	0.998353
1004.275834	0.999564
1004.570246	0.998109
1004.864623	0.998159
1005.158964	0.999143
1005.453270	0.998245
1005.747540	0.998426
1006.041775	0.998579
1006.335974	0.998273
1006.630138	0.999055
1006.924266	0.998877
1007.218359	1.000528
1007.512416	0.998867
1007.806438	0.999226
1008.100425	0.999419
1008.394376	0.999229
1008.688292	0.998469
1008.982172	1.000400
1009.276017	1.000163
1009.569827	0.999597
1009.863602	0.998874
1010.157341	0.999879
1010.451045	0.999642
1010.744714	0.997750
1011.038347	0.998871
1011.331945	0.998981
1011.625508	0.998151
1011.919036	0.999340
1012.212528	0.999133
1012.505986	0.997852
1012.799408	0.998966
1013.092795	0.998046
1013.386147	0.999135
1013.679464	0.999283
1013.972745	0.997304
1014.265992	0.997288
1014.559204	0.998764
1014.852380	0.999636
1015.145521	0.999866
1015.438628	0.999406
1015.731699	0.998732
1016.024736	0.998923
1016.317737	0.999236
1016.610703	0.998603
1016.903635	1.001094
1017.196531	0.998230
1017.489393	1.000009
1017.782219	0.999468
1018.075011	0.998683
1018.367768	0.999701
1018.660490	0.998913
1018.953177	0.998913
1019.245829	0.998913
