Dividing Wavelength (nm)	Counts (n)	Blue Motor Position (mm): 0.000000	Red Motor Position (mm): 0.800000	
326.493990	1.001028
326.888308	1.001028
327.282561	1.001028
327.676750	0.999845
328.070874	0.998814
328.464933	1.001351
328.858929	0.998734
329.252859	1.000122
329.646726	0.999815
330.040528	1.000495
330.434265	0.999728
330.827938	1.001387
331.221547	1.001155
331.615091	0.999687
332.008571	1.000192
332.401986	0.999892
332.795338	1.000165
333.188625	0.998946
333.581847	1.001090
333.975006	0.999516
334.368100	1.000130
334.761129	1.000006
335.154095	1.000993
335.546996	0.997091
335.939833	0.992474
336.332606	0.993774
336.725315	0.993708
337.117960	0.995101
337.510540	0.993255
337.903056	0.993919
338.295508	0.993622
338.687896	0.994382
339.080220	0.994385
339.472480	0.993707
339.864676	0.993920
340.256807	0.994311
340.648875	0.994032
341.040879	0.993936
341.432818	0.993734
341.824694	0.992588
342.216506	0.993784
342.608253	0.994218
342.999937	0.993402
343.391557	0.993417
343.783113	0.993262
344.174605	0.992409
344.566033	0.994243
344.957397	0.993453
345.348697	0.992809
345.739934	0.992940
346.131106	0.993301
346.522215	0.993244
346.913260	0.992232
347.304241	0.993842
347.695159	0.993922
348.086012	0.992372
348.476802	0.992583
348.867528	0.993375
349.258191	0.992696
349.648789	0.993110
350.039324	0.992519
350.429796	0.993232
350.820203	0.993791
351.210548	0.993466
351.600828	0.992792
351.991045	0.993253
352.381198	0.991965
352.771288	0.992157
353.161314	0.992197
353.551276	0.994407
353.941175	0.993098
354.331010	0.992372
354.720782	0.993632
355.110490	0.992217
355.500135	0.993363
355.889717	0.992423
356.279235	0.992458
356.668689	0.992863
357.058080	0.992358
357.447408	0.993335
357.836672	0.992993
358.225873	0.993769
358.615010	0.993625
359.004084	0.994001
359.393095	0.993819
359.782043	0.992857
360.170927	0.994308
360.559748	0.993285
360.948505	0.991902
361.337199	0.993042
361.725830	0.992347
362.114398	0.993729
362.502903	0.991835
362.891344	0.993181
363.279722	0.990833
363.668037	0.991912
364.056289	0.991621
364.444478	0.992459
364.832603	0.992990
365.220665	0.992169
365.608665	0.990768
365.996601	0.991207
366.384474	0.992087
366.772284	0.989971
367.160031	0.988471
367.547715	0.988752
367.935336	0.989814
368.322893	0.987248
368.710388	0.985428
369.097820	0.985352
369.485189	0.982204
369.872495	0.979613
370.259738	0.976577
370.646918	0.975410
371.034035	0.973515
371.421090	0.970371
371.808081	0.964692
372.195010	0.962309
372.581875	0.957567
372.968678	0.951856
373.355418	0.949104
373.742096	0.942247
374.128710	0.937943
374.515262	0.931988
374.901751	0.927288
375.288177	0.922867
375.674540	0.915327
376.060841	0.909284
376.447079	0.902769
376.833254	0.896040
377.219367	0.891217
377.605417	0.880785
377.991404	0.875881
378.377329	0.869897
378.763191	0.864057
379.148991	0.855525
379.534727	0.847849
379.920402	0.840699
380.306013	0.835545
380.691563	0.822447
381.077049	0.816897
381.462474	0.812293
381.847835	0.802730
382.233134	0.796063
382.618371	0.797015
383.003545	0.780674
383.388657	0.777662
383.773706	0.771831
384.158693	0.766753
384.543618	0.761365
384.928480	0.752821
385.313280	0.743184
385.698017	0.743025
386.082692	0.731667
386.467305	0.731045
386.851856	0.724035
387.236344	0.719167
387.620770	0.713078
388.005133	0.707885
388.389435	0.702994
388.773674	0.699577
389.157851	0.691691
389.541965	0.689780
389.926018	0.695059
390.310008	0.683161
390.693936	0.678454
391.077802	0.671315
391.461606	0.673109
391.845348	0.662103
392.229027	0.662654
392.612645	0.660331
392.996200	0.646662
393.379694	0.640371
393.763125	0.631467
394.146494	0.636254
394.529801	0.625281
394.913047	0.618712
395.296230	0.624124
395.679351	0.615409
396.062410	0.611291
396.445408	0.615239
396.828343	0.609154
397.211217	0.605333
397.594028	0.617653
397.976778	0.607582
398.359466	0.603632
398.742092	0.598589
399.124656	0.611787
399.507158	0.600329
399.889598	0.597192
400.271977	0.587520
400.654294	0.592878
401.036549	0.591077
401.418742	0.595997
401.800874	0.580767
402.182944	0.578278
402.564952	0.569437
402.946898	0.571958
403.328783	0.572423
403.710606	0.583520
404.092367	0.558181
404.474067	0.563532
404.855705	0.561824
405.237282	0.571599
405.618797	0.557333
406.000250	0.553769
406.381642	0.543425
406.762972	0.548774
407.144240	0.547168
407.525447	0.548153
407.906593	0.540245
408.287677	0.535582
408.668700	0.543626
409.049661	0.537394
409.430560	0.532979
409.811399	0.541670
410.192176	0.523305
410.572891	0.530260
410.953545	0.518302
411.334138	0.531393
411.714669	0.524425
412.095139	0.535809
412.475547	0.520791
412.855894	0.522988
413.236180	0.522000
413.616405	0.526547
413.996568	0.518464
414.376670	0.524120
414.756711	0.528845
415.136691	0.525594
415.516609	0.516346
415.896466	0.512264
416.276262	0.509133
416.655997	0.511334
417.035670	0.492342
417.415283	0.484362
417.794834	0.488780
418.174324	0.493978
418.553753	0.503642
418.933121	0.485884
419.312428	0.479812
419.691674	0.485422
420.070859	0.473354
420.449983	0.481596
420.829045	0.470930
421.208047	0.480431
421.586988	0.473548
421.965867	0.472502
422.344686	0.461050
422.723444	0.473729
423.102141	0.490136
423.480777	0.463623
423.859352	0.484229
424.237866	0.460537
424.616319	0.461459
424.994712	0.452717
425.373044	0.463384
425.751314	0.451249
426.129524	0.467186
426.507673	0.451293
426.885762	0.445413
427.263789	0.450061
427.641756	0.460088
428.019662	0.450258
428.397508	0.448966
428.775292	0.453740
429.153016	0.445835
429.530679	0.452428
429.908282	0.445677
430.285824	0.455199
430.663305	0.433804
431.040726	0.454525
431.418086	0.455401
431.795385	0.446377
432.172624	0.445098
432.549802	0.446098
432.926920	0.444993
433.303977	0.444432
433.680974	0.441360
434.057910	0.440049
434.434786	0.439633
434.811601	0.442008
435.188355	0.423866
435.565050	0.433640
435.941683	0.435144
436.318257	0.419798
436.694770	0.420112
437.071222	0.418287
437.447614	0.422516
437.823946	0.428930
438.200218	0.418549
438.576429	0.428056
438.952580	0.421503
439.328670	0.417692
439.704700	0.424481
440.080670	0.426140
440.456580	0.406750
440.832429	0.414283
441.208218	0.426020
441.583947	0.414436
441.959616	0.414721
442.335224	0.419815
442.710773	0.410988
443.086261	0.408383
443.461689	0.422516
443.837057	0.412319
444.212365	0.402016
444.587612	0.409076
444.962800	0.399544
445.337927	0.400659
445.712995	0.426800
446.088002	0.389172
446.462949	0.399435
446.837837	0.404092
447.212664	0.393133
447.587431	0.384535
447.962139	0.355264
448.336786	0.314305
448.711374	0.324689
449.085901	0.368161
449.460369	0.373162
449.834776	0.376618
450.209124	0.355602
450.583412	0.348531
450.957640	0.341341
451.331808	0.352653
451.705917	0.376072
452.079965	0.380309
452.453954	0.368786
452.827883	0.375643
453.201752	0.370969
453.575562	0.382063
453.949311	0.370333
454.323001	0.376301
454.696632	0.372308
455.070202	0.365237
455.443713	0.356897
455.817164	0.351797
456.190556	0.347813
456.563888	0.344410
456.937160	0.342226
457.310373	0.359539
457.683526	0.357996
458.056619	0.363676
458.429653	0.364460
458.802628	0.367520
459.175542	0.361743
459.548398	0.344614
459.921194	0.336885
460.293930	0.336771
460.666607	0.314330
461.039224	0.302793
461.411782	0.298379
461.784280	0.298111
462.156719	0.302125
462.529099	0.306520
462.901419	0.322456
463.273680	0.327390
463.645882	0.326246
464.018024	0.332143
464.390106	0.324838
464.762130	0.309770
465.134094	0.292964
465.505999	0.261922
465.877845	0.232524
466.249631	0.219363
466.621358	0.226959
466.993026	0.240947
467.364634	0.246860
467.736184	0.255741
468.107674	0.264384
468.479105	0.263280
468.850477	0.270367
469.221790	0.276973
469.593043	0.287380
469.964238	0.292095
470.335373	0.290994
470.706449	0.289465
471.077467	0.290084
471.448425	0.252191
471.819324	0.228012
472.190164	0.227314
472.560945	0.256387
472.931667	0.278512
473.302330	0.282347
473.672934	0.294471
474.043479	0.282671
474.413965	0.284536
474.784393	0.288089
475.154761	0.282910
475.525070	0.280087
475.895321	0.285923
476.265513	0.279799
476.635645	0.275344
477.005719	0.275255
477.375734	0.271996
477.745691	0.265201
478.115588	0.261355
478.485427	0.255309
478.855207	0.241914
479.224928	0.224632
479.594591	0.212991
479.964194	0.216113
480.333739	0.217138
480.703226	0.218610
481.072653	0.217212
481.442022	0.212926
481.811333	0.209339
482.180584	0.212767
482.549777	0.218135
482.918912	0.221689
483.287988	0.221273
483.657005	0.220751
484.025964	0.227284
484.394864	0.224779
484.763706	0.225284
485.132489	0.230113
485.501213	0.231102
485.869879	0.229167
486.238487	0.232899
486.607036	0.230230
486.975527	0.234966
487.343959	0.231097
487.712333	0.230111
488.080648	0.231192
488.448905	0.230789
488.817104	0.231704
489.185244	0.226493
489.553326	0.223593
489.921350	0.213363
490.289315	0.195845
490.657222	0.190966
491.025070	0.192098
491.392861	0.193872
491.760593	0.199773
492.128267	0.205298
492.495883	0.210803
492.863440	0.217044
493.230939	0.223440
493.598380	0.224697
493.965763	0.227011
494.333088	0.229404
494.700354	0.230808
495.067563	0.229865
495.434713	0.233268
495.801805	0.230768
496.168839	0.232328
496.535815	0.233795
496.902733	0.233486
497.269593	0.235161
497.636395	0.232988
498.003139	0.233215
498.369825	0.236424
498.736453	0.232799
499.103023	0.234149
499.469535	0.233586
499.835989	0.233886
500.202385	0.234759
500.568723	0.238420
500.935003	0.233373
501.301226	0.237491
501.667390	0.232020
502.033497	0.229955
502.399546	0.233031
502.765537	0.234993
503.131470	0.233195
503.497345	0.229417
503.863163	0.238116
504.228923	0.231159
504.594625	0.229993
504.960269	0.235229
505.325856	0.230656
505.691385	0.234803
506.056856	0.231662
506.422270	0.230743
506.787625	0.233427
507.152924	0.230936
507.518164	0.231072
507.883347	0.233003
508.248472	0.234822
508.613540	0.229817
508.978550	0.232183
509.343503	0.232641
509.708398	0.230571
510.073236	0.228165
510.438016	0.228046
510.802738	0.228770
511.167403	0.227798
511.532010	0.229948
511.896561	0.225278
512.261053	0.224166
512.625488	0.226146
512.989866	0.226529
513.354186	0.226682
513.718449	0.228861
514.082655	0.225206
514.446803	0.227320
514.810894	0.225045
515.174927	0.227747
515.538904	0.226987
515.902822	0.223974
516.266684	0.226313
516.630488	0.227438
516.994235	0.226279
517.357925	0.225055
517.721558	0.223344
518.085133	0.222726
518.448651	0.222991
518.812112	0.224814
519.175516	0.224635
519.538863	0.222561
519.902152	0.224040
520.265385	0.220805
520.628560	0.222636
520.991678	0.223109
521.354739	0.221703
521.717743	0.222871
522.080690	0.223786
522.443580	0.220883
522.806413	0.222049
523.169189	0.220814
523.531908	0.220114
523.894569	0.223509
524.257174	0.223460
524.619722	0.221268
524.982213	0.222241
525.344647	0.221186
525.707025	0.222346
526.069345	0.220373
526.431608	0.222112
526.793815	0.219815
527.155964	0.223946
527.518057	0.223017
527.880093	0.223959
528.242072	0.222344
528.603995	0.224658
528.965860	0.226169
529.327669	0.225061
529.689421	0.225888
530.051117	0.226808
530.412755	0.224349
530.774337	0.226945
531.135862	0.227086
531.497331	0.226338
531.858743	0.229311
532.220098	0.226241
532.581396	0.228479
532.942638	0.229212
533.303824	0.230034
533.664953	0.230082
534.026025	0.231676
534.387040	0.229403
534.747999	0.229375
535.108902	0.228218
535.469748	0.233410
535.830537	0.231098
536.191270	0.231516
536.551947	0.231092
536.912567	0.231166
537.273131	0.233119
537.633638	0.232941
537.994089	0.233433
538.354483	0.234460
538.714821	0.231488
539.075103	0.231303
539.435328	0.231970
539.795497	0.235587
540.155609	0.232203
540.515665	0.230421
540.875665	0.236195
541.235609	0.234713
541.595496	0.234395
541.955328	0.231266
542.315102	0.233840
542.674821	0.235062
543.034483	0.234733
543.394090	0.234714
543.753640	0.236395
544.113134	0.231623
544.472571	0.234854
544.831953	0.231587
545.191278	0.235545
545.550548	0.235370
545.909761	0.231960
546.268918	0.233015
546.628019	0.230864
546.987064	0.233989
547.346053	0.235662
547.704986	0.233648
548.063863	0.233743
548.422684	0.233873
548.781449	0.235999
549.140158	0.233606
549.498811	0.236548
549.857408	0.239480
550.215949	0.234589
550.574434	0.237292
550.932864	0.235336
551.291237	0.234099
551.649555	0.235224
552.007817	0.234919
552.366022	0.235674
552.724173	0.235958
553.082267	0.236375
553.440305	0.233296
553.798288	0.237671
554.156215	0.234408
554.514086	0.234701
554.871902	0.238023
555.229661	0.237477
555.587365	0.237757
555.945014	0.240346
556.302606	0.237249
556.660143	0.239846
557.017625	0.236314
557.375050	0.238547
557.732421	0.235576
558.089735	0.237630
558.446994	0.237729
558.804197	0.236906
559.161345	0.236794
559.518437	0.240430
559.875474	0.237769
560.232455	0.237267
560.589381	0.238621
560.946251	0.238673
561.303065	0.236280
561.659825	0.237876
562.016528	0.239139
562.373177	0.242047
562.729770	0.239178
563.086307	0.241612
563.442789	0.239028
563.799216	0.242045
564.155587	0.240673
564.511904	0.241816
564.868164	0.241903
565.224370	0.241896
565.580520	0.243601
565.936615	0.243535
566.292654	0.246429
566.648638	0.243552
567.004567	0.244496
567.360441	0.245041
567.716260	0.246916
568.072023	0.244570
568.427732	0.245654
568.783385	0.248032
569.138982	0.245777
569.494525	0.245969
569.850013	0.248821
570.205445	0.246942
570.560823	0.249413
570.916145	0.251718
571.271412	0.250071
571.626625	0.251317
571.981782	0.251570
572.336884	0.252846
572.691931	0.252167
573.046923	0.253677
573.401860	0.254591
573.756743	0.256422
574.111570	0.255347
574.466342	0.255978
574.821059	0.254973
575.175722	0.257942
575.530330	0.257634
575.884882	0.257760
576.239380	0.259689
576.593823	0.260201
576.948211	0.259836
577.302544	0.263278
577.656823	0.262810
578.011047	0.263063
578.365216	0.263574
578.719330	0.265548
579.073389	0.265539
579.427394	0.266770
579.781344	0.267476
580.135239	0.268786
580.489080	0.268625
580.842866	0.271537
581.196597	0.271152
581.550273	0.269792
581.903895	0.270997
582.257463	0.269101
582.610975	0.272586
582.964434	0.271944
583.317837	0.274434
583.671186	0.274586
584.024481	0.274852
584.377721	0.277255
584.730906	0.277897
585.084037	0.277328
585.437113	0.279100
585.790135	0.278310
586.143103	0.281448
586.496016	0.282687
586.848874	0.280021
587.201679	0.280586
587.554428	0.284091
587.907124	0.282550
588.259765	0.283542
588.612352	0.283895
588.964884	0.287503
589.317362	0.287419
589.669786	0.287270
590.022155	0.286109
590.374470	0.284988
590.726731	0.287175
591.078937	0.291665
591.431090	0.288165
591.783188	0.292523
592.135232	0.292723
592.487222	0.293282
592.839157	0.290811
593.191038	0.293413
593.542866	0.295171
593.894639	0.298673
594.246358	0.296557
594.598022	0.296177
594.949633	0.299728
595.301190	0.300883
595.652692	0.299572
596.004141	0.296196
596.355535	0.303847
596.706876	0.304427
597.058162	0.306882
597.409395	0.304467
597.760573	0.301970
598.111698	0.305055
598.462768	0.305591
598.813785	0.307187
599.164748	0.308181
599.515657	0.308277
599.866511	0.312005
600.217312	0.307195
600.568060	0.312395
600.918753	0.308656
601.269392	0.309929
601.619978	0.312936
601.970510	0.310635
602.320988	0.310552
602.671412	0.308488
603.021783	0.310889
603.372100	0.311956
603.722363	0.312102
604.072572	0.313165
604.422728	0.312563
604.772830	0.314854
605.122878	0.314750
605.472872	0.315017
605.822813	0.313271
606.172701	0.315902
606.522534	0.313455
606.872314	0.313347
607.222041	0.314194
607.571714	0.312602
607.921333	0.313634
608.270899	0.313613
608.620411	0.310333
608.969870	0.313958
609.319276	0.314163
609.668627	0.314104
610.017926	0.312440
610.367171	0.311358
610.716362	0.311756
611.065500	0.312494
611.414585	0.310897
611.763616	0.311131
612.112594	0.312093
612.461518	0.311517
612.810389	0.309100
613.159207	0.311635
613.507971	0.313221
613.856682	0.309100
614.205340	0.310385
614.553945	0.307796
614.902496	0.311230
615.250994	0.309258
615.599439	0.310002
615.947830	0.309624
616.296169	0.310118
616.644454	0.309702
616.992686	0.310171
617.340864	0.307495
617.688990	0.311216
618.037063	0.308085
618.385082	0.310030
618.733048	0.306750
619.080961	0.309127
619.428821	0.308271
619.776628	0.307913
620.124382	0.310172
620.472083	0.310445
620.819731	0.309347
621.167326	0.313653
621.514868	0.313426
621.862357	0.318063
622.209793	0.317056
622.557176	0.319158
622.904506	0.320734
623.251783	0.323019
623.599007	0.325037
623.946179	0.324536
624.293297	0.326914
624.640363	0.329898
624.987376	0.331344
625.334336	0.333444
625.681243	0.335588
626.028097	0.336389
626.374899	0.337700
626.721647	0.337777
627.068343	0.340912
627.414987	0.342204
627.761577	0.344190
628.108115	0.342571
628.454600	0.347471
628.801032	0.345150
629.147412	0.346925
629.493739	0.347607
629.840014	0.350596
630.186236	0.348047
630.532405	0.353358
630.878521	0.351286
631.224585	0.353067
631.570597	0.356943
631.916556	0.355361
632.262462	0.355454
632.608316	0.357667
632.954117	0.358498
633.299866	0.359235
633.645562	0.359782
633.991206	0.363735
634.336797	0.367063
634.682336	0.369317
635.027823	0.370683
635.373257	0.371040
635.718639	0.375280
636.063968	0.374400
636.409245	0.380290
636.754470	0.380283
637.099642	0.382570
637.444762	0.385869
637.789829	0.385476
638.134845	0.388794
638.479808	0.389623
638.824719	0.389641
639.169577	0.393380
639.514383	0.392091
639.859137	0.396958
640.203839	0.396375
640.548489	0.396615
640.893086	0.398257
641.237632	0.399921
641.582125	0.398182
641.926566	0.399870
642.270955	0.400033
642.615292	0.400973
642.959576	0.399717
643.303809	0.399554
643.647990	0.399529
643.992118	0.400700
644.336195	0.404065
644.680219	0.402202
645.024192	0.402916
645.368112	0.396536
645.711981	0.395158
646.055797	0.390754
646.399562	0.392778
646.743274	0.385340
647.086935	0.382689
647.430544	0.382816
647.774101	0.381734
648.117606	0.380925
648.461059	0.381765
648.804460	0.383740
649.147810	0.389338
649.491108	0.391191
649.834354	0.392577
650.177548	0.398483
650.520690	0.403862
650.863781	0.404494
651.206820	0.404190
651.549807	0.408155
651.892742	0.412505
652.235626	0.412095
652.578458	0.412994
652.921238	0.418735
653.263967	0.417108
653.606644	0.420626
653.949269	0.420934
654.291843	0.424554
654.634365	0.421144
654.976836	0.424371
655.319255	0.424718
655.661622	0.425973
656.003938	0.426197
656.346203	0.429360
656.688416	0.426892
657.030577	0.430782
657.372687	0.432352
657.714746	0.433271
658.056753	0.430127
658.398708	0.433958
658.740612	0.435279
659.082465	0.431442
659.424266	0.431814
659.766016	0.431229
660.107715	0.434325
660.449362	0.433199
660.790958	0.433552
661.132503	0.433898
661.473996	0.431592
661.815438	0.432769
662.156829	0.432701
662.498168	0.433607
662.839456	0.434694
663.180693	0.433198
663.521879	0.432896
663.863013	0.433484
664.204097	0.432112
664.545129	0.428627
664.886110	0.429459
665.227040	0.426749
665.567918	0.428773
665.908746	0.426874
666.249522	0.427110
666.590248	0.427630
666.930922	0.426008
667.271545	0.425106
667.612118	0.425207
667.952639	0.426999
668.293109	0.425330
668.633528	0.428162
668.973896	0.428364
669.314213	0.428337
669.654480	0.430200
669.994695	0.430589
670.334859	0.431472
670.674973	0.431333
671.015035	0.431788
671.355047	0.431727
671.695008	0.433079
672.034918	0.434386
672.374777	0.433983
672.714585	0.435373
673.054342	0.435327
673.394049	0.435069
673.733705	0.432795
674.073310	0.433691
674.412864	0.437061
674.752368	0.437645
675.091820	0.437896
675.431223	0.441568
675.770574	0.442058
676.109875	0.445073
676.449125	0.444944
676.788324	0.447307
677.127473	0.453477
677.466571	0.452560
677.805619	0.453905
678.144616	0.455345
678.483562	0.456660
678.822458	0.459128
679.161303	0.460344
679.500098	0.460673
679.838842	0.462552
680.177535	0.461825
680.516179	0.460526
680.854771	0.459301
681.193314	0.453433
681.531805	0.444591
681.870247	0.433074
682.208638	0.424965
682.546978	0.424137
682.885268	0.425573
683.223508	0.432517
683.561697	0.435891
683.899836	0.438712
684.237925	0.442254
684.575963	0.444740
684.913951	0.447460
685.251889	0.443647
685.589776	0.445771
685.927614	0.447641
686.265401	0.442309
686.603137	0.443355
686.940824	0.437692
687.278460	0.435671
687.616046	0.435157
687.953582	0.429843
688.291068	0.431512
688.628504	0.427295
688.965889	0.429243
689.303224	0.433516
689.640510	0.437099
689.977745	0.443280
690.314930	0.450966
690.652065	0.455649
690.989150	0.462918
691.326185	0.469814
691.663170	0.474414
692.000105	0.480674
692.336990	0.489000
692.673825	0.490393
693.010610	0.497956
693.347345	0.502797
693.684030	0.504814
694.020665	0.509909
694.357251	0.518510
694.693786	0.518419
695.030272	0.522771
695.366707	0.525965
695.703093	0.529269
696.039429	0.527033
696.375716	0.528622
696.711952	0.530937
697.048139	0.532741
697.384276	0.535692
697.720363	0.533420
698.056400	0.532475
698.392388	0.537596
698.728326	0.541606
699.064214	0.543754
699.400053	0.544707
699.735842	0.547831
700.071581	0.551451
700.407270	0.554090
700.742910	0.556832
701.078501	0.563256
701.414042	0.563690
701.749533	0.566782
702.084974	0.575293
702.420366	0.568021
702.755709	0.575630
703.091002	0.583532
703.426246	0.576765
703.761440	0.582449
704.096584	0.587313
704.431679	0.584203
704.766725	0.586491
705.101721	0.587982
705.436668	0.584430
705.771565	0.591135
706.106413	0.587752
706.441212	0.584007
706.775961	0.582120
707.110661	0.584804
707.445311	0.580596
707.779913	0.577925
708.114465	0.576236
708.448967	0.573398
708.783421	0.565366
709.117825	0.559907
709.452180	0.559903
709.786485	0.554238
710.120742	0.543783
710.454949	0.545810
710.789107	0.538165
711.123216	0.529101
711.457275	0.530907
711.791286	0.520762
712.125247	0.519821
712.459159	0.530662
712.793023	0.523428
713.126837	0.528126
713.460602	0.527963
713.794318	0.537503
714.127985	0.536212
714.461602	0.546135
714.795171	0.549470
715.128691	0.557611
715.462162	0.564904
715.795584	0.570742
716.128957	0.574195
716.462281	0.580503
716.795556	0.583512
717.128782	0.588583
717.461960	0.598464
717.795088	0.596900
718.128167	0.603235
718.461198	0.611051
718.794180	0.612384
719.127113	0.615442
719.459997	0.618756
719.792833	0.624857
720.125619	0.626684
720.458357	0.632036
720.791046	0.632107
721.123686	0.634986
721.456278	0.642230
721.788821	0.639901
722.121315	0.643971
722.453761	0.648096
722.786158	0.646231
723.118506	0.642099
723.450805	0.649756
723.783056	0.646111
724.115259	0.643037
724.447412	0.642417
724.779518	0.644400
725.111574	0.643191
725.443582	0.638373
725.775542	0.640615
726.107453	0.631795
726.439315	0.632582
726.771129	0.630727
727.102895	0.624047
727.434612	0.617733
727.766281	0.615429
728.097901	0.615032
728.429473	0.613352
728.760996	0.613676
729.092471	0.612283
729.423897	0.616912
729.755276	0.615615
730.086606	0.616127
730.417887	0.609920
730.749120	0.600928
731.080305	0.591348
731.411442	0.587246
731.742530	0.592405
732.073570	0.591776
732.404562	0.584628
732.735506	0.585795
733.066401	0.590160
733.397249	0.599594
733.728048	0.610679
734.058798	0.623491
734.389501	0.633484
734.720156	0.643089
735.050762	0.652041
735.381320	0.652328
735.711831	0.662346
736.042293	0.667439
736.372707	0.663619
736.703073	0.667344
737.033391	0.669920
737.363661	0.666915
737.693883	0.661704
738.024056	0.661024
738.354182	0.660364
738.684260	0.650058
739.014290	0.645737
739.344272	0.647823
739.674207	0.641174
740.004093	0.640921
740.333931	0.640843
740.663722	0.640010
740.993464	0.641264
741.323159	0.645333
741.652806	0.649783
741.982405	0.654338
742.311956	0.659083
742.641460	0.661673
742.970915	0.665216
743.300323	0.672551
743.629683	0.678921
743.958996	0.681006
744.288260	0.685526
744.617477	0.691751
744.946647	0.692868
745.275768	0.698748
745.604842	0.699256
745.933869	0.708385
746.262847	0.709290
746.591778	0.702392
746.920662	0.709722
747.249498	0.714933
747.578286	0.706036
747.907027	0.702626
748.235720	0.702531
748.564365	0.698214
748.892963	0.697784
749.221514	0.700599
749.550017	0.705316
749.878473	0.705372
750.206881	0.712013
750.535242	0.713607
750.863555	0.713067
751.191821	0.714367
751.520039	0.717107
751.848210	0.721942
752.176334	0.714787
752.504411	0.714297
752.832440	0.721534
753.160421	0.725520
753.488356	0.724677
753.816243	0.722307
754.144082	0.730083
754.471875	0.733623
754.799620	0.729147
755.127318	0.730169
755.454969	0.730229
755.782572	0.730044
756.110129	0.734764
756.437638	0.736699
756.765100	0.732937
757.092515	0.731567
757.419882	0.729816
757.747203	0.736452
758.074477	0.735558
758.401703	0.732329
758.728882	0.728189
759.056014	0.726544
759.383099	0.725816
759.710138	0.726767
760.037129	0.723768
760.364073	0.717379
760.690970	0.719723
761.017820	0.724607
761.344623	0.720708
761.671379	0.710884
761.998088	0.699551
762.324751	0.676498
762.651366	0.634619
762.977935	0.566498
763.304456	0.515181
763.630931	0.505373
763.957359	0.544568
764.283740	0.589182
764.610074	0.617178
764.936362	0.647899
765.262602	0.675175
765.588796	0.696399
765.914943	0.714605
766.241044	0.732476
766.567097	0.739296
766.893104	0.748805
767.219064	0.756108
767.544978	0.761625
767.870845	0.775590
768.196665	0.778345
768.522438	0.777669
768.848165	0.779452
769.173846	0.787787
769.499479	0.791168
769.825066	0.794805
770.150607	0.801318
770.476101	0.795972
770.801548	0.797518
771.126949	0.808873
771.452303	0.811499
771.777611	0.812527
772.102872	0.811011
772.428087	0.817079
772.753256	0.819544
773.078378	0.820742
773.403453	0.830963
773.728482	0.835525
774.053465	0.828966
774.378401	0.831189
774.703291	0.840324
775.028135	0.840017
775.352932	0.841548
775.677683	0.844507
776.002388	0.845547
776.327046	0.845118
776.651658	0.847326
776.976224	0.850458
777.300743	0.852206
777.625216	0.852969
777.949643	0.854786
778.274024	0.854776
778.598359	0.857004
778.922647	0.856146
779.246889	0.855335
779.571086	0.859925
779.895236	0.862231
780.219339	0.860203
780.543397	0.857269
780.867409	0.854939
781.191374	0.856890
781.515294	0.857708
781.839167	0.857211
782.162995	0.860918
782.486776	0.858493
782.810511	0.859084
783.134201	0.861314
783.457844	0.860611
783.781441	0.862754
784.104993	0.868244
784.428498	0.868624
784.751958	0.864229
785.075372	0.867542
785.398739	0.870767
785.722061	0.866748
786.045337	0.862667
786.368568	0.867695
786.691752	0.868909
787.014891	0.856212
787.337983	0.847357
787.661030	0.838637
787.984031	0.822480
788.306987	0.808772
788.629897	0.810882
788.952760	0.814907
789.275579	0.820069
789.598351	0.834223
789.921078	0.847225
790.243759	0.849883
790.566395	0.855531
790.888984	0.861264
791.211529	0.867134
791.534027	0.870270
791.856480	0.872064
792.178888	0.877264
792.501249	0.879493
792.823566	0.880371
793.145836	0.881896
793.468062	0.882690
793.790241	0.883357
794.112375	0.881483
794.434464	0.877954
794.756507	0.875699
795.078505	0.875159
795.400457	0.870250
795.722364	0.858247
796.044226	0.850882
796.366042	0.849617
796.687812	0.853710
797.009538	0.848725
797.331218	0.852272
797.652852	0.857763
797.974442	0.862300
798.295986	0.861844
798.617484	0.865941
798.938938	0.870271
799.260346	0.874157
799.581709	0.875545
799.903026	0.877918
800.224299	0.878629
800.545526	0.883008
800.866708	0.886929
801.187845	0.890624
801.508936	0.889611
801.829983	0.888734
802.150984	0.891629
802.471940	0.896692
802.792851	0.895047
803.113717	0.896769
803.434538	0.894635
803.755314	0.896451
804.076045	0.899147
804.396731	0.898118
804.717372	0.898711
805.037967	0.900107
805.358518	0.896819
805.679024	0.894862
805.999485	0.895509
806.319901	0.894980
806.640272	0.896787
806.960598	0.895571
807.280879	0.891633
807.601115	0.890390
807.921306	0.895126
808.241453	0.894938
808.561554	0.891920
808.881611	0.893399
809.201623	0.894015
809.521590	0.894620
809.841513	0.896087
810.161390	0.894629
810.481223	0.896732
810.801011	0.900268
811.120755	0.901725
811.440453	0.900369
811.760107	0.898519
812.079716	0.898543
812.399281	0.903216
812.718801	0.905588
813.038276	0.905451
813.357707	0.905473
813.677093	0.902724
813.996434	0.905231
814.315731	0.907128
814.634983	0.908475
814.954191	0.906301
815.273354	0.903458
815.592473	0.900177
815.911547	0.899928
816.230577	0.896403
816.549562	0.893842
816.868502	0.895776
817.187399	0.891101
817.506250	0.886224
817.825058	0.889484
818.143821	0.883738
818.462539	0.879395
818.781213	0.871687
819.099843	0.859714
819.418429	0.844297
819.736970	0.826312
820.055466	0.806748
820.373919	0.780215
820.692327	0.747450
821.010691	0.711589
821.329011	0.634070
821.647286	0.516581
821.965517	0.401677
822.283704	0.358381
822.601847	0.359260
822.919945	0.394957
823.237999	0.429747
823.556010	0.476677
823.873976	0.533592
824.191897	0.584455
824.509775	0.628122
824.827609	0.673809
825.145398	0.696491
825.463144	0.699261
825.780845	0.682675
826.098502	0.663775
826.416116	0.617814
826.733685	0.572051
827.051210	0.564260
827.368692	0.578505
827.686129	0.617209
828.003522	0.670565
828.320872	0.717979
828.638177	0.763107
828.955439	0.795275
829.272656	0.818152
829.589830	0.835894
829.906960	0.851394
830.224046	0.864227
830.541088	0.875462
830.858086	0.879649
831.175041	0.885103
831.491952	0.885114
831.808819	0.881880
832.125642	0.874961
832.442421	0.859479
832.759157	0.836675
833.075849	0.790403
833.392497	0.726085
833.709101	0.685693
834.025662	0.694216
834.342179	0.726369
834.658653	0.765609
834.975083	0.802893
835.291469	0.829147
835.607811	0.852352
835.924110	0.868363
836.240366	0.886072
836.556578	0.899271
836.872746	0.907090
837.188871	0.912935
837.504952	0.918195
837.820990	0.921873
838.136984	0.925488
838.452935	0.928969
838.768842	0.930257
839.084706	0.923754
839.400526	0.898059
839.716303	0.856675
840.032037	0.833794
840.347727	0.837894
840.663373	0.854930
840.978977	0.877918
841.294537	0.900407
841.610054	0.916332
841.925527	0.925177
842.240957	0.931579
842.556344	0.938577
842.871687	0.945058
843.186987	0.949493
843.502244	0.949123
843.817458	0.951761
844.132629	0.954496
844.447756	0.958425
844.762840	0.959997
845.077881	0.959640
845.392879	0.958689
845.707833	0.961672
846.022745	0.964315
846.337613	0.964050
846.652438	0.965408
846.967221	0.963099
847.281960	0.963923
847.596656	0.967106
847.911309	0.965143
848.225919	0.967755
848.540485	0.967175
848.855009	0.967885
849.169490	0.967301
849.483928	0.968420
849.798323	0.968157
850.112675	0.968888
850.426984	0.969544
850.741251	0.969653
851.055474	0.970186
851.369654	0.966927
851.683792	0.969037
851.997887	0.969649
852.311938	0.969856
852.625947	0.969542
852.939914	0.967050
853.253837	0.968638
853.567718	0.970474
853.881555	0.970181
854.195350	0.967614
854.509103	0.968529
854.822812	0.969962
855.136479	0.970056
855.450103	0.968106
855.763685	0.968512
856.077224	0.968899
856.390720	0.969741
856.704173	0.969565
857.017584	0.967188
857.330953	0.966345
857.644278	0.967555
857.957561	0.966996
858.270802	0.967050
858.584000	0.967977
858.897155	0.966048
859.210268	0.966155
859.523339	0.967634
859.836367	0.969625
860.149352	0.970410
860.462295	0.967744
860.775195	0.969599
861.088054	0.967756
861.400869	0.969357
861.713642	0.969863
862.026373	0.969312
862.339062	0.969972
862.651708	0.967495
862.964312	0.967203
863.276873	0.969013
863.589392	0.967423
863.901869	0.965522
864.214303	0.964483
864.526696	0.963102
864.839045	0.962367
865.151353	0.961424
865.463619	0.961292
865.775842	0.961061
866.088023	0.961312
866.400162	0.961053
866.712258	0.961718
867.024313	0.962079
867.336325	0.962704
867.648296	0.961627
867.960224	0.962396
868.272110	0.961223
868.583954	0.963080
868.895755	0.962828
869.207515	0.960165
869.519233	0.958652
869.830909	0.960452
870.142542	0.962370
870.454134	0.960353
870.765684	0.959358
871.077191	0.957626
871.388657	0.957328
871.700081	0.956781
872.011463	0.957746
872.322803	0.957611
872.634101	0.956477
872.945357	0.953057
873.256571	0.952937
873.567744	0.951056
873.878874	0.952758
874.189963	0.950284
874.501010	0.949836
874.812015	0.948172
875.122979	0.950552
875.433900	0.951548
875.744780	0.952621
876.055618	0.950562
876.366415	0.949301
876.677169	0.949855
876.987882	0.949192
877.298554	0.949211
877.609183	0.945668
877.919771	0.943629
878.230317	0.941417
878.540822	0.939462
878.851285	0.933429
879.161707	0.924754
879.472087	0.912276
879.782425	0.895976
880.092722	0.860523
880.402977	0.807984
880.713191	0.745557
881.023363	0.684331
881.333494	0.648967
881.643583	0.621732
881.953631	0.621603
882.263637	0.649717
882.573602	0.689441
882.883526	0.716549
883.193408	0.740682
883.503248	0.764156
883.813048	0.792121
884.122806	0.822350
884.432522	0.846174
884.742197	0.866092
885.051831	0.878381
885.361424	0.888297
885.670975	0.900916
885.980485	0.910762
886.289954	0.916211
886.599382	0.922375
886.908768	0.925993
887.218113	0.931609
887.527417	0.937156
887.836680	0.939581
888.145901	0.942488
888.455082	0.945063
888.764221	0.950265
889.073319	0.950341
889.382376	0.950952
889.691392	0.952443
890.000366	0.951549
890.309300	0.952761
890.618193	0.952124
890.927044	0.949665
891.235855	0.950089
891.544625	0.949728
891.853353	0.950890
892.162041	0.947236
892.470687	0.941058
892.779293	0.935219
893.087858	0.932101
893.396381	0.923763
893.704864	0.911075
894.013306	0.886839
894.321707	0.858964
894.630068	0.842685
894.938387	0.839059
895.246665	0.840173
895.554903	0.852910
895.863100	0.866864
896.171256	0.884749
896.479371	0.902481
896.787446	0.916166
897.095480	0.922209
897.403473	0.925892
897.711425	0.928697
898.019336	0.938428
898.327207	0.941193
898.635038	0.943294
898.942827	0.943569
899.250576	0.945559
899.558284	0.950108
899.865952	0.952269
900.173579	0.954674
900.481165	0.953831
900.788711	0.958628
901.096216	0.960182
901.403681	0.959792
901.711105	0.960898
902.018489	0.962286
902.325832	0.961958
902.633135	0.960866
902.940397	0.953481
903.247619	0.941412
903.554800	0.915587
903.861941	0.874969
904.169041	0.837332
904.476101	0.819492
904.783121	0.820320
905.090100	0.836796
905.397039	0.859587
905.703938	0.881817
906.010796	0.902300
906.317614	0.920201
906.624391	0.931613
906.931129	0.941837
907.237826	0.950363
907.544483	0.957880
907.851099	0.961072
908.157675	0.966466
908.464211	0.969438
908.770707	0.970602
909.077163	0.973239
909.383578	0.973643
909.689954	0.974187
909.996289	0.974879
910.302584	0.977296
910.608839	0.977743
910.915054	0.978171
911.221229	0.975771
911.527363	0.976541
911.833458	0.976078
912.139513	0.975108
912.445527	0.974295
912.751502	0.971859
913.057436	0.971737
913.363331	0.969485
913.669186	0.964422
913.975000	0.960260
914.280775	0.953328
914.586510	0.946825
914.892205	0.932429
915.197859	0.910299
915.503475	0.883029
915.809050	0.861571
916.114585	0.855714
916.420081	0.852059
916.725536	0.848488
917.030952	0.858375
917.336328	0.871718
917.641665	0.887555
917.946961	0.902624
918.252218	0.914780
918.557435	0.924476
918.862612	0.933090
919.167750	0.939038
919.472848	0.943804
919.777906	0.950296
920.082925	0.956248
920.387904	0.959953
920.692843	0.961320
920.997743	0.962452
921.302603	0.965516
921.607423	0.967370
921.912204	0.971052
922.216946	0.970254
922.521647	0.972067
922.826310	0.973651
923.130932	0.975847
923.435516	0.977542
923.740059	0.978525
924.044564	0.978150
924.349028	0.979297
924.653454	0.982258
924.957840	0.984242
925.262186	0.983629
925.566493	0.983628
925.870761	0.984799
926.174989	0.986390
926.479178	0.986922
926.783328	0.988257
927.087438	0.987509
927.391509	0.986831
927.695541	0.989028
927.999533	0.989339
928.303486	0.989301
928.607400	0.990472
928.911275	0.989014
929.215110	0.989894
929.518906	0.990033
929.822663	0.989435
930.126381	0.990829
930.430060	0.988741
930.733699	0.990344
931.037299	0.989761
931.340861	0.990096
931.644383	0.988657
931.947866	0.988672
932.251309	0.990950
932.554714	0.989743
932.858080	0.989708
933.161407	0.989379
933.464694	0.990197
933.767943	0.988906
934.071153	0.989835
934.374323	0.991980
934.677455	0.989574
934.980548	0.992414
935.283602	0.990916
935.586617	0.991191
935.889593	0.990866
936.192530	0.990497
936.495428	0.990173
936.798287	0.989149
937.101108	0.989401
937.403890	0.987952
937.706632	0.988778
938.009336	0.986707
938.312002	0.985655
938.614628	0.984090
938.917216	0.983309
939.219765	0.981751
939.522275	0.981897
939.824747	0.982997
940.127179	0.982397
940.429573	0.985033
940.731929	0.982628
941.034246	0.984142
941.336524	0.984007
941.638763	0.985131
941.940964	0.985601
942.243126	0.986640
942.545250	0.986302
942.847335	0.986615
943.149381	0.986768
943.451389	0.986818
943.753359	0.987921
944.055290	0.990037
944.357182	0.989479
944.659036	0.989689
944.960851	0.988719
945.262628	0.989595
945.564367	0.990558
945.866067	0.988723
946.167729	0.990441
946.469352	0.990375
946.770937	0.988953
947.072484	0.989832
947.373992	0.989156
947.675462	0.989001
947.976893	0.989384
948.278286	0.990197
948.579641	0.989765
948.880958	0.990845
949.182236	0.990797
949.483476	0.990437
949.784678	0.989516
950.085841	0.990233
950.386967	0.990755
950.688054	0.989877
950.989103	0.990959
951.290114	0.988847
951.591087	0.990456
951.892021	0.989089
952.192917	0.987516
952.493776	0.987434
952.794596	0.987938
953.095378	0.987088
953.396122	0.988488
953.696828	0.987157
953.997496	0.989285
954.298126	0.990580
954.598718	0.990896
954.899272	0.992081
955.199788	0.989808
955.500266	0.991776
955.800706	0.991846
956.101108	0.992709
956.401472	0.993358
956.701798	0.993225
957.002087	0.992785
957.302337	0.993819
957.602550	0.994918
957.902724	0.994839
958.202861	0.995706
958.502960	0.996291
958.803022	0.993868
959.103045	0.996627
959.403031	0.996345
959.702979	0.994608
960.002889	0.996829
960.302762	0.994465
960.602596	0.995955
960.902393	0.994855
961.202153	0.996770
961.501875	0.995923
961.801559	0.995361
962.101205	0.995659
962.400814	0.996039
962.700385	0.995724
962.999918	0.995905
963.299414	0.996217
963.598873	0.995856
963.898293	0.995610
964.197677	0.996422
964.497022	0.996290
964.796331	0.996779
965.095601	0.996830
965.394835	0.997052
965.694030	0.997025
965.993189	0.996974
966.292309	0.996801
966.591393	0.997395
966.890439	0.997035
967.189447	0.996579
967.488419	0.996158
967.787353	0.996046
968.086249	0.997458
968.385108	0.997274
968.683930	0.997008
968.982714	0.996803
969.281462	0.998322
969.580172	0.995601
969.878844	0.997278
970.177480	0.996065
970.476078	0.997631
970.774639	0.997236
971.073162	0.997231
971.371649	0.996711
971.670098	0.995824
971.968510	0.997405
972.266885	0.995985
972.565223	0.996937
972.863524	0.996478
973.161788	0.997234
973.460014	0.996881
973.758204	0.995126
974.056356	0.996553
974.354471	0.994917
974.652550	0.996277
974.950591	0.995175
975.248595	0.997437
975.546563	0.996046
975.844493	0.998225
976.142386	0.997597
976.440243	0.997589
976.738062	0.997291
977.035845	0.997269
977.333590	0.997282
977.631299	0.997504
977.928971	0.995601
978.226606	0.997105
978.524204	0.995680
978.821765	0.997916
979.119290	0.996816
979.416777	0.996775
979.714228	0.996495
980.011642	0.995029
980.309020	0.998381
980.606360	0.996054
980.903664	0.998449
981.200931	0.996939
981.498162	0.995118
981.795356	0.994614
982.092513	0.992739
982.389633	0.993181
982.686717	0.991293
982.983764	0.991995
983.280775	0.990497
983.577749	0.990508
983.874686	0.991054
984.171587	0.991627
984.468451	0.993860
984.765279	0.994319
985.062070	0.995289
985.358824	0.995552
985.655543	0.996002
985.952224	0.995809
986.248869	0.997069
986.545478	0.995720
986.842050	0.999075
987.138586	0.995746
987.435086	0.997666
987.731549	0.998793
988.027975	0.998384
988.324366	0.997744
988.620719	0.997282
988.917037	0.995377
989.213318	0.997895
989.509563	0.998507
989.805772	0.998474
990.101944	0.998584
990.398080	0.997379
990.694180	0.998482
990.990244	0.996414
991.286271	0.998105
991.582262	0.998517
991.878217	0.998332
992.174136	0.997502
992.470019	0.998150
992.765865	0.997743
993.061676	0.998545
993.357450	0.997985
993.653188	0.997061
993.948890	0.998662
994.244556	0.997984
994.540186	0.996903
994.835780	0.997225
995.131337	0.997143
995.426859	0.995984
995.722345	0.997268
996.017795	0.995207
996.313208	0.995300
996.608586	0.994982
996.903928	0.996839
997.199234	0.995954
997.494504	0.996718
997.789738	0.995725
998.084936	0.995907
998.380099	0.997076
998.675225	0.997287
998.970316	0.998277
999.265371	0.997779
999.560390	0.998070
999.855373	0.999081
1000.150320	0.997495
1000.445232	0.998486
1000.740108	0.998531
1001.034948	0.998639
1001.329752	0.998479
1001.624521	0.998342
1001.919254	0.997758
1002.213951	0.998095
1002.508613	0.997475
1002.803239	0.999120
1003.097829	0.998693
1003.392384	0.998907
1003.686903	0.997920
1003.981386	0.998390
1004.275834	0.998917
1004.570246	0.998639
1004.864623	0.998714
1005.158964	0.999738
1005.453270	0.999352
1005.747540	0.996615
1006.041775	0.999693
1006.335974	1.000023
1006.630138	0.999394
1006.924266	1.000554
1007.218359	0.999830
1007.512416	1.000256
1007.806438	0.998859
1008.100425	0.999542
1008.394376	0.998842
1008.688292	0.998277
1008.982172	1.001272
1009.276017	0.998615
1009.569827	1.000285
1009.863602	0.998474
1010.157341	0.999148
1010.451045	0.998593
1010.744714	0.998116
1011.038347	0.999050
1011.331945	0.999416
1011.625508	0.997634
1011.919036	0.998530
1012.212528	0.999305
1012.505986	0.997722
1012.799408	1.000390
1013.092795	0.998914
1013.386147	0.998993
1013.679464	0.999925
1013.972745	0.999346
1014.265992	0.998489
1014.559204	0.999495
1014.852380	0.999056
1015.145521	0.999477
1015.438628	0.998922
1015.731699	0.999146
1016.024736	0.998454
1016.317737	0.999434
1016.610703	0.998849
1016.903635	0.999524
1017.196531	0.998780
1017.489393	1.000223
1017.782219	0.999212
1018.075011	0.997757
1018.367768	0.998462
1018.660490	0.999458
1018.953177	0.999458
1019.245829	0.999458
