Dividing Wavelength (nm)	Counts (n)	Blue Motor Position (mm): 0.000000	Red Motor Position (mm): 7.000000	
326.493990	1.000015
326.888308	1.000015
327.282561	1.000015
327.676750	1.000755
328.070874	0.999415
328.464933	1.000289
328.858929	0.999030
329.252859	0.998774
329.646726	0.999542
330.040528	1.000688
330.434265	0.998657
330.827938	1.000377
331.221547	0.999950
331.615091	1.000777
332.008571	1.001001
332.401986	0.999754
332.795338	1.000012
333.188625	0.997923
333.581847	0.999899
333.975006	0.999154
334.368100	0.999290
334.761129	0.999843
335.154095	1.000104
335.546996	0.998437
335.939833	0.993060
336.332606	0.992792
336.725315	0.994679
337.117960	0.994609
337.510540	0.994016
337.903056	0.994722
338.295508	0.993379
338.687896	0.993325
339.080220	0.994399
339.472480	0.993910
339.864676	0.993416
340.256807	0.993673
340.648875	0.993958
341.040879	0.994842
341.432818	0.994720
341.824694	0.994108
342.216506	0.994186
342.608253	0.992596
342.999937	0.993523
343.391557	0.994021
343.783113	0.993861
344.174605	0.993117
344.566033	0.993875
344.957397	0.992904
345.348697	0.992457
345.739934	0.993120
346.131106	0.993406
346.522215	0.992803
346.913260	0.993887
347.304241	0.992853
347.695159	0.993739
348.086012	0.991781
348.476802	0.992429
348.867528	0.993577
349.258191	0.992840
349.648789	0.993346
350.039324	0.993147
350.429796	0.994285
350.820203	0.993914
351.210548	0.993086
351.600828	0.993409
351.991045	0.992686
352.381198	0.990896
352.771288	0.992520
353.161314	0.992782
353.551276	0.993279
353.941175	0.992480
354.331010	0.992258
354.720782	0.993455
355.110490	0.992492
355.500135	0.992840
355.889717	0.992267
356.279235	0.992163
356.668689	0.991751
357.058080	0.992746
357.447408	0.993762
357.836672	0.993345
358.225873	0.992065
358.615010	0.992677
359.004084	0.993686
359.393095	0.993087
359.782043	0.992577
360.170927	0.993607
360.559748	0.993887
360.948505	0.991587
361.337199	0.993135
361.725830	0.992681
362.114398	0.991886
362.502903	0.992831
362.891344	0.992678
363.279722	0.991963
363.668037	0.993528
364.056289	0.991780
364.444478	0.993050
364.832603	0.993069
365.220665	0.991834
365.608665	0.991844
365.996601	0.992110
366.384474	0.991347
366.772284	0.992560
367.160031	0.989740
367.547715	0.990844
367.935336	0.991666
368.322893	0.991084
368.710388	0.992389
369.097820	0.991863
369.485189	0.992140
369.872495	0.990124
370.259738	0.989935
370.646918	0.991103
371.034035	0.991230
371.421090	0.989869
371.808081	0.988959
372.195010	0.990559
372.581875	0.990295
372.968678	0.988869
373.355418	0.987839
373.742096	0.986749
374.128710	0.986161
374.515262	0.982985
374.901751	0.982466
375.288177	0.980164
375.674540	0.977841
376.060841	0.973413
376.447079	0.971593
376.833254	0.967020
377.219367	0.964848
377.605417	0.958657
377.991404	0.955035
378.377329	0.948899
378.763191	0.944673
379.148991	0.939581
379.534727	0.932853
379.920402	0.925941
380.306013	0.921475
380.691563	0.911334
381.077049	0.902936
381.462474	0.898326
381.847835	0.888573
382.233134	0.880762
382.618371	0.876997
383.003545	0.863173
383.388657	0.857489
383.773706	0.848270
384.158693	0.841811
384.543618	0.831371
384.928480	0.822452
385.313280	0.810442
385.698017	0.806696
386.082692	0.793825
386.467305	0.787376
386.851856	0.777172
387.236344	0.769031
387.620770	0.759786
388.005133	0.753255
388.389435	0.744063
388.773674	0.738123
389.157851	0.727608
389.541965	0.721547
389.926018	0.724582
390.310008	0.710298
390.693936	0.702817
391.077802	0.693385
391.461606	0.692859
391.845348	0.680384
392.229027	0.678349
392.612645	0.674994
392.996200	0.659388
393.379694	0.652150
393.763125	0.640103
394.146494	0.644132
394.529801	0.633216
394.913047	0.624647
395.296230	0.629361
395.679351	0.620002
396.062410	0.616128
396.445408	0.618208
396.828343	0.612804
397.211217	0.608469
397.594028	0.620407
397.976778	0.608790
398.359466	0.606127
398.742092	0.599972
399.124656	0.613260
399.507158	0.601417
399.889598	0.597931
400.271977	0.589106
400.654294	0.594182
401.036549	0.591861
401.418742	0.596279
401.800874	0.581981
402.182944	0.579388
402.564952	0.570063
402.946898	0.572696
403.328783	0.573490
403.710606	0.583864
404.092367	0.559218
404.474067	0.564215
404.855705	0.562831
405.237282	0.572205
405.618797	0.558873
406.000250	0.553749
406.381642	0.544570
406.762972	0.548807
407.144240	0.548458
407.525447	0.547742
407.906593	0.541191
408.287677	0.535585
408.668700	0.544720
409.049661	0.537796
409.430560	0.533875
409.811399	0.541718
410.192176	0.523604
410.572891	0.530521
410.953545	0.519506
411.334138	0.532249
411.714669	0.525392
412.095139	0.536363
412.475547	0.521559
412.855894	0.523253
413.236180	0.522510
413.616405	0.527920
413.996568	0.518299
414.376670	0.524574
414.756711	0.529524
415.136691	0.525835
415.516609	0.517128
415.896466	0.513626
416.276262	0.509740
416.655997	0.511519
417.035670	0.493371
417.415283	0.484518
417.794834	0.489837
418.174324	0.494420
418.553753	0.504018
418.933121	0.486017
419.312428	0.480197
419.691674	0.484985
420.070859	0.474346
420.449983	0.482675
420.829045	0.472156
421.208047	0.479967
421.586988	0.474033
421.965867	0.473075
422.344686	0.461791
422.723444	0.473801
423.102141	0.491053
423.480777	0.464042
423.859352	0.483883
424.237866	0.461207
424.616319	0.462260
424.994712	0.453220
425.373044	0.463713
425.751314	0.452330
426.129524	0.468085
426.507673	0.452447
426.885762	0.445734
427.263789	0.450997
427.641756	0.460944
428.019662	0.450673
428.397508	0.450237
428.775292	0.454227
429.153016	0.446529
429.530679	0.452631
429.908282	0.445773
430.285824	0.455816
430.663305	0.434205
431.040726	0.455182
431.418086	0.455933
431.795385	0.447230
432.172624	0.445525
432.549802	0.446371
432.926920	0.445672
433.303977	0.444557
433.680974	0.441924
434.057910	0.440514
434.434786	0.439768
434.811601	0.442604
435.188355	0.424620
435.565050	0.433632
435.941683	0.435689
436.318257	0.420170
436.694770	0.420400
437.071222	0.418342
437.447614	0.423075
437.823946	0.429259
438.200218	0.418904
438.576429	0.429159
438.952580	0.421493
439.328670	0.418652
439.704700	0.425270
440.080670	0.425918
440.456580	0.407286
440.832429	0.415201
441.208218	0.425925
441.583947	0.415044
441.959616	0.414972
442.335224	0.419944
442.710773	0.410819
443.086261	0.408767
443.461689	0.422519
443.837057	0.412267
444.212365	0.402446
444.587612	0.409459
444.962800	0.399740
445.337927	0.400744
445.712995	0.427108
446.088002	0.389425
446.462949	0.399715
446.837837	0.404340
447.212664	0.393693
447.587431	0.385317
447.962139	0.355617
448.336786	0.314705
448.711374	0.325473
449.085901	0.368800
449.460369	0.373472
449.834776	0.376661
450.209124	0.356021
450.583412	0.348580
450.957640	0.341712
451.331808	0.353209
451.705917	0.376424
452.079965	0.381294
452.453954	0.369388
452.827883	0.375654
453.201752	0.371178
453.575562	0.382408
453.949311	0.371218
454.323001	0.377237
454.696632	0.372405
455.070202	0.365001
455.443713	0.357311
455.817164	0.352224
456.190556	0.347950
456.563888	0.344748
456.937160	0.341975
457.310373	0.359834
457.683526	0.358566
458.056619	0.363977
458.429653	0.364805
458.802628	0.367917
459.175542	0.362145
459.548398	0.344684
459.921194	0.337208
460.293930	0.337488
460.666607	0.314905
461.039224	0.303344
461.411782	0.298967
461.784280	0.298336
462.156719	0.302379
462.529099	0.306938
462.901419	0.322895
463.273680	0.327372
463.645882	0.326848
464.018024	0.332623
464.390106	0.325699
464.762130	0.310589
465.134094	0.292950
465.505999	0.262508
465.877845	0.232987
466.249631	0.220076
466.621358	0.227174
466.993026	0.241411
467.364634	0.247537
467.736184	0.256121
468.107674	0.264624
468.479105	0.263821
468.850477	0.270528
469.221790	0.277420
469.593043	0.287739
469.964238	0.292395
470.335373	0.291811
470.706449	0.290058
471.077467	0.290842
471.448425	0.252788
471.819324	0.228615
472.190164	0.227699
472.560945	0.256407
472.931667	0.278757
473.302330	0.282808
473.672934	0.294590
474.043479	0.282946
474.413965	0.285154
474.784393	0.288346
475.154761	0.283149
475.525070	0.280525
475.895321	0.286343
476.265513	0.280167
476.635645	0.275384
477.005719	0.275646
477.375734	0.272368
477.745691	0.265614
478.115588	0.261871
478.485427	0.255632
478.855207	0.242483
479.224928	0.224877
479.594591	0.213240
479.964194	0.216604
480.333739	0.217835
480.703226	0.219160
481.072653	0.217685
481.442022	0.213327
481.811333	0.209631
482.180584	0.213381
482.549777	0.218441
482.918912	0.221841
483.287988	0.221729
483.657005	0.221112
484.025964	0.227888
484.394864	0.225087
484.763706	0.225650
485.132489	0.230641
485.501213	0.231468
485.869879	0.229878
486.238487	0.233337
486.607036	0.230982
486.975527	0.235314
487.343959	0.231122
487.712333	0.230177
488.080648	0.231811
488.448905	0.230851
488.817104	0.232413
489.185244	0.226832
489.553326	0.223926
489.921350	0.213605
490.289315	0.196137
490.657222	0.191073
491.025070	0.192382
491.392861	0.194501
491.760593	0.200270
492.128267	0.205912
492.495883	0.211342
492.863440	0.217307
493.230939	0.223919
493.598380	0.224981
493.965763	0.227326
494.333088	0.229724
494.700354	0.230993
495.067563	0.230097
495.434713	0.233194
495.801805	0.231151
496.168839	0.232913
496.535815	0.234062
496.902733	0.234050
497.269593	0.235517
497.636395	0.233650
498.003139	0.233582
498.369825	0.236577
498.736453	0.232914
499.103023	0.234742
499.469535	0.233793
499.835989	0.234345
500.202385	0.235388
500.568723	0.238346
500.935003	0.233544
501.301226	0.237730
501.667390	0.232192
502.033497	0.230199
502.399546	0.233353
502.765537	0.235127
503.131470	0.233441
503.497345	0.229698
503.863163	0.238516
504.228923	0.231521
504.594625	0.230269
504.960269	0.235617
505.325856	0.230728
505.691385	0.235401
506.056856	0.231770
506.422270	0.231170
506.787625	0.233956
507.152924	0.231327
507.518164	0.231451
507.883347	0.233118
508.248472	0.235124
508.613540	0.230357
508.978550	0.232746
509.343503	0.233109
509.708398	0.230913
510.073236	0.228351
510.438016	0.228436
510.802738	0.229325
511.167403	0.228140
511.532010	0.230311
511.896561	0.225594
512.261053	0.224578
512.625488	0.226217
512.989866	0.226878
513.354186	0.227141
513.718449	0.229030
514.082655	0.225495
514.446803	0.227778
514.810894	0.225359
515.174927	0.227750
515.538904	0.227262
515.902822	0.224212
516.266684	0.226388
516.630488	0.227866
516.994235	0.226666
517.357925	0.225130
517.721558	0.223665
518.085133	0.223121
518.448651	0.223425
518.812112	0.225535
519.175516	0.225098
519.538863	0.222647
519.902152	0.224342
520.265385	0.221365
520.628560	0.223278
520.991678	0.223727
521.354739	0.222315
521.717743	0.223704
522.080690	0.223936
522.443580	0.221354
522.806413	0.222219
523.169189	0.221606
523.531908	0.220391
523.894569	0.224323
524.257174	0.223975
524.619722	0.221862
524.982213	0.222631
525.344647	0.221457
525.707025	0.222438
526.069345	0.220573
526.431608	0.222384
526.793815	0.220362
527.155964	0.224315
527.518057	0.223313
527.880093	0.224556
528.242072	0.223126
528.603995	0.224862
528.965860	0.226607
529.327669	0.225071
529.689421	0.226168
530.051117	0.227114
530.412755	0.224661
530.774337	0.227336
531.135862	0.227523
531.497331	0.226708
531.858743	0.229719
532.220098	0.226600
532.581396	0.229017
532.942638	0.229810
533.303824	0.230618
533.664953	0.230486
534.026025	0.231901
534.387040	0.230054
534.747999	0.229981
535.108902	0.228696
535.469748	0.233743
535.830537	0.231505
536.191270	0.232113
536.551947	0.231300
536.912567	0.231827
537.273131	0.233331
537.633638	0.233597
537.994089	0.233900
538.354483	0.234867
538.714821	0.231888
539.075103	0.231527
539.435328	0.232375
539.795497	0.235860
540.155609	0.232691
540.515665	0.230919
540.875665	0.236692
541.235609	0.235106
541.595496	0.235178
541.955328	0.231605
542.315102	0.234385
542.674821	0.235535
543.034483	0.235512
543.394090	0.235134
543.753640	0.237132
544.113134	0.232173
544.472571	0.235075
544.831953	0.232526
545.191278	0.236150
545.550548	0.235879
545.909761	0.232506
546.268918	0.233446
546.628019	0.231603
546.987064	0.234223
547.346053	0.235964
547.704986	0.233976
548.063863	0.234217
548.422684	0.234242
548.781449	0.236188
549.140158	0.233897
549.498811	0.236732
549.857408	0.239785
550.215949	0.234764
550.574434	0.237608
550.932864	0.235670
551.291237	0.234329
551.649555	0.235987
552.007817	0.235487
552.366022	0.236512
552.724173	0.236255
553.082267	0.236932
553.440305	0.233754
553.798288	0.238153
554.156215	0.234817
554.514086	0.235250
554.871902	0.238689
555.229661	0.237975
555.587365	0.238541
555.945014	0.241152
556.302606	0.237732
556.660143	0.240572
557.017625	0.236802
557.375050	0.239340
557.732421	0.235746
558.089735	0.237958
558.446994	0.238129
558.804197	0.237721
559.161345	0.237396
559.518437	0.240834
559.875474	0.238593
560.232455	0.237969
560.589381	0.239126
560.946251	0.239295
561.303065	0.236877
561.659825	0.238398
562.016528	0.239759
562.373177	0.242472
562.729770	0.239945
563.086307	0.241937
563.442789	0.239654
563.799216	0.242693
564.155587	0.241281
564.511904	0.242262
564.868164	0.242613
565.224370	0.242209
565.580520	0.244292
565.936615	0.244093
566.292654	0.247238
566.648638	0.243972
567.004567	0.244874
567.360441	0.245384
567.716260	0.247545
568.072023	0.245202
568.427732	0.245980
568.783385	0.248538
569.138982	0.246362
569.494525	0.246339
569.850013	0.248880
570.205445	0.247584
570.560823	0.250219
570.916145	0.251814
571.271412	0.250279
571.626625	0.251982
571.981782	0.252271
572.336884	0.253297
572.691931	0.252848
573.046923	0.253906
573.401860	0.255379
573.756743	0.256850
574.111570	0.256037
574.466342	0.256225
574.821059	0.255534
575.175722	0.258425
575.530330	0.257999
575.884882	0.258255
576.239380	0.260498
576.593823	0.260924
576.948211	0.260043
577.302544	0.263486
577.656823	0.263092
578.011047	0.263312
578.365216	0.264220
578.719330	0.266006
579.073389	0.265900
579.427394	0.266815
579.781344	0.267770
580.135239	0.269445
580.489080	0.269050
580.842866	0.271817
581.196597	0.271770
581.550273	0.270397
581.903895	0.271476
582.257463	0.269396
582.610975	0.272952
582.964434	0.272223
583.317837	0.274856
583.671186	0.274953
584.024481	0.275332
584.377721	0.277811
584.730906	0.278273
585.084037	0.277147
585.437113	0.279288
585.790135	0.278904
586.143103	0.281683
586.496016	0.283119
586.848874	0.280572
587.201679	0.281182
587.554428	0.284500
587.907124	0.282872
588.259765	0.283913
588.612352	0.284422
588.964884	0.288235
589.317362	0.287903
589.669786	0.287415
590.022155	0.286443
590.374470	0.285565
590.726731	0.287395
591.078937	0.292315
591.431090	0.288554
591.783188	0.292909
592.135232	0.292903
592.487222	0.293532
592.839157	0.291460
593.191038	0.293508
593.542866	0.295851
593.894639	0.299571
594.246358	0.297052
594.598022	0.296466
594.949633	0.300205
595.301190	0.301340
595.652692	0.300065
596.004141	0.296704
596.355535	0.304568
596.706876	0.304688
597.058162	0.307104
597.409395	0.304760
597.760573	0.302345
598.111698	0.305646
598.462768	0.306034
598.813785	0.307751
599.164748	0.308851
599.515657	0.308844
599.866511	0.312304
600.217312	0.307217
600.568060	0.312632
600.918753	0.309211
601.269392	0.310200
601.619978	0.313602
601.970510	0.310932
602.320988	0.311035
602.671412	0.308935
603.021783	0.311638
603.372100	0.312673
603.722363	0.312371
604.072572	0.313314
604.422728	0.312733
604.772830	0.314875
605.122878	0.314593
605.472872	0.315409
605.822813	0.313532
606.172701	0.316283
606.522534	0.313495
606.872314	0.314056
607.222041	0.314440
607.571714	0.312624
607.921333	0.314236
608.270899	0.313799
608.620411	0.310833
608.969870	0.314750
609.319276	0.314750
609.668627	0.314633
610.017926	0.313153
610.367171	0.311797
610.716362	0.311961
611.065500	0.312739
611.414585	0.311737
611.763616	0.311951
612.112594	0.311740
612.461518	0.311794
612.810389	0.309047
613.159207	0.311678
613.507971	0.313410
613.856682	0.309460
614.205340	0.310878
614.553945	0.307849
614.902496	0.311365
615.250994	0.309578
615.599439	0.310396
615.947830	0.309550
616.296169	0.310730
616.644454	0.310011
616.992686	0.310149
617.340864	0.308190
617.688990	0.311599
618.037063	0.308315
618.385082	0.310193
618.733048	0.307318
619.080961	0.309475
619.428821	0.308719
619.776628	0.308475
620.124382	0.310643
620.472083	0.310739
620.819731	0.309807
621.167326	0.313836
621.514868	0.313570
621.862357	0.318105
622.209793	0.317572
622.557176	0.319614
622.904506	0.321049
623.251783	0.323107
623.599007	0.325511
623.946179	0.325187
624.293297	0.327232
624.640363	0.330891
624.987376	0.331292
625.334336	0.334070
625.681243	0.336333
626.028097	0.336666
626.374899	0.337954
626.721647	0.337856
627.068343	0.341365
627.414987	0.342601
627.761577	0.344591
628.108115	0.342863
628.454600	0.348101
628.801032	0.345610
629.147412	0.347489
629.493739	0.347615
629.840014	0.351082
630.186236	0.348394
630.532405	0.353824
630.878521	0.351320
631.224585	0.353651
631.570597	0.357263
631.916556	0.355565
632.262462	0.355949
632.608316	0.357567
632.954117	0.358538
633.299866	0.359652
633.645562	0.359945
633.991206	0.364727
634.336797	0.367300
634.682336	0.369379
635.027823	0.371259
635.373257	0.371748
635.718639	0.375164
636.063968	0.374475
636.409245	0.380677
636.754470	0.380505
637.099642	0.383332
637.444762	0.386475
637.789829	0.385527
638.134845	0.388838
638.479808	0.390142
638.824719	0.389774
639.169577	0.393962
639.514383	0.392583
639.859137	0.397215
640.203839	0.396377
640.548489	0.397518
640.893086	0.398545
641.237632	0.399964
641.582125	0.398988
641.926566	0.400469
642.270955	0.400781
642.615292	0.400850
642.959576	0.399961
643.303809	0.400165
643.647990	0.400343
643.992118	0.400643
644.336195	0.404121
644.680219	0.402337
645.024192	0.403112
645.368112	0.396439
645.711981	0.395862
646.055797	0.390823
646.399562	0.393891
646.743274	0.385241
647.086935	0.383056
647.430544	0.383350
647.774101	0.381645
648.117606	0.381766
648.461059	0.381944
648.804460	0.384702
649.147810	0.389488
649.491108	0.391690
649.834354	0.392833
650.177548	0.398461
650.520690	0.403871
650.863781	0.404837
651.206820	0.404053
651.549807	0.408817
651.892742	0.413016
652.235626	0.412191
652.578458	0.413066
652.921238	0.419214
653.263967	0.417191
653.606644	0.421508
653.949269	0.420926
654.291843	0.425295
654.634365	0.421042
654.976836	0.425029
655.319255	0.424797
655.661622	0.426356
656.003938	0.426733
656.346203	0.429528
656.688416	0.427050
657.030577	0.430502
657.372687	0.432598
657.714746	0.433638
658.056753	0.430543
658.398708	0.434417
658.740612	0.435160
659.082465	0.431824
659.424266	0.432222
659.766016	0.431980
660.107715	0.434162
660.449362	0.432881
660.790958	0.433605
661.132503	0.434252
661.473996	0.432002
661.815438	0.432560
662.156829	0.432856
662.498168	0.433954
662.839456	0.435330
663.180693	0.433265
663.521879	0.432702
663.863013	0.433959
664.204097	0.432301
664.545129	0.429340
664.886110	0.429802
665.227040	0.427100
665.567918	0.429595
665.908746	0.427666
666.249522	0.427223
666.590248	0.428321
666.930922	0.426851
667.271545	0.425227
667.612118	0.425828
667.952639	0.426796
668.293109	0.426148
668.633528	0.428335
668.973896	0.428656
669.314213	0.429092
669.654480	0.430559
669.994695	0.430680
670.334859	0.431507
670.674973	0.431548
671.015035	0.432008
671.355047	0.431701
671.695008	0.433058
672.034918	0.434740
672.374777	0.433965
672.714585	0.435646
673.054342	0.435349
673.394049	0.435189
673.733705	0.432964
674.073310	0.434094
674.412864	0.437218
674.752368	0.437468
675.091820	0.437646
675.431223	0.442207
675.770574	0.442064
676.109875	0.445160
676.449125	0.445127
676.788324	0.447649
677.127473	0.453009
677.466571	0.452551
677.805619	0.454171
678.144616	0.455753
678.483562	0.457009
678.822458	0.459647
679.161303	0.460728
679.500098	0.461354
679.838842	0.462710
680.177535	0.462087
680.516179	0.461196
680.854771	0.459978
681.193314	0.453268
681.531805	0.444392
681.870247	0.432795
682.208638	0.425528
682.546978	0.424535
682.885268	0.426349
683.223508	0.432841
683.561697	0.436139
683.899836	0.438747
684.237925	0.442254
684.575963	0.444972
684.913951	0.447935
685.251889	0.443450
685.589776	0.445721
685.927614	0.448398
686.265401	0.442927
686.603137	0.443522
686.940824	0.437525
687.278460	0.435852
687.616046	0.435168
687.953582	0.430267
688.291068	0.431548
688.628504	0.426986
688.965889	0.429489
689.303224	0.433367
689.640510	0.437859
689.977745	0.443669
690.314930	0.451801
690.652065	0.455780
690.989150	0.463258
691.326185	0.469898
691.663170	0.474549
692.000105	0.480818
692.336990	0.488665
692.673825	0.491149
693.010610	0.498362
693.347345	0.503680
693.684030	0.505568
694.020665	0.509651
694.357251	0.518626
694.693786	0.518266
695.030272	0.522868
695.366707	0.525642
695.703093	0.529225
696.039429	0.527274
696.375716	0.528775
696.711952	0.531685
697.048139	0.533864
697.384276	0.535702
697.720363	0.534378
698.056400	0.532812
698.392388	0.538567
698.728326	0.541615
699.064214	0.544442
699.400053	0.545121
699.735842	0.548740
700.071581	0.551250
700.407270	0.554037
700.742910	0.556802
701.078501	0.563832
701.414042	0.563927
701.749533	0.567375
702.084974	0.575000
702.420366	0.568194
702.755709	0.576368
703.091002	0.583830
703.426246	0.576644
703.761440	0.582908
704.096584	0.587448
704.431679	0.584533
704.766725	0.586458
705.101721	0.588345
705.436668	0.584037
705.771565	0.592284
706.106413	0.588133
706.441212	0.583354
706.775961	0.581966
707.110661	0.585407
707.445311	0.580552
707.779913	0.579071
708.114465	0.577219
708.448967	0.573851
708.783421	0.565603
709.117825	0.560325
709.452180	0.560389
709.786485	0.553924
710.120742	0.543998
710.454949	0.545798
710.789107	0.537801
711.123216	0.529255
711.457275	0.530766
711.791286	0.521504
712.125247	0.520264
712.459159	0.531075
712.793023	0.523781
713.126837	0.528123
713.460602	0.528662
713.794318	0.537256
714.127985	0.536145
714.461602	0.547046
714.795171	0.549958
715.128691	0.557675
715.462162	0.565252
715.795584	0.570634
716.128957	0.573733
716.462281	0.580452
716.795556	0.584413
717.128782	0.589454
717.461960	0.598756
717.795088	0.597138
718.128167	0.602965
718.461198	0.611857
718.794180	0.612801
719.127113	0.615026
719.459997	0.619255
719.792833	0.625397
720.125619	0.626598
720.458357	0.632121
720.791046	0.631974
721.123686	0.635284
721.456278	0.642699
721.788821	0.639889
722.121315	0.643497
722.453761	0.648207
722.786158	0.645635
723.118506	0.642182
723.450805	0.649793
723.783056	0.645967
724.115259	0.643656
724.447412	0.642506
724.779518	0.644214
725.111574	0.643310
725.443582	0.638978
725.775542	0.640830
726.107453	0.633151
726.439315	0.632640
726.771129	0.631557
727.102895	0.624703
727.434612	0.617704
727.766281	0.615438
728.097901	0.614437
728.429473	0.614379
728.760996	0.613027
729.092471	0.612838
729.423897	0.617221
729.755276	0.616558
730.086606	0.616510
730.417887	0.610132
730.749120	0.601104
731.080305	0.591993
731.411442	0.588678
731.742530	0.592688
732.073570	0.591849
732.404562	0.584375
732.735506	0.586206
733.066401	0.590160
733.397249	0.598939
733.728048	0.610972
734.058798	0.624121
734.389501	0.633919
734.720156	0.644544
735.050762	0.652084
735.381320	0.653406
735.711831	0.662734
736.042293	0.667165
736.372707	0.663119
736.703073	0.667695
737.033391	0.671020
737.363661	0.666155
737.693883	0.662193
738.024056	0.661163
738.354182	0.661316
738.684260	0.650572
739.014290	0.646546
739.344272	0.647464
739.674207	0.641024
740.004093	0.640527
740.333931	0.640632
740.663722	0.640987
740.993464	0.641773
741.323159	0.644982
741.652806	0.649899
741.982405	0.654681
742.311956	0.659291
742.641460	0.661922
742.970915	0.665811
743.300323	0.673134
743.629683	0.679775
743.958996	0.682073
744.288260	0.686089
744.617477	0.692577
744.946647	0.693831
745.275768	0.698886
745.604842	0.698314
745.933869	0.708015
746.262847	0.709052
746.591778	0.702655
746.920662	0.708534
747.249498	0.715653
747.578286	0.706314
747.907027	0.703328
748.235720	0.703295
748.564365	0.698857
748.892963	0.698441
749.221514	0.700467
749.550017	0.706200
749.878473	0.705471
750.206881	0.711908
750.535242	0.714102
750.863555	0.713355
751.191821	0.714252
751.520039	0.717582
751.848210	0.722976
752.176334	0.715449
752.504411	0.714555
752.832440	0.721864
753.160421	0.726005
753.488356	0.724528
753.816243	0.722238
754.144082	0.730238
754.471875	0.734566
754.799620	0.729877
755.127318	0.731120
755.454969	0.730759
755.782572	0.729733
756.110129	0.734681
756.437638	0.736460
756.765100	0.733553
757.092515	0.732261
757.419882	0.731458
757.747203	0.736049
758.074477	0.735953
758.401703	0.732189
758.728882	0.728268
759.056014	0.726307
759.383099	0.725775
759.710138	0.726841
760.037129	0.722853
760.364073	0.717622
760.690970	0.720220
761.017820	0.725464
761.344623	0.720482
761.671379	0.711763
761.998088	0.699385
762.324751	0.677249
762.651366	0.635368
762.977935	0.567680
763.304456	0.515351
763.630931	0.506389
763.957359	0.544680
764.283740	0.589615
764.610074	0.616731
764.936362	0.648661
765.262602	0.675539
765.588796	0.697419
765.914943	0.714805
766.241044	0.732623
766.567097	0.738767
766.893104	0.748973
767.219064	0.754870
767.544978	0.762281
767.870845	0.775274
768.196665	0.779701
768.522438	0.778364
768.848165	0.779337
769.173846	0.787653
769.499479	0.791990
769.825066	0.795572
770.150607	0.801221
770.476101	0.795930
770.801548	0.797051
771.126949	0.808397
771.452303	0.812810
771.777611	0.810427
772.102872	0.810859
772.428087	0.814983
772.753256	0.820097
773.078378	0.821213
773.403453	0.830641
773.728482	0.834949
774.053465	0.828692
774.378401	0.831956
774.703291	0.840298
775.028135	0.839207
775.352932	0.841352
775.677683	0.845092
776.002388	0.845351
776.327046	0.843740
776.651658	0.847772
776.976224	0.851135
777.300743	0.851091
777.625216	0.853662
777.949643	0.855348
778.274024	0.855163
778.598359	0.856082
778.922647	0.855033
779.246889	0.856271
779.571086	0.860414
779.895236	0.862407
780.219339	0.859391
780.543397	0.856939
780.867409	0.855024
781.191374	0.857598
781.515294	0.859349
781.839167	0.857750
782.162995	0.860983
782.486776	0.858093
782.810511	0.857858
783.134201	0.862658
783.457844	0.860173
783.781441	0.862868
784.104993	0.868351
784.428498	0.869001
784.751958	0.864310
785.075372	0.867245
785.398739	0.871065
785.722061	0.866984
786.045337	0.863053
786.368568	0.867735
786.691752	0.870702
787.014891	0.854605
787.337983	0.846652
787.661030	0.839249
787.984031	0.821345
788.306987	0.809161
788.629897	0.811697
788.952760	0.815256
789.275579	0.819582
789.598351	0.834434
789.921078	0.846999
790.243759	0.850125
790.566395	0.854775
790.888984	0.861616
791.211529	0.866886
791.534027	0.869320
791.856480	0.872253
792.178888	0.877802
792.501249	0.881272
792.823566	0.880607
793.145836	0.881166
793.468062	0.883403
793.790241	0.882179
794.112375	0.881700
794.434464	0.876616
794.756507	0.876144
795.078505	0.874625
795.400457	0.870089
795.722364	0.859311
796.044226	0.850955
796.366042	0.850997
796.687812	0.854033
797.009538	0.850288
797.331218	0.852719
797.652852	0.857818
797.974442	0.862481
798.295986	0.861535
798.617484	0.864971
798.938938	0.869874
799.260346	0.874041
799.581709	0.875240
799.903026	0.878534
800.224299	0.879844
800.545526	0.883320
800.866708	0.886553
801.187845	0.891064
801.508936	0.890456
801.829983	0.888322
802.150984	0.891761
802.471940	0.896786
802.792851	0.896418
803.113717	0.896697
803.434538	0.895579
803.755314	0.896311
804.076045	0.898571
804.396731	0.898943
804.717372	0.897345
805.037967	0.900901
805.358518	0.897964
805.679024	0.894510
805.999485	0.895153
806.319901	0.895031
806.640272	0.896400
806.960598	0.895539
807.280879	0.891371
807.601115	0.890188
807.921306	0.895039
808.241453	0.894848
808.561554	0.891720
808.881611	0.892704
809.201623	0.893944
809.521590	0.894786
809.841513	0.896600
810.161390	0.895701
810.481223	0.896578
810.801011	0.900082
811.120755	0.902021
811.440453	0.901192
811.760107	0.899458
812.079716	0.897983
812.399281	0.902507
812.718801	0.904611
813.038276	0.906018
813.357707	0.904124
813.677093	0.902432
813.996434	0.906115
814.315731	0.907687
814.634983	0.908346
814.954191	0.907484
815.273354	0.903547
815.592473	0.899884
815.911547	0.899930
816.230577	0.896337
816.549562	0.895279
816.868502	0.895239
817.187399	0.890685
817.506250	0.886357
817.825058	0.888450
818.143821	0.885118
818.462539	0.880237
818.781213	0.871486
819.099843	0.859939
819.418429	0.844300
819.736970	0.826620
820.055466	0.807275
820.373919	0.780792
820.692327	0.747942
821.010691	0.713257
821.329011	0.633860
821.647286	0.516985
821.965517	0.403063
822.283704	0.359325
822.601847	0.360132
822.919945	0.396406
823.237999	0.430830
823.556010	0.478580
823.873976	0.534630
824.191897	0.585449
824.509775	0.628792
824.827609	0.674211
825.145398	0.697444
825.463144	0.700333
825.780845	0.683248
826.098502	0.664584
826.416116	0.618088
826.733685	0.573222
827.051210	0.564278
827.368692	0.580019
827.686129	0.617150
828.003522	0.670854
828.320872	0.718381
828.638177	0.763489
828.955439	0.796255
829.272656	0.818110
829.589830	0.836698
829.906960	0.852592
830.224046	0.864443
830.541088	0.873921
830.858086	0.880120
831.175041	0.886354
831.491952	0.885054
831.808819	0.881587
832.125642	0.874673
832.442421	0.859930
832.759157	0.837657
833.075849	0.790853
833.392497	0.726342
833.709101	0.685226
834.025662	0.694838
834.342179	0.726515
834.658653	0.766052
834.975083	0.802990
835.291469	0.829064
835.607811	0.852063
835.924110	0.868318
836.240366	0.885497
836.556578	0.899121
836.872746	0.906692
837.188871	0.913145
837.504952	0.918515
837.820990	0.922460
838.136984	0.925932
838.452935	0.929366
838.768842	0.930168
839.084706	0.923281
839.400526	0.898166
839.716303	0.856971
840.032037	0.832904
840.347727	0.837505
840.663373	0.856527
840.978977	0.878113
841.294537	0.900419
841.610054	0.916944
841.925527	0.924634
842.240957	0.932316
842.556344	0.939609
842.871687	0.945144
843.186987	0.949312
843.502244	0.949647
843.817458	0.951436
844.132629	0.953825
844.447756	0.959395
844.762840	0.959354
845.077881	0.958685
845.392879	0.959570
845.707833	0.961050
846.022745	0.964386
846.337613	0.964501
846.652438	0.965206
846.967221	0.963177
847.281960	0.965071
847.596656	0.966611
847.911309	0.964947
848.225919	0.966808
848.540485	0.967189
848.855009	0.969459
849.169490	0.966865
849.483928	0.968069
849.798323	0.968340
850.112675	0.968771
850.426984	0.969386
850.741251	0.970502
851.055474	0.969474
851.369654	0.967367
851.683792	0.968832
851.997887	0.969644
852.311938	0.970156
852.625947	0.969472
852.939914	0.967727
853.253837	0.968194
853.567718	0.970126
853.881555	0.970916
854.195350	0.968551
854.509103	0.969375
854.822812	0.969698
855.136479	0.970077
855.450103	0.969347
855.763685	0.967597
856.077224	0.967377
856.390720	0.970126
856.704173	0.969647
857.017584	0.967578
857.330953	0.967435
857.644278	0.967732
857.957561	0.968521
858.270802	0.968019
858.584000	0.966417
858.897155	0.966921
859.210268	0.965486
859.523339	0.967841
859.836367	0.968875
860.149352	0.970292
860.462295	0.967885
860.775195	0.968826
861.088054	0.968301
861.400869	0.968784
861.713642	0.969624
862.026373	0.969154
862.339062	0.970571
862.651708	0.968036
862.964312	0.966546
863.276873	0.968775
863.589392	0.967569
863.901869	0.965059
864.214303	0.964093
864.526696	0.962824
864.839045	0.963762
865.151353	0.961593
865.463619	0.962508
865.775842	0.961817
866.088023	0.961716
866.400162	0.961110
866.712258	0.962040
867.024313	0.963000
867.336325	0.962401
867.648296	0.963132
867.960224	0.961192
868.272110	0.961104
868.583954	0.963176
868.895755	0.962834
869.207515	0.961495
869.519233	0.959117
869.830909	0.959953
870.142542	0.961242
870.454134	0.960430
870.765684	0.960330
871.077191	0.956832
871.388657	0.959056
871.700081	0.956570
872.011463	0.957437
872.322803	0.956687
872.634101	0.956044
872.945357	0.953604
873.256571	0.951888
873.567744	0.950564
873.878874	0.952339
874.189963	0.950896
874.501010	0.949141
874.812015	0.948419
875.122979	0.950435
875.433900	0.951727
875.744780	0.952976
876.055618	0.950824
876.366415	0.947935
876.677169	0.948456
876.987882	0.950449
877.298554	0.949679
877.609183	0.945778
877.919771	0.943779
878.230317	0.942657
878.540822	0.940936
878.851285	0.933593
879.161707	0.925132
879.472087	0.911527
879.782425	0.896268
880.092722	0.861490
880.402977	0.808314
880.713191	0.745801
881.023363	0.683884
881.333494	0.649773
881.643583	0.621967
881.953631	0.621945
882.263637	0.651434
882.573602	0.690832
882.883526	0.717065
883.193408	0.741532
883.503248	0.764577
883.813048	0.793184
884.122806	0.822692
884.432522	0.846541
884.742197	0.867665
885.051831	0.877793
885.361424	0.888850
885.670975	0.900758
885.980485	0.911737
886.289954	0.917311
886.599382	0.923544
886.908768	0.926735
887.218113	0.931951
887.527417	0.936954
887.836680	0.939768
888.145901	0.941792
888.455082	0.944238
888.764221	0.949295
889.073319	0.951713
889.382376	0.950583
889.691392	0.951222
890.000366	0.950922
890.309300	0.952967
890.618193	0.951188
890.927044	0.949478
891.235855	0.950277
891.544625	0.950465
891.853353	0.950950
892.162041	0.948301
892.470687	0.940800
892.779293	0.936574
893.087858	0.931241
893.396381	0.925474
893.704864	0.910166
894.013306	0.886411
894.321707	0.858690
894.630068	0.843401
894.938387	0.838529
895.246665	0.840005
895.554903	0.853267
895.863100	0.867200
896.171256	0.882655
896.479371	0.904000
896.787446	0.916016
897.095480	0.923611
897.403473	0.925991
897.711425	0.930850
898.019336	0.938437
898.327207	0.941546
898.635038	0.943288
898.942827	0.943200
899.250576	0.948104
899.558284	0.950452
899.865952	0.952555
900.173579	0.953284
900.481165	0.954296
900.788711	0.958804
901.096216	0.960177
901.403681	0.961096
901.711105	0.962037
902.018489	0.962150
902.325832	0.960593
902.633135	0.960191
902.940397	0.953620
903.247619	0.941744
903.554800	0.915638
903.861941	0.875058
904.169041	0.838210
904.476101	0.819019
904.783121	0.820506
905.090100	0.837448
905.397039	0.860015
905.703938	0.882435
906.010796	0.903232
906.317614	0.920715
906.624391	0.932891
906.931129	0.942265
907.237826	0.950102
907.544483	0.957745
907.851099	0.961389
908.157675	0.965972
908.464211	0.968316
908.770707	0.971881
909.077163	0.974522
909.383578	0.972869
909.689954	0.973741
909.996289	0.973472
910.302584	0.976785
910.608839	0.978388
910.915054	0.977960
911.221229	0.976961
911.527363	0.976494
911.833458	0.976471
912.139513	0.977123
912.445527	0.974166
912.751502	0.972287
913.057436	0.970343
913.363331	0.969150
913.669186	0.965644
913.975000	0.959796
914.280775	0.953094
914.586510	0.944670
914.892205	0.931844
915.197859	0.911839
915.503475	0.882134
915.809050	0.862400
916.114585	0.855517
916.420081	0.852872
916.725536	0.850209
917.030952	0.859675
917.336328	0.871968
917.641665	0.887986
917.946961	0.903933
918.252218	0.916683
918.557435	0.924260
918.862612	0.934181
919.167750	0.939645
919.472848	0.944199
919.777906	0.950632
920.082925	0.955133
920.387904	0.959787
920.692843	0.961453
920.997743	0.962092
921.302603	0.966340
921.607423	0.968948
921.912204	0.970612
922.216946	0.970702
922.521647	0.972147
922.826310	0.973867
923.130932	0.976052
923.435516	0.976503
923.740059	0.978204
924.044564	0.976376
924.349028	0.979713
924.653454	0.981517
924.957840	0.984245
925.262186	0.982778
925.566493	0.982507
925.870761	0.984066
926.174989	0.985668
926.479178	0.988213
926.783328	0.987718
927.087438	0.987742
927.391509	0.987930
927.695541	0.989653
927.999533	0.989384
928.303486	0.988959
928.607400	0.989537
928.911275	0.988130
929.215110	0.989410
929.518906	0.991059
929.822663	0.989600
930.126381	0.989811
930.430060	0.989630
930.733699	0.989734
931.037299	0.988134
931.340861	0.990396
931.644383	0.989213
931.947866	0.989388
932.251309	0.990781
932.554714	0.989543
932.858080	0.990018
933.161407	0.989313
933.464694	0.989928
933.767943	0.988620
934.071153	0.989858
934.374323	0.991018
934.677455	0.990800
934.980548	0.991614
935.283602	0.990080
935.586617	0.990934
935.889593	0.990221
936.192530	0.990539
936.495428	0.989602
936.798287	0.990552
937.101108	0.991127
937.403890	0.987485
937.706632	0.988381
938.009336	0.986246
938.312002	0.984969
938.614628	0.983691
938.917216	0.981464
939.219765	0.980926
939.522275	0.982340
939.824747	0.982169
940.127179	0.981798
940.429573	0.983573
940.731929	0.983249
941.034246	0.983425
941.336524	0.983987
941.638763	0.985462
941.940964	0.985586
942.243126	0.985342
942.545250	0.986297
942.847335	0.987800
943.149381	0.986641
943.451389	0.986102
943.753359	0.987786
944.055290	0.990002
944.357182	0.989808
944.659036	0.988343
944.960851	0.989390
945.262628	0.989841
945.564367	0.990088
945.866067	0.988759
946.167729	0.988416
946.469352	0.989102
946.770937	0.987927
947.072484	0.990845
947.373992	0.989717
947.675462	0.989271
947.976893	0.989816
948.278286	0.990156
948.579641	0.990343
948.880958	0.990418
949.182236	0.990173
949.483476	0.991058
949.784678	0.990201
950.085841	0.990295
950.386967	0.990189
950.688054	0.990445
950.989103	0.990793
951.290114	0.989251
951.591087	0.988768
951.892021	0.988920
952.192917	0.988916
952.493776	0.988374
952.794596	0.988067
953.095378	0.988001
953.396122	0.987446
953.696828	0.986342
953.997496	0.989208
954.298126	0.990366
954.598718	0.990284
954.899272	0.990956
955.199788	0.990593
955.500266	0.992602
955.800706	0.992383
956.101108	0.993722
956.401472	0.992688
956.701798	0.994817
957.002087	0.991886
957.302337	0.993176
957.602550	0.994284
957.902724	0.995477
958.202861	0.995350
958.502960	0.995044
958.803022	0.994408
959.103045	0.995746
959.403031	0.995468
959.702979	0.995186
960.002889	0.995560
960.302762	0.994543
960.602596	0.996266
960.902393	0.994269
961.202153	0.996583
961.501875	0.996407
961.801559	0.995997
962.101205	0.994783
962.400814	0.997160
962.700385	0.995714
962.999918	0.997166
963.299414	0.996756
963.598873	0.994740
963.898293	0.995648
964.197677	0.995350
964.497022	0.996397
964.796331	0.997239
965.095601	0.997563
965.394835	0.996508
965.694030	0.996576
965.993189	0.996781
966.292309	0.997784
966.591393	0.998326
966.890439	0.996839
967.189447	0.996751
967.488419	0.996653
967.787353	0.996810
968.086249	0.996199
968.385108	0.996455
968.683930	0.997107
968.982714	0.997752
969.281462	0.996738
969.580172	0.996043
969.878844	0.996167
970.177480	0.996325
970.476078	0.996953
970.774639	0.996543
971.073162	0.996726
971.371649	0.995824
971.670098	0.996202
971.968510	0.997186
972.266885	0.996293
972.565223	0.995859
972.863524	0.996224
973.161788	0.995717
973.460014	0.997520
973.758204	0.995901
974.056356	0.996205
974.354471	0.993439
974.652550	0.996817
974.950591	0.996238
975.248595	0.996027
975.546563	0.996433
975.844493	0.997712
976.142386	0.996709
976.440243	0.997324
976.738062	0.996723
977.035845	0.997917
977.333590	0.995868
977.631299	0.997422
977.928971	0.996096
978.226606	0.996861
978.524204	0.996197
978.821765	0.997276
979.119290	0.995539
979.416777	0.996458
979.714228	0.997069
980.011642	0.996172
980.309020	0.996808
980.606360	0.997581
980.903664	0.997428
981.200931	0.996489
981.498162	0.994849
981.795356	0.994444
982.092513	0.993373
982.389633	0.993757
982.686717	0.990685
982.983764	0.990724
983.280775	0.989701
983.577749	0.989312
983.874686	0.990914
984.171587	0.990672
984.468451	0.993518
984.765279	0.994707
985.062070	0.993462
985.358824	0.994048
985.655543	0.994553
985.952224	0.995820
986.248869	0.995880
986.545478	0.997196
986.842050	0.998495
987.138586	0.995706
987.435086	0.997683
987.731549	0.997905
988.027975	0.997256
988.324366	0.997860
988.620719	0.997479
988.917037	0.995972
989.213318	0.998168
989.509563	0.997761
989.805772	0.996982
990.101944	0.998369
990.398080	0.998105
990.694180	0.998695
990.990244	0.997310
991.286271	0.998183
991.582262	0.998260
991.878217	0.997462
992.174136	0.997709
992.470019	0.999312
992.765865	0.997083
993.061676	0.998223
993.357450	0.997921
993.653188	0.997479
993.948890	0.996907
994.244556	0.998687
994.540186	0.997661
994.835780	0.996934
995.131337	0.996632
995.426859	0.996360
995.722345	0.998427
996.017795	0.997585
996.313208	0.996350
996.608586	0.995465
996.903928	0.996517
997.199234	0.995795
997.494504	0.995984
997.789738	0.995587
998.084936	0.996798
998.380099	0.996715
998.675225	0.997471
998.970316	0.997229
999.265371	0.998553
999.560390	0.996901
999.855373	0.998672
1000.150320	0.997741
1000.445232	0.996924
1000.740108	0.997887
1001.034948	0.998345
1001.329752	0.998360
1001.624521	0.998613
1001.919254	0.997718
1002.213951	0.997338
1002.508613	0.997930
1002.803239	0.998461
1003.097829	0.998375
1003.392384	0.999946
1003.686903	0.998572
1003.981386	0.997974
1004.275834	0.999109
1004.570246	0.999632
1004.864623	1.000074
1005.158964	0.998512
1005.453270	0.998411
1005.747540	0.997125
1006.041775	0.998652
1006.335974	0.999976
1006.630138	1.000035
1006.924266	0.998757
1007.218359	0.999524
1007.512416	0.999001
1007.806438	0.999982
1008.100425	0.998532
1008.394376	0.999636
1008.688292	0.996735
1008.982172	1.000937
1009.276017	0.997914
1009.569827	0.998956
1009.863602	0.998655
1010.157341	0.999182
1010.451045	0.998669
1010.744714	0.999163
1011.038347	0.999384
1011.331945	0.999513
1011.625508	0.997924
1011.919036	0.998818
1012.212528	0.998722
1012.505986	0.996158
1012.799408	0.998970
1013.092795	0.999014
1013.386147	0.998070
1013.679464	0.998384
1013.972745	0.997967
1014.265992	0.997695
1014.559204	0.998470
1014.852380	0.998418
1015.145521	0.998273
1015.438628	0.998839
1015.731699	0.999559
1016.024736	0.999248
1016.317737	0.999954
1016.610703	0.998966
1016.903635	0.999035
1017.196531	0.998397
1017.489393	0.999113
1017.782219	0.998963
1018.075011	0.997481
1018.367768	0.998129
1018.660490	0.999759
1018.953177	0.999759
1019.245829	0.999759
