Dividing Wavelength (nm)	Counts (n)	Blue Motor Position (mm): 0.000000	Red Motor Position (mm): 34.400000	
326.493990	1.001589
326.888308	1.001589
327.282561	1.001589
327.676750	1.000423
328.070874	0.999812
328.464933	1.000023
328.858929	0.999214
329.252859	0.999065
329.646726	0.999501
330.040528	0.999860
330.434265	0.997749
330.827938	1.000466
331.221547	1.000475
331.615091	0.999777
332.008571	1.001100
332.401986	0.998695
332.795338	1.000065
333.188625	0.998974
333.581847	1.000843
333.975006	0.998723
334.368100	0.999267
334.761129	1.000453
335.154095	1.000771
335.546996	0.998847
335.939833	0.995502
336.332606	0.994430
336.725315	0.998209
337.117960	0.998026
337.510540	0.995963
337.903056	0.996744
338.295508	0.995724
338.687896	0.996908
339.080220	0.996292
339.472480	0.997293
339.864676	0.996029
340.256807	0.997154
340.648875	0.997300
341.040879	0.996284
341.432818	0.995994
341.824694	0.996150
342.216506	0.996902
342.608253	0.996342
342.999937	0.995363
343.391557	0.996222
343.783113	0.995574
344.174605	0.997038
344.566033	0.996230
344.957397	0.995740
345.348697	0.996183
345.739934	0.996650
346.131106	0.995609
346.522215	0.996221
346.913260	0.996097
347.304241	0.996108
347.695159	0.996659
348.086012	0.995929
348.476802	0.995972
348.867528	0.996467
349.258191	0.996047
349.648789	0.997147
350.039324	0.996514
350.429796	0.997316
350.820203	0.996820
351.210548	0.996008
351.600828	0.996579
351.991045	0.996866
352.381198	0.995807
352.771288	0.996247
353.161314	0.995652
353.551276	0.996506
353.941175	0.995545
354.331010	0.996698
354.720782	0.997234
355.110490	0.996491
355.500135	0.996431
355.889717	0.996226
356.279235	0.995496
356.668689	0.996765
357.058080	0.995156
357.447408	0.997702
357.836672	0.996534
358.225873	0.997953
358.615010	0.996548
359.004084	0.998452
359.393095	0.996186
359.782043	0.997207
360.170927	0.996674
360.559748	0.997917
360.948505	0.996072
361.337199	0.996494
361.725830	0.996974
362.114398	0.995508
362.502903	0.997140
362.891344	0.998361
363.279722	0.996940
363.668037	0.997299
364.056289	0.996638
364.444478	0.996908
364.832603	0.995773
365.220665	0.996409
365.608665	0.996675
365.996601	0.995478
366.384474	0.996347
366.772284	0.995937
367.160031	0.995161
367.547715	0.996062
367.935336	0.996925
368.322893	0.997065
368.710388	0.995728
369.097820	0.996133
369.485189	0.995583
369.872495	0.995860
370.259738	0.995900
370.646918	0.997415
371.034035	0.997807
371.421090	0.997649
371.808081	0.995968
372.195010	0.995580
372.581875	0.995887
372.968678	0.996347
373.355418	0.996450
373.742096	0.996332
374.128710	0.997144
374.515262	0.996550
374.901751	0.996636
375.288177	0.996505
375.674540	0.997519
376.060841	0.996416
376.447079	0.996687
376.833254	0.995860
377.219367	0.997015
377.605417	0.997178
377.991404	0.998411
378.377329	0.996298
378.763191	0.997263
379.148991	0.998163
379.534727	0.996839
379.920402	0.997413
380.306013	0.996755
380.691563	0.997746
381.077049	0.996315
381.462474	0.996395
381.847835	0.996594
382.233134	0.996999
382.618371	0.997198
383.003545	0.997794
383.388657	0.996691
383.773706	0.997908
384.158693	0.997274
384.543618	0.996666
384.928480	0.997974
385.313280	0.997016
385.698017	0.997781
386.082692	0.997168
386.467305	0.997251
386.851856	0.997613
387.236344	0.997090
387.620770	0.995817
388.005133	0.997433
388.389435	0.997161
388.773674	0.996819
389.157851	0.996965
389.541965	0.998294
389.926018	0.996922
390.310008	0.998532
390.693936	0.997528
391.077802	0.997389
391.461606	0.997262
391.845348	0.997523
392.229027	0.999711
392.612645	0.998036
392.996200	0.998015
393.379694	0.997599
393.763125	0.998211
394.146494	0.998282
394.529801	0.996099
394.913047	0.998101
395.296230	0.997392
395.679351	0.997857
396.062410	0.997562
396.445408	0.998183
396.828343	0.998028
397.211217	0.997787
397.594028	0.996748
397.976778	0.997643
398.359466	0.997307
398.742092	0.997552
399.124656	0.997163
399.507158	0.997952
399.889598	0.997596
400.271977	0.997593
400.654294	0.998422
401.036549	0.998261
401.418742	0.997969
401.800874	0.996965
402.182944	0.997938
402.564952	0.996055
402.946898	0.997852
403.328783	0.997533
403.710606	0.998288
404.092367	0.997646
404.474067	0.998095
404.855705	0.997700
405.237282	0.998422
405.618797	0.998183
406.000250	0.997609
406.381642	0.998134
406.762972	0.998247
407.144240	0.997834
407.525447	0.998715
407.906593	0.998613
408.287677	0.998362
408.668700	0.998139
409.049661	0.997353
409.430560	0.998394
409.811399	0.997179
410.192176	0.996956
410.572891	0.997611
410.953545	0.997968
411.334138	0.997395
411.714669	0.997815
412.095139	0.997741
412.475547	0.997900
412.855894	0.998182
413.236180	0.997491
413.616405	0.997793
413.996568	0.998464
414.376670	0.998075
414.756711	0.998298
415.136691	0.997682
415.516609	0.998174
415.896466	0.997655
416.276262	0.996045
416.655997	0.997796
417.035670	0.998181
417.415283	0.998195
417.794834	0.998068
418.174324	0.998480
418.553753	0.998523
418.933121	0.997535
419.312428	0.998507
419.691674	0.998249
420.070859	0.998151
420.449983	0.998502
420.829045	0.997909
421.208047	0.999055
421.586988	0.999586
421.965867	0.998398
422.344686	0.999494
422.723444	0.998386
423.102141	0.998028
423.480777	0.998316
423.859352	0.997911
424.237866	0.997805
424.616319	0.998548
424.994712	0.998761
425.373044	0.998029
425.751314	0.997872
426.129524	0.997111
426.507673	0.998034
426.885762	0.999008
427.263789	0.998562
427.641756	0.998388
428.019662	0.998246
428.397508	0.997882
428.775292	0.997724
429.153016	0.997810
429.530679	0.998619
429.908282	0.998109
430.285824	0.997822
430.663305	0.997812
431.040726	0.998091
431.418086	0.999039
431.795385	0.998615
432.172624	0.997803
432.549802	0.998136
432.926920	0.998580
433.303977	0.997867
433.680974	0.998079
434.057910	0.998636
434.434786	0.998638
434.811601	0.998099
435.188355	0.997724
435.565050	0.997861
435.941683	0.998190
436.318257	0.998988
436.694770	0.997805
437.071222	0.998687
437.447614	0.998601
437.823946	0.998391
438.200218	0.998323
438.576429	0.998271
438.952580	0.998376
439.328670	0.997806
439.704700	0.998212
440.080670	0.998211
440.456580	0.997515
440.832429	0.997429
441.208218	0.998351
441.583947	0.998128
441.959616	0.998746
442.335224	0.998322
442.710773	0.998358
443.086261	0.996745
443.461689	0.998455
443.837057	0.998143
444.212365	0.998523
444.587612	0.998544
444.962800	0.998465
445.337927	0.998397
445.712995	0.998418
446.088002	0.998330
446.462949	0.998333
446.837837	0.998487
447.212664	0.998854
447.587431	0.998575
447.962139	0.998640
448.336786	0.998527
448.711374	0.998575
449.085901	0.997503
449.460369	0.998826
449.834776	0.998622
450.209124	0.998514
450.583412	0.998871
450.957640	0.998606
451.331808	0.998015
451.705917	0.998270
452.079965	0.997913
452.453954	0.998782
452.827883	0.998660
453.201752	0.998493
453.575562	0.998584
453.949311	0.998603
454.323001	0.998458
454.696632	0.997773
455.070202	0.997839
455.443713	0.997576
455.817164	0.998998
456.190556	0.997750
456.563888	0.997874
456.937160	0.998717
457.310373	0.997336
457.683526	0.997708
458.056619	0.998256
458.429653	0.998178
458.802628	0.997436
459.175542	0.998343
459.548398	0.998881
459.921194	0.997780
460.293930	0.998141
460.666607	0.997857
461.039224	0.997641
461.411782	0.998162
461.784280	0.997713
462.156719	0.999192
462.529099	0.998971
462.901419	0.999164
463.273680	0.998162
463.645882	0.999000
464.018024	0.998219
464.390106	0.998475
464.762130	0.998815
465.134094	0.999020
465.505999	0.998958
465.877845	0.999256
466.249631	0.999301
466.621358	0.999370
466.993026	0.998111
467.364634	0.998337
467.736184	0.998303
468.107674	0.997488
468.479105	0.998365
468.850477	0.998369
469.221790	0.998268
469.593043	0.998282
469.964238	0.998328
470.335373	0.997203
470.706449	0.998321
471.077467	0.998239
471.448425	0.998497
471.819324	0.998678
472.190164	0.998504
472.560945	0.998627
472.931667	0.997867
473.302330	0.997814
473.672934	0.998390
474.043479	0.998855
474.413965	0.997930
474.784393	0.998023
475.154761	0.998158
475.525070	0.997881
475.895321	0.998938
476.265513	0.998193
476.635645	0.998237
477.005719	0.997350
477.375734	0.998276
477.745691	0.998432
478.115588	0.998144
478.485427	0.998715
478.855207	0.998289
479.224928	0.998893
479.594591	0.998350
479.964194	0.999497
480.333739	0.998142
480.703226	0.997654
481.072653	0.999157
481.442022	0.999513
481.811333	0.997640
482.180584	0.998360
482.549777	0.998187
482.918912	0.997848
483.287988	0.998693
483.657005	0.998048
484.025964	0.998323
484.394864	0.998392
484.763706	0.998400
485.132489	0.998089
485.501213	0.998003
485.869879	0.998090
486.238487	0.998521
486.607036	0.998357
486.975527	0.997422
487.343959	0.998097
487.712333	0.998022
488.080648	0.997860
488.448905	0.997820
488.817104	0.998768
489.185244	0.997691
489.553326	0.998513
489.921350	0.997705
490.289315	0.997951
490.657222	0.997819
491.025070	0.998329
491.392861	0.997817
491.760593	0.997936
492.128267	0.997059
492.495883	0.997558
492.863440	0.997649
493.230939	0.997503
493.598380	0.997080
493.965763	0.997157
494.333088	0.997539
494.700354	0.996922
495.067563	0.996701
495.434713	0.996409
495.801805	0.996861
496.168839	0.996518
496.535815	0.996784
496.902733	0.995690
497.269593	0.995446
497.636395	0.995166
498.003139	0.995660
498.369825	0.995827
498.736453	0.994328
499.103023	0.994012
499.469535	0.993417
499.835989	0.994042
500.202385	0.993437
500.568723	0.993176
500.935003	0.992575
501.301226	0.992631
501.667390	0.991841
502.033497	0.991137
502.399546	0.991648
502.765537	0.989882
503.131470	0.989650
503.497345	0.989504
503.863163	0.990310
504.228923	0.988132
504.594625	0.987838
504.960269	0.987824
505.325856	0.986950
505.691385	0.985797
506.056856	0.985012
506.422270	0.983676
506.787625	0.983726
507.152924	0.982397
507.518164	0.981000
507.883347	0.980176
508.248472	0.979320
508.613540	0.978215
508.978550	0.977925
509.343503	0.975798
509.708398	0.974816
510.073236	0.973723
510.438016	0.973438
510.802738	0.971964
511.167403	0.970104
511.532010	0.968232
511.896561	0.967441
512.261053	0.966931
512.625488	0.964025
512.989866	0.962740
513.354186	0.961078
513.718449	0.958936
514.082655	0.957905
514.446803	0.955665
514.810894	0.953737
515.174927	0.951694
515.538904	0.949937
515.902822	0.947456
516.266684	0.946245
516.630488	0.943700
516.994235	0.941427
517.357925	0.937878
517.721558	0.936216
518.085133	0.932854
518.448651	0.931711
518.812112	0.929014
519.175516	0.926175
519.538863	0.922675
519.902152	0.920558
520.265385	0.916545
520.628560	0.914524
520.991678	0.911571
521.354739	0.908700
521.717743	0.906126
522.080690	0.902729
522.443580	0.898784
522.806413	0.895082
523.169189	0.892320
523.531908	0.888271
523.894569	0.885782
524.257174	0.882462
524.619722	0.878295
524.982213	0.876218
525.344647	0.870885
525.707025	0.867361
526.069345	0.863011
526.431608	0.858937
526.793815	0.855040
527.155964	0.852335
527.518057	0.848747
527.880093	0.844337
528.242072	0.840537
528.603995	0.835858
528.965860	0.832298
529.327669	0.827433
529.689421	0.823300
530.051117	0.820265
530.412755	0.813698
530.774337	0.811542
531.135862	0.805797
531.497331	0.801751
531.858743	0.797950
532.220098	0.792305
532.581396	0.788516
532.942638	0.783528
533.303824	0.779620
533.664953	0.774100
534.026025	0.769733
534.387040	0.764215
534.747999	0.759793
535.108902	0.753959
535.469748	0.750957
535.830537	0.745899
536.191270	0.740658
536.551947	0.735019
536.912567	0.730591
537.273131	0.727364
537.633638	0.721249
537.994089	0.716188
538.354483	0.711413
538.714821	0.706173
539.075103	0.700759
539.435328	0.695436
539.795497	0.693137
540.155609	0.685791
540.515665	0.680811
540.875665	0.677842
541.235609	0.671275
541.595496	0.666763
541.955328	0.659455
542.315102	0.656515
542.674821	0.652076
543.034483	0.646785
543.394090	0.641202
543.753640	0.637663
544.113134	0.629046
544.472571	0.626115
544.831953	0.619069
545.191278	0.616711
545.550548	0.611495
545.909761	0.604426
546.268918	0.599904
546.628019	0.594489
546.987064	0.590339
547.346053	0.587547
547.704986	0.580328
548.063863	0.575539
548.422684	0.572186
548.781449	0.567102
549.140158	0.560943
549.498811	0.557829
549.857408	0.555795
550.215949	0.546464
550.574434	0.544074
550.932864	0.537658
551.291237	0.533094
551.649555	0.527532
552.007817	0.523682
552.366022	0.520243
552.724173	0.515252
553.082267	0.511482
553.440305	0.503429
553.798288	0.503802
554.156215	0.495704
554.514086	0.491933
554.871902	0.490097
555.229661	0.485356
555.587365	0.481558
555.945014	0.480182
556.302606	0.471636
556.660143	0.471136
557.017625	0.463035
557.375050	0.461253
557.732421	0.454699
558.089735	0.452418
558.446994	0.448992
558.804197	0.443877
559.161345	0.440024
559.518437	0.440147
559.875474	0.433128
560.232455	0.428813
560.589381	0.427296
560.946251	0.422262
561.303065	0.417966
561.659825	0.414438
562.016528	0.412748
562.373177	0.412096
562.729770	0.405097
563.086307	0.404273
563.442789	0.399469
563.799216	0.397081
564.155587	0.393237
564.511904	0.390490
564.868164	0.387579
565.224370	0.384682
565.580520	0.382505
565.936615	0.380493
566.292654	0.378894
566.648638	0.373882
567.004567	0.371629
567.360441	0.369467
567.716260	0.368112
568.072023	0.364030
568.427732	0.361197
568.783385	0.361592
569.138982	0.356849
569.494525	0.353918
569.850013	0.353868
570.205445	0.349625
570.560823	0.350307
570.916145	0.349180
571.271412	0.345359
571.626625	0.344080
571.981782	0.342823
572.336884	0.341164
572.691931	0.338935
573.046923	0.337947
573.401860	0.337213
573.756743	0.336554
574.111570	0.333510
574.466342	0.332150
574.821059	0.329460
575.175722	0.330329
575.530330	0.328143
575.884882	0.326441
576.239380	0.326649
576.593823	0.325182
576.948211	0.322826
577.302544	0.324949
577.656823	0.322558
578.011047	0.321479
578.365216	0.320361
578.719330	0.320978
579.073389	0.318983
579.427394	0.318950
579.781344	0.318479
580.135239	0.318454
580.489080	0.316983
580.842866	0.318301
581.196597	0.317149
581.550273	0.314939
581.903895	0.314322
582.257463	0.312009
582.610975	0.314256
582.964434	0.312397
583.317837	0.313849
583.671186	0.313406
584.024481	0.312468
584.377721	0.313563
584.730906	0.313558
585.084037	0.311514
585.437113	0.312634
585.790135	0.311281
586.143103	0.312875
586.496016	0.313738
586.848874	0.310242
587.201679	0.310280
587.554428	0.312765
587.907124	0.310467
588.259765	0.310573
588.612352	0.310585
588.964884	0.313941
589.317362	0.312716
589.669786	0.312034
590.022155	0.310201
590.374470	0.308858
590.726731	0.310632
591.078937	0.314245
591.431090	0.310399
591.783188	0.313987
592.135232	0.313885
592.487222	0.313508
592.839157	0.311132
593.191038	0.312844
593.542866	0.314480
593.894639	0.317721
594.246358	0.315094
594.598022	0.314308
594.949633	0.317342
595.301190	0.317904
595.652692	0.316733
596.004141	0.312709
596.355535	0.320075
596.706876	0.320513
597.058162	0.322628
597.409395	0.319277
597.760573	0.316941
598.111698	0.320040
598.462768	0.320005
598.813785	0.321392
599.164748	0.322419
599.515657	0.322295
599.866511	0.325147
600.217312	0.320588
600.568060	0.325916
600.918753	0.321898
601.269392	0.322673
601.619978	0.325959
601.970510	0.323303
602.320988	0.323123
602.671412	0.320557
603.021783	0.323142
603.372100	0.324437
603.722363	0.323849
604.072572	0.324790
604.422728	0.324428
604.772830	0.326274
605.122878	0.325772
605.472872	0.326179
605.822813	0.324567
606.172701	0.327057
606.522534	0.324188
606.872314	0.324257
607.222041	0.324744
607.571714	0.322876
607.921333	0.324431
608.270899	0.323818
608.620411	0.320956
608.969870	0.324689
609.319276	0.324804
609.668627	0.324277
610.017926	0.322750
610.367171	0.321148
610.716362	0.321780
611.065500	0.322419
611.414585	0.320921
611.763616	0.321374
612.112594	0.321665
612.461518	0.320968
612.810389	0.318897
613.159207	0.321198
613.507971	0.322764
613.856682	0.318439
614.205340	0.320133
614.553945	0.316827
614.902496	0.320775
615.250994	0.318394
615.599439	0.319503
615.947830	0.318768
616.296169	0.319717
616.644454	0.319004
616.992686	0.319204
617.340864	0.316917
617.688990	0.320435
618.037063	0.317109
618.385082	0.318907
618.733048	0.316001
619.080961	0.317854
619.428821	0.317631
619.776628	0.316910
620.124382	0.319066
620.472083	0.319004
620.819731	0.318287
621.167326	0.322497
621.514868	0.321673
621.862357	0.325966
622.209793	0.326085
622.557176	0.327713
622.904506	0.329098
623.251783	0.331144
623.599007	0.333192
623.946179	0.333298
624.293297	0.335229
624.640363	0.338812
624.987376	0.339582
625.334336	0.342000
625.681243	0.344153
626.028097	0.344560
626.374899	0.345701
626.721647	0.345703
627.068343	0.349371
627.414987	0.350551
627.761577	0.352252
628.108115	0.350615
628.454600	0.355773
628.801032	0.352874
629.147412	0.355151
629.493739	0.355249
629.840014	0.358740
630.186236	0.355979
630.532405	0.361408
630.878521	0.359026
631.224585	0.361126
631.570597	0.364248
631.916556	0.362968
632.262462	0.363392
632.608316	0.364846
632.954117	0.365867
633.299866	0.367097
633.645562	0.367355
633.991206	0.371346
634.336797	0.374882
634.682336	0.376890
635.027823	0.378280
635.373257	0.378816
635.718639	0.382567
636.063968	0.381645
636.409245	0.387592
636.754470	0.388051
637.099642	0.389743
637.444762	0.393549
637.789829	0.392467
638.134845	0.396351
638.479808	0.397367
638.824719	0.396791
639.169577	0.400951
639.514383	0.399649
639.859137	0.403717
640.203839	0.403577
640.548489	0.404112
640.893086	0.405329
641.237632	0.406922
641.582125	0.405558
641.926566	0.406698
642.270955	0.407483
642.615292	0.407832
642.959576	0.406870
643.303809	0.407093
643.647990	0.407010
643.992118	0.407761
644.336195	0.410752
644.680219	0.409576
645.024192	0.410234
645.368112	0.403800
645.711981	0.402152
646.055797	0.398147
646.399562	0.400400
646.743274	0.392388
647.086935	0.389760
647.430544	0.390393
647.774101	0.389132
648.117606	0.388605
648.461059	0.389123
648.804460	0.391408
649.147810	0.396680
649.491108	0.398199
649.834354	0.399886
650.177548	0.405344
650.520690	0.410787
650.863781	0.411507
651.206820	0.410992
651.549807	0.415656
651.892742	0.419558
652.235626	0.418914
652.578458	0.419968
652.921238	0.425956
653.263967	0.423870
653.606644	0.427720
653.949269	0.427777
654.291843	0.431518
654.634365	0.428536
654.976836	0.431653
655.319255	0.431656
655.661622	0.433224
656.003938	0.433600
656.346203	0.436624
656.688416	0.434154
657.030577	0.437011
657.372687	0.439758
657.714746	0.439844
658.056753	0.437261
658.398708	0.440884
658.740612	0.441900
659.082465	0.437910
659.424266	0.438906
659.766016	0.438514
660.107715	0.440993
660.449362	0.440122
660.790958	0.440822
661.132503	0.441114
661.473996	0.438099
661.815438	0.440154
662.156829	0.440052
662.498168	0.440462
662.839456	0.441936
663.180693	0.439744
663.521879	0.439727
663.863013	0.440829
664.204097	0.438766
664.545129	0.436166
664.886110	0.436999
665.227040	0.433471
665.567918	0.436040
665.908746	0.434372
666.249522	0.433879
666.590248	0.435121
666.930922	0.433241
667.271545	0.431869
667.612118	0.432061
667.952639	0.434216
668.293109	0.432119
668.633528	0.435239
668.973896	0.435022
669.314213	0.435501
669.654480	0.437221
669.994695	0.437652
670.334859	0.438723
670.674973	0.438864
671.015035	0.438718
671.355047	0.438292
671.695008	0.439823
672.034918	0.441511
672.374777	0.440827
672.714585	0.442236
673.054342	0.442082
673.394049	0.441575
673.733705	0.439876
674.073310	0.441208
674.412864	0.443741
674.752368	0.444647
675.091820	0.444405
675.431223	0.449294
675.770574	0.448863
676.109875	0.451745
676.449125	0.451691
676.788324	0.453606
677.127473	0.459755
677.466571	0.459432
677.805619	0.460537
678.144616	0.461132
678.483562	0.463633
678.822458	0.465658
679.161303	0.467228
679.500098	0.467496
679.838842	0.469294
680.177535	0.469090
680.516179	0.467021
680.854771	0.466554
681.193314	0.460400
681.531805	0.451471
681.870247	0.439922
682.208638	0.432216
682.546978	0.430834
682.885268	0.433085
683.223508	0.438931
683.561697	0.442490
683.899836	0.445576
684.237925	0.448654
684.575963	0.451369
684.913951	0.454604
685.251889	0.450512
685.589776	0.452448
685.927614	0.454573
686.265401	0.448732
686.603137	0.450740
686.940824	0.444573
687.278460	0.443131
687.616046	0.441995
687.953582	0.436503
688.291068	0.438502
688.628504	0.433647
688.965889	0.436493
689.303224	0.440786
689.640510	0.444309
689.977745	0.449965
690.314930	0.457966
690.652065	0.462562
690.989150	0.469442
691.326185	0.476785
691.663170	0.480795
692.000105	0.488081
692.336990	0.494732
692.673825	0.497302
693.010610	0.504428
693.347345	0.509690
693.684030	0.511083
694.020665	0.516153
694.357251	0.524142
694.693786	0.524334
695.030272	0.528268
695.366707	0.532487
695.703093	0.535838
696.039429	0.533482
696.375716	0.534906
696.711952	0.537737
697.048139	0.539465
697.384276	0.541357
697.720363	0.539664
698.056400	0.538770
698.392388	0.544501
698.728326	0.547778
699.064214	0.550958
699.400053	0.551248
699.735842	0.554220
700.071581	0.557398
700.407270	0.560637
700.742910	0.563261
701.078501	0.569046
701.414042	0.569972
701.749533	0.572931
702.084974	0.581399
702.420366	0.573955
702.755709	0.580710
703.091002	0.589516
703.426246	0.582754
703.761440	0.588561
704.096584	0.593374
704.431679	0.590650
704.766725	0.592280
705.101721	0.594151
705.436668	0.590059
705.771565	0.597003
706.106413	0.594062
706.441212	0.589118
706.775961	0.587311
707.110661	0.590529
707.445311	0.587386
707.779913	0.583950
708.114465	0.583311
708.448967	0.578954
708.783421	0.571351
709.117825	0.566350
709.452180	0.566023
709.786485	0.560297
710.120742	0.549731
710.454949	0.552545
710.789107	0.543750
711.123216	0.535347
711.457275	0.536601
711.791286	0.528028
712.125247	0.526638
712.459159	0.537961
712.793023	0.530408
713.126837	0.533999
713.460602	0.535080
713.794318	0.543860
714.127985	0.542897
714.461602	0.552909
714.795171	0.556055
715.128691	0.564132
715.462162	0.571030
715.795584	0.576668
716.128957	0.579446
716.462281	0.585784
716.795556	0.589349
717.128782	0.594585
717.461960	0.604623
717.795088	0.602581
718.128167	0.609455
718.461198	0.617470
718.794180	0.618359
719.127113	0.621569
719.459997	0.624467
719.792833	0.630184
720.125619	0.631725
720.458357	0.637310
720.791046	0.637959
721.123686	0.640778
721.456278	0.648234
721.788821	0.645204
722.121315	0.648765
722.453761	0.653744
722.786158	0.650855
723.118506	0.647611
723.450805	0.655929
723.783056	0.651387
724.115259	0.648922
724.447412	0.648454
724.779518	0.649405
725.111574	0.649170
725.443582	0.644088
725.775542	0.646935
726.107453	0.639632
726.439315	0.638820
726.771129	0.636868
727.102895	0.630330
727.434612	0.623502
727.766281	0.621957
728.097901	0.621017
728.429473	0.620830
728.760996	0.619415
729.092471	0.619132
729.423897	0.622395
729.755276	0.621230
730.086606	0.622267
730.417887	0.617414
730.749120	0.607785
731.080305	0.597817
731.411442	0.593910
731.742530	0.598828
732.073570	0.598380
732.404562	0.590273
732.735506	0.592071
733.066401	0.597186
733.397249	0.605682
733.728048	0.617480
734.058798	0.629729
734.389501	0.640822
734.720156	0.649764
735.050762	0.657934
735.381320	0.658415
735.711831	0.668272
736.042293	0.673209
736.372707	0.668618
736.703073	0.673087
737.033391	0.675574
737.363661	0.672556
737.693883	0.667780
738.024056	0.666644
738.354182	0.666778
738.684260	0.657045
739.014290	0.652182
739.344272	0.653258
739.674207	0.646769
740.004093	0.645985
740.333931	0.647037
740.663722	0.646548
740.993464	0.646854
741.323159	0.650780
741.652806	0.655734
741.982405	0.661312
742.311956	0.664940
742.641460	0.666982
742.970915	0.670936
743.300323	0.678570
743.629683	0.685214
743.958996	0.686782
744.288260	0.691353
744.617477	0.697325
744.946647	0.698782
745.275768	0.704092
745.604842	0.704451
745.933869	0.713831
746.262847	0.713991
746.591778	0.708200
746.920662	0.714638
747.249498	0.720486
747.578286	0.712616
747.907027	0.707897
748.235720	0.708396
748.564365	0.703746
748.892963	0.703336
749.221514	0.705840
749.550017	0.711017
749.878473	0.711998
750.206881	0.717279
750.535242	0.718488
750.863555	0.718152
751.191821	0.719781
751.520039	0.722936
751.848210	0.727943
752.176334	0.719789
752.504411	0.719365
752.832440	0.727114
753.160421	0.730858
753.488356	0.729291
753.816243	0.727066
754.144082	0.734531
754.471875	0.739190
754.799620	0.733475
755.127318	0.735826
755.454969	0.735934
755.782572	0.734130
756.110129	0.740314
756.437638	0.741433
756.765100	0.738373
757.092515	0.737120
757.419882	0.735640
757.747203	0.741213
758.074477	0.740660
758.401703	0.737746
758.728882	0.733189
759.056014	0.732332
759.383099	0.730647
759.710138	0.731678
760.037129	0.728711
760.364073	0.722566
760.690970	0.724420
761.017820	0.730635
761.344623	0.725793
761.671379	0.717557
761.998088	0.705719
762.324751	0.683371
762.651366	0.642272
762.977935	0.575472
763.304456	0.524313
763.630931	0.514692
763.957359	0.553535
764.283740	0.597597
764.610074	0.624674
764.936362	0.655380
765.262602	0.681530
765.588796	0.702788
765.914943	0.721146
766.241044	0.738423
766.567097	0.744223
766.893104	0.755099
767.219064	0.760744
767.544978	0.767641
767.870845	0.780397
768.196665	0.784497
768.522438	0.781118
768.848165	0.783135
769.173846	0.791640
769.499479	0.796757
769.825066	0.800697
770.150607	0.805425
770.476101	0.800644
770.801548	0.801185
771.126949	0.812992
771.452303	0.816574
771.777611	0.815812
772.102872	0.815674
772.428087	0.820313
772.753256	0.822496
773.078378	0.825949
773.403453	0.835125
773.728482	0.839029
774.053465	0.832411
774.378401	0.835909
774.703291	0.843773
775.028135	0.843512
775.352932	0.845450
775.677683	0.848042
776.002388	0.849644
776.327046	0.847468
776.651658	0.851454
776.976224	0.855140
777.300743	0.855246
777.625216	0.857589
777.949643	0.859304
778.274024	0.859383
778.598359	0.861393
778.922647	0.859403
779.246889	0.859194
779.571086	0.863761
779.895236	0.866828
780.219339	0.862705
780.543397	0.860640
780.867409	0.858252
781.191374	0.860479
781.515294	0.862704
781.839167	0.860851
782.162995	0.864543
782.486776	0.862440
782.810511	0.861566
783.134201	0.867572
783.457844	0.864139
783.781441	0.865846
784.104993	0.872735
784.428498	0.873850
784.751958	0.868247
785.075372	0.871358
785.398739	0.874400
785.722061	0.871816
786.045337	0.866848
786.368568	0.871405
786.691752	0.873864
787.014891	0.858649
787.337983	0.850615
787.661030	0.843795
787.984031	0.827020
788.306987	0.813800
788.629897	0.815445
788.952760	0.818976
789.275579	0.824114
789.598351	0.838838
789.921078	0.852399
790.243759	0.854007
790.566395	0.859668
790.888984	0.866961
791.211529	0.870818
791.534027	0.874265
791.856480	0.875888
792.178888	0.881989
792.501249	0.882310
792.823566	0.883867
793.145836	0.885051
793.468062	0.887319
793.790241	0.887187
794.112375	0.885248
794.434464	0.880291
794.756507	0.880340
795.078505	0.879787
795.400457	0.874067
795.722364	0.862865
796.044226	0.855211
796.366042	0.854554
796.687812	0.858521
797.009538	0.853618
797.331218	0.856760
797.652852	0.862039
797.974442	0.867274
798.295986	0.866702
798.617484	0.868786
798.938938	0.872729
799.260346	0.877866
799.581709	0.879773
799.903026	0.882198
800.224299	0.882725
800.545526	0.887050
800.866708	0.890825
801.187845	0.894627
801.508936	0.894048
801.829983	0.891788
802.150984	0.895286
802.471940	0.899794
802.792851	0.899074
803.113717	0.900300
803.434538	0.898034
803.755314	0.901009
804.076045	0.901820
804.396731	0.901314
804.717372	0.901927
805.037967	0.904370
805.358518	0.901705
805.679024	0.898691
805.999485	0.898227
806.319901	0.898677
806.640272	0.899591
806.960598	0.898578
807.280879	0.895362
807.601115	0.894862
807.921306	0.898167
808.241453	0.898407
808.561554	0.895804
808.881611	0.896524
809.201623	0.898027
809.521590	0.898460
809.841513	0.899239
810.161390	0.898080
810.481223	0.899435
810.801011	0.902832
811.120755	0.905085
811.440453	0.903673
811.760107	0.902554
812.079716	0.902900
812.399281	0.905959
812.718801	0.907853
813.038276	0.908952
813.357707	0.909110
813.677093	0.906575
813.996434	0.910339
814.315731	0.909948
814.634983	0.911975
814.954191	0.910852
815.273354	0.907773
815.592473	0.902636
815.911547	0.904584
816.230577	0.900091
816.549562	0.897926
816.868502	0.899026
817.187399	0.895500
817.506250	0.890551
817.825058	0.892947
818.143821	0.888603
818.462539	0.883522
818.781213	0.875804
819.099843	0.864592
819.418429	0.849220
819.736970	0.832174
820.055466	0.814313
820.373919	0.788801
820.692327	0.756094
821.010691	0.722237
821.329011	0.646564
821.647286	0.533776
821.965517	0.421147
822.283704	0.379009
822.601847	0.381104
822.919945	0.416269
823.237999	0.448967
823.556010	0.494923
823.873976	0.550201
824.191897	0.599519
824.509775	0.641894
824.827609	0.685967
825.145398	0.707893
825.463144	0.710755
825.780845	0.693999
826.098502	0.675383
826.416116	0.630709
826.733685	0.587195
827.051210	0.579199
827.368692	0.593856
827.686129	0.629969
828.003522	0.682221
828.320872	0.728461
828.638177	0.771844
828.955439	0.804022
829.272656	0.825777
829.589830	0.842721
829.906960	0.857577
830.224046	0.869348
830.541088	0.880472
830.858086	0.883541
831.175041	0.889960
831.491952	0.889851
831.808819	0.886028
832.125642	0.878844
832.442421	0.865717
832.759157	0.844050
833.075849	0.799109
833.392497	0.735985
833.709101	0.696007
834.025662	0.705676
834.342179	0.737224
834.658653	0.775292
834.975083	0.809766
835.291469	0.836777
835.607811	0.858123
835.924110	0.873987
836.240366	0.890446
836.556578	0.904334
836.872746	0.911578
837.188871	0.917321
837.504952	0.922740
837.820990	0.925811
838.136984	0.928435
838.452935	0.933173
838.768842	0.932998
839.084706	0.928226
839.400526	0.902173
839.716303	0.862087
840.032037	0.841372
840.347727	0.844225
840.663373	0.861915
840.978977	0.883173
841.294537	0.904475
841.610054	0.920557
841.925527	0.928439
842.240957	0.935070
842.556344	0.942138
842.871687	0.948598
843.186987	0.951230
843.502244	0.951770
843.817458	0.952658
844.132629	0.957798
844.447756	0.961983
844.762840	0.962310
845.077881	0.961084
845.392879	0.960458
845.707833	0.963157
846.022745	0.965058
846.337613	0.966387
846.652438	0.967319
846.967221	0.965574
847.281960	0.966183
847.596656	0.968460
847.911309	0.966619
848.225919	0.968802
848.540485	0.969338
848.855009	0.970383
849.169490	0.970112
849.483928	0.970414
849.798323	0.970829
850.112675	0.971625
850.426984	0.970930
850.741251	0.971375
851.055474	0.971364
851.369654	0.968846
851.683792	0.970774
851.997887	0.970626
852.311938	0.972295
852.625947	0.970867
852.939914	0.970086
853.253837	0.970434
853.567718	0.972284
853.881555	0.972374
854.195350	0.969487
854.509103	0.971065
854.822812	0.972107
855.136479	0.971402
855.450103	0.971154
855.763685	0.968915
856.077224	0.970829
856.390720	0.971894
856.704173	0.972052
857.017584	0.969944
857.330953	0.968679
857.644278	0.968417
857.957561	0.969715
858.270802	0.969882
858.584000	0.968846
858.897155	0.967630
859.210268	0.968879
859.523339	0.969741
859.836367	0.971048
860.149352	0.972622
860.462295	0.969338
860.775195	0.972000
861.088054	0.969775
861.400869	0.970974
861.713642	0.971779
862.026373	0.972034
862.339062	0.971918
862.651708	0.969064
862.964312	0.968944
863.276873	0.970995
863.589392	0.969368
863.901869	0.968811
864.214303	0.965482
864.526696	0.965906
864.839045	0.964963
865.151353	0.963358
865.463619	0.963785
865.775842	0.963632
866.088023	0.964379
866.400162	0.963095
866.712258	0.964399
867.024313	0.964143
867.336325	0.965168
867.648296	0.964925
867.960224	0.964074
868.272110	0.963143
868.583954	0.964790
868.895755	0.966103
869.207515	0.963371
869.519233	0.961032
869.830909	0.961800
870.142542	0.963660
870.454134	0.963835
870.765684	0.962252
871.077191	0.959436
871.388657	0.961781
871.700081	0.959880
872.011463	0.961059
872.322803	0.960133
872.634101	0.957677
872.945357	0.957060
873.256571	0.954910
873.567744	0.955185
873.878874	0.953851
874.189963	0.953615
874.501010	0.954137
874.812015	0.951781
875.122979	0.954207
875.433900	0.954403
875.744780	0.956209
876.055618	0.953499
876.366415	0.951780
876.677169	0.952489
876.987882	0.953481
877.298554	0.952862
877.609183	0.949697
877.919771	0.947763
878.230317	0.944957
878.540822	0.943781
878.851285	0.936849
879.161707	0.931322
879.472087	0.919123
879.782425	0.904013
880.092722	0.870411
880.402977	0.819677
880.713191	0.761648
881.023363	0.704859
881.333494	0.672779
881.643583	0.643869
881.953631	0.644061
882.263637	0.672635
882.573602	0.711509
882.883526	0.736048
883.193408	0.758042
883.503248	0.780255
883.813048	0.805075
884.122806	0.835332
884.432522	0.857568
884.742197	0.876114
885.051831	0.886780
885.361424	0.896460
885.670975	0.906306
885.980485	0.918214
886.289954	0.922578
886.599382	0.928116
886.908768	0.931819
887.218113	0.937553
887.527417	0.941834
887.836680	0.944239
888.145901	0.945664
888.455082	0.948850
888.764221	0.952772
889.073319	0.955252
889.382376	0.955623
889.691392	0.955124
890.000366	0.954307
890.309300	0.956092
890.618193	0.955218
890.927044	0.953889
891.235855	0.953554
891.544625	0.953044
891.853353	0.954569
892.162041	0.951639
892.470687	0.945477
892.779293	0.940156
893.087858	0.937271
893.396381	0.929968
893.704864	0.917794
894.013306	0.895393
894.321707	0.869414
894.630068	0.855480
894.938387	0.851017
895.246665	0.851721
895.554903	0.863607
895.863100	0.875439
896.171256	0.892389
896.479371	0.911828
896.787446	0.923606
897.095480	0.928912
897.403473	0.932524
897.711425	0.935736
898.019336	0.942884
898.327207	0.945649
898.635038	0.949344
898.942827	0.947563
899.250576	0.950599
899.558284	0.955011
899.865952	0.956494
900.173579	0.957392
900.481165	0.957793
900.788711	0.962070
901.096216	0.964242
901.403681	0.964449
901.711105	0.965767
902.018489	0.966098
902.325832	0.965527
902.633135	0.964199
902.940397	0.957633
903.247619	0.946942
903.554800	0.921745
903.861941	0.885795
904.169041	0.850990
904.476101	0.835350
904.783121	0.835416
905.090100	0.851675
905.397039	0.871464
905.703938	0.892242
906.010796	0.910749
906.317614	0.928208
906.624391	0.938239
906.931129	0.947418
907.237826	0.955006
907.544483	0.962156
907.851099	0.963915
908.157675	0.969009
908.464211	0.972199
908.770707	0.974843
909.077163	0.975582
909.383578	0.977311
909.689954	0.976063
909.996289	0.977027
910.302584	0.979725
910.608839	0.981273
910.915054	0.980538
911.221229	0.979116
911.527363	0.978909
911.833458	0.977806
912.139513	0.979294
912.445527	0.977499
912.751502	0.975414
913.057436	0.974632
913.363331	0.972993
913.669186	0.967391
913.975000	0.964684
914.280775	0.958508
914.586510	0.951937
914.892205	0.938833
915.197859	0.919675
915.503475	0.893142
915.809050	0.875766
916.114585	0.870848
916.420081	0.868722
916.725536	0.864562
917.030952	0.871764
917.336328	0.884491
917.641665	0.898849
917.946961	0.913103
918.252218	0.924751
918.557435	0.933007
918.862612	0.940437
919.167750	0.946322
919.472848	0.950310
919.777906	0.955703
920.082925	0.961338
920.387904	0.964540
920.692843	0.966466
920.997743	0.965728
921.302603	0.969806
921.607423	0.971382
921.912204	0.973409
922.216946	0.974144
922.521647	0.975755
922.826310	0.976358
923.130932	0.978848
923.435516	0.979807
923.740059	0.981705
924.044564	0.979650
924.349028	0.982043
924.653454	0.983011
924.957840	0.986056
925.262186	0.985477
925.566493	0.983566
925.870761	0.985784
926.174989	0.987328
926.479178	0.988545
926.783328	0.989359
927.087438	0.988509
927.391509	0.989053
927.695541	0.991531
927.999533	0.990829
928.303486	0.990400
928.607400	0.992519
928.911275	0.990390
929.215110	0.990316
929.518906	0.990643
929.822663	0.990196
930.126381	0.991431
930.430060	0.991236
930.733699	0.990893
931.037299	0.989125
931.340861	0.992135
931.644383	0.990704
931.947866	0.989930
932.251309	0.991724
932.554714	0.990512
932.858080	0.990644
933.161407	0.990990
933.464694	0.992380
933.767943	0.991852
934.071153	0.991887
934.374323	0.992677
934.677455	0.993562
934.980548	0.992427
935.283602	0.991127
935.586617	0.992930
935.889593	0.991327
936.192530	0.991621
936.495428	0.991178
936.798287	0.992039
937.101108	0.992612
937.403890	0.989217
937.706632	0.989398
938.009336	0.988186
938.312002	0.986573
938.614628	0.985674
938.917216	0.984957
939.219765	0.983598
939.522275	0.983865
939.824747	0.985288
940.127179	0.985080
940.429573	0.986967
940.731929	0.985319
941.034246	0.985312
941.336524	0.986690
941.638763	0.988336
941.940964	0.987376
942.243126	0.987423
942.545250	0.989058
942.847335	0.989249
943.149381	0.988958
943.451389	0.989213
943.753359	0.989006
944.055290	0.991447
944.357182	0.989760
944.659036	0.988232
944.960851	0.990465
945.262628	0.990381
945.564367	0.991437
945.866067	0.990563
946.167729	0.990447
946.469352	0.990619
946.770937	0.991008
947.072484	0.991989
947.373992	0.990334
947.675462	0.991655
947.976893	0.991328
948.278286	0.991424
948.579641	0.992110
948.880958	0.991432
949.182236	0.992761
949.483476	0.992345
949.784678	0.991319
950.085841	0.992332
950.386967	0.991715
950.688054	0.991135
950.989103	0.992148
951.290114	0.989879
951.591087	0.990160
951.892021	0.990460
952.192917	0.989521
952.493776	0.988811
952.794596	0.989607
953.095378	0.988271
953.396122	0.988922
953.696828	0.989544
953.997496	0.989830
954.298126	0.992602
954.598718	0.991585
954.899272	0.991642
955.199788	0.992156
955.500266	0.993061
955.800706	0.994201
956.101108	0.994445
956.401472	0.995417
956.701798	0.994661
957.002087	0.993306
957.302337	0.995587
957.602550	0.994629
957.902724	0.995756
958.202861	0.995330
958.502960	0.995410
958.803022	0.994235
959.103045	0.995331
959.403031	0.996154
959.702979	0.995285
960.002889	0.995903
960.302762	0.994604
960.602596	0.995765
960.902393	0.995196
961.202153	0.995857
961.501875	0.997444
961.801559	0.996304
962.101205	0.994777
962.400814	0.997594
962.700385	0.996998
962.999918	0.997205
963.299414	0.997296
963.598873	0.995890
963.898293	0.996856
964.197677	0.996785
964.497022	0.996668
964.796331	0.997402
965.095601	0.996884
965.394835	0.997310
965.694030	0.996657
965.993189	0.998256
966.292309	0.996999
966.591393	0.998277
966.890439	0.997663
967.189447	0.996584
967.488419	0.996959
967.787353	0.998022
968.086249	0.997156
968.385108	0.996961
968.683930	0.998662
968.982714	0.998342
969.281462	0.997760
969.580172	0.997636
969.878844	0.997568
970.177480	0.997906
970.476078	0.997363
970.774639	0.997094
971.073162	0.998222
971.371649	0.996729
971.670098	0.995324
971.968510	0.997438
972.266885	0.996046
972.565223	0.996848
972.863524	0.996424
973.161788	0.997000
973.460014	0.998417
973.758204	0.996717
974.056356	0.997403
974.354471	0.995435
974.652550	0.996385
974.950591	0.997427
975.248595	0.995838
975.546563	0.997634
975.844493	0.998261
976.142386	0.996879
976.440243	0.998080
976.738062	0.996976
977.035845	0.997482
977.333590	0.996867
977.631299	0.998005
977.928971	0.996598
978.226606	0.996943
978.524204	0.995932
978.821765	0.998936
979.119290	0.997186
979.416777	0.997464
979.714228	0.997742
980.011642	0.995667
980.309020	0.997779
980.606360	0.995635
980.903664	0.998782
981.200931	0.997484
981.498162	0.996116
981.795356	0.996056
982.092513	0.995185
982.389633	0.995316
982.686717	0.991366
982.983764	0.991697
983.280775	0.991897
983.577749	0.990977
983.874686	0.992792
984.171587	0.991802
984.468451	0.994841
984.765279	0.994914
985.062070	0.995451
985.358824	0.996105
985.655543	0.995471
985.952224	0.995920
986.248869	0.995995
986.545478	0.997117
986.842050	0.998847
987.138586	0.995618
987.435086	0.997088
987.731549	0.998592
988.027975	0.997755
988.324366	0.998589
988.620719	0.997031
988.917037	0.995946
989.213318	0.997905
989.509563	0.999452
989.805772	0.998125
990.101944	0.999145
990.398080	0.997973
990.694180	0.998010
990.990244	0.998378
991.286271	0.998710
991.582262	0.999627
991.878217	0.997476
992.174136	0.999468
992.470019	0.998545
992.765865	0.999202
993.061676	0.998689
993.357450	0.998259
993.653188	0.997247
993.948890	0.997580
994.244556	0.997913
994.540186	0.997467
994.835780	0.995477
995.131337	0.997643
995.426859	0.996546
995.722345	0.997375
996.017795	0.996449
996.313208	0.996281
996.608586	0.995402
996.903928	0.996676
997.199234	0.996164
997.494504	0.996528
997.789738	0.997314
998.084936	0.996326
998.380099	0.998049
998.675225	0.998058
998.970316	0.997665
999.265371	0.999234
999.560390	0.998355
999.855373	1.000130
1000.150320	0.998883
1000.445232	0.998879
1000.740108	0.998147
1001.034948	0.998493
1001.329752	0.999098
1001.624521	0.999013
1001.919254	0.999388
1002.213951	0.998267
1002.508613	0.997518
1002.803239	0.998084
1003.097829	0.999332
1003.392384	0.999822
1003.686903	0.997694
1003.981386	0.999044
1004.275834	0.999032
1004.570246	0.998492
1004.864623	0.999447
1005.158964	1.000075
1005.453270	0.999543
1005.747540	0.997627
1006.041775	0.998389
1006.335974	0.999314
1006.630138	0.999588
1006.924266	0.999856
1007.218359	1.000936
1007.512416	0.999576
1007.806438	0.998904
1008.100425	1.000209
1008.394376	0.997931
1008.688292	0.998423
1008.982172	1.001929
1009.276017	0.998917
1009.569827	0.999327
1009.863602	0.998277
1010.157341	0.999348
1010.451045	0.999311
1010.744714	0.999169
1011.038347	0.998845
1011.331945	0.999142
1011.625508	0.997095
1011.919036	0.998972
1012.212528	0.999345
1012.505986	0.997705
1012.799408	0.999588
1013.092795	0.999347
1013.386147	0.998713
1013.679464	1.000048
1013.972745	0.997456
1014.265992	0.997415
1014.559204	0.998952
1014.852380	0.999600
1015.145521	1.000010
1015.438628	0.998839
1015.731699	0.999059
1016.024736	0.999153
1016.317737	0.998894
1016.610703	0.998709
1016.903635	0.999349
1017.196531	0.999020
1017.489393	0.999316
1017.782219	0.999471
1018.075011	0.999142
1018.367768	0.999069
1018.660490	1.000052
1018.953177	1.000052
1019.245829	1.000052
