Dividing Wavelength (nm)	Counts (n)	Blue Motor Position (mm): 0.000000	Red Motor Position (mm): 21.700000	
326.493990	1.001037
326.888308	1.001037
327.282561	1.001037
327.676750	1.000582
328.070874	0.998384
328.464933	1.000333
328.858929	1.000655
329.252859	0.998766
329.646726	0.999599
330.040528	1.001602
330.434265	0.998306
330.827938	1.001143
331.221547	1.000936
331.615091	1.000547
332.008571	1.001144
332.401986	1.000814
332.795338	0.999899
333.188625	0.999018
333.581847	1.000647
333.975006	1.000160
334.368100	0.998754
334.761129	1.000451
335.154095	1.001297
335.546996	0.998314
335.939833	0.993137
336.332606	0.994137
336.725315	0.995067
337.117960	0.996031
337.510540	0.993190
337.903056	0.995389
338.295508	0.993669
338.687896	0.994123
339.080220	0.994386
339.472480	0.994430
339.864676	0.993682
340.256807	0.995072
340.648875	0.995758
341.040879	0.995083
341.432818	0.994137
341.824694	0.993232
342.216506	0.994918
342.608253	0.994845
342.999937	0.993791
343.391557	0.994368
343.783113	0.994691
344.174605	0.995330
344.566033	0.995778
344.957397	0.993186
345.348697	0.993968
345.739934	0.995328
346.131106	0.994532
346.522215	0.992366
346.913260	0.994179
347.304241	0.994743
347.695159	0.995031
348.086012	0.993135
348.476802	0.994279
348.867528	0.993992
349.258191	0.993918
349.648789	0.994788
350.039324	0.994720
350.429796	0.995388
350.820203	0.995040
351.210548	0.995014
351.600828	0.994168
351.991045	0.994229
352.381198	0.993393
352.771288	0.993539
353.161314	0.995357
353.551276	0.995045
353.941175	0.995772
354.331010	0.994279
354.720782	0.995496
355.110490	0.994160
355.500135	0.995146
355.889717	0.994049
356.279235	0.994470
356.668689	0.993652
357.058080	0.994108
357.447408	0.994690
357.836672	0.994415
358.225873	0.994023
358.615010	0.994885
359.004084	0.994774
359.393095	0.994716
359.782043	0.994953
360.170927	0.995319
360.559748	0.994902
360.948505	0.993952
361.337199	0.994967
361.725830	0.995594
362.114398	0.994432
362.502903	0.994990
362.891344	0.995942
363.279722	0.993080
363.668037	0.995845
364.056289	0.994820
364.444478	0.995402
364.832603	0.995689
365.220665	0.994147
365.608665	0.994705
365.996601	0.993912
366.384474	0.994206
366.772284	0.994139
367.160031	0.993247
367.547715	0.993441
367.935336	0.995138
368.322893	0.993624
368.710388	0.995153
369.097820	0.995730
369.485189	0.993319
369.872495	0.994072
370.259738	0.993044
370.646918	0.995608
371.034035	0.994643
371.421090	0.994051
371.808081	0.993333
372.195010	0.993998
372.581875	0.994284
372.968678	0.994925
373.355418	0.994684
373.742096	0.993802
374.128710	0.995986
374.515262	0.994917
374.901751	0.994424
375.288177	0.994090
375.674540	0.994859
376.060841	0.995192
376.447079	0.995189
376.833254	0.995385
377.219367	0.994928
377.605417	0.995802
377.991404	0.995222
378.377329	0.995538
378.763191	0.994415
379.148991	0.995576
379.534727	0.996140
379.920402	0.995043
380.306013	0.994531
380.691563	0.995759
381.077049	0.994863
381.462474	0.995695
381.847835	0.995570
382.233134	0.994717
382.618371	0.995211
383.003545	0.995052
383.388657	0.995485
383.773706	0.995931
384.158693	0.995567
384.543618	0.996069
384.928480	0.996489
385.313280	0.995410
385.698017	0.995851
386.082692	0.996845
386.467305	0.996461
386.851856	0.995622
387.236344	0.995604
387.620770	0.995067
388.005133	0.996074
388.389435	0.996565
388.773674	0.996024
389.157851	0.996103
389.541965	0.996068
389.926018	0.995756
390.310008	0.996191
390.693936	0.995093
391.077802	0.995771
391.461606	0.995155
391.845348	0.995222
392.229027	0.996182
392.612645	0.995630
392.996200	0.996533
393.379694	0.995492
393.763125	0.996461
394.146494	0.995968
394.529801	0.995072
394.913047	0.996905
395.296230	0.995873
395.679351	0.995919
396.062410	0.995594
396.445408	0.996743
396.828343	0.995711
397.211217	0.996126
397.594028	0.996888
397.976778	0.995314
398.359466	0.996526
398.742092	0.995721
399.124656	0.995962
399.507158	0.995990
399.889598	0.996664
400.271977	0.996324
400.654294	0.996389
401.036549	0.997309
401.418742	0.996213
401.800874	0.995697
402.182944	0.996154
402.564952	0.993990
402.946898	0.997622
403.328783	0.995894
403.710606	0.995629
404.092367	0.995476
404.474067	0.995902
404.855705	0.995787
405.237282	0.995943
405.618797	0.995769
406.000250	0.995197
406.381642	0.996157
406.762972	0.996001
407.144240	0.997038
407.525447	0.996312
407.906593	0.995687
408.287677	0.995913
408.668700	0.996744
409.049661	0.994643
409.430560	0.996522
409.811399	0.995046
410.192176	0.995637
410.572891	0.995195
410.953545	0.994935
411.334138	0.994089
411.714669	0.995062
412.095139	0.994748
412.475547	0.995125
412.855894	0.995461
413.236180	0.995279
413.616405	0.996694
413.996568	0.995901
414.376670	0.995108
414.756711	0.994700
415.136691	0.994248
415.516609	0.994475
415.896466	0.993763
416.276262	0.993090
416.655997	0.993853
417.035670	0.993656
417.415283	0.993019
417.794834	0.991687
418.174324	0.991185
418.553753	0.990691
418.933121	0.989323
419.312428	0.988411
419.691674	0.986436
420.070859	0.985390
420.449983	0.984110
420.829045	0.982953
421.208047	0.981561
421.586988	0.980677
421.965867	0.976894
422.344686	0.974779
422.723444	0.972651
423.102141	0.970784
423.480777	0.966869
423.859352	0.965159
424.237866	0.960653
424.616319	0.957853
424.994712	0.954429
425.373044	0.951692
425.751314	0.947457
426.129524	0.944420
426.507673	0.938697
426.885762	0.935077
427.263789	0.929724
427.641756	0.927526
428.019662	0.921419
428.397508	0.915804
428.775292	0.909792
429.153016	0.904490
429.530679	0.900771
429.908282	0.894097
430.285824	0.889348
430.663305	0.877721
431.040726	0.876027
431.418086	0.870966
431.795385	0.861933
432.172624	0.854727
432.549802	0.848632
432.926920	0.840753
433.303977	0.832512
433.680974	0.824995
434.057910	0.815815
434.434786	0.808881
434.811601	0.801627
435.188355	0.787399
435.565050	0.782840
435.941683	0.774960
436.318257	0.760194
436.694770	0.750698
437.071222	0.742277
437.447614	0.736332
437.823946	0.730569
438.200218	0.716606
438.576429	0.712893
438.952580	0.700110
439.328670	0.690351
439.704700	0.685012
440.080670	0.677638
440.456580	0.656975
440.832429	0.653446
441.208218	0.652094
441.583947	0.636754
441.959616	0.628538
442.335224	0.623857
442.710773	0.610259
443.086261	0.599927
443.461689	0.602082
443.837057	0.587489
444.212365	0.572228
444.587612	0.570841
444.962800	0.555948
445.337927	0.550091
445.712995	0.563200
446.088002	0.527223
446.462949	0.529093
446.837837	0.526267
447.212664	0.511659
447.587431	0.497590
447.962139	0.468104
448.336786	0.429165
448.711374	0.432762
449.085901	0.462887
449.460369	0.460943
449.834776	0.458850
450.209124	0.435902
450.583412	0.424545
450.957640	0.414966
451.331808	0.419884
451.705917	0.437244
452.079965	0.436427
452.453954	0.422446
452.827883	0.425240
453.201752	0.416991
453.575562	0.424851
453.949311	0.410724
454.323001	0.414048
454.696632	0.407683
455.070202	0.398070
455.443713	0.388427
455.817164	0.381435
456.190556	0.374647
456.563888	0.369735
456.937160	0.366084
457.310373	0.380657
457.683526	0.378146
458.056619	0.382239
458.429653	0.381464
458.802628	0.383346
459.175542	0.377010
459.548398	0.358652
459.921194	0.350813
460.293930	0.349642
460.666607	0.326879
461.039224	0.315083
461.411782	0.309877
461.784280	0.308612
462.156719	0.311868
462.529099	0.315853
462.901419	0.331275
463.273680	0.335151
463.645882	0.334671
464.018024	0.339433
464.390106	0.332367
464.762130	0.316983
465.134094	0.299897
465.505999	0.269212
465.877845	0.239596
466.249631	0.226560
466.621358	0.233724
466.993026	0.247443
467.364634	0.253314
467.736184	0.261694
468.107674	0.270522
468.479105	0.269474
468.850477	0.276108
469.221790	0.282952
469.593043	0.293086
469.964238	0.297431
470.335373	0.296797
470.706449	0.294752
471.077467	0.295496
471.448425	0.258058
471.819324	0.233557
472.190164	0.232859
472.560945	0.261454
472.931667	0.283983
473.302330	0.287802
473.672934	0.299448
474.043479	0.287560
474.413965	0.289667
474.784393	0.292955
475.154761	0.288218
475.525070	0.285141
475.895321	0.290908
476.265513	0.284982
476.635645	0.280570
477.005719	0.280361
477.375734	0.276812
477.745691	0.270112
478.115588	0.266873
478.485427	0.260234
478.855207	0.246940
479.224928	0.229942
479.594591	0.217845
479.964194	0.221404
480.333739	0.222725
480.703226	0.223975
481.072653	0.222481
481.442022	0.218130
481.811333	0.214466
482.180584	0.218065
482.549777	0.222936
482.918912	0.226680
483.287988	0.226284
483.657005	0.225890
484.025964	0.232593
484.394864	0.229765
484.763706	0.230532
485.132489	0.235373
485.501213	0.235940
485.869879	0.234475
486.238487	0.237673
486.607036	0.235559
486.975527	0.239868
487.343959	0.235810
487.712333	0.234750
488.080648	0.236467
488.448905	0.235696
488.817104	0.236507
489.185244	0.231416
489.553326	0.228090
489.921350	0.217965
490.289315	0.200591
490.657222	0.195538
491.025070	0.197088
491.392861	0.198758
491.760593	0.204489
492.128267	0.210228
492.495883	0.215489
492.863440	0.221977
493.230939	0.228373
493.598380	0.229281
493.965763	0.231745
494.333088	0.233971
494.700354	0.235325
495.067563	0.234245
495.434713	0.237640
495.801805	0.235599
496.168839	0.236778
496.535815	0.238199
496.902733	0.238236
497.269593	0.239664
497.636395	0.237521
498.003139	0.237826
498.369825	0.240667
498.736453	0.237426
499.103023	0.238500
499.469535	0.237821
499.835989	0.238318
500.202385	0.239150
500.568723	0.242317
500.935003	0.237534
501.301226	0.241745
501.667390	0.235967
502.033497	0.234407
502.399546	0.237276
502.765537	0.238810
503.131470	0.237194
503.497345	0.233654
503.863163	0.242208
504.228923	0.235321
504.594625	0.234143
504.960269	0.239637
505.325856	0.234733
505.691385	0.239081
506.056856	0.235617
506.422270	0.235139
506.787625	0.237342
507.152924	0.234961
507.518164	0.235497
507.883347	0.237305
508.248472	0.239293
508.613540	0.234243
508.978550	0.236351
509.343503	0.236841
509.708398	0.234427
510.073236	0.232201
510.438016	0.232254
510.802738	0.233097
511.167403	0.232016
511.532010	0.234253
511.896561	0.229639
512.261053	0.228344
512.625488	0.230567
512.989866	0.230803
513.354186	0.231111
513.718449	0.232991
514.082655	0.229233
514.446803	0.231633
514.810894	0.229363
515.174927	0.231726
515.538904	0.231343
515.902822	0.228073
516.266684	0.230614
516.630488	0.231868
516.994235	0.230459
517.357925	0.229278
517.721558	0.227714
518.085133	0.227236
518.448651	0.227084
518.812112	0.229461
519.175516	0.229050
519.538863	0.226785
519.902152	0.228362
520.265385	0.225081
520.628560	0.227016
520.991678	0.227429
521.354739	0.226188
521.717743	0.227648
522.080690	0.227883
522.443580	0.225094
522.806413	0.226347
523.169189	0.225550
523.531908	0.224499
523.894569	0.228062
524.257174	0.227946
524.619722	0.225661
524.982213	0.226696
525.344647	0.225505
525.707025	0.226613
526.069345	0.224743
526.431608	0.226311
526.793815	0.224335
527.155964	0.228668
527.518057	0.227322
527.880093	0.228560
528.242072	0.226918
528.603995	0.228794
528.965860	0.230739
529.327669	0.229708
529.689421	0.230385
530.051117	0.231265
530.412755	0.229083
530.774337	0.231424
531.135862	0.231457
531.497331	0.230818
531.858743	0.233897
532.220098	0.230571
532.581396	0.232976
532.942638	0.233519
533.303824	0.234532
533.664953	0.234022
534.026025	0.235752
534.387040	0.234121
534.747999	0.233617
535.108902	0.232957
535.469748	0.237694
535.830537	0.235640
536.191270	0.235885
536.551947	0.235510
536.912567	0.235858
537.273131	0.237357
537.633638	0.237616
537.994089	0.238124
538.354483	0.239149
538.714821	0.236013
539.075103	0.235716
539.435328	0.236445
539.795497	0.240390
540.155609	0.236735
540.515665	0.235077
540.875665	0.240694
541.235609	0.239124
541.595496	0.239232
541.955328	0.235611
542.315102	0.238358
542.674821	0.239403
543.034483	0.239584
543.394090	0.239124
543.753640	0.241024
544.113134	0.236030
544.472571	0.239508
544.831953	0.236200
545.191278	0.240310
545.550548	0.240174
545.909761	0.236677
546.268918	0.237209
546.628019	0.235668
546.987064	0.238337
547.346053	0.240328
547.704986	0.237975
548.063863	0.238239
548.422684	0.238633
548.781449	0.240607
549.140158	0.238035
549.498811	0.241188
549.857408	0.243998
550.215949	0.238989
550.574434	0.241743
550.932864	0.239656
551.291237	0.238536
551.649555	0.239970
552.007817	0.239601
552.366022	0.240578
552.724173	0.240759
553.082267	0.240988
553.440305	0.237917
553.798288	0.242476
554.156215	0.238888
554.514086	0.239382
554.871902	0.242569
555.229661	0.241907
555.587365	0.242485
555.945014	0.245198
556.302606	0.242009
556.660143	0.244507
557.017625	0.240953
557.375050	0.242879
557.732421	0.240287
558.089735	0.242397
558.446994	0.242708
558.804197	0.241444
559.161345	0.241096
559.518437	0.245101
559.875474	0.242637
560.232455	0.242103
560.589381	0.243312
560.946251	0.243394
561.303065	0.240875
561.659825	0.242241
562.016528	0.243734
562.373177	0.246718
562.729770	0.244009
563.086307	0.245925
563.442789	0.243749
563.799216	0.246812
564.155587	0.245408
564.511904	0.246302
564.868164	0.246723
565.224370	0.246505
565.580520	0.248136
565.936615	0.247964
566.292654	0.251192
566.648638	0.247961
567.004567	0.248984
567.360441	0.249461
567.716260	0.251665
568.072023	0.249541
568.427732	0.250040
568.783385	0.252467
569.138982	0.250767
569.494525	0.250522
569.850013	0.253127
570.205445	0.251400
570.560823	0.254257
570.916145	0.256050
571.271412	0.254255
571.626625	0.255644
571.981782	0.256207
572.336884	0.257106
572.691931	0.256803
573.046923	0.258190
573.401860	0.259422
573.756743	0.260834
574.111570	0.259767
574.466342	0.260363
574.821059	0.259337
575.175722	0.262213
575.530330	0.262086
575.884882	0.262274
576.239380	0.264463
576.593823	0.264797
576.948211	0.264350
577.302544	0.267771
577.656823	0.267178
578.011047	0.267364
578.365216	0.267727
578.719330	0.269435
579.073389	0.269684
579.427394	0.271212
579.781344	0.271944
580.135239	0.273131
580.489080	0.272914
580.842866	0.275979
581.196597	0.276052
581.550273	0.274631
581.903895	0.275089
582.257463	0.273634
582.610975	0.277008
582.964434	0.276100
583.317837	0.278890
583.671186	0.279020
584.024481	0.279206
584.377721	0.281525
584.730906	0.282189
585.084037	0.281486
585.437113	0.283210
585.790135	0.282640
586.143103	0.285854
586.496016	0.287015
586.848874	0.284367
587.201679	0.284857
587.554428	0.288279
587.907124	0.287117
588.259765	0.287537
588.612352	0.288297
588.964884	0.291933
589.317362	0.291743
589.669786	0.291643
590.022155	0.290338
590.374470	0.289429
590.726731	0.291466
591.078937	0.296002
591.431090	0.292351
591.783188	0.296638
592.135232	0.297240
592.487222	0.297080
592.839157	0.294853
593.191038	0.297474
593.542866	0.299306
593.894639	0.303053
594.246358	0.300925
594.598022	0.300522
594.949633	0.303895
595.301190	0.304879
595.652692	0.304002
596.004141	0.300316
596.355535	0.308353
596.706876	0.308959
597.058162	0.311471
597.409395	0.308228
597.760573	0.306343
598.111698	0.309293
598.462768	0.309771
598.813785	0.311025
599.164748	0.312420
599.515657	0.312617
599.866511	0.316084
600.217312	0.311303
600.568060	0.316808
600.918753	0.313064
601.269392	0.313760
601.619978	0.317356
601.970510	0.314854
602.320988	0.314934
602.671412	0.312733
603.021783	0.315270
603.372100	0.316780
603.722363	0.316715
604.072572	0.316897
604.422728	0.317176
604.772830	0.318772
605.122878	0.318251
605.472872	0.318857
605.822813	0.317321
606.172701	0.320307
606.522534	0.317349
606.872314	0.317743
607.222041	0.318317
607.571714	0.316515
607.921333	0.318072
608.270899	0.317430
608.620411	0.314760
608.969870	0.318185
609.319276	0.318189
609.668627	0.318081
610.017926	0.316770
610.367171	0.315170
610.716362	0.316110
611.065500	0.316327
611.414585	0.315249
611.763616	0.315929
612.112594	0.316179
612.461518	0.315495
612.810389	0.313273
613.159207	0.315311
613.507971	0.317347
613.856682	0.313060
614.205340	0.314575
614.553945	0.311271
614.902496	0.315314
615.250994	0.313330
615.599439	0.314180
615.947830	0.313540
616.296169	0.314486
616.644454	0.313572
616.992686	0.314276
617.340864	0.311705
617.688990	0.315733
618.037063	0.312177
618.385082	0.313899
618.733048	0.311044
619.080961	0.313004
619.428821	0.312839
619.776628	0.312229
620.124382	0.314137
620.472083	0.314359
620.819731	0.313996
621.167326	0.317624
621.514868	0.317518
621.862357	0.321453
622.209793	0.321306
622.557176	0.323222
622.904506	0.324289
623.251783	0.327177
623.599007	0.328845
623.946179	0.328632
624.293297	0.330536
624.640363	0.334686
624.987376	0.334627
625.334336	0.337477
625.681243	0.339545
626.028097	0.340275
626.374899	0.341417
626.721647	0.341664
627.068343	0.345315
627.414987	0.345843
627.761577	0.347935
628.108115	0.346607
628.454600	0.351615
628.801032	0.348743
629.147412	0.350939
629.493739	0.351436
629.840014	0.354825
630.186236	0.352087
630.532405	0.357141
630.878521	0.354911
631.224585	0.357299
631.570597	0.360440
631.916556	0.358971
632.262462	0.358621
632.608316	0.361285
632.954117	0.362067
633.299866	0.363207
633.645562	0.363534
633.991206	0.367662
634.336797	0.370666
634.682336	0.372569
635.027823	0.374450
635.373257	0.375122
635.718639	0.378602
636.063968	0.377241
636.409245	0.383579
636.754470	0.384369
637.099642	0.386667
637.444762	0.389776
637.789829	0.388525
638.134845	0.392298
638.479808	0.393498
638.824719	0.393042
639.169577	0.396832
639.514383	0.395623
639.859137	0.400544
640.203839	0.399409
640.548489	0.400311
640.893086	0.401969
641.237632	0.403559
641.582125	0.402174
641.926566	0.403503
642.270955	0.403492
642.615292	0.403969
642.959576	0.403317
643.303809	0.403597
643.647990	0.403110
643.992118	0.403470
644.336195	0.407534
644.680219	0.405650
645.024192	0.406400
645.368112	0.400291
645.711981	0.398985
646.055797	0.394621
646.399562	0.396471
646.743274	0.388975
647.086935	0.385964
647.430544	0.386410
647.774101	0.385202
648.117606	0.384904
648.461059	0.384788
648.804460	0.387685
649.147810	0.392890
649.491108	0.394646
649.834354	0.396275
650.177548	0.402145
650.520690	0.406741
650.863781	0.407913
651.206820	0.407627
651.549807	0.412183
651.892742	0.416227
652.235626	0.415312
652.578458	0.416617
652.921238	0.422196
653.263967	0.420531
653.606644	0.424479
653.949269	0.424316
654.291843	0.427946
654.634365	0.425025
654.976836	0.428017
655.319255	0.428188
655.661622	0.429854
656.003938	0.429494
656.346203	0.432936
656.688416	0.430391
657.030577	0.433523
657.372687	0.436335
657.714746	0.436662
658.056753	0.433601
658.398708	0.437483
658.740612	0.438640
659.082465	0.434094
659.424266	0.435515
659.766016	0.434614
660.107715	0.437596
660.449362	0.436052
660.790958	0.437195
661.132503	0.437267
661.473996	0.434984
661.815438	0.435682
662.156829	0.436371
662.498168	0.436700
662.839456	0.438728
663.180693	0.436080
663.521879	0.435966
663.863013	0.437058
664.204097	0.435414
664.545129	0.432248
664.886110	0.432907
665.227040	0.430019
665.567918	0.432444
665.908746	0.430797
666.249522	0.430217
666.590248	0.431450
666.930922	0.429643
667.271545	0.428477
667.612118	0.428484
667.952639	0.430488
668.293109	0.429054
668.633528	0.431809
668.973896	0.431667
669.314213	0.431879
669.654480	0.433406
669.994695	0.433814
670.334859	0.434824
670.674973	0.434878
671.015035	0.435406
671.355047	0.434394
671.695008	0.435789
672.034918	0.437875
672.374777	0.437889
672.714585	0.438181
673.054342	0.438041
673.394049	0.438084
673.733705	0.436214
674.073310	0.436926
674.412864	0.440449
674.752368	0.441086
675.091820	0.440913
675.431223	0.445711
675.770574	0.445737
676.109875	0.448247
676.449125	0.448377
676.788324	0.450646
677.127473	0.456159
677.466571	0.455373
677.805619	0.457297
678.144616	0.457862
678.483562	0.460322
678.822458	0.462769
679.161303	0.464015
679.500098	0.463861
679.838842	0.465991
680.177535	0.465066
680.516179	0.463773
680.854771	0.462703
681.193314	0.456624
681.531805	0.447448
681.870247	0.435964
682.208638	0.429006
682.546978	0.427546
682.885268	0.429707
683.223508	0.435399
683.561697	0.439220
683.899836	0.441926
684.237925	0.445559
684.575963	0.447966
684.913951	0.450877
685.251889	0.446630
685.589776	0.448322
685.927614	0.451070
686.265401	0.445654
686.603137	0.446330
686.940824	0.441150
687.278460	0.438847
687.616046	0.438562
687.953582	0.433303
688.291068	0.434733
688.628504	0.430042
688.965889	0.432280
689.303224	0.436485
689.640510	0.441010
689.977745	0.446306
690.314930	0.454675
690.652065	0.458847
690.989150	0.466289
691.326185	0.472830
691.663170	0.477364
692.000105	0.484601
692.336990	0.491594
692.673825	0.494494
693.010610	0.501244
693.347345	0.506455
693.684030	0.507822
694.020665	0.512727
694.357251	0.521155
694.693786	0.521426
695.030272	0.525731
695.366707	0.529249
695.703093	0.531858
696.039429	0.530774
696.375716	0.531258
696.711952	0.534237
697.048139	0.536923
697.384276	0.538081
697.720363	0.536460
698.056400	0.536024
698.392388	0.540895
698.728326	0.544440
699.064214	0.547263
699.400053	0.548022
699.735842	0.551472
700.071581	0.554921
700.407270	0.557329
700.742910	0.559669
701.078501	0.566192
701.414042	0.566289
701.749533	0.569281
702.084974	0.578157
702.420366	0.570857
702.755709	0.578040
703.091002	0.586412
703.426246	0.578862
703.761440	0.584948
704.096584	0.589616
704.431679	0.587501
704.766725	0.589200
705.101721	0.591015
705.436668	0.586574
705.771565	0.593627
706.106413	0.591040
706.441212	0.585811
706.775961	0.585133
707.110661	0.587614
707.445311	0.583765
707.779913	0.581268
708.114465	0.579687
708.448967	0.575830
708.783421	0.568111
709.117825	0.563132
709.452180	0.562850
709.786485	0.556799
710.120742	0.546536
710.454949	0.548809
710.789107	0.541076
711.123216	0.531438
711.457275	0.533518
711.791286	0.524715
712.125247	0.523390
712.459159	0.534472
712.793023	0.526803
713.126837	0.530704
713.460602	0.531025
713.794318	0.540523
714.127985	0.539266
714.461602	0.549343
714.795171	0.552911
715.128691	0.560774
715.462162	0.567487
715.795584	0.573820
716.128957	0.576443
716.462281	0.583516
716.795556	0.586859
717.128782	0.591497
717.461960	0.601103
717.795088	0.599357
718.128167	0.605338
718.461198	0.614279
718.794180	0.614983
719.127113	0.617315
719.459997	0.621541
719.792833	0.627770
720.125619	0.628410
720.458357	0.634219
720.791046	0.634105
721.123686	0.637735
721.456278	0.644565
721.788821	0.641952
722.121315	0.646503
722.453761	0.650394
722.786158	0.649035
723.118506	0.644339
723.450805	0.652679
723.783056	0.647663
724.115259	0.645689
724.447412	0.646245
724.779518	0.647562
725.111574	0.646104
725.443582	0.641103
725.775542	0.643543
726.107453	0.635402
726.439315	0.635267
726.771129	0.634309
727.102895	0.627283
727.434612	0.620072
727.766281	0.618390
728.097901	0.616918
728.429473	0.617680
728.760996	0.615564
729.092471	0.615146
729.423897	0.619490
729.755276	0.618497
730.086606	0.618334
730.417887	0.613513
730.749120	0.604000
731.080305	0.594852
731.411442	0.591223
731.742530	0.595811
732.073570	0.594817
732.404562	0.586868
732.735506	0.588401
733.066401	0.593713
733.397249	0.602932
733.728048	0.613688
734.058798	0.626527
734.389501	0.636390
734.720156	0.646271
735.050762	0.654361
735.381320	0.655669
735.711831	0.664637
736.042293	0.669525
736.372707	0.664433
736.703073	0.670633
737.033391	0.671999
737.363661	0.669480
737.693883	0.664620
738.024056	0.663226
738.354182	0.662857
738.684260	0.653334
739.014290	0.648481
739.344272	0.649946
739.674207	0.643214
740.004093	0.642989
740.333931	0.644056
740.663722	0.643388
740.993464	0.643658
741.323159	0.647307
741.652806	0.652435
741.982405	0.657506
742.311956	0.662768
742.641460	0.663588
742.970915	0.667725
743.300323	0.674911
743.629683	0.682206
743.958996	0.683304
744.288260	0.688172
744.617477	0.694308
744.946647	0.696063
745.275768	0.701750
745.604842	0.700782
745.933869	0.711728
746.262847	0.711585
746.591778	0.704952
746.920662	0.710693
747.249498	0.717752
747.578286	0.709128
747.907027	0.704958
748.235720	0.705910
748.564365	0.699813
748.892963	0.699640
749.221514	0.703057
749.550017	0.708534
749.878473	0.708122
750.206881	0.714009
750.535242	0.716001
750.863555	0.715440
751.191821	0.716528
751.520039	0.719530
751.848210	0.724555
752.176334	0.717058
752.504411	0.715935
752.832440	0.724482
753.160421	0.728905
753.488356	0.726031
753.816243	0.723970
754.144082	0.732927
754.471875	0.735898
754.799620	0.731037
755.127318	0.732462
755.454969	0.732361
755.782572	0.732444
756.110129	0.736836
756.437638	0.739602
756.765100	0.736130
757.092515	0.734328
757.419882	0.733473
757.747203	0.737664
758.074477	0.738307
758.401703	0.734982
758.728882	0.729734
759.056014	0.728723
759.383099	0.727373
759.710138	0.729477
760.037129	0.725330
760.364073	0.718929
760.690970	0.721589
761.017820	0.727957
761.344623	0.723545
761.671379	0.715118
761.998088	0.702276
762.324751	0.679094
762.651366	0.638368
762.977935	0.571489
763.304456	0.519122
763.630931	0.510338
763.957359	0.548702
764.283740	0.593022
764.610074	0.620369
764.936362	0.651737
765.262602	0.678591
765.588796	0.699252
765.914943	0.716959
766.241044	0.735829
766.567097	0.740759
766.893104	0.751301
767.219064	0.757615
767.544978	0.764116
767.870845	0.778023
768.196665	0.781181
768.522438	0.779023
768.848165	0.780097
769.173846	0.790249
769.499479	0.794136
769.825066	0.797703
770.150607	0.803279
770.476101	0.797546
770.801548	0.798924
771.126949	0.811154
771.452303	0.814017
771.777611	0.813827
772.102872	0.812438
772.428087	0.817626
772.753256	0.821498
773.078378	0.824190
773.403453	0.831625
773.728482	0.836032
774.053465	0.830019
774.378401	0.833159
774.703291	0.841818
775.028135	0.841722
775.352932	0.843521
775.677683	0.846160
776.002388	0.846004
776.327046	0.845688
776.651658	0.848920
776.976224	0.852540
777.300743	0.851816
777.625216	0.855461
777.949643	0.857511
778.274024	0.857410
778.598359	0.858398
778.922647	0.856929
779.246889	0.857643
779.571086	0.861833
779.895236	0.864245
780.219339	0.860926
780.543397	0.857997
780.867409	0.855869
781.191374	0.859880
781.515294	0.861328
781.839167	0.859009
782.162995	0.863383
782.486776	0.858223
782.810511	0.860901
783.134201	0.863912
783.457844	0.861506
783.781441	0.863640
784.104993	0.870568
784.428498	0.871107
784.751958	0.866747
785.075372	0.869709
785.398739	0.872942
785.722061	0.867784
786.045337	0.864827
786.368568	0.869427
786.691752	0.872157
787.014891	0.857496
787.337983	0.848051
787.661030	0.840997
787.984031	0.822672
788.306987	0.810516
788.629897	0.813125
788.952760	0.816585
789.275579	0.821500
789.598351	0.837132
789.921078	0.849826
790.243759	0.852134
790.566395	0.856986
790.888984	0.863010
791.211529	0.869898
791.534027	0.873016
791.856480	0.874746
792.178888	0.879400
792.501249	0.881539
792.823566	0.882834
793.145836	0.882472
793.468062	0.884801
793.790241	0.884593
794.112375	0.883383
794.434464	0.878687
794.756507	0.877480
795.078505	0.878474
795.400457	0.872599
795.722364	0.859754
796.044226	0.852880
796.366042	0.852920
796.687812	0.855061
797.009538	0.851607
797.331218	0.855328
797.652852	0.859846
797.974442	0.864234
798.295986	0.864311
798.617484	0.866888
798.938938	0.872173
799.260346	0.875415
799.581709	0.878093
799.903026	0.879993
800.224299	0.879711
800.545526	0.884499
800.866708	0.888426
801.187845	0.892281
801.508936	0.892447
801.829983	0.888820
802.150984	0.891766
802.471940	0.897930
802.792851	0.897533
803.113717	0.899149
803.434538	0.896189
803.755314	0.898503
804.076045	0.900850
804.396731	0.900464
804.717372	0.899871
805.037967	0.902616
805.358518	0.899712
805.679024	0.896616
805.999485	0.896539
806.319901	0.896610
806.640272	0.899369
806.960598	0.896751
807.280879	0.894254
807.601115	0.892034
807.921306	0.896364
808.241453	0.896596
808.561554	0.893256
808.881611	0.893331
809.201623	0.896047
809.521590	0.896137
809.841513	0.896277
810.161390	0.896046
810.481223	0.898378
810.801011	0.901865
811.120755	0.903750
811.440453	0.901886
811.760107	0.900482
812.079716	0.899505
812.399281	0.904808
812.718801	0.906656
813.038276	0.907724
813.357707	0.906488
813.677093	0.904354
813.996434	0.906884
814.315731	0.908640
814.634983	0.909432
814.954191	0.908963
815.273354	0.904574
815.592473	0.901206
815.911547	0.902458
816.230577	0.898665
816.549562	0.896446
816.868502	0.898049
817.187399	0.893063
817.506250	0.888295
817.825058	0.889789
818.143821	0.885522
818.462539	0.881122
818.781213	0.873705
819.099843	0.862200
819.418429	0.846853
819.736970	0.830486
820.055466	0.809857
820.373919	0.784685
820.692327	0.751776
821.010691	0.717411
821.329011	0.640419
821.647286	0.525093
821.965517	0.411775
822.283704	0.369050
822.601847	0.370121
822.919945	0.405736
823.237999	0.439669
823.556010	0.486203
823.873976	0.541801
824.191897	0.592405
824.509775	0.634470
824.827609	0.680158
825.145398	0.702095
825.463144	0.705495
825.780845	0.688145
826.098502	0.669455
826.416116	0.623469
826.733685	0.580144
827.051210	0.572110
827.368692	0.586350
827.686129	0.623399
828.003522	0.676282
828.320872	0.723107
828.638177	0.767030
828.955439	0.800649
829.272656	0.821482
829.589830	0.839350
829.906960	0.854254
830.224046	0.867366
830.541088	0.877145
830.858086	0.880497
831.175041	0.888031
831.491952	0.886434
831.808819	0.883064
832.125642	0.878005
832.442421	0.862094
832.759157	0.840812
833.075849	0.794104
833.392497	0.730572
833.709101	0.690298
834.025662	0.699039
834.342179	0.731658
834.658653	0.770280
834.975083	0.806385
835.291469	0.831968
835.607811	0.854948
835.924110	0.869683
836.240366	0.887952
836.556578	0.901647
836.872746	0.908944
837.188871	0.915069
837.504952	0.920308
837.820990	0.923603
838.136984	0.927410
838.452935	0.930978
838.768842	0.932334
839.084706	0.924915
839.400526	0.898830
839.716303	0.859109
840.032037	0.836967
840.347727	0.840506
840.663373	0.858059
840.978977	0.880408
841.294537	0.902195
841.610054	0.918089
841.925527	0.926271
842.240957	0.933524
842.556344	0.941433
842.871687	0.946170
843.186987	0.950876
843.502244	0.950837
843.817458	0.951715
844.132629	0.955016
844.447756	0.960506
844.762840	0.960284
845.077881	0.960453
845.392879	0.960338
845.707833	0.963231
846.022745	0.964238
846.337613	0.965151
846.652438	0.966849
846.967221	0.964884
847.281960	0.964896
847.596656	0.968621
847.911309	0.966754
848.225919	0.968676
848.540485	0.969955
848.855009	0.969060
849.169490	0.968686
849.483928	0.969563
849.798323	0.969780
850.112675	0.969302
850.426984	0.969478
850.741251	0.970028
851.055474	0.970000
851.369654	0.968097
851.683792	0.969626
851.997887	0.970668
852.311938	0.971223
852.625947	0.969805
852.939914	0.967201
853.253837	0.970168
853.567718	0.971368
853.881555	0.970284
854.195350	0.967763
854.509103	0.969278
854.822812	0.970251
855.136479	0.969978
855.450103	0.970082
855.763685	0.970199
856.077224	0.967693
856.390720	0.970324
856.704173	0.970681
857.017584	0.968971
857.330953	0.966797
857.644278	0.968189
857.957561	0.968820
858.270802	0.968165
858.584000	0.968615
858.897155	0.966678
859.210268	0.967975
859.523339	0.969311
859.836367	0.970679
860.149352	0.971111
860.462295	0.969057
860.775195	0.970211
861.088054	0.969035
861.400869	0.969915
861.713642	0.970047
862.026373	0.971334
862.339062	0.971193
862.651708	0.968017
862.964312	0.967654
863.276873	0.969089
863.589392	0.967652
863.901869	0.966453
864.214303	0.964997
864.526696	0.964644
864.839045	0.964130
865.151353	0.962244
865.463619	0.962721
865.775842	0.963166
866.088023	0.963099
866.400162	0.963100
866.712258	0.962670
867.024313	0.962492
867.336325	0.963212
867.648296	0.963200
867.960224	0.963200
868.272110	0.962295
868.583954	0.964130
868.895755	0.964440
869.207515	0.961612
869.519233	0.959310
869.830909	0.961051
870.142542	0.963148
870.454134	0.962240
870.765684	0.960521
871.077191	0.958466
871.388657	0.959251
871.700081	0.958256
872.011463	0.959485
872.322803	0.958164
872.634101	0.957746
872.945357	0.954732
873.256571	0.953658
873.567744	0.953024
873.878874	0.954624
874.189963	0.952449
874.501010	0.951138
874.812015	0.949633
875.122979	0.952992
875.433900	0.952995
875.744780	0.953854
876.055618	0.950784
876.366415	0.950869
876.677169	0.949947
876.987882	0.952588
877.298554	0.951445
877.609183	0.948101
877.919771	0.945937
878.230317	0.943080
878.540822	0.941140
878.851285	0.934853
879.161707	0.928048
879.472087	0.915204
879.782425	0.898982
880.092722	0.864666
880.402977	0.813250
880.713191	0.753907
881.023363	0.694421
881.333494	0.660969
881.643583	0.633251
881.953631	0.633001
882.263637	0.661169
882.573602	0.701100
882.883526	0.726488
883.193408	0.749611
883.503248	0.771993
883.813048	0.800187
884.122806	0.829208
884.432522	0.852215
884.742197	0.870739
885.051831	0.882274
885.361424	0.892060
885.670975	0.903382
885.980485	0.913882
886.289954	0.919907
886.599382	0.925534
886.908768	0.929438
887.218113	0.935519
887.527417	0.938699
887.836680	0.942660
888.145901	0.944077
888.455082	0.947179
888.764221	0.950257
889.073319	0.953861
889.382376	0.953538
889.691392	0.953769
890.000366	0.952964
890.309300	0.954378
890.618193	0.954447
890.927044	0.951284
891.235855	0.951745
891.544625	0.951434
891.853353	0.953393
892.162041	0.949525
892.470687	0.943911
892.779293	0.938553
893.087858	0.934069
893.396381	0.926110
893.704864	0.914304
894.013306	0.889772
894.321707	0.863865
894.630068	0.848941
894.938387	0.844566
895.246665	0.844973
895.554903	0.857625
895.863100	0.871219
896.171256	0.888353
896.479371	0.906618
896.787446	0.919366
897.095480	0.926143
897.403473	0.929814
897.711425	0.933263
898.019336	0.940864
898.327207	0.943555
898.635038	0.946088
898.942827	0.945439
899.250576	0.948579
899.558284	0.953118
899.865952	0.954438
900.173579	0.956567
900.481165	0.955944
900.788711	0.960338
901.096216	0.962388
901.403681	0.961683
901.711105	0.964439
902.018489	0.964032
902.325832	0.962226
902.633135	0.961887
902.940397	0.956222
903.247619	0.944265
903.554800	0.918590
903.861941	0.878503
904.169041	0.844805
904.476101	0.826974
904.783121	0.828100
905.090100	0.843750
905.397039	0.864586
905.703938	0.887723
906.010796	0.906994
906.317614	0.923892
906.624391	0.935828
906.931129	0.944023
907.237826	0.951411
907.544483	0.959957
907.851099	0.962098
908.157675	0.968437
908.464211	0.970757
908.770707	0.972582
909.077163	0.974905
909.383578	0.974439
909.689954	0.974959
909.996289	0.976268
910.302584	0.978489
910.608839	0.979819
910.915054	0.978874
911.221229	0.977990
911.527363	0.976805
911.833458	0.977506
912.139513	0.977739
912.445527	0.975529
912.751502	0.973657
913.057436	0.972602
913.363331	0.970618
913.669186	0.965410
913.975000	0.961739
914.280775	0.955782
914.586510	0.948098
914.892205	0.935906
915.197859	0.914365
915.503475	0.887611
915.809050	0.868285
916.114585	0.862897
916.420081	0.860285
916.725536	0.856904
917.030952	0.864552
917.336328	0.877420
917.641665	0.893349
917.946961	0.907971
918.252218	0.919983
918.557435	0.928374
918.862612	0.937491
919.167750	0.941556
919.472848	0.947400
919.777906	0.953233
920.082925	0.958296
920.387904	0.962394
920.692843	0.962986
920.997743	0.964420
921.302603	0.968151
921.607423	0.968739
921.912204	0.971807
922.216946	0.972091
922.521647	0.973405
922.826310	0.975693
923.130932	0.976611
923.435516	0.978704
923.740059	0.979858
924.044564	0.978678
924.349028	0.981271
924.653454	0.983455
924.957840	0.985269
925.262186	0.984617
925.566493	0.984661
925.870761	0.984344
926.174989	0.986286
926.479178	0.989364
926.783328	0.989220
927.087438	0.988059
927.391509	0.987586
927.695541	0.990734
927.999533	0.989445
928.303486	0.990043
928.607400	0.991085
928.911275	0.990480
929.215110	0.990178
929.518906	0.991029
929.822663	0.989387
930.126381	0.990357
930.430060	0.990972
930.733699	0.989915
931.037299	0.990300
931.340861	0.990770
931.644383	0.989432
931.947866	0.990001
932.251309	0.989738
932.554714	0.990508
932.858080	0.991054
933.161407	0.990130
933.464694	0.990628
933.767943	0.990333
934.071153	0.991198
934.374323	0.991801
934.677455	0.991999
934.980548	0.992406
935.283602	0.990811
935.586617	0.991655
935.889593	0.990344
936.192530	0.990781
936.495428	0.991335
936.798287	0.990994
937.101108	0.990278
937.403890	0.988924
937.706632	0.988806
938.009336	0.987905
938.312002	0.986055
938.614628	0.984783
938.917216	0.984189
939.219765	0.981209
939.522275	0.984097
939.824747	0.983813
940.127179	0.983782
940.429573	0.985050
940.731929	0.984632
941.034246	0.983955
941.336524	0.984724
941.638763	0.986176
941.940964	0.988028
942.243126	0.987775
942.545250	0.987649
942.847335	0.988610
943.149381	0.988912
943.451389	0.988152
943.753359	0.988798
944.055290	0.990651
944.357182	0.989014
944.659036	0.989928
944.960851	0.989165
945.262628	0.989532
945.564367	0.991105
945.866067	0.990085
946.167729	0.990632
946.469352	0.990247
946.770937	0.988381
947.072484	0.991607
947.373992	0.990461
947.675462	0.990813
947.976893	0.990793
948.278286	0.989624
948.579641	0.991104
948.880958	0.989874
949.182236	0.991287
949.483476	0.991351
949.784678	0.989554
950.085841	0.990793
950.386967	0.991918
950.688054	0.990376
950.989103	0.991080
951.290114	0.990498
951.591087	0.990203
951.892021	0.989518
952.192917	0.989218
952.493776	0.987397
952.794596	0.988867
953.095378	0.986918
953.396122	0.987581
953.696828	0.986306
953.997496	0.989927
954.298126	0.989739
954.598718	0.989933
954.899272	0.992674
955.199788	0.991069
955.500266	0.991583
955.800706	0.992994
956.101108	0.993400
956.401472	0.993273
956.701798	0.994166
957.002087	0.993176
957.302337	0.993703
957.602550	0.994084
957.902724	0.994379
958.202861	0.995189
958.502960	0.997030
958.803022	0.992943
959.103045	0.997022
959.403031	0.995942
959.702979	0.995140
960.002889	0.995567
960.302762	0.994832
960.602596	0.996120
960.902393	0.994662
961.202153	0.997405
961.501875	0.997457
961.801559	0.995382
962.101205	0.995833
962.400814	0.996534
962.700385	0.996985
962.999918	0.996470
963.299414	0.995447
963.598873	0.996550
963.898293	0.995410
964.197677	0.995403
964.497022	0.996824
964.796331	0.997205
965.095601	0.996388
965.394835	0.996875
965.694030	0.997006
965.993189	0.997167
966.292309	0.996820
966.591393	0.998688
966.890439	0.997663
967.189447	0.997197
967.488419	0.996973
967.787353	0.996887
968.086249	0.997814
968.385108	0.996991
968.683930	0.996846
968.982714	0.997056
969.281462	0.996420
969.580172	0.997160
969.878844	0.997580
970.177480	0.997178
970.476078	0.998003
970.774639	0.996633
971.073162	0.997538
971.371649	0.996288
971.670098	0.996402
971.968510	0.997224
972.266885	0.996784
972.565223	0.996413
972.863524	0.996643
973.161788	0.996418
973.460014	0.996141
973.758204	0.995765
974.056356	0.996307
974.354471	0.995051
974.652550	0.996197
974.950591	0.995549
975.248595	0.996681
975.546563	0.997508
975.844493	0.999118
976.142386	0.996329
976.440243	0.997830
976.738062	0.996828
977.035845	0.997119
977.333590	0.996290
977.631299	0.998057
977.928971	0.996223
978.226606	0.996148
978.524204	0.995958
978.821765	0.997042
979.119290	0.997479
979.416777	0.995686
979.714228	0.996351
980.011642	0.996652
980.309020	0.996945
980.606360	0.997184
980.903664	0.998341
981.200931	0.996104
981.498162	0.995735
981.795356	0.995145
982.092513	0.994054
982.389633	0.994756
982.686717	0.991741
982.983764	0.990906
983.280775	0.990263
983.577749	0.990980
983.874686	0.992271
984.171587	0.993083
984.468451	0.994242
984.765279	0.994397
985.062070	0.994331
985.358824	0.995524
985.655543	0.996090
985.952224	0.996717
986.248869	0.996831
986.545478	0.997952
986.842050	0.998070
987.138586	0.996195
987.435086	0.996406
987.731549	0.999100
988.027975	0.997315
988.324366	0.996815
988.620719	0.997025
988.917037	0.996570
989.213318	0.998480
989.509563	0.998037
989.805772	0.997835
990.101944	0.999179
990.398080	0.998390
990.694180	0.997419
990.990244	0.996282
991.286271	0.998071
991.582262	0.997976
991.878217	0.998611
992.174136	1.000061
992.470019	0.999742
992.765865	0.998129
993.061676	0.998424
993.357450	0.996862
993.653188	0.997775
993.948890	0.997126
994.244556	0.997641
994.540186	0.996466
994.835780	0.996946
995.131337	0.996635
995.426859	0.996926
995.722345	0.998253
996.017795	0.996550
996.313208	0.996038
996.608586	0.996957
996.903928	0.997315
997.199234	0.996226
997.494504	0.997241
997.789738	0.997319
998.084936	0.996407
998.380099	0.997551
998.675225	0.998507
998.970316	0.997557
999.265371	0.998176
999.560390	0.997952
999.855373	0.998057
1000.150320	0.998441
1000.445232	0.997765
1000.740108	0.998082
1001.034948	0.998399
1001.329752	0.999125
1001.624521	0.998833
1001.919254	0.998243
1002.213951	0.998356
1002.508613	0.998847
1002.803239	0.999713
1003.097829	0.998578
1003.392384	0.999119
1003.686903	0.998292
1003.981386	0.998484
1004.275834	0.999830
1004.570246	0.997790
1004.864623	0.998316
1005.158964	0.999995
1005.453270	0.998568
1005.747540	0.997938
1006.041775	0.998967
1006.335974	0.998931
1006.630138	0.999184
1006.924266	0.999008
1007.218359	1.000148
1007.512416	0.999055
1007.806438	0.999210
1008.100425	0.999548
1008.394376	0.999654
1008.688292	0.999048
1008.982172	1.000380
1009.276017	0.999534
1009.569827	0.999602
1009.863602	0.998635
1010.157341	1.000251
1010.451045	0.999007
1010.744714	0.998880
1011.038347	0.999006
1011.331945	0.998974
1011.625508	0.997633
1011.919036	0.999386
1012.212528	0.998911
1012.505986	0.998325
1012.799408	0.999572
1013.092795	0.999072
1013.386147	0.997900
1013.679464	0.998668
1013.972745	0.997980
1014.265992	0.997301
1014.559204	0.998851
1014.852380	0.999443
1015.145521	0.999008
1015.438628	0.999210
1015.731699	0.999418
1016.024736	0.999561
1016.317737	0.998735
1016.610703	0.999212
1016.903635	0.998707
1017.196531	0.998492
1017.489393	1.000362
1017.782219	0.999106
1018.075011	0.998174
1018.367768	0.998778
1018.660490	0.999653
1018.953177	0.999653
1019.245829	0.999653
